#   1 NUMBER                 Running object number                                     
#   2 MAG_AUTO               Kron-like elliptical aperture magnitude                    [mag]
#   3 X_IMAGE                Object position along x                                    [pixel]
#   4 Y_IMAGE                Object position along y                                    [pixel]
#   5 X_WORLD                Barycenter position along world x axis                     [deg]
#   6 Y_WORLD                Barycenter position along world y axis                     [deg]
#   7 A_WORLD                Profile RMS along major axis (world units)                 [deg]
#   8 B_WORLD                Profile RMS along minor axis (world units)                 [deg]
#   9 THETA_WORLD            Position angle (CCW/world-x)                               [deg]
#  10 FWHM_WORLD             FWHM assuming a gaussian core                              [deg]
#  11 ELONGATION             A_IMAGE/B_IMAGE                                           
#  12 ELLIPTICITY            1 - B_IMAGE/A_IMAGE                                       
         1 -14.1050    162.9782     52.6552   7.7593465496e+01   3.7833374945e+01     1.931741     1.353692  14.79  0.006339872    2.146    0.534
         2 -13.7852    176.0262     36.0225   7.0746652109e+01   3.6906995570e+01    0.8608704    0.7769713  87.03  0.002821914    1.037    0.036
         3 -12.5103    189.9997     14.8365   6.3375410282e+01   3.5990028895e+01    0.3743359    0.2840423 -65.78  0.001530616    1.298    0.229
         4 -13.6535    194.5476      4.5932   6.0402535024e+01   3.5961027722e+01    0.9100985    0.5261133  72.98  0.004013635    1.451    0.311
         5 -11.1869     98.8725    213.9589   1.2943948386e+02   1.7030055093e+01    0.3222638    0.2051484 -75.38    0.0011896    1.675    0.403
         6 -18.9498     59.9376    245.5489   1.4051483666e+02   1.6413285688e+01     6.421741     5.562983  63.72   0.03959889    1.273    0.214
         7 -11.3359    208.6171    197.2251   1.0333234180e+02   8.8393449384e-02    0.2500121    0.2223057  74.98 0.0005810578    1.450    0.311
         8  -9.5292    180.1617    192.3916   1.0821840525e+02   6.4459977123e+00    0.2066669    0.1309292  52.66 0.0007077192    1.678    0.404
         9 -11.0443    168.0964    189.5382   1.1025622388e+02   9.4099890913e+00    0.3497784    0.2846965 -38.42  0.001206289    1.308    0.235
        10 -10.8422    163.1475    210.7131   1.1519911359e+02   6.1395699564e+00    0.3291109    0.2071791 -55.37  0.001297079    1.817    0.450
        11  -6.8994      7.4411    212.4568   1.4742476447e+02   2.9345822085e+01    0.1132887   0.08391109  86.72 0.0002917063    1.063    0.060
        12 -13.5088     11.9391    205.2874   1.4609312755e+02   3.0420638277e+01    0.3954369    0.3757745 -67.34  0.003095185    1.520    0.342
        13 -11.3596    205.7594    180.5699   1.0055879657e+02   3.7007260025e+00    0.4996489    0.2692396  39.81  0.002168686    1.867    0.464
        14 -11.3596    208.5261    178.5124   9.9582182964e+01   3.5497108353e+00    0.4023332     0.351454   3.02  0.002231485    1.180    0.153
        15 -11.6076    136.7334    179.5280   1.1539275832e+02   1.7806575980e+01    0.2574381    0.2149781  22.21 0.0007358112    1.413    0.292
        16 -12.9840    193.8508    193.5864   1.0559574424e+02   3.5475256415e+00     1.226218     0.612777 -56.08  0.003063069    2.819    0.645
        17 -10.5912    163.5343    204.1593   1.1396227022e+02   7.3503849565e+00    0.2479759    0.2365839 -56.08 0.0005179446    1.128    0.114
        18 -11.9012    196.0382    171.2604   1.0058571116e+02   7.4514737529e+00    0.7274943    0.3959301 -49.68  0.002356903    1.964    0.491
        19 -10.5357    193.8157    164.9753   9.9697671280e+01   9.1699423777e+00    0.3115346     0.270631 -51.51 0.0008338465    1.185    0.156
        20  -9.2786    179.0131    206.0129   1.1102776196e+02   4.0362126934e+00    0.1649707    0.1532855  31.79  0.000957028    1.003    0.003
        21 -10.6023    158.3911    204.5721   1.1513872730e+02   8.2529851082e+00    0.3295434    0.2171471  67.74  0.001477408    2.034    0.508
        22 -11.4779    120.9283    164.4487   1.1624141667e+02   2.4346113035e+01    0.5042259     0.250067  54.20  0.001903717    2.305    0.566
        23  -9.8968     27.6108    165.4689   1.3914430064e+02   3.7794124826e+01    0.3358048    0.1267438  28.83  0.001485978    3.263    0.694
        24  -9.9052    223.5731    163.7668   9.3565185168e+01   3.3791485883e+00    0.2050412     0.129153 -49.99 0.0009435021    1.687    0.407
        25  -9.2455      2.4284    164.2345   1.4465039879e+02   4.0299079103e+01    0.1075117   0.07694613 -45.35 0.0004617932    1.727    0.421
        26 -10.0095     14.2586    160.1959   1.4162344097e+02   4.0251965985e+01    0.1957245    0.1489299 -63.12  0.000525616    1.252    0.201
        27 -10.5245    237.5045    159.5119   9.0128978813e+01   1.4903187453e+00     0.139927    0.1275063 -26.71 0.0008105515    1.007    0.007
        28 -12.9782    134.0442    145.6418   1.0902653589e+02   2.6129746671e+01     1.387241    0.3433428 -54.53  0.003159074    5.823    0.828
        29 -10.7442    174.6598    148.7099   1.0017729969e+02   1.6679722308e+01    0.3664394    0.2358541 -65.83  0.001363528    2.070    0.517
        30 -12.1626    145.5050    146.3851   1.0638843493e+02   2.3548498994e+01    0.5097194     0.372574  70.07  0.001735451    1.658    0.397
        31 -10.3647     93.3429    143.2883   1.1902389196e+02   3.4397632557e+01     0.145058    0.1162576 -19.00 0.0007022513    1.648    0.393
        32 -10.8565     11.0987    142.7144   1.4042269036e+02   4.4526177448e+01    0.2182483    0.1915603 -57.36 0.0004385969    1.248    0.199
        33 -11.9040    142.4027    139.0419   1.0544716778e+02   2.5883106064e+01    0.3846101    0.2767001 -67.85  0.001693929    1.619    0.383
        34 -12.0959    102.5178    138.9294   1.1566440518e+02   3.3841360364e+01    0.3038472    0.2976379  -8.06 0.0004003772    1.135    0.119
        35 -12.1332     90.5750    137.6820   1.1860582284e+02   3.6207398125e+01    0.3466553    0.2217287  58.29  0.001028444    1.847    0.459
        36 -10.4909     22.9486    205.2154   1.4399592109e+02   2.9309429083e+01    0.2035215    0.1449652  50.84  0.001138465    1.413    0.292
        37 -12.1205    139.8954    200.4216   1.1844709366e+02   1.2633920650e+01    0.3339536    0.3128065  73.88  0.001931975    1.044    0.042
        38 -12.1981    106.2424    130.7756   1.1284379379e+02   3.5091355252e+01    0.4657544    0.3965402  72.50  0.001421657    1.284    0.221
        39 -11.2675    106.7977    125.6210   1.1148871810e+02   3.6192544343e+01    0.2949141    0.2646705 -16.78 0.0005993225    1.263    0.209
        40 -12.3130    118.6613    129.6356   1.0926211057e+02   3.2971071496e+01    0.4161431    0.3876791 -54.00  0.001067134    1.048    0.046
        41 -12.2433    135.3961    122.3047   1.0313285677e+02   3.1169147912e+01    0.7327432    0.2286243 -50.18   0.00213641    3.423    0.708
        42 -10.7576      3.4090    130.2647   1.4086186787e+02   4.7913256971e+01    0.1862978    0.1216905  75.25  0.001136556    1.656    0.396
        43 -11.0894    160.3285    127.1269   9.8288154115e+01   2.4563878447e+01    0.3927997    0.2877392 -66.42  0.001111025    1.595    0.373
        44 -11.1776    142.1500    127.2247   1.0266687554e+02   2.8604076462e+01    0.3478174     0.271181  81.32 0.0007562125    1.587    0.370
        45 -11.6142    125.4215    127.3017   1.0693056369e+02   3.2141422442e+01    0.4850525    0.2912227  76.35   0.00159562    3.401    0.706
        46 -11.2896    112.6048    118.5996   1.0819635709e+02   3.6696869050e+01    0.3910505    0.2744217 -69.82  0.001140501    1.738    0.425
        47 -11.4384      6.0939    250.7306   1.4991811506e+02   2.1906762892e+01    0.1694151   0.07243296  44.52  0.001032955    2.064    0.515
        48 -11.0823    135.0000    106.0126   9.9000680079e+01   3.4802076851e+01    0.5223694    0.1588524 -44.00  0.001565802    3.266    0.694
        49 -10.6218      3.6073    112.5671   1.3848768838e+02   5.1870827581e+01     0.228579      0.18313 -38.77  0.001082388    1.340    0.254
        50 -12.5963     85.8413    109.1766   1.1342970231e+02   4.3647547547e+01     0.608647    0.4669352   7.71  0.003070002    1.652    0.395
        51 -10.4522    205.4411    110.2479   8.4722099407e+01   1.7556141696e+01    0.3527681    0.2334984  40.19  0.001152418    1.746    0.427
        52 -19.0868     43.0698     98.1161   1.2395268525e+02   5.1875094918e+01     18.38875     1.121395 -58.15   0.02973307   15.753    0.937
        53 -11.4040    154.6075    196.6632   1.1454324593e+02   1.0596184401e+01    0.3005541    0.2485034  78.02  0.001576329    1.378    0.274
        54 -11.0002    167.8475    112.9386   9.3004822230e+01   2.5830944028e+01    0.5704587    0.3605633  77.73  0.002128324    2.487    0.598
        55 -10.9095     15.8143    213.5344   1.4598072047e+02   2.8281871421e+01    0.1407758    0.1336185  60.54  0.001090042    1.500    0.333
        56 -10.6269     86.2583     77.3686   1.0455655412e+02   5.0262693121e+01    0.1910425    0.1652528 -24.89  0.001091554    1.091    0.083
        57  -9.6544    108.4712     74.4955   9.7072091890e+01   4.6665939795e+01    0.1442591    0.1346346   2.91 0.0008095776    1.044    0.042
        58  -8.1868      2.5214    244.5358   1.5015501931e+02   2.3439189754e+01    0.1072634   0.07505079  78.31 0.0008087503    1.048    0.045
        59 -11.4211    168.8977    234.9935   1.1801704038e+02   6.4766436036e-01     0.390723    0.2078162 -54.04  0.001031089    2.334    0.572
        60 -13.0390    180.0688     29.0693   6.8296809263e+01   3.6778417581e+01    0.5389138    0.4135826  41.83  0.001448237    1.482    0.325
        61  -9.8814     13.5135     59.9457   1.2497003874e+02   6.2264680668e+01     0.162156     0.130794 -34.27 0.0004119417    1.062    0.058
        62  -9.7180    120.9717     24.9477   7.7742994446e+01   5.1248607161e+01    0.1949406    0.1548351 -86.01 0.0005226698    1.636    0.389
        63 -10.6161    198.5882    222.7403   1.1005667645e+02  -2.5195464918e+00    0.2401179    0.1661511  37.95 0.0004641991    1.314    0.239
