#   1 NUMBER                 Running object number                                     
#   2 MAG_AUTO               Kron-like elliptical aperture magnitude                    [mag]
#   3 X_IMAGE                Object position along x                                    [pixel]
#   4 Y_IMAGE                Object position along y                                    [pixel]
#   5 X_WORLD                Barycenter position along world x axis                     [deg]
#   6 Y_WORLD                Barycenter position along world y axis                     [deg]
#   7 A_WORLD                Profile RMS along major axis (world units)                 [deg]
#   8 B_WORLD                Profile RMS along minor axis (world units)                 [deg]
#   9 THETA_WORLD            Position angle (CCW/world-x)                               [deg]
#  10 FWHM_WORLD             FWHM assuming a gaussian core                              [deg]
#  11 ELONGATION             A_IMAGE/B_IMAGE                                           
#  12 ELLIPTICITY            1 - B_IMAGE/A_IMAGE                                       
         1 -13.6240     69.0355    144.2988   8.3027511620e+01   3.7541206928e+01     3.166385     1.323585  64.55  0.003261403    5.485    0.818
         2 -13.2602    208.4737     47.2900   2.4980516995e+01   2.6988974027e+01     1.437563     1.139649  42.95   0.00664702    1.392    0.282
         3 -13.3129    221.1161     37.3087   2.0592398582e+01   2.5151930535e+01     1.086672    0.8450967  35.88  0.003582875    1.580    0.367
         4 -12.0125    248.1122     15.4440   1.2414040083e+01   2.1351833493e+01    0.6203138    0.5342632 -34.84  0.003926333    1.280    0.219
         5 -11.6763    246.6856     10.4843   1.1403777081e+01   2.2252629739e+01    0.6226735    0.4038851  45.31  0.002723677    2.026    0.506
         6 -10.1637     11.6785     12.1424   7.0827686255e+01   7.1371367473e+01    0.2993304   0.03788275 -44.49  0.001098816    4.214    0.763
         7  -9.5595      2.3556      2.7833   7.1875243459e+01   7.3484570838e+01    0.1610718   0.06743146 -41.45 0.0009550262    1.704    0.413
         8  -9.3583    113.5016      2.5141   2.7426253650e+01   5.6452361206e+01    0.1342531    0.1166314  38.65 0.0008104454    1.020    0.019
         9 -10.9333    125.5274    208.9958   7.9567728972e+01   1.4710908326e+01    0.3958366     0.306356  -9.36  0.002131791    2.228    0.551
        10  -9.7027    106.4808    249.4660   8.7748371107e+01   1.0779744765e+01    0.2732098    0.1377095  57.28  0.001546891    1.704    0.413
        11 -10.3587     75.3724    247.5848   9.2961396878e+01   1.5561731708e+01    0.3895499    0.1471767 -60.35  0.002054133    3.107    0.678
        12 -15.5442     27.1500    179.1599   9.6538470707e+01   3.4584283187e+01     9.922614     3.207063  87.39    0.0328485    5.368    0.814
        13  -8.8772     82.7783    194.6105   8.6574917591e+01   2.4422095200e+01    0.1853103    0.0988986  51.14 0.0009494624    1.651    0.394
        14  -9.5197     55.6381    191.2242   9.1811191011e+01   2.8827705731e+01    0.2787032     0.149978  72.57  0.001477186    1.862    0.463
        15  -8.2042    184.6932    189.2792   6.4224136909e+01   7.2993184034e+00    0.1323148    0.1069655  69.52  0.000215093    1.555    0.357
        16 -10.0501     99.0742    180.9399   8.1316105504e+01   2.4779856726e+01    0.2555442    0.2505918  22.37 0.0006732827    1.310    0.237
        17  -9.4461    120.7768    180.0548   7.6346934464e+01   2.1262747804e+01    0.2147631    0.1713074  72.87 0.0005388009    1.250    0.200
        18 -11.2127     74.7575    166.1894   8.4795486546e+01   3.1726116807e+01     1.016592    0.5181366  54.32   0.00483234    1.966    0.491
        19 -13.1181     58.4671    127.4265   8.3106587197e+01   4.2858521666e+01     1.945896     0.843161 -79.29  0.001956564    3.411    0.707
        20 -12.4656     75.5181    155.5309   8.3114379246e+01   3.4040426162e+01     1.338264    0.6085261  65.33  0.004810815    3.587    0.721
        21 -11.4699     61.1197    167.7878   8.8123353217e+01   3.3206551130e+01    0.3854625    0.3040757 -33.29  0.002276053    1.886    0.470
        22 -11.2191     65.9726    163.5267   8.6481263493e+01   3.3530432088e+01    0.3313563    0.2466046 -48.40 0.0009336622    1.615    0.381
        23 -12.8140     63.0526    150.7621   8.5464855190e+01   3.6829109222e+01    0.5660467    0.4453071  47.81 0.0008633381    1.322    0.244
        24 -14.0348      8.6693    184.7197   1.0053398300e+02   3.5156337447e+01     1.276549    0.5553373  89.26  0.002440922    1.933    0.483
        25  -9.2179    110.6520    167.2444   7.6580416437e+01   2.5799900423e+01    0.2459849    0.1939808  87.08   0.00132674    1.316    0.240
        26 -12.7822     28.6441    247.5215   1.0056267189e+02   2.1351284099e+01    0.4553272    0.3462522  74.24   0.00121401    1.197    0.164
        27 -10.7686    240.8447    163.4940   4.8225068865e+01   6.2955378441e-01    0.2742576    0.1261762  42.14  0.001188653    2.136    0.532
        28 -13.7936     44.6371    181.2742   9.3133917101e+01   3.2255919491e+01     2.480071    0.9844097 -88.38   0.01029505    3.186    0.686
        29 -10.1750     71.8812    244.5502   9.3323893030e+01   1.6547264273e+01    0.2988789    0.1479724 -70.34   0.00121122    2.174    0.540
        30 -11.6954     83.5121    149.3486   8.0190076868e+01   3.4295061866e+01    0.5807719    0.4544238 -24.93  0.002084355    1.855    0.461
        31 -10.6160    133.8625    145.4508   6.6930909696e+01   2.6252856257e+01     1.140276    0.3140261 -56.17   0.00281704    5.586    0.821
        32  -9.1087    174.8848    149.1038   5.8180910888e+01   1.6798423115e+01    0.2354876    0.2094201  84.86 0.0008789947    1.303    0.233
        33  -9.7289     28.5480    142.5304   9.2828042101e+01   4.2515826127e+01    0.2356043    0.1777496 -61.64 0.0009183234    1.305    0.233
        34 -10.2945     98.8704    136.6657   7.3991619872e+01   3.4785427444e+01    0.5115927    0.3653397 -12.76  0.002261982    2.419    0.587
        35 -11.4992     85.7140    135.5869   7.7240232627e+01   3.7171806233e+01    0.2828293    0.2462513 -59.87 0.0002793531    1.131    0.116
        36 -10.0968     49.0029    133.6037   8.6574743949e+01   4.2508515625e+01    0.2378433     0.164042 -70.06 0.0003644795    1.238    0.192
        37 -16.4325     10.3371    237.2110   1.0291933377e+02   2.5048294390e+01     4.308135     2.222023  31.03   0.01457697    2.762    0.638
        38  -9.9702    107.4651    129.2864   7.0216098598e+01   3.4992352194e+01    0.5677736    0.3819637  12.47  0.002361447    2.489    0.598
        39 -10.1490     69.4028    170.9802   8.6641005418e+01   3.1399404203e+01    0.3252184     0.247508  28.82  0.001906877    1.660    0.398
        40 -10.0267     96.1873    123.8829   7.2100664767e+01   3.8225373359e+01      0.28403    0.2361101  10.29 0.0005763768    1.546    0.353
        41 -10.7490    135.2577    115.8128   5.9748703677e+01   3.2530508213e+01     0.639699    0.2490413 -49.57  0.001893808    2.663    0.624
        42 -10.6409     34.7613    111.0743   8.7081376150e+01   4.9198817390e+01    0.3613803    0.2110934  57.42  0.001664694    2.052    0.513
        43  -9.5746    205.3131    110.2172   4.2428039230e+01   1.7301643808e+01    0.3223748    0.2443022  41.64 0.0008416618    1.351    0.260
        44 -15.0156      7.4925    208.8469   1.0207023926e+02   3.0498361720e+01      1.38499     1.012573 -55.31   0.01032012    2.008    0.502
        45  -9.0115    106.0955    117.3766   6.7927487376e+01   3.7995891368e+01    0.1979492     0.179609  51.21 0.0004367744    1.132    0.116
        46  -8.4690     66.4982    104.9822   7.6589677680e+01   4.7122616705e+01    0.1867901    0.1140006 -85.60 0.0008069787    2.341    0.573
        47 -11.1379     52.2131    102.8778   8.0480027974e+01   4.9345908968e+01    0.5305057    0.2051175 -57.57  0.002272542    2.122    0.529
        48  -8.3171    155.4633    101.4644   5.0889256899e+01   3.1010183668e+01    0.1579487    0.1543325  89.04 8.387349e-05    1.045    0.043
        49  -9.7806     46.9275     91.8632   7.9884846290e+01   5.2452673679e+01    0.2133455    0.1797196  38.47  0.001097662    1.382    0.276
        50 -11.2198    230.7133    169.3391   5.1284422600e+01   1.6395992735e+00    0.5605092    0.3145249 -46.17  0.002562209    2.165    0.538
        51  -8.4839    161.5189     85.4711   4.4915436950e+01   3.2712816674e+01    0.1575374    0.1546723  30.78 9.928138e-05    1.020    0.020
        52  -8.6443     87.2511     82.4454   6.4508379050e+01   4.9151646444e+01    0.1780568    0.1371909  51.91 0.0006256388    1.490    0.329
        53 -12.4799    198.4927     53.9964   2.8399068853e+01   2.8586160524e+01      1.03936    0.7013918  35.32  0.002491138    1.801    0.445
        54  -9.1626    118.9696    238.0428   8.4349221516e+01   1.0700406863e+01     0.181651      0.14153  60.08   0.00040968    1.072    0.067
        55 -10.8307    134.6889    206.1908   7.7310040403e+01   1.3635160054e+01    0.4083333    0.2035829  35.73  0.001850436    2.053    0.513
        56 -10.9920     13.3540     60.0071   8.4665218746e+01   6.2156499343e+01    0.2576678    0.1896543 -61.79 0.0004552387    1.139    0.122
        57  -9.6646     22.7725     35.4028   7.4116339539e+01   6.6462690169e+01    0.1482643   0.09927872  -7.02 0.0003738624    1.593    0.372
        58 -10.3779    193.0916    195.1215   6.3602947946e+01   4.7100544145e+00    0.7713861    0.4081281 -64.00  0.002391075    5.859    0.829
        59  -8.6419     60.4993     21.0219   5.2158637488e+01   6.4640078285e+01    0.1806857    0.1100053 -30.55 0.0003725107    1.494    0.331
        60  -9.4195     61.7099    235.1279   9.4365740016e+01   1.9535119681e+01    0.2929653    0.1399663  67.24  0.001646747    1.946    0.486
        61  -9.6278     77.0434    234.7184   9.1638767287e+01   1.7545880419e+01    0.1944855    0.1540278  84.35 0.0004914476    1.203    0.169
        62  -9.0343    189.4902     14.9968   1.8533214787e+01   3.6027481786e+01    0.2008701    0.1392079 -30.30 0.0005182798    1.552    0.356
        63  -8.2175    196.5764     14.5045   1.7491892593e+01   3.4230866437e+01    0.1397626    0.1260546  88.52 0.0001307821    1.012    0.012
        64 -10.5775     77.6132    231.1762   9.1234549475e+01   1.8097776404e+01     0.402255     0.158293 -55.39  0.001954491    3.255    0.693
        65  -9.6553     84.6745    201.2986   8.6942803349e+01   2.2777392374e+01    0.2341487    0.1656658  65.12 0.0005378325    1.220    0.180
