#   1 NUMBER                 Running object number                                     
#   2 MAG_AUTO               Kron-like elliptical aperture magnitude                    [mag]
#   3 X_IMAGE                Object position along x                                    [pixel]
#   4 Y_IMAGE                Object position along y                                    [pixel]
#   5 X_WORLD                Barycenter position along world x axis                     [deg]
#   6 Y_WORLD                Barycenter position along world y axis                     [deg]
#   7 A_WORLD                Profile RMS along major axis (world units)                 [deg]
#   8 B_WORLD                Profile RMS along minor axis (world units)                 [deg]
#   9 THETA_WORLD            Position angle (CCW/world-x)                               [deg]
#  10 FWHM_WORLD             FWHM assuming a gaussian core                              [deg]
#  11 ELONGATION             A_IMAGE/B_IMAGE                                           
#  12 ELLIPTICITY            1 - B_IMAGE/A_IMAGE                                       
         1 -14.2683    175.8627     73.1227   8.0737235377e+01   3.1168341159e+01     2.667333     1.661585  25.28  0.008525966    2.641    0.621
         2 -16.8386    211.9743    131.1897   8.8345808501e+01   1.1671751730e+01     5.997638     4.131814  64.84    0.0273418    1.727    0.421
         3 -15.7888    207.5239     25.0059   6.3549710106e+01   3.0253543838e+01     8.695312          nan  59.01   0.01642665   11.733    0.915
         4 -16.2855    136.8044     24.8663   7.4481322687e+01   4.7517664241e+01     4.171678     3.761833 -27.41   0.02599299    1.264    0.209
         5 -17.6298    246.2660     65.3986   6.7930499428e+01   1.5655706134e+01     8.723712      2.49913 -40.49   0.03197391    3.023    0.669
         6 -11.8357    200.4115     13.5426   6.1699814277e+01   3.3273746077e+01    0.3601776    0.2064402 -45.32  0.001721151    1.783    0.439
         7 -12.5468    159.4174     13.1075   6.7004028468e+01   4.3290468939e+01    0.3445823    0.2980351 -37.13  0.001282918    1.343    0.255
         8 -11.8064    159.4335      5.4184   6.4872346792e+01   4.4001146735e+01    0.4365642    0.2154901 -17.36  0.001747038    2.736    0.634
         9 -10.8241    207.4018     10.0959   6.0150281589e+01   3.1977816186e+01    0.3120128    0.1513657 -39.30  0.001565476    2.109    0.526
        10 -11.7552     52.9085      8.6505   9.1654876474e+01   6.5771502735e+01    0.4162668    0.1872619 -33.88  0.002223921    2.419    0.587
        11 -11.6808     63.5075      5.1177   8.6389762303e+01   6.4442336608e+01    0.2586488    0.1163871  33.30  0.001343027    1.970    0.492
        12 -11.6017     56.0221      2.6154   8.7898192611e+01   6.5882328593e+01    0.2621095     0.134297  28.67  0.001495161    1.717    0.418
        13  -9.6536    100.4529    135.5482   1.1589546272e+02   3.4937756365e+01    0.1487722    0.1426575 -61.53 0.0001354031    1.025    0.025
        14 -13.8239    245.4401    246.5926   1.0534345806e+02  -1.3803264034e+01     1.646107    0.6927302  32.14  0.008221616    2.119    0.528
        15 -13.0960    242.5414    235.1321   1.0387815933e+02  -1.1870365637e+01    0.8200933    0.4955966  -4.13  0.002952732    1.908    0.476
        16 -15.2285     13.0403    197.6232   1.4585951365e+02   3.1902750934e+01     2.004938     1.213085  82.89   0.01153465    1.367    0.269
        17 -15.1374     31.3951    190.5680   1.4154180969e+02   3.1575921989e+01     1.060477    0.9256104 -82.31   0.00352642    1.200    0.167
        18 -11.9705    192.4765    194.2919   1.0606871508e+02   3.4145808960e+00     1.016222    0.5148097 -64.65  0.002746163    6.259    0.840
        19 -11.0578    112.0370    104.2912   1.0498225456e+02   3.9898799656e+01    0.2968234    0.2270698 -54.36 0.0007750439    1.357    0.263
        20 -13.6108     47.9886    174.6534   1.3611758370e+02   3.3323113405e+01     1.549417    0.9684765  76.74  0.008145324    1.688    0.408
        21 -10.5693    139.5068    104.1052   9.7527429730e+01   3.4060697975e+01    0.2466283     0.220722   8.23 0.0006664039    1.248    0.199
        22 -12.4724    120.5131    103.4931   1.0239936272e+02   3.8338940953e+01    0.5634124    0.4285007  79.81  0.002546705    1.810    0.447
        23 -11.9707    123.5213    101.4720   1.0102322705e+02   3.8132678308e+01     0.481316    0.2590689 -37.57  0.001787143    1.973    0.493
        24 -10.6581    148.4589    102.5119   9.4856594861e+01   3.2329338828e+01    0.2723062    0.2459107 -62.98 0.0005183673    1.160    0.138
        25 -11.7240    144.4762     99.9708   9.5146971224e+01   3.3773636423e+01    0.3909889    0.3612786  -6.40 0.0008151633    1.177    0.151
        26 -12.8339    153.0757     93.6081   9.1306784602e+01   3.3019226621e+01    0.7416151    0.5688347  17.23  0.003367486    1.683    0.406
        27 -11.2851    131.6749     96.6278   9.7495931268e+01   3.7361859965e+01    0.3275442    0.3038985 -73.51 0.0009145342    1.168    0.144
        28 -10.2278    113.3361     95.1389   1.0209085669e+02   4.1575131596e+01    0.2575066    0.2007303  27.67 0.0005992418    1.369    0.270
        29 -11.9110    137.3022     89.5986   9.4052226759e+01   3.7492738324e+01    0.3725565     0.323503  65.05 0.0007204266    1.219    0.180
        30 -12.7304    149.5155     83.6383   8.9353925805e+01   3.5765173507e+01    0.3727295    0.3241418 -53.32 0.0008967488    1.207    0.172
        31 -14.0492     68.5008    159.9760   1.2904225348e+02   3.4139373409e+01    0.8899801    0.6051687  66.45  0.001712785    1.622    0.384
        32 -11.1332    133.5535    144.5001   1.0915078960e+02   2.6367659042e+01     1.164361     0.270882 -55.07  0.002172436    8.656    0.884
        33 -11.3950    152.0646    144.9638   1.0466064443e+02   2.2283647876e+01    0.3523926    0.2660508 -10.64  0.001515334    1.862    0.463
        34 -12.3813    152.7100    119.7316   9.8352443208e+01   2.7716903414e+01    0.5180663    0.3582155 -27.45  0.001924144    1.747    0.427
        35 -10.8206    217.4331     72.7161   7.3483857913e+01   2.1053393005e+01     0.333582    0.2146055 -61.64 0.0009372224    1.649    0.394
        36 -10.2794    217.2399     63.8103   7.1400470014e+01   2.2524502139e+01    0.2531711     0.168697  71.16 0.0008042157    1.481    0.325
        37 -13.4382    211.7173     65.1021   7.2519151141e+01   2.3642489203e+01    0.6298574    0.3883019  78.98  0.001630802    1.802    0.445
        38 -12.4120    205.4846     60.4252   7.2321354813e+01   2.5882297631e+01    0.5250313    0.2969192 -61.26  0.001616672    2.064    0.515
        39 -11.0018    123.6183     72.5340   9.2581429181e+01   4.3746909394e+01    0.2969158    0.2444317 -69.18 0.0008792595    1.528    0.346
        40 -12.4072    192.7689     62.1461   7.4778489916e+01   2.8744265033e+01    0.7641026    0.6941387  46.04  0.004301664    1.216    0.178
        41 -10.4186     88.0026     68.5429   1.0174305057e+02   5.1562570329e+01    0.2119549    0.1321732  37.36 0.0008944067    1.601    0.376
        42 -10.9463    143.8683    145.1469   1.0671077410e+02   2.4027323842e+01    0.5913184    0.3389134 -71.29  0.001968382    3.079    0.675
        43 -12.2251    134.6907    108.4053   9.9928013682e+01   3.4232293101e+01     1.307645     0.272636 -44.91  0.003222802    4.828    0.793
        44 -12.0394     65.7137     63.9100   1.0769462803e+02   5.5970917394e+01    0.3262505    0.1881691  25.75  0.001630599    1.853    0.460
        45 -11.8834    120.3959    111.9165   1.0467982505e+02   3.6534879772e+01    0.5656606     0.351808  72.00   0.00204679    2.829    0.647
        46  -9.6856    220.4065     58.0504   6.9606629321e+01   2.2660811463e+01    0.1715009    0.1284502 -45.44 0.0001040335    1.311    0.237
        47 -10.7043    174.6988     55.6486   7.6204801891e+01   3.4245693741e+01    0.4560531    0.2105552 -48.29  0.001779284    2.428    0.588
        48 -12.8951    205.1866     51.4460   7.0166914704e+01   2.7301099253e+01    0.4480131    0.2825251  44.88  0.002130371    1.871    0.465
        49 -10.4020    218.4467     51.6817   6.8388464834e+01   2.4072868654e+01    0.1386307    0.1135743 -87.34 0.0001966134    1.109    0.098
        50  -9.3926    111.4722    113.4151   1.0754271672e+02   3.8001119146e+01    0.1492388    0.1471678 -19.38 8.277907e-05    1.020    0.019
        51 -13.0926    187.2061     45.6536   7.1422379427e+01   3.2563320731e+01    0.4856173    0.2268602 -47.08  0.002023048    2.265    0.558
        52  -9.2005    211.6138     47.5511   6.8332053474e+01   2.6303336895e+01    0.1374696    0.1205351 -81.23 0.0003728511    1.022    0.021
        53 -10.1559    190.1675     40.9767   6.9763804269e+01   3.2465814369e+01    0.1942621    0.1658702 -77.86 0.0005335982    1.126    0.112
        54 -12.5391    208.8214     36.8498   6.6165812189e+01   2.8444852332e+01    0.4162292    0.2631295 -58.93  0.002130492    1.592    0.372
        55 -11.5667    201.8194     34.8686   6.6603263623e+01   3.0402646846e+01    0.2607352    0.1760608 -53.21 0.0008825368    1.482    0.325
        56  -9.9079    189.9780     36.0048   6.8526081099e+01   3.3166038715e+01    0.1516633    0.1341062 -52.76 0.0005153258    1.201    0.167
        57 -11.7319    135.7882    128.8401   1.0488150513e+02   2.9483032031e+01     1.001998    0.2584031 -51.31  0.002501972    4.668    0.786
        58  -9.6566    193.3289     18.4000   6.3696400882e+01   3.4453115902e+01    0.1266557    0.1093373  88.79 0.0001651457    1.043    0.041
        59 -11.4251    226.2151    172.6664   9.4835864224e+01   8.6984103717e-01    0.3913858    0.2225677  36.94   0.00166324    1.831    0.454
        60 -13.2949     68.8936    145.3109   1.2645544375e+02   3.7620659581e+01     2.604394     1.353295  67.46  0.007548963    3.412    0.707
        61 -11.8516    230.5750    166.7666   9.2764744320e+01   1.1043217999e+00    0.3535722    0.2813827 -47.41  0.001361049    1.322    0.244
        62 -11.2185    135.0899    120.2574   1.0291729480e+02   3.1559634406e+01    0.5200726    0.2195835 -45.04  0.001543248    2.374    0.579
        63 -13.1547     56.4708    171.4779   1.3370690192e+02   3.3011545500e+01    0.4207232    0.3019758 -63.77 0.0008743234    1.283    0.220
        64 -14.3985     63.6345    165.7900   1.3115820057e+02   3.3416918548e+01    0.8586336    0.7498091  77.44  0.002814415    1.086    0.079
        65 -14.0783    161.8871     69.0355   8.2439460406e+01   3.5320933484e+01     1.397778    0.8192238  -6.16  0.004633135    3.836    0.739
        66 -13.6403    183.8327     82.2483   8.1623819670e+01   2.7610313242e+01     3.374815     1.413714 -47.10  0.008119772    2.531    0.605
