#   1 NUMBER                 Running object number                                     
#   2 MAG_AUTO               Kron-like elliptical aperture magnitude                    [mag]
#   3 X_IMAGE                Object position along x                                    [pixel]
#   4 Y_IMAGE                Object position along y                                    [pixel]
#   5 X_WORLD                Barycenter position along world x axis                     [deg]
#   6 Y_WORLD                Barycenter position along world y axis                     [deg]
#   7 A_WORLD                Profile RMS along major axis (world units)                 [deg]
#   8 B_WORLD                Profile RMS along minor axis (world units)                 [deg]
#   9 THETA_WORLD            Position angle (CCW/world-x)                               [deg]
#  10 FWHM_WORLD             FWHM assuming a gaussian core                              [deg]
#  11 ELONGATION             A_IMAGE/B_IMAGE                                           
#  12 ELLIPTICITY            1 - B_IMAGE/A_IMAGE                                       
         1 -11.3808      6.9611     18.0285   1.1387946550e+02   6.9619187633e+01    0.3716495    0.1771846 -34.64  0.001672224    1.628    0.386
         2 -11.0432     33.7267     18.0395   1.0196874988e+02   6.7080521316e+01    0.2650541     0.187764 -39.19   0.00175911    1.681    0.405
         3 -11.8536     57.8248     16.7108   9.2075558277e+01   6.4000574901e+01    0.4686075    0.2970596  45.87  0.002840186    1.763    0.433
         4 -11.7969    114.2375     15.7421   7.5579431842e+01   5.3544503213e+01    0.4966024    0.2295014  56.50  0.001583079    1.867    0.464
         5 -11.3814     86.1472     14.2735   8.2104915648e+01   5.9397759528e+01    0.2777273    0.1940905  16.55 0.0003461099    1.401    0.286
         6 -11.7134     25.6710     13.9912   1.0372853988e+02   6.8491117636e+01    0.3417005    0.2505934 -35.50  0.001837759    1.552    0.356
         7 -12.1830     19.6659      8.2926   1.0396808870e+02   6.9821769746e+01    0.3120013    0.2492093  -6.57   0.00120308    1.203    0.169
         8 -12.6744    211.8436      9.5575   5.9153710223e+01   3.1438097823e+01    0.4294208    0.3108143  -6.08 0.0002928556    2.275    0.560
         9 -12.1421    208.9593      5.1242   5.8468242002e+01   3.2570413534e+01    0.2715181    0.2010262 -82.57 0.0003650633    1.144    0.126
        10 -11.9650    219.1788     13.9563   5.9383743984e+01   2.9273402592e+01    0.3509369    0.1491182 -50.49   0.00166455    2.241    0.554
        11 -11.7865     65.8132     13.1596   8.7882955398e+01   6.3116745664e+01    0.3743836    0.2431807  20.05  0.001481636    1.407    0.289
        12 -10.3813     81.0312      1.4664   7.8605602320e+01   6.1503949999e+01    0.2441036    0.1070131  40.09 0.0009576382    1.897    0.473
        13 -11.7001     74.7471      9.6673   8.3648309611e+01   6.1932532011e+01    0.4130753    0.1997383 -31.85  0.001255196    2.274    0.560
        14 -10.6965     76.7055      4.3234   8.0947464474e+01   6.2063252437e+01    0.2030781    0.1278278  30.46 0.0004452506    1.363    0.266
        15 -11.5004     73.7585      2.3814   8.1031420542e+01   6.2758318824e+01    0.2695462    0.1838546  44.59 0.0009205905    1.290    0.225
        16 -10.8063     43.9437     16.8678   9.7339106730e+01   6.5959114606e+01    0.3205709    0.2418352  64.83  0.001807276    3.170    0.685
        17 -10.8535    149.3284     11.7834   6.7651068095e+01   4.5958977020e+01    0.2987371     0.136182  41.22  0.001245643    2.471    0.595
        18 -10.3193     33.2202     11.6779   9.9499391828e+01   6.7927280954e+01    0.2492567    0.1316986  12.85  0.001423162    2.024    0.506
        19 -10.3355      4.9947      9.3967   1.1136823135e+02   7.0972171125e+01    0.2736685   0.07875394 -41.14  0.001387171    2.795    0.642
        20 -10.4392     87.3531      8.0342   7.9414680803e+01   5.9751607715e+01    0.2982354    0.1562816   9.39  0.001400283    2.616    0.618
        21 -10.1848     46.2805      8.9631   9.3083185803e+01   6.6539239369e+01    0.1753112    0.1255832  23.24 0.0003852724    1.189    0.159
        22 -10.4349     49.5096      8.4607   9.1649164259e+01   6.6131688184e+01    0.1958633   0.09905312  42.96 0.0006719828    1.977    0.494
        23 -11.3471    248.3404      7.5628   5.5581292575e+01   2.3626008349e+01      0.21037    0.1697373 -84.81 0.0005844056    1.124    0.110
        24 -11.2394    107.4350      7.5654   7.4310290834e+01   5.5740756239e+01    0.2377606    0.1996773  54.96 0.0007264676    1.133    0.117
        25 -11.5000     24.6942      6.9947   1.0113349014e+02   6.9451762286e+01     0.213648    0.1519867 -30.68 0.0005714113    1.505    0.336
        26 -11.5431    231.4240      5.5291   5.6533551230e+01   2.7483237081e+01    0.2464308    0.2199944   3.81  0.001085122    1.778    0.437
        27 -11.1591    175.9314      7.0780   6.2579163955e+01   4.0108239054e+01    0.1920798    0.1605539  76.82 0.0003539045    1.018    0.018
        28 -10.2790     61.7109      6.6296   8.6561733322e+01   6.4436327494e+01    0.1903534    0.1385254  43.95  0.001268635    1.416    0.294
        29 -11.1381    191.6609      6.1140   6.0485665387e+01   3.6487945973e+01    0.2254627    0.1787973 -63.36 0.0009320059    1.248    0.198
        30 -11.2697    195.0366      3.5036   5.9512560075e+01   3.5956469402e+01    0.2651484    0.1333614  72.20 0.0009355046    1.663    0.399
        31 -12.0704    217.6915      3.3550   5.7275382051e+01   3.0769536098e+01    0.2671227    0.2235511  77.96  0.001827518    1.194    0.162
        32 -11.7064    180.4837      2.3112   6.0842714618e+01   3.9482689660e+01    0.2786666    0.2497337 -79.77 0.0004057948    1.143    0.125
        33 -11.2350    160.6684      2.8806   6.3490667864e+01   4.4101202192e+01    0.3101684    0.2461629 -86.44 0.0007154321    1.237    0.192
        34  -9.3648    134.3412      4.6724   6.8059207991e+01   5.0062429943e+01    0.1260637   0.09078512 -75.20  3.91336e-06    1.738    0.425
        35 -11.1156     37.2825      2.6051   9.3814980098e+01   6.8420673942e+01    0.2825062    0.1487109  20.27  0.000722888    1.792    0.442
        36 -11.2212     31.0943      3.6735   9.6863933599e+01   6.9088793143e+01     0.200596    0.1567641  -6.20 0.0006189484    1.167    0.143
        37 -11.2886     11.4527      2.9210   1.0543104547e+02   7.1259034463e+01    0.2993193    0.2115363  -5.44  0.001894265    1.042    0.040
        38 -10.1073    239.6218      2.8299   5.5346998633e+01   2.6004531095e+01    0.1594208   0.08898276 -51.98 0.0003687974    1.586    0.370
        39  -9.8015    123.7675      3.4197   6.9575611677e+01   5.2544313338e+01    0.1700982   0.09537531  52.65 0.0003061157    1.447    0.309
        40 -10.8430     90.5517      2.3800   7.6455865326e+01   5.9606790724e+01    0.2934788    0.1553279  51.42 0.0008358624    1.572    0.364
        41 -10.9669     49.2614      1.9208   8.8896194728e+01   6.6813894297e+01    0.1945665     0.127903  26.95 0.0003014398    1.245    0.197
        42  -9.5506      1.2556      2.2875   1.1018084044e+02   7.2183625254e+01     0.101576   0.05593471 -16.71 0.0006868453    1.481    0.325
        43  -9.6482    111.7234      1.7006   7.1382218888e+01   5.5307704084e+01    0.1245695   0.07695282  35.09 0.0001946664    1.536    0.349
        44  -9.9160    186.8887    231.0784   1.1289281164e+02  -2.1558001652e+00    0.1865651    0.1478743  11.51  0.001073424    1.327    0.247
        45 -11.5411    157.4780    249.0215   1.2153580161e+02  -1.1218321955e-01     0.311511    0.2223281  68.69  0.001469961    1.779    0.438
        46 -11.5448    129.8853    247.7760   1.2680640298e+02   4.7721013333e+00    0.3192658     0.289497  27.67  0.001435546    1.272    0.214
        47 -10.6099    118.3781    250.5705   1.2940142253e+02   6.1738451535e+00    0.2399206     0.101103  45.37 0.0005531655    1.958    0.489
        48  -9.8091    103.4867    250.5244   1.3226303181e+02   8.5823189579e+00    0.1279391     0.102145  60.99 0.0001698073    1.019    0.019
        49 -11.0943     96.1943    248.3127   1.3341345526e+02   1.0142859946e+01    0.4023244    0.2415572  73.28   0.00215199    1.833    0.455
        50 -11.4012     88.6102    231.4367   1.3301959092e+02   1.4644605762e+01    0.3269389    0.1903477  49.27  0.001521675    1.489    0.329
        51 -11.0688     94.8061    229.8861   1.3159162043e+02   1.3989515568e+01    0.3272376    0.1873987  53.58 0.0004398485    1.549    0.355
        52 -12.0828     92.4911    223.1067   1.3124317900e+02   1.5763598678e+01    0.6799371     0.372423 -48.75  0.002455264    2.287    0.563
        53 -10.5290    105.9761    235.4851   1.3001697845e+02   1.1063095803e+01    0.2037518    0.1752749 -83.39 7.736517e-07    1.200    0.167
        54 -11.9548    102.0110    234.1625   1.3065272122e+02   1.1970108757e+01    0.2769545    0.2158716  70.49 0.0003017689    1.163    0.140
        55 -11.8193    100.4459    243.5578   1.3206622444e+02   1.0380405808e+01     0.296586    0.2380377 -42.10  0.001234753    1.738    0.425
        56 -13.3879     95.5933    237.5678   1.3233372801e+02   1.2317835749e+01     1.095664    0.3509722  51.17  0.004201205    2.986    0.665
        57 -12.7950     51.2617    203.9344   1.3761052097e+02   2.5922152225e+01    0.7994556    0.4641945 -52.44  0.001936957    2.020    0.505
        58 -13.9055      8.8569    177.0212   1.4387967528e+02   3.6593614981e+01      2.18635    0.8823789  82.24   0.00742279    3.099    0.677
        59 -13.8726     20.0162    204.1623   1.4392429359e+02   2.9493185624e+01     1.364028     0.797104 -71.61  0.008293357    1.471    0.320
        60 -13.1083     30.4835    202.7736   1.4174282359e+02   2.8673295383e+01    0.6068349    0.3536176  55.33  0.001631698    1.583    0.368
        61 -12.5941     19.6472    217.0419   1.4499435557e+02   2.6767042821e+01     0.359029    0.2341852 -67.19   0.00130416    1.530    0.346
        62 -13.4695      2.5180    198.5493   1.4684836199e+02   3.2395515371e+01    0.4812332    0.2096748 -60.11  0.002606897    2.250    0.556
        63 -12.6136      3.2079    190.2449   1.4610811080e+02   3.4140566518e+01    0.3103257    0.2256165 -81.16 0.0004655229    1.123    0.110
        64 -14.4045      5.5404    215.6558   1.4745486644e+02   2.8486743402e+01     1.675822    0.3214003 -69.25  0.006810792    3.727    0.732
        65 -13.3624     39.5210    246.3331   1.4360605816e+02   1.8502424778e+01    0.7906342    0.3904038  55.77  0.004624102    1.643    0.391
        66 -12.3363     46.6500    244.6267   1.4222438636e+02   1.7936698040e+01    0.4051332    0.2558937  38.22  0.001621935    1.769    0.435
        67 -13.9573     30.3762    215.7700   1.4288585740e+02   2.5855291139e+01     1.169076    0.8301293 -29.01  0.006513506    2.897    0.655
        68 -13.1757     12.8098    239.0927   1.4767037804e+02   2.2999677204e+01    0.3880547     0.230086  50.85  0.001709257    1.501    0.334
        69 -12.8559     37.7455    224.6134   1.4222814077e+02   2.3115656276e+01     0.418472    0.2669574  44.72 0.0004128131    1.558    0.358
        70 -13.3917     37.9256    218.6324   1.4168704917e+02   2.4359620035e+01    0.4419722    0.3841499 -38.95  0.001548227    1.790    0.441
        71 -13.5715      6.3113    237.1037   1.4863130872e+02   2.4066876429e+01    0.5846341    0.2871264  81.83  0.002446664    1.669    0.401
        72 -14.5703     13.5169    230.2182   1.4699796947e+02   2.4693225383e+01    0.8560308     0.551373  49.77  0.004689993    1.479    0.324
        73 -14.2074      3.2564    245.9889   1.4961206291e+02   2.2659309339e+01    0.5322761    0.2946827 -85.72  0.002628833    1.437    0.304
        74 -13.7856     25.8303    249.0636   1.4612225890e+02   1.9615673721e+01    0.4579129    0.2657297  50.74  0.001868592    1.478    0.323
        75 -15.5900     12.9969    248.2686   1.4817842651e+02   2.1203431102e+01     1.146972    0.8233876  18.85  0.007499995    2.711    0.631
        76  -9.3405    162.3633    231.6643   1.1795893728e+02   2.0558494319e+00    0.1398356    0.1000074  68.95  0.000703542    1.823    0.451
        77 -11.4528    106.2870    230.5810   1.2934235050e+02   1.1990872234e+01    0.3475687    0.1902786  58.11  0.001678344    1.807    0.447
        78 -11.1044     58.5071    230.3435   1.3880464371e+02   1.9254530913e+01     0.290492    0.1607349  65.85  0.001569267    1.683    0.406
        79 -10.3656    242.5203    228.9417   1.0186669151e+02  -1.0856167456e+01     0.221807    0.1959807 -89.51  0.001384531    2.041    0.510
        80 -10.3249    238.3575    229.8305   1.0278199648e+02  -1.0363311151e+01     0.189823    0.1512587  30.98 0.0003620994    1.266    0.210
        81  -9.9561    228.7474    228.8474   1.0438197689e+02  -8.7455166340e+00     0.148903    0.1431742   9.28 0.0003895683    1.297    0.229
        82  -9.8349    212.1575    229.4286   1.0763572569e+02  -6.1704747212e+00    0.1658299    0.1137557  46.65  0.000276273    1.576    0.366
        83 -10.6691    249.0319    227.1026   1.0036800291e+02  -1.1547444560e+01    0.2945342    0.1455065 -39.69  0.000812305    2.099    0.524
        84 -10.0167    174.5633    227.2545   1.1475059134e+02   6.7425026661e-01    0.2301411    0.1556229  19.84 0.0007519478    1.734    0.423
        85 -10.1837    111.4143    227.5022   1.2788988802e+02   1.1760979854e+01    0.2011329    0.1515535  58.36 0.0001223029    1.174    0.148
        86 -11.4087    111.5901    223.8384   1.2736339505e+02   1.2479600658e+01    0.3364973    0.2185577  51.28 0.0002744751    1.368    0.269
        87 -11.0595    105.8792    223.4384   1.2850393502e+02   1.3519065669e+01    0.3493017      0.21181  59.03  0.001433312    1.601    0.375
        88 -10.3715    164.5976    225.2458   1.1647135047e+02   2.8237747894e+00    0.2370092     0.180811 -27.46  0.001012191    1.586    0.369
        89  -9.6270    162.4831    222.4165   1.1644774134e+02   3.7313258263e+00     0.176147    0.1348936 -66.37 0.0008097722    1.603    0.376
        90 -10.1512     86.0039    226.2541   1.3294745797e+02   1.6118339452e+01     0.180684    0.1420729  59.25  0.000402816    1.100    0.091
        91 -10.0884    228.0000    224.9912   1.0383200933e+02  -8.0445356686e+00    0.1877159    0.1242378 -18.63  0.001029375    1.583    0.368
        92 -10.3001    225.1729    225.3579   1.0442953202e+02  -7.6506910956e+00    0.2438763    0.1445376  38.37  0.000203716    1.609    0.378
        93 -10.5312    122.5752    224.5959   1.2516564505e+02   1.0444081727e+01    0.2834438    0.1769991  56.88  0.000824787    1.554    0.357
        94 -11.0272     77.9284    221.7601   1.3407332944e+02   1.8292236485e+01    0.3936544      0.21212  75.50 0.0002621004    2.272    0.560
        95 -10.8699     77.2372    217.5590   1.3373258220e+02   1.9296980942e+01    0.2806548    0.2425689 -78.13  0.001244674    1.200    0.167
        96  -9.9813    216.7741    223.0723   1.0561884902e+02  -5.9259752511e+00    0.1753523    0.1528261  -3.72 0.0003612542    1.075    0.069
        97 -10.6134    131.2434    221.0474   1.2281974351e+02   9.6381708990e+00     0.242941    0.1991412 -63.93 0.0007516661    1.323    0.244
        98 -10.6887    133.9856    218.9888   1.2192506403e+02   9.5645407537e+00    0.2432812    0.2348226  13.03 0.0008477246    1.207    0.171
        99 -10.5141    125.8334    221.1042   1.2397583743e+02   1.0582842976e+01    0.3812794     0.224104  80.49  0.001541183    2.900    0.655
       100 -11.4272    125.9066    215.8362   1.2317787591e+02   1.1652901534e+01    0.2345953    0.2236763  72.15 0.0003986832    1.096    0.088
       101 -11.1884     85.0124    221.3451   1.3257312371e+02   1.7305850282e+01    0.2467899    0.2149801 -64.98 0.0003933246    1.313    0.239
       102 -11.4176     84.4921    216.1409   1.3205288670e+02   1.8503283035e+01     0.411817    0.3123032  35.51  0.001317596    1.498    0.332
       103 -11.5703    193.2456    214.8952   1.0879538878e+02  -4.7961907541e-01    0.3245026    0.2319824 -56.21 0.0009002719    1.747    0.428
       104  -9.8378     54.4220    220.7944   1.3868297907e+02   2.1813580557e+01    0.2383651     0.108856 -76.55  0.001140818    2.158    0.537
       105  -9.6061    169.2250    220.4293   1.1471108110e+02   2.8748673537e+00    0.1351556    0.1024239 -13.62 0.0006858422    1.710    0.415
       106 -11.1141    147.9919    223.4711   1.1965314479e+02   6.1567149326e+00    0.2657599    0.2044536 -43.21  0.000899358    1.487    0.328
       107 -11.1698     62.5424    219.7022   1.3696076530e+02   2.0947661349e+01    0.2137088    0.1631015  66.83 0.0003405885    1.106    0.096
       108 -10.4622    236.7987    219.1243   1.0112980715e+02  -8.5324390335e+00    0.1773885    0.1678563  -7.22 0.0005704394    1.255    0.203
       109 -10.9526    217.6527    217.3314   1.0440713196e+02  -5.1462698915e+00    0.3436594    0.2139626 -18.95  0.001106323    1.894    0.472
       110 -11.0573    217.1560    212.8465   1.0367412704e+02  -4.3232920349e+00    0.2508617    0.2402561 -54.62 0.0004245617    1.320    0.242
       111 -11.0475    175.9187    217.4842   1.1281477811e+02   2.1976769670e+00    0.3471779      0.24237  37.92  0.001060066    1.311    0.237
       112 -11.3604    162.7951    217.2566   1.1552314929e+02   4.6501310424e+00    0.3251786    0.2175823  36.69  0.001646331    1.398    0.285
       113 -10.1158    142.0249    217.1978   1.1992854473e+02   8.4725460416e+00    0.1985366    0.1826438  23.58 0.0003008539    1.193    0.162
       114 -11.7907    146.0207    215.1148   1.1873788215e+02   8.1592955081e+00    0.2586646    0.2346193 -57.18 0.0003781574    1.203    0.169
       115 -10.4710    117.9196    211.9834   1.2432849806e+02   1.3873515338e+01    0.2444201    0.1862117  49.27 0.0006342277    1.197    0.165
       116 -10.2684    113.4720    210.4602   1.2507159868e+02   1.4975549623e+01    0.2928403    0.1675814  37.02  0.001358207    1.777    0.437
       117 -10.9029    113.4869    216.3625   1.2592388544e+02   1.3714228584e+01    0.3647384    0.2315235  27.24   0.00113012    2.027    0.507
       118 -11.9787    106.6864    216.2450   1.2736311339e+02   1.4895850017e+01    0.6077595    0.3704201  35.66  0.002180046    1.729    0.422
       119 -10.5145    100.6422    215.4586   1.2854687051e+02   1.6071091409e+01    0.3129223    0.1980859 -64.33  0.001613263    1.627    0.385
       120 -11.4779    196.2154    219.5534   1.0903131180e+02  -1.8232138762e+00    0.2872199     0.260081  17.52 0.0008186682    1.016    0.016
       121  -9.8858     72.5130    217.4967   1.3469874277e+02   2.0006879661e+01     0.270762     0.115684  40.52  0.001224917    2.219    0.549
       122 -11.6875     58.9819    216.0756   1.3730062230e+02   2.2219424794e+01    0.2013626    0.1700873  69.69  0.000314489    1.113    0.102
       123 -11.7995     59.3264    211.4960   1.3674805941e+02   2.3174751877e+01    0.4262734    0.2638829  75.64  0.001510328    1.574    0.365
       124 -10.0597    209.4738    216.1031   1.0577353579e+02  -3.5503461045e+00     0.191928    0.1278758 -34.56  0.001010417    1.548    0.354
       125 -11.0485    230.6570    212.3771   1.0101662198e+02  -6.4982652187e+00    0.3492985    0.2189159 -50.21  0.001778139    2.037    0.509
       126 -10.6502    162.0514    213.0411   1.1496324479e+02   5.6007497204e+00    0.3345067    0.1851997  44.91  0.001201723    1.669    0.401
       127 -10.7694     95.3178    212.3406   1.2926894277e+02   1.7616539414e+01    0.2529132    0.2210768 -12.00  0.000937367    1.693    0.409
       128 -11.6881     69.6929    210.6318   1.3450000874e+02   2.1917359517e+01    0.5467086    0.3283322  67.16  0.001674882    1.658    0.397
       129 -10.7761     66.3652    206.2122   1.3468869297e+02   2.3375060918e+01    0.2097777    0.1730004 -82.20 0.0003867489    1.125    0.111
       130 -12.2599     80.3412    208.8524   1.3202968699e+02   2.0737917553e+01    0.5014928    0.2668951 -77.15  0.002148508    2.059    0.514
       131 -11.3000    237.3720    208.5221   9.9044539426e+01  -6.9698681844e+00    0.3174959    0.2024451 -16.58  0.001116173    1.708    0.415
       132 -11.2715    184.1304    209.9719   1.0977357568e+02   2.0773788064e+00    0.2229435    0.2062849  -4.25 0.0003961077    1.100    0.091
       133 -13.1824    188.6520    196.6167   1.0632676930e+02   3.7520258473e+00    0.5496505    0.3250465 -52.20 0.0008308884    1.933    0.483
       134 -12.4238    183.2715    204.2373   1.0889752432e+02   3.3152805157e+00    0.2942716     0.254177 -36.48 0.0003384759    1.216    0.178
       135 -11.5922    184.0921    198.8569   1.0771244519e+02   4.1910357206e+00    0.2736973    0.2384687 -35.79 0.0003899063    1.193    0.162
       136 -10.4188    107.6744    209.9378   1.2626038492e+02   1.6085201163e+01    0.1904471    0.1629731 -88.73 0.0004034934    1.133    0.117
       137 -10.4670    128.5052    209.5470   1.2164389681e+02   1.2505280985e+01    0.1431008    0.1267463  62.88 0.0003218187    1.035    0.034
       138 -10.2596    211.1360    207.0824   1.0376723765e+02  -2.2998546906e+00    0.2134607    0.1726617   0.80 0.0006289855    1.261    0.207
       139  -9.8986    188.4598    206.9973   1.0833065648e+02   1.8274149537e+00    0.1966175    0.1379464 -42.60 0.0005348416    1.507    0.337
       140 -11.5784    145.0066    205.5540   1.1736717562e+02   1.0299933574e+01    0.3344795    0.2055501 -47.38  0.000469757    1.764    0.433
       141 -10.2892    195.2768    206.3217   1.0680450000e+02   6.9345963929e-01    0.1390664    0.1048086  -1.28  0.000343229    1.580    0.367
       142 -10.1563    131.0434    203.0000   1.2002712601e+02   1.3439136708e+01     0.231985    0.1430802  56.66  0.001056689    1.684    0.406
       143 -12.7277     96.1160    203.0560   1.2781784865e+02   1.9539853568e+01    0.4496114    0.3756073 -71.42  0.002607036    1.191    0.160
       144 -11.2701    101.8254    201.6180   1.2633979497e+02   1.8913350235e+01    0.3294884    0.2652784 -71.78  0.001146399    1.229    0.186
       145 -10.4732    200.0119    204.9730   1.0558851372e+02   7.1262836863e-02    0.2021623    0.1734662 -89.28 0.0007580678    1.621    0.383
       146 -11.7577    130.5492    189.0032   1.1774089544e+02   1.6608251179e+01    0.4040335    0.2194648  44.59            0    1.755    0.430
       147 -11.1342    126.2855    192.6294   1.1935574160e+02   1.6595006616e+01    0.3928145    0.2168088 -45.70 0.0009803642    2.016    0.504
       148 -10.3835    123.2073    195.9854   1.2062702256e+02   1.6413668771e+01    0.2127119    0.1808228  73.28            0    1.159    0.137
       149 -11.0052    121.4538    203.4894   1.2224328298e+02   1.5078082983e+01    0.5832453    0.2550009  53.19  0.002217176    2.504    0.601
       150 -11.0812    121.4859    199.8341   1.2164963264e+02   1.5874069398e+01    0.3572698    0.2413545 -56.79 0.0008829653    1.538    0.350
       151 -10.8150    116.3131    204.9688   1.2361826725e+02   1.5670420336e+01     0.276327    0.1818841  48.36 0.0002732892    1.406    0.289
       152 -10.3338    112.5219    205.0196   1.2446717422e+02   1.6324349937e+01     0.205925    0.1759335 -41.69 0.0005640595    1.414    0.293
       153  -9.8528    218.5702    204.5027   1.0182484186e+02  -3.1581069328e+00    0.1341891    0.1219299   1.07  6.85799e-05    1.027    0.026
       154 -10.3670    137.5031    203.9410   1.1874913493e+02   1.2041608642e+01    0.2074671    0.1816217  56.25 0.0004834678    1.060    0.057
       155  -9.7164     84.2857    204.3212   1.3059460864e+02   2.1144806739e+01    0.1243771    0.1062887 -35.74 0.0003463553    1.596    0.373
       156  -9.7563    235.0721    203.2463   9.8460978487e+01  -5.7443351463e+00    0.1579962    0.1057374  33.00  0.000308354    1.475    0.322
       157  -9.8885     47.7659    217.3703   1.3966346639e+02   2.3413599942e+01    0.1487353    0.1139399  37.12 0.0004034185    1.569    0.363
       158 -12.4154    205.8918    197.7803   1.0302334107e+02   2.9873490024e-01    0.5505276    0.4276307  86.77  0.001388585    2.110    0.526
       159 -11.2620    170.6256    198.8929   1.1058867777e+02   6.7709801859e+00    0.5832143    0.3115953 -59.52  0.002336769    2.518    0.603
       160 -10.9581     77.5047    201.9791   1.3177141538e+02   2.2708465597e+01    0.3068908    0.1783303  86.33 0.0007438228    2.063    0.515
       161 -11.8983    241.9615    200.0425   9.6582724020e+01  -6.3477992548e+00     0.329599    0.2835483 -85.19   0.00137441    1.884    0.469
       162 -11.0271     87.5523    201.0126   1.2943076452e+02   2.1380159899e+01    0.3366185    0.2173268  59.56  0.001713736    1.504    0.335
       163 -11.8243     68.5300    201.0052   1.3360342748e+02   2.4242923141e+01    0.3231634    0.2098487  42.31 0.0003032261    1.554    0.357
       164 -10.0521     63.7729    199.9566   1.3450665266e+02   2.5150486507e+01    0.2391731    0.1439197 -67.38  0.001256849    1.542    0.351
       165 -10.1231    161.0997    198.9143   1.1266188487e+02   8.6057159032e+00    0.3908646    0.1513121 -40.66  0.000907649    3.125    0.680
       166 -11.5014    177.7463    199.0243   1.0908744744e+02   5.3738277092e+00    0.2520356      0.19763  39.65 0.0002510211    1.209    0.173
       167  -9.2915    132.2883    199.3548   1.1913988273e+02   1.3996954255e+01    0.1410277    0.1156628 -13.87 1.465787e-05    1.675    0.403
       168 -11.1848    224.2059    197.5469   9.9395213926e+01  -2.9442796704e+00    0.2557104    0.1836545 -34.76  0.001001391    1.354    0.262
       169 -11.0137    139.6922    195.6493   1.1683270497e+02   1.3408116184e+01    0.4821822     0.225361 -42.09  0.001680341    2.572    0.611
       170  -9.9943    116.6968    198.0532   1.2244364754e+02   1.7129829903e+01    0.1934591    0.1735437 -83.30 0.0003497016    1.098    0.089
       171 -12.4079    108.8860    197.0939   1.2406279932e+02   1.8722713842e+01    0.4724568    0.3190996  72.30  0.001111233    1.694    0.410
       172 -12.6678     53.2922    192.4801   1.3590384578e+02   2.8267111344e+01    0.6311921    0.3688329  49.16   0.00135401    1.655    0.396
       173 -11.0237     60.4051    187.1204   1.3367068620e+02   2.8575829489e+01    0.1935249    0.1758647  61.65 0.0004438954    1.197    0.164
       174 -10.8348    250.4322    194.2167   9.3940761887e+01  -6.7644018058e+00    0.2332352    0.1869966 -37.43 0.0006921746    1.267    0.211
       175 -11.3662    241.5296    192.5770   9.5202125561e+01  -5.0509314185e+00    0.2277726    0.1674758 -30.93 8.425218e-05    1.254    0.203
       176 -13.0252    246.0312    190.8243   9.4050963874e+01  -5.5017400968e+00    0.5798628    0.3924691   1.66 0.0005969862    1.775    0.437
       177 -10.5732    178.4601    194.0024   1.0797711343e+02   6.2295562445e+00     0.362755    0.1438048 -46.18 0.0008797977    2.636    0.621
       178 -10.6034    178.0152    189.5130   1.0719900430e+02   7.2176116259e+00    0.2695698    0.2330468  77.70  0.001424781    1.378    0.274
       179 -11.6093     67.3322    184.7175   1.3177613630e+02   2.8186092983e+01    0.3457377    0.2205034 -74.79  0.000346935    1.466    0.318
       180 -12.3825     69.4926    190.9102   1.3211034114e+02   2.6428387799e+01    0.5531235    0.2857169 -83.39  0.001600506    2.332    0.571
       181 -12.1514     66.0325    190.9587   1.3289477426e+02   2.6907042799e+01    0.3882351    0.3397348 -68.27   0.00121752    1.210    0.174
       182 -10.2221    233.5024    193.4767   9.6847122819e+01  -3.8515784547e+00    0.2181678    0.1219783 -47.81 0.0005315292    2.014    0.503
       183 -10.7427    113.7469    194.0140   1.2246273261e+02   1.8563576137e+01    0.2399448    0.1923733  50.90 0.0004902014    1.180    0.153
       184 -11.9958    212.3681    191.5778   1.0051316106e+02   2.3685024115e-01    0.5362831    0.2844419  24.26  0.001842074    2.614    0.618
       185 -10.6519    163.4047    192.7330   1.1100412075e+02   9.4332227077e+00    0.3283772    0.1955167  33.53 0.0008927516    1.776    0.437
       186 -10.7098    163.9530    188.8579   1.1014221736e+02   1.0134085168e+01    0.3153127    0.2754931  41.62  0.001264022    1.100    0.090
       187 -10.9297    148.5144    192.2246   1.1422676985e+02   1.2451175975e+01    0.2737609    0.2352072  20.56 0.0008548272    1.308    0.235
       188 -10.5375    154.1483    192.7216   1.1305531562e+02   1.1247719452e+01    0.3438022     0.126736  39.52  0.001182451    2.689    0.628
       189 -10.6028     86.7398    191.7698   1.2831050176e+02   2.3629143495e+01     0.283041    0.1938491  65.85 0.0008936043    1.479    0.324
       190 -11.2660    120.1876    189.9923   1.2030878311e+02   1.8312942718e+01    0.3672223    0.2412313 -66.56  0.000896713    1.636    0.389
       191 -10.1497     33.8270    190.6352   1.3989475033e+02   3.1028467895e+01    0.2159953    0.1425413 -68.31  0.001215349    1.354    0.261
       192  -9.9797     91.4452    189.7586   1.2693193137e+02   2.3343074900e+01    0.1767355    0.1279154 -54.53 0.0001588189    1.442    0.306
       193  -9.1438     94.6849    188.6897   1.2601889820e+02   2.3062019741e+01    0.2593487    0.1725793  -7.49 0.0009388078    3.757    0.734
       194 -13.6383     12.2869    217.2701   1.4635300019e+02   2.7483455750e+01     0.432029     0.250192 -72.88  0.001389007    1.506    0.336
       195 -11.3147     83.7451    175.9520   1.2661955734e+02   2.7832784989e+01    0.2988534    0.1919142  49.34 0.0003810137    1.550    0.355
       196 -11.7633     82.8776    180.9760   1.2760631615e+02   2.6770056792e+01    0.3717414    0.2550409  53.15 0.0009328128    1.432    0.302
       197 -11.1400     78.0181    188.3786   1.2982487010e+02   2.5767147369e+01    0.3362253    0.2346196  64.51 0.0003487555    1.416    0.294
       198 -13.0214     73.6667    179.4267   1.2955484516e+02   2.8529277929e+01    0.7958058    0.4214642 -76.50  0.001424009    2.073    0.518
       199 -11.5644     77.2438    174.0975   1.2789951155e+02   2.9273168088e+01    0.4010651    0.2153785  38.40    0.0010029    1.946    0.486
       200 -10.7269    107.8050    180.2330   1.2154657315e+02   2.2798746259e+01     0.275788    0.2456101 -43.46 0.0006922742    1.276    0.216
       201 -12.6118    104.8481    183.1379   1.2274280251e+02   2.2636426687e+01    0.5795314    0.4139352 -81.86   0.00191506    1.535    0.348
       202 -11.6664    104.0503    178.2885   1.2211179211e+02   2.3915920390e+01    0.3716635    0.2657523 -64.63 0.0004229443    1.376    0.273
       203 -10.9366    101.0028    176.0050   1.2245483627e+02   2.4984742173e+01    0.1998472    0.1930962 -50.72  0.001144025    1.182    0.154
       204 -10.7330    225.5741    183.7716   9.6387548422e+01  -7.6352973861e-01    0.2781837    0.1819158  36.44 0.0005679621    1.564    0.361
       205 -10.6410    233.7944    185.9832   9.5299467457e+01  -2.6138565108e+00    0.2053587    0.1858501  -4.41  0.000362429    1.028    0.027
       206 -11.1491    230.8729    182.7147   9.5179396530e+01  -1.5261183226e+00    0.2566644    0.2197782 -10.48 0.0004089763    1.111    0.100
       207 -10.1154    197.9809    186.0280   1.0229820246e+02   3.9982457431e+00    0.2161342    0.1669319   3.35            0    1.542    0.351
       208 -11.8472    156.0496    185.1497   1.1119212947e+02   1.2492850863e+01    0.6186326     0.317678 -49.92   0.00220678    2.026    0.507
       209 -10.3376    160.6771    183.8143   1.0989065084e+02   1.1855455627e+01     0.295296    0.2023876  29.06  0.000864848    1.638    0.390
       210 -11.5163     33.3882    184.3540   1.3934078651e+02   3.2516817681e+01    0.4392301      0.29358 -49.82  0.001846675    1.770    0.435
       211 -10.5941    176.4460    184.3475   1.0651427471e+02   8.5824201533e+00    0.3405563    0.2414668  -8.66  0.001495622    2.057    0.514
       212 -10.3234     90.1443    184.5354   1.2643831174e+02   2.4776607241e+01    0.3047903    0.2005426  57.86  0.001498018    1.529    0.346
       213 -10.7453     92.6173    180.9579   1.2529058057e+02   2.5218702598e+01     0.241978    0.2172376 -22.86 0.0005611901    1.451    0.311
       214  -9.8608    140.3892    184.2187   1.1459280013e+02   1.5787852628e+01    0.2029037    0.1425066 -64.06 0.0007658529    1.564    0.361
       215 -11.6415    122.7759    183.3937   1.1855160171e+02   1.9341023858e+01    0.3026446    0.2379591 -80.01 0.0005801689    1.373    0.272
       216 -11.5686     47.1740    182.4911   1.3608341382e+02   3.1356391007e+01    0.4804292    0.3294469 -12.91  0.001872402    2.970    0.663
       217 -11.3095     57.0030    168.5047   1.3196848845e+02   3.3444615617e+01    0.3359169     0.229583 -81.66  0.001263672    1.375    0.273
       218 -11.5775     52.4516    172.0266   1.3354247175e+02   3.3179771545e+01    0.4060974     0.260512  50.02 0.0008722788    1.590    0.371
       219 -11.2817     55.4356    181.3232   1.3406246903e+02   3.0594151910e+01    0.2753914    0.1995525 -79.12  0.001023246    1.212    0.175
       220 -11.8580     54.1762    175.9152   1.3365254743e+02   3.2036295237e+01    0.3541385    0.2619261 -60.50  0.001296185    1.309    0.236
       221 -11.3359      1.8701    182.3602   1.4576502581e+02   3.5991716040e+01    0.3189141    0.1721646 -85.81  0.001886747    1.473    0.321
       222  -9.9028    220.3645    182.3112   9.7083823217e+01   4.5295694795e-01    0.1881222    0.1272226 -45.00 0.0007825872    1.505    0.336
       223 -10.2889    190.8642    180.7779   1.0270859176e+02   6.4267228559e+00    0.2678792    0.2041249  63.23  0.001303865    1.593    0.372
       224 -11.4090     25.2822    170.9371   1.3970165717e+02   3.6469874327e+01    0.4672694    0.2548424 -67.18  0.001331819    1.511    0.338
       225 -11.0867     31.5253    169.6631   1.3813721899e+02   3.6134742779e+01    0.2810165    0.1916776 -64.90  0.001364626    1.293    0.226
       226 -11.5925     26.8892    179.0609   1.4020431277e+02   3.4426366943e+01    0.3008875    0.2531641 -87.11  0.001697999    1.092    0.084
       227 -11.3414     31.2700    175.4102   1.3884395901e+02   3.4817613530e+01    0.3323862    0.2345792  86.17   0.00148421    1.247    0.198
       228 -10.5654    131.2885    178.3200   1.1560979968e+02   1.8888664889e+01    0.5019105    0.2447644 -70.76  0.001546816    3.875    0.742
       229 -11.6713     61.7203    181.3036   1.3261222261e+02   2.9767331198e+01    0.4661552    0.4285329 -87.40  0.001811768    1.137    0.120
       230 -10.1663     98.6685    179.9626   1.2368459986e+02   2.4445015560e+01    0.2072448    0.1748907 -74.13 0.0004534452    1.130    0.115
       231 -10.9135     41.4881    179.0365   1.3695664277e+02   3.2840586628e+01    0.4540513    0.1608893  44.79  0.001942763    2.767    0.639
       232 -10.5169    222.3392    176.7610   9.5563767626e+01   1.1043619027e+00    0.2134278    0.1748977 -56.04  0.000502479    1.409    0.290
       233 -11.2786    167.8233    176.0121   1.0672381101e+02   1.2077963505e+01    0.4669289    0.2707858  62.17  0.001790866    2.413    0.585
       234 -10.4327    136.5173    176.4870   1.1402408703e+02   1.8288987794e+01    0.2984569    0.1481012 -50.95 0.0008786528    2.047    0.512
       235 -11.0012     95.0421    176.6984   1.2401359679e+02   2.5829392053e+01    0.2452087    0.1927679 -77.72 0.0002967764    1.240    0.194
       236 -11.6731     71.4882    170.5029   1.2874402225e+02   3.0984489922e+01    0.5219464    0.3178025 -43.61  0.002456332    1.976    0.494
       237 -11.3160     66.6960    172.1253   1.3014976636e+02   3.1273386580e+01    0.6544972    0.2187092 -66.57  0.002323766    3.017    0.668
       238 -11.8676     62.8840    170.1094   1.3077598664e+02   3.2281488008e+01    0.4795997    0.2542555 -78.47    0.0021235    2.051    0.512
       239 -10.6237    195.0880    173.5788   1.0032921287e+02   7.0209673184e+00    0.3642666    0.2290942 -66.14  0.001461871    2.463    0.594
       240 -11.8130    172.8577    173.0692   1.0499571626e+02   1.1671077764e+01    0.4335058    0.3223822  10.96  0.001084438    1.802    0.445
       241 -10.1351    143.7688    174.1618   1.1186135108e+02   1.7376960304e+01    0.2035721    0.1829363   2.77 0.0005399737    1.316    0.240
       242 -13.2546     40.1685    199.7761   1.3948604995e+02   2.8227960891e+01    0.7732106    0.6026126  75.51  0.002571784    1.087    0.080
       243  -9.9636    237.5388    173.4644   9.2066238094e+01  -1.0749926006e+00    0.1388508    0.1225596 -15.25 1.736744e-05    1.048    0.046
       244 -11.7565    156.4058    172.2957   1.0854777473e+02   1.5228337243e+01    0.5284713    0.2507313  46.43  0.001902997    2.085    0.520
       245  -9.5641    132.4832    173.5111   1.1440442587e+02   1.9761381427e+01    0.1507102     0.144848  76.14 -2.889637e-05    1.018    0.017
       246  -9.9164    115.8031    172.9508   1.1831702683e+02   2.3066720434e+01    0.2055514    0.1146324 -55.04 0.0008619326    1.779    0.438
       247 -11.3072     19.9220    170.4801   1.4085542676e+02   3.7091296192e+01    0.4365617    0.1958626 -75.57  0.002168849    1.861    0.463
       248 -11.1263     14.2290    169.3107   1.4200078032e+02   3.7878729601e+01    0.2868561    0.1791214  36.92  0.001744249    1.841    0.457
       249  -9.9363    106.5239    172.4454   1.2048608140e+02   2.4866751728e+01    0.2122342    0.1841191 -25.05 0.0007196377    1.451    0.311
       250 -10.4113    108.4775    168.9619   1.1937157373e+02   2.5347847221e+01    0.2182043    0.1425542 -58.32 0.0004139378    1.500    0.333
       251 -11.4873     86.9790    170.9763   1.2502583698e+02   2.8516593433e+01    0.3868224      0.20688 -71.78  0.001617937    2.080    0.519
       252  -9.9041     36.4946    172.5279   1.3732935069e+02   3.4931058646e+01     0.129516    0.1057335 -84.38 0.0001826257    1.011    0.011
       253  99.0000     40.0071    234.3885   1.4260595686e+02   2.0820550417e+01     1.436756    0.7816357  41.23  0.007623405    1.828    0.453
       254 -10.0717    133.3060    169.3487   1.1338829679e+02   2.0561064862e+01    0.1534553    0.1228324 -13.76 0.0007042357    1.702    0.412
       255 -10.7513    194.4310    168.0259   9.9286900684e+01   8.2737365198e+00    0.3349586    0.2110047  42.83 0.0006781493    1.600    0.375
       256  -9.9922    120.2842    168.6396   1.1640924693e+02   2.3245623426e+01    0.1574038    0.1153212  84.68 0.0007019553    1.679    0.404
       257 -13.0299      9.7368    164.6523   1.4253914542e+02   3.9331033748e+01    0.3427335    0.1996244 -64.66 0.0009832634    1.434    0.302
       258  -9.2866    206.4316    167.4801   9.6717440360e+01   5.9500868350e+00    0.1465423    0.1376201 -14.51 0.0001202398    1.035    0.034
       259 -10.5335    185.6796    165.8626   1.0067113497e+02   1.0526964277e+01    0.3639795    0.1806864 -57.12 0.0007457412    2.699    0.630
       260  -9.6691    172.6674    167.7160   1.0390909890e+02   1.2853358922e+01    0.1530546    0.1213902   4.75 0.0003681444    1.616    0.381
       261  -9.6477     90.4360    167.5145   1.2358456234e+02   2.8793155461e+01    0.1436433    0.1332026 -70.68 2.092176e-05    1.088    0.081
       262 -10.8815     40.9148    166.5967   1.3556954914e+02   3.5843000993e+01     0.239871    0.1640378 -74.89 0.0004828916    1.240    0.194
       263 -11.2289     81.6533    166.4649   1.2559252452e+02   3.0442615860e+01    0.3374412    0.1457687  33.43   0.00130705    2.662    0.624
       264 -11.3981    159.3031    164.6110   1.0627206990e+02   1.6329358951e+01    0.2693118    0.2594722 -68.35 0.0003281171    1.045    0.043
       265  -9.8185     35.8555    165.1516   1.3658733245e+02   3.6741055438e+01    0.1748614    0.1409188 -81.89 0.0002682489    1.017    0.017
       266  -9.7463     33.3052    162.2803   1.3683732533e+02   3.7689578879e+01    0.1868601    0.1066956 -57.48 0.0002511601    1.592    0.372
       267 -12.2363     34.2783    158.2560   1.3609461755e+02   3.8542430225e+01    0.3070533    0.2273531  69.39 0.0003615084    1.367    0.269
       268 -10.3444    202.6427    163.1683   9.6551691291e+01   7.5703469360e+00    0.4133882    0.1366175 -39.69  0.001327632    3.094    0.677
       269  -9.8526    123.9762    164.2728   1.1464603915e+02   2.3569596175e+01     0.212841    0.1980452  65.41  0.000665014    1.049    0.047
       270 -10.3393    104.6930    164.0012   1.1938821273e+02   2.7211389977e+01    0.2154466    0.2006861 -40.44 0.0002605345    1.202    0.168
       271 -11.2150    100.1144    163.1301   1.2037586307e+02   2.8223502525e+01    0.3873685    0.3452959  49.31  0.002122762    1.156    0.135
       272 -11.0231     51.2184    162.7471   1.3256204765e+02   3.5555294332e+01    0.3675483    0.1938086  50.96  0.001752192    2.035    0.509
       273 -10.5227     45.1399    161.2017   1.3383665598e+02   3.6648801538e+01    0.3578128    0.1975655  11.29   0.00150987    3.466    0.712
       274 -10.4508     87.4859    162.4952   1.2344856766e+02   3.0485875743e+01    0.1451427    0.1329073 -80.40 0.0008104034    1.023    0.022
       275 -10.4232    223.9692    160.9480   9.1920772417e+01   3.7450131067e+00    0.2141023    0.1759932 -82.33 0.0004502588    1.644    0.392
       276 -10.3481     18.6474    160.7499   1.4010738957e+02   3.9464102953e+01     0.168513    0.1570813 -65.97 0.0007692911    1.273    0.214
       277 -12.2107    138.3045    154.8350   1.0915793497e+02   2.2921547386e+01    0.7838264    0.5055974 -84.67  0.002264786    2.591    0.614
       278 -10.0574    242.6015    161.1488   8.8610404752e+01   2.1034851116e-01    0.1929176    0.1198461 -28.78 0.0003759686    1.611    0.379
       279 -12.4789    107.1061    157.6952   1.1756599966e+02   2.8296521138e+01     0.432171    0.3071115 -83.64   0.00119741    1.693    0.409
       280  -9.9065    128.6699    158.6774   1.1234594172e+02   2.3968914955e+01    0.1548796    0.1246682 -10.24 0.0007049519    1.697    0.411
       281  -9.8705     66.1342    158.1804   1.2813842060e+02   3.4722794799e+01    0.1941507    0.1510379  76.06 0.0005488852    1.323    0.244
       282 -10.0634     11.4835    157.9751   1.4146661293e+02   4.0720860355e+01    0.1799637   0.09486978 -71.46 0.0003444477    1.480    0.324
       283  -9.8692    209.7610    157.3588   9.3864186451e+01   7.2685397690e+00    0.1988991    0.1370904  35.54  0.000356306    1.566    0.361
       284 -10.3333    183.7389    156.0446   9.8936031257e+01   1.2995808147e+01     0.211926    0.1943689 -41.44 0.0003595024    1.080    0.074
       285 -10.7703    113.2014    154.3971   1.1534976961e+02   2.7968116742e+01    0.3507515    0.2744461 -75.99  0.001117408    1.367    0.269
       286 -10.4169     85.2405    155.0127   1.2267949827e+02   3.2663269199e+01    0.2180071    0.1905923 -38.89  0.000895625    1.290    0.225
       287 -13.1091     19.0147    153.6963   1.3922122360e+02   4.1075343074e+01     0.316427    0.2679318 -62.64  0.000676007    1.203    0.169
       288 -11.4515    225.4625    151.9006   8.9688013975e+01   5.1649169601e+00    0.4739708    0.2646713 -55.89  0.001833892    2.226    0.551
       289  -9.9631    180.4433    154.4959   9.9304480156e+01   1.4031391581e+01    0.1524169    0.1492846 -21.84 4.663984e-05    1.031    0.030
       290 -10.2631     44.8614    154.5085   1.3296477129e+02   3.8286394793e+01    0.1692523    0.1313407  37.73 0.0004342064    1.473    0.321
       291 -10.2830    144.1427    153.6281   1.0747422465e+02   2.1990041964e+01    0.2160842    0.1472379  33.11 0.0005829955    1.637    0.389
       292 -10.4777     35.2107    152.6277   1.3512106709e+02   3.9784287856e+01    0.3823974    0.1553125  56.63  0.001476983    3.509    0.715
       293 -11.0940    249.3316    151.3501   8.5414307935e+01   7.4026263532e-01    0.2492405    0.2168624 -46.70 0.0004602608    1.135    0.119
       294 -10.9614    156.3595    152.1314   1.0422870917e+02   1.9741783243e+01    0.2711135    0.2137837  31.73 0.0006040004    1.383    0.277
       295 -10.0310    187.5054    150.4666   9.6876757491e+01   1.3359742443e+01    0.2856035    0.1421597  35.30  0.001029849    2.458    0.593
       296  -9.7614    123.4463    150.4399   1.1191123763e+02   2.6945002761e+01     0.153889    0.1461799 -88.38 6.547098e-05    1.023    0.022
       297 -10.5301      3.0969    150.1491   1.4260176365e+02   4.3161959774e+01    0.1791634     0.127383 -64.11 0.0006292392    1.219    0.180
       298 -10.2348    165.8286    148.3494   1.0117698709e+02   1.8534942528e+01    0.3111967    0.2192442  35.16 0.0009985593    1.540    0.351
       299 -11.1103    164.4974    145.4805   1.0082325955e+02   1.9458848425e+01    0.3562613    0.2386107  41.64  0.001556932    1.528    0.346
       300 -11.4020     92.1871    147.1633   1.1935887082e+02   3.3441558276e+01    0.3002039    0.2355989 -49.61  0.000869796    1.256    0.204
       301 -10.5562     35.8952    147.6849   1.3426306789e+02   4.0891402545e+01    0.2379236         0.15 -59.65 0.0008151763    1.361    0.265
       302 -10.0035     15.2737    148.1201   1.3947174793e+02   4.2692043824e+01    0.1778666    0.1253324 -72.46 0.0007709587    1.120    0.107
       303 -10.0037    231.2529    144.9988   8.7139974234e+01   5.3225023886e+00    0.1873039    0.1146498 -40.30 0.0002968079    1.501    0.334
       304  -9.9086    199.5181    145.3883   9.3232086453e+01   1.1818143315e+01    0.1477924    0.1449971 -71.90 0.0007992379    1.045    0.043
       305 -12.0162     23.0894    144.5108   1.3708446678e+02   4.2868281147e+01    0.3395587    0.2423454  44.87 0.0009650105    1.587    0.370
       306 -10.0530     85.1236    143.9324   1.2060478674e+02   3.5377252192e+01    0.2153392    0.1787009  89.67   0.00113677    1.264    0.209
       307 -11.3564     52.3709    143.9861   1.2940004858e+02   3.9941956186e+01    0.2207019    0.1861974  58.85 0.0003626889    1.271    0.213
       308 -11.0072    105.8127    142.3702   1.1475031849e+02   3.2219579853e+01    0.3262478    0.2453322  81.59  0.001518885    1.641    0.391
       309  -9.9727     99.2968    143.3402   1.1668846171e+02   3.3150841826e+01    0.1511844    0.1162809 -25.34 0.0004683546    1.660    0.398
       310  -9.8658     99.2927    148.6483   1.1778133690e+02   3.1869063621e+01     0.155399    0.1137693  84.36 0.0006176129    1.678    0.404
       311 -11.9812    132.3779    140.3617   1.0740193806e+02   2.7510790632e+01    0.3514635    0.2682665 -64.18  0.001029138    1.390    0.281
       312 -10.6286     92.9679    142.3308   1.1817330868e+02   3.4481462931e+01    0.2118135    0.1962368  50.94  0.001170234    1.134    0.118
       313 -11.0772     14.7435    143.3705   1.3903339694e+02   4.3838949811e+01    0.2510001    0.1708486 -71.90   0.00053265    1.159    0.137
       314 -10.2319     62.9106    140.6499   1.2599275880e+02   3.9415414895e+01    0.1788938    0.1695829  76.34 0.0003097305    1.120    0.107
       315  -9.4395      3.4444    141.4490   1.4159381754e+02   4.5123931983e+01      0.12023   0.09195146 -76.55 0.0001805724    1.008    0.008
       316 -11.5049     54.7336    139.0672   1.2793399427e+02   4.0841014694e+01    0.2441683    0.2091146  80.96 0.0007106152    1.203    0.169
       317 -10.0967     18.1458    140.3368   1.3779651865e+02   4.4268423111e+01    0.1645688    0.1022406  44.23 0.0009471505    1.833    0.454
       318  -9.8485     41.6659    139.1886   1.3147999180e+02   4.2313824151e+01    0.1756302    0.1517097  83.56 0.0005260659    1.169    0.145
       319 -11.4008     35.7742    138.6104   1.3296193426e+02   4.3064269990e+01    0.2366977    0.1826644 -66.12 0.0003256381    1.081    0.075
       320  -9.9862    180.3061    137.2979   9.5376403489e+01   1.7726212565e+01    0.1542539    0.1253332   2.75            0    1.589    0.371
       321 -12.6270     77.4701    135.2289   1.2095662068e+02   3.8668035075e+01    0.2907483    0.2574929 -57.24 0.0003224602    1.054    0.051
       322 -10.7007     76.1885    130.2458   1.2029331193e+02   4.0056990760e+01    0.3064593    0.2494533 -11.19  0.001138782    1.560    0.359
       323 -11.6382     44.4532    135.9807   1.3020748838e+02   4.2777369211e+01    0.2270595    0.2004074 -87.09 0.0002133327    1.114    0.102
       324 -11.6079    195.9458    133.6887   9.1250041451e+01   1.4988491524e+01    0.4447618    0.3251935 -86.06  0.001858537    1.928    0.481
       325 -10.5294    199.3264    131.0928   8.9963446205e+01   1.4765665441e+01    0.2286034    0.2043314  34.77 0.0002924358    1.206    0.171
       326 -10.1389    188.9736    134.3161   9.2829386147e+01   1.6413327471e+01    0.2124778    0.1957646  55.06 0.0003657603    1.112    0.100
       327 -10.3323    143.1059    132.5122   1.0286458980e+02   2.7042897517e+01     0.254786    0.2216465 -88.03  0.001248533    1.269    0.212
       328 -10.4337     41.8175    132.0925   1.3028166806e+02   4.3988826004e+01    0.2788628    0.1525028 -48.40  0.001379878    1.718    0.418
       329  -9.9190    134.4923    132.5350   1.0502878056e+02   2.8878349400e+01    0.2879645    0.1498559  32.06 0.0009356332    2.492    0.599
       330 -10.3825     22.7925    131.9529   1.3543887431e+02   4.5836694548e+01    0.2085218    0.1243088  85.64  0.001072266    1.955    0.489
       331 -11.3337     47.2524    130.9809   1.2858167035e+02   4.3658591936e+01    0.2610879     0.228239  20.53  0.001015913    1.374    0.272
       332 -10.0421     29.8796    134.8633   1.3396924964e+02   4.4522642172e+01    0.1652677    0.1329051  81.05            0    1.285    0.222
       333 -10.4682    147.2036    129.9607   1.0123856916e+02   2.6724152535e+01    0.2576589    0.2183189  49.54 0.0002179949    1.189    0.159
       334 -10.6268    156.9274    128.8485   9.8630906888e+01   2.4811528960e+01    0.2601036    0.2215876 -47.60  0.000353008    1.163    0.140
       335 -10.8018    122.7834    128.9955   1.0720675101e+02   3.2113998441e+01    0.2534296     0.224676  44.60 0.0004676655    1.155    0.134
       336 -11.3022     67.8477    128.5184   1.2230135944e+02   4.1667040163e+01     0.354574    0.2238378  21.25  0.001677366    2.038    0.509
       337 -10.6505     35.4409    128.4518   1.3144354229e+02   4.5501912411e+01    0.2512991    0.1514812 -32.33  0.001261968    2.109    0.526
       338 -10.7475     62.5237    127.8104   1.2367582103e+02   4.2553521343e+01     0.279016    0.1162287 -54.73  0.001139445    2.065    0.516
       339 -10.0602    191.4839    125.9716   9.0324471324e+01   1.7568194284e+01    0.2185785    0.1286688 -63.66 0.0005940084    2.368    0.578
       340 -10.3034     91.6601    125.7570   1.1494655946e+02   3.8669626341e+01    0.2766647    0.1858884 -64.46  0.001278385    1.560    0.359
       341 -10.5291     28.9830    126.0429   1.3285026025e+02   4.6675317381e+01    0.2777717    0.1708681  38.53 0.0007605035    1.882    0.469
       342 -10.0109    140.9620    125.0240   1.0156615214e+02   2.9195123555e+01     0.241837    0.1905273  89.30 0.0003329521    1.590    0.371
       343 -10.7581     55.0088    124.5304   1.2518700655e+02   4.4283342162e+01    0.2558445    0.1608011 -47.06 0.0006862765    1.484    0.326
       344  -9.7234     20.2663    125.6357   1.3519795718e+02   4.7514293515e+01    0.1250385   0.08448277  83.50  0.000571974    1.649    0.394
       345 -10.6235    127.1771    123.5808   1.0473363963e+02   3.2456050429e+01      0.26461    0.2085602 -62.54 0.0004080386    1.338    0.253
       346 -11.0869     81.2157    124.0387   1.1752979320e+02   4.0769211444e+01    0.2307775    0.2053414  50.08 0.0002337495    1.210    0.174
       347 -10.3354      8.6051    123.6143   1.3808510014e+02   4.8844056699e+01    0.2690166    0.1431431  77.92  0.001313229    2.545    0.607
       348  -9.2443    178.6650    123.2998   9.2359874729e+01   2.1050280988e+01    0.1607189    0.1234639 -85.32 0.0004888561    1.655    0.396
       349 -11.6734     62.6672    122.5478   1.2257240444e+02   4.3783751426e+01    0.3558763    0.2269384  39.53  0.001237509    1.730    0.422
       350 -12.0615     13.9364    122.3842   1.3646042284e+02   4.8749001589e+01    0.2164169     0.169592 -64.55 0.0002567149    1.026    0.026
       351 -11.3131     18.7446    118.7301   1.3457034947e+02   4.9224672701e+01    0.5002719    0.3468744  48.98  0.003053539    1.732    0.423
       352  -9.7350    206.6779    121.6866   8.6326886158e+01   1.5004878948e+01    0.1501574    0.1211596   5.19 0.0007039821    1.656    0.396
       353  -9.8308    138.7374    121.4376   1.0122806702e+02   3.0479704301e+01     0.209557    0.1519936  34.53 0.0006376409    1.509    0.337
       354 -11.1760     83.6816    119.6051   1.1581692651e+02   4.1423316364e+01    0.3668173     0.295773  58.44  0.001141459    1.404    0.288
       355 -11.9609     30.7858    119.5001   1.3125688590e+02   4.8034604516e+01    0.4319568    0.2395757  51.36  0.002171685    2.302    0.566
       356 -10.8813     93.1730    118.5880   1.1284462979e+02   4.0090397671e+01    0.2878742     0.233666 -87.01  0.001162234    1.475    0.322
       357 -10.0301      3.2229    124.1118   1.3959077802e+02   4.9083536121e+01    0.2029607     0.114862  81.90  0.001091658    2.058    0.514
       358 -10.6735      1.5287    115.4881   1.3891430092e+02   5.1126432108e+01     0.184641   0.09451468 -78.32 0.0006992529    1.764    0.433
       359 -11.2051     69.5923    117.9812   1.1957050360e+02   4.3915543387e+01    0.5399655    0.1674536 -48.87  0.001468954    2.874    0.652
       360 -10.0494    156.2256    116.0465   9.5591172447e+01   2.7746679300e+01     0.212926    0.1999876 -64.43 0.0002384336    1.060    0.057
       361 -10.0891     47.2176    115.3793   1.2567064999e+02   4.7334557052e+01    0.1757052    0.1461643 -86.11 0.0002366822    1.305    0.234
       362 -10.7450     48.9261    111.9417   1.2445947364e+02   4.7937815293e+01    0.1966402    0.1899488 -17.52 0.0003658496    1.155    0.134
       363 -11.0716     33.8321    114.6048   1.2950098499e+02   4.8883910975e+01    0.2336317    0.1944068 -65.33 0.0003559054    1.063    0.060
       364 -10.9228     87.8430    113.7091   1.1321097757e+02   4.2113352588e+01    0.2451697    0.1842128 -42.00 0.0004517079    1.284    0.221
       365 -10.7344     95.1204    111.4554   1.1053708050e+02   4.1387611745e+01    0.3369526    0.2004393 -59.18  0.001454197    1.808    0.447
       366 -11.4201     21.9479    109.2213   1.3207115453e+02   5.1139175539e+01    0.2717046    0.1993956 -25.25  0.001682353    1.561    0.359
       367  -9.8661     85.1335    109.2143   1.1290704009e+02   4.3581377450e+01    0.1890925    0.1667355  80.36 0.0003900178    1.324    0.245
       368 -10.3154     37.0216    108.2864   1.2734124293e+02   5.0025248889e+01    0.1718585    0.1578066 -62.93 0.0004531562    1.104    0.094
       369 -10.3997     26.9852    107.7223   1.3028784456e+02   5.1065787337e+01    0.1659518    0.1419169 -53.39 0.0002760608    1.057    0.054
       370 -11.0717     29.0679    103.5929   1.2886931736e+02   5.1816482290e+01    0.2875812    0.1485827 -47.53 0.0003942609    1.641    0.391
       371 -10.5074     91.6114    105.4369   1.1003260711e+02   4.3346182806e+01    0.3587832    0.2435114  72.45  0.001076545    2.369    0.578
       372 -11.2699     45.6141    106.6790   1.2437116375e+02   4.9507380606e+01    0.3494022     0.126927  26.67  0.001393775    3.304    0.697
       373 -11.5914    233.9435    102.5404   7.7243446301e+01   1.2623227293e+01    0.2554594     0.225024 -56.11  0.000397723    1.017    0.017
       374 -10.2026    123.7557    102.9421   1.0028998570e+02   3.7723052161e+01     0.210125    0.1934655 -49.51 0.0003038969    1.080    0.074
       375 -11.4624     75.6908    102.1875   1.1400378426e+02   4.6633321926e+01    0.3598846    0.2469683   7.83  0.001154294    1.970    0.492
       376 -10.2313    167.2142    102.3604   8.9542549530e+01   2.8018148334e+01    0.3324899    0.1343604  43.50  0.001101519    2.713    0.631
       377 -10.4370    189.6887    100.9970   8.4543409657e+01   2.2955739663e+01    0.2921794    0.2109615  89.76  0.001295989    1.774    0.436
       378  -9.8955    149.1431    100.7740   9.3264465412e+01   3.2562377563e+01    0.2085497    0.1856446  -0.23 0.0004552981    1.303    0.232
       379 -10.5446    135.4537    101.1895   9.6758361274e+01   3.5568201630e+01    0.2702673    0.2190897  49.53  0.000554699    1.239    0.193
       380 -10.3150     67.4813    100.0823   1.1602409046e+02   4.8287533700e+01    0.3695888    0.1272895 -53.91  0.001349913    2.697    0.629
       381 -10.2765     45.3828    100.8864   1.2318889974e+02   5.0835748596e+01    0.2095346     0.168831  38.40 0.0007057536    1.446    0.308
       382  -9.6690    176.5107    100.5998   8.7096180072e+01   2.6161062820e+01     0.152109    0.1475099  76.53 0.0008017878    1.034    0.032
       383 -10.5725     85.0436     99.9614   1.1057346572e+02   4.5653844934e+01    0.2289496    0.1688361 -17.11 0.0007257174    1.646    0.392
       384  -9.6112     52.6588    100.2810   1.2074611858e+02   5.0148318634e+01    0.1269105    0.1021575  75.08 0.0004130364    1.629    0.386
       385 -10.3906     25.2244    100.2205   1.2941251047e+02   5.2891815369e+01    0.1614921    0.1353782 -84.96 0.0004796307    1.324    0.245
       386 -11.0799      9.3829     99.4412   1.3418455944e+02   5.4207537048e+01    0.2310379    0.2012202  58.92  0.001427876    1.426    0.299
       387 -11.4238    105.4975     98.2340   1.0406467094e+02   4.2391919302e+01    0.3576601    0.2408186  42.45  0.001016106    1.528    0.345
       388 -11.1950     55.4300     97.3610   1.1917390066e+02   5.0461217768e+01    0.3137816    0.2240244 -75.76 0.0008306786    1.753    0.430
       389 -10.3639    124.8877     97.7494   9.8566472478e+01   3.8573173755e+01    0.2480422    0.1994872 -32.36  0.001221036    1.290    0.225
       390 -12.4061      5.7338     93.9953   1.3437920695e+02   5.5612618018e+01    0.3381481    0.1541688 -57.79 0.0003456954    1.605    0.377
       391  -9.6465    162.5292     97.5139   8.9298943003e+01   3.0087661492e+01    0.1548885    0.1488324 -86.13 2.019152e-05    1.025    0.025
       392 -10.2107    118.7644     96.8469   9.9967072850e+01   4.0043610938e+01    0.2247798    0.2010573 -12.47  0.000463059    1.198    0.165
       393 -10.5061     47.5790     96.5472   1.2150216669e+02   5.1555736402e+01    0.2330485    0.1705425 -48.83 0.0006453685    1.168    0.144
       394 -10.7433     32.5771     96.2820   1.2627709693e+02   5.3127343668e+01    0.2393097    0.1444621 -69.84  0.001259751    1.732    0.423
       395 -10.0956     34.5729     92.7884   1.2487150389e+02   5.3706453927e+01    0.2019897    0.1098198 -58.69   0.00104019    1.592    0.372
       396  -9.2702    110.7098     95.2909   1.0176819817e+02   4.1996540720e+01    0.1434599    0.1190869 -88.75 0.0001868953    1.545    0.353
       397 -10.3774     89.5227     94.9156   1.0786372021e+02   4.5990917476e+01    0.4362497    0.2352895  17.43  0.001548061    3.365    0.703
       398 -10.5891     79.1796     94.5046   1.1092747153e+02   4.7772770398e+01    0.2383279    0.1796751 -46.89 0.0002704449    1.238    0.192
       399  -9.6347     16.0468     98.9909   1.3204778859e+02   5.3861508998e+01    0.1499917    0.1122407 -58.16 0.0004321348    1.063    0.059
       400 -10.1341    136.3209     92.3193   9.4090356143e+01   3.7177214734e+01    0.1556491    0.1218082   7.35 0.0002687714    1.667    0.400
       401 -10.8812    113.9175     91.1734   9.9708814376e+01   4.2199349738e+01     0.237019    0.2092056 -43.84 0.0003537638    1.128    0.114
       402 -11.3419     27.5175     85.4958   1.2558293388e+02   5.5895697602e+01    0.2773746    0.2668498 -27.98  0.001251676    1.194    0.163
       403 -11.4341     88.8875     88.4373   1.0625430388e+02   4.7453333798e+01    0.4133864    0.3089586  -4.83 0.0008355975    1.649    0.394
       404 -10.0509    151.2014     89.3657   8.9664421669e+01   3.4340602852e+01    0.2167431    0.1430652  61.74 0.0004622749    1.644    0.392
       405 -11.4876     64.7376     87.3512   1.1360841930e+02   5.1406924070e+01    0.4963686    0.2844343  35.72   0.00133795    1.894    0.472
       406 -10.4476     77.8784     87.8765   1.0952539695e+02   4.9372427805e+01    0.2710946    0.1729167 -34.26 0.0003731213    1.573    0.364
       407 -10.1718     80.6898     84.7210   1.0774617594e+02   4.9574553024e+01    0.2275019    0.1863547  11.89            0    1.303    0.232
       408 -10.0255     20.2565     88.4538   1.2864802110e+02   5.5842594364e+01    0.2047395    0.1182191   4.80  0.001120921    2.241    0.554
       409 -10.7304    131.0465     86.7344   9.3850209538e+01   3.9444565668e+01    0.2785616     0.213905  50.91 0.0004207405    1.303    0.233
       410 -11.1212    127.5085     85.9036   9.4527420257e+01   4.0381382408e+01    0.2777052    0.2408386   6.62  0.000737015    1.293    0.227
       411 -11.7239    119.6616     84.8371   9.6305303665e+01   4.2268809653e+01    0.4176989    0.2864055 -64.04  0.001850926    1.947    0.487
       412 -11.1738     25.3987     91.8561   1.2766955025e+02   5.4709857368e+01    0.2970186    0.1779891 -12.00  0.001534805    2.198    0.545
       413  -9.9305    180.4249     86.2402   8.2574887698e+01   2.7938927815e+01    0.2142851    0.1366977 -51.85 0.0009371236    1.622    0.383
       414 -10.0288     97.8318     85.6144   1.0274248778e+02   4.6434303156e+01    0.3485611    0.1579049 -32.64  0.001254308    2.792    0.642
       415 -10.1339     10.5152     85.6750   1.3130541248e+02   5.7101631214e+01     0.203238    0.1429922  16.29  0.001331681    1.728    0.421
       416 -10.7509    154.9836     85.3207   8.7679151009e+01   3.4215091615e+01    0.2832986    0.2057455 -39.24  0.000499207    1.410    0.291
       417 -11.4940    154.3406     79.2681   8.6137352770e+01   3.5476642864e+01    0.3881296    0.2489992 -43.65  0.001313568    1.592    0.372
       418  -9.6211    144.4569     84.5452   8.9904805491e+01   3.6825807128e+01    0.1495121    0.1464278  62.70 0.0001150866    1.004    0.004
       419 -11.3273     52.9858     82.9867   1.1633929466e+02   5.3826559079e+01    0.3478317    0.1969357  40.15  0.001482359    2.068    0.516
       420 -10.9516     84.9435     82.5181   1.0577359262e+02   4.9320009291e+01    0.4133818    0.2725239  68.15  0.001752139    2.760    0.638
       421 -11.4612     20.4240     82.0638   1.2722241592e+02   5.7180930597e+01    0.2193942    0.1861174 -35.50 0.0003807442    1.106    0.096
       422  -9.8538    132.5409     82.5227   9.2256032288e+01   3.9915990572e+01    0.1473355    0.1454673  44.70 0.0001154508    1.015    0.015
       423  -9.3533    198.7352     81.7363   7.8057517623e+01   2.4341343167e+01    0.1333464    0.1164776  21.10 0.0001975887    1.456    0.313
       424 -10.4596     77.0372     80.8693   1.0780035157e+02   5.0928809178e+01    0.2109258    0.1849875 -22.06 0.0008178152    1.059    0.056
       425 -10.5158     43.9315     80.7724   1.1883824187e+02   5.5314573282e+01    0.3495081    0.2029262  46.22  0.001762878    2.336    0.572
       426  -9.5296    162.4042     80.4801   8.4715318760e+01   3.3331110974e+01    0.1498419    0.1425926 -83.59 8.650539e-05    1.041    0.040
       427 -10.5425    148.5915     78.4854   8.7217673077e+01   3.6976125458e+01     0.344325    0.1372453 -43.59 0.0008859443    2.580    0.612
       428 -11.4715    114.5251     79.8398   9.6240194058e+01   4.4294430108e+01    0.4675057    0.2529848  51.79    0.0019616    1.986    0.497
       429 -10.5581     68.9840     78.8102   1.0982739028e+02   5.2552508596e+01    0.2030104    0.1531962  61.90 0.0008696899    1.921    0.480
       430 -10.1174     86.1641     78.1302   1.0409624144e+02   4.9976560501e+01    0.2039134    0.1769479  -6.32 0.0003490807    1.144    0.126
       431 -11.2449      5.7987     68.0323   1.2922998139e+02   6.0998568162e+01    0.4180829    0.2331952  13.81  0.002564572    2.128    0.530
       432 -10.4995      3.3736     77.8934   1.3216447175e+02   5.9139243279e+01    0.1597863    0.1516122 -34.25 0.0005949975    1.249    0.199
       433 -11.0909      1.7180     73.7128   1.3189311603e+02   6.0079973474e+01    0.2711549     0.146434 -64.59  0.001076207    1.590    0.371
       434 -10.0136     94.0637     79.6757   1.0212562233e+02   4.8290915147e+01    0.1939296    0.1764231  15.84 0.0003144164    1.088    0.081
       435 -12.1787     58.6754     74.2105   1.1196223107e+02   5.4881351006e+01    0.3495857    0.2687998  39.71 0.0002964446    1.508    0.337
       436 -11.5338     53.1138     74.5334   1.1397104777e+02   5.5520903910e+01    0.3190502    0.2102741 -33.24 0.0003763767    1.399    0.285
       437 -10.9121     48.4346     73.9966   1.1544830617e+02   5.6182725161e+01    0.2033581    0.1804921  23.96 0.0001246684    1.277    0.217
       438 -10.8156     28.8818     74.3695   1.2245633680e+02   5.8080636383e+01    0.2622446    0.1440801 -47.23 0.0008880415    1.463    0.316
       439  -9.6785    100.8834     75.3696   9.8787239206e+01   4.7841812000e+01    0.1883486    0.1286563  29.94  0.000165273    1.552    0.356
       440 -10.1423     68.9078     73.7731   1.0837137110e+02   5.3550046667e+01    0.1763082    0.1613344  -8.47 0.0004182102    1.059    0.056
       441 -10.4053    115.9560     72.9911   9.3784470622e+01   4.5258213667e+01    0.2320146    0.1737099   7.62 0.0009221435    1.676    0.403
       442 -11.7357     87.9205     69.2075   1.0081212844e+02   5.1347504280e+01    0.4920771    0.2965412   9.82  0.002038573    2.664    0.625
       443 -10.1003     37.9315     72.4966   1.1874555459e+02   5.7610817665e+01    0.2736214    0.1750565  21.09  0.001195167    1.739    0.425
       444 -10.2789     35.3549     70.2933   1.1907231205e+02   5.8299761983e+01    0.2278596    0.1531893 -38.12 0.0009199659    1.246    0.198
       445 -10.8645     42.2105     71.0742   1.1682940680e+02   5.7449409230e+01    0.2168351    0.1675512  12.75 0.0002901596    1.384    0.278
       446 -10.0137    106.5381     70.4855   9.5643357431e+01   4.7629503457e+01    0.2631893    0.1261923  34.91  0.001029288    2.366    0.577
       447 -10.1792     53.0405     69.5475   1.1255335408e+02   5.6500853945e+01    0.1951533    0.1508529 -38.48 0.0004660415    1.144    0.126
       448 -11.7146    129.5546     66.9835   8.8403167963e+01   4.3356309591e+01    0.5288663     0.336557 -59.97 0.0006843012    2.164    0.538
       449 -10.1671     26.5046     67.8945   1.2164493431e+02   5.9571824184e+01    0.1693931    0.1404401 -26.93 0.0004067207    1.086    0.079
       450 -11.7558      4.7345     60.6232   1.2790054118e+02   6.2505559183e+01    0.3993951    0.2526116  10.27  0.002283745    1.825    0.452
       451 -10.9017     16.1710     63.0876   1.2421880492e+02   6.1307554810e+01    0.5060703    0.2305061 -45.94   0.00277442    1.674    0.402
       452 -10.3182     11.2867     62.4151   1.2587840462e+02   6.1766974437e+01    0.1984671    0.1481118  89.43 0.0004080149    2.081    0.520
       453 -11.7208     19.9555     57.3177   1.2123417416e+02   6.2122637588e+01    0.2278863    0.1926844 -34.95  0.000529809    1.116    0.104
       454 -12.1388     26.9816     55.3913   1.1796847307e+02   6.1898076824e+01    0.4592957    0.2793033 -33.84  0.002682519    1.377    0.274
       455  -9.8640     54.1266     62.3502   1.0998430982e+02   5.7712531951e+01    0.1717932     0.112945  39.08 0.0009481992    1.759    0.431
       456  -9.6510    216.4117     61.4645   7.0398768800e+01   2.3510413353e+01    0.1397389    0.1225801 -74.78 9.341475e-05    1.014    0.014
       457 -10.5570    148.1833     62.8280   8.2800273794e+01   3.9739978566e+01    0.2014097    0.1674004  29.80 0.0004706713    1.313    0.238
       458 -10.0342     70.2251     61.1757   1.0400381674e+02   5.5676587638e+01    0.1622033    0.1588563  75.88 0.0004881518    1.344    0.256
       459  -9.1989     39.2758     61.3620   1.1509270897e+02   5.9614984399e+01     0.131313   0.07803873 -26.33 0.0007007032    1.664    0.399
       460 -10.4188    122.8706     59.1200   8.7669075024e+01   4.6122672311e+01    0.1969597    0.1897303 -85.54 0.0003075125    1.161    0.139
       461 -10.0851     57.5116     68.0322   1.1053449905e+02   5.6221767714e+01    0.1876081    0.1163498 -45.40 0.0009959942    1.490    0.329
       462 -10.5342    106.6286     57.4180   9.1469696966e+01   4.9819268120e+01    0.2520422     0.203718  72.88 0.0005152947    1.626    0.385
       463 -11.7584     42.6566     52.6648   1.1111618937e+02   6.0812944392e+01    0.4767839     0.346616 -76.39  0.002160643    2.792    0.642
       464 -11.6478     78.5329     60.7578   1.0110506088e+02   5.4435527250e+01    0.3401291    0.2397767  -8.08  0.001155966    1.610    0.379
       465 -10.9840     93.0321     54.2055   9.4369090676e+01   5.2973838423e+01    0.2677139    0.2203091   0.46 0.0005761827    1.211    0.174
       466 -10.1632     97.1431     53.4835   9.2901706064e+01   5.2309846408e+01    0.2027165    0.1275233  43.64  0.001014667    1.538    0.350
       467 -10.3872     76.2741     53.6429   9.9480598539e+01   5.5998173050e+01    0.2031895    0.1816523 -36.68 0.0004509544    1.250    0.200
       468 -11.0216     73.1786     52.3591   1.0007519871e+02   5.6706173654e+01    0.2135516    0.1857695  20.39 0.0002282848    1.134    0.118
       469 -11.3708      5.4424     51.9356   1.2543309167e+02   6.4101095767e+01    0.3477646   0.08956171 -40.48  0.001517371    3.003    0.667
       470  -9.8923     60.5021     52.4444   1.0448675533e+02   5.8592307704e+01    0.1277086    0.1084237  -9.58 2.876043e-05    1.007    0.007
       471 -11.2415     19.0783     49.8533   1.1942198667e+02   6.3553039188e+01    0.3620521    0.1991481 -53.57  0.001714005    1.721    0.419
       472 -11.3789     11.3366     50.4650   1.2268925364e+02   6.4002328417e+01    0.2881597    0.1602306 -45.12 0.0009781423    1.380    0.275
       473 -12.1722     13.2848     46.4806   1.2074992835e+02   6.4581988268e+01    0.3611019    0.2814196  43.43  0.002513288    1.910    0.476
       474  -9.6600     87.3117     50.3505   9.4818762010e+01   5.4623873162e+01    0.1403491   0.09662601   4.71 0.0007045472    1.720    0.419
       475  -9.4798     82.3013     50.6593   9.6503683858e+01   5.5460209811e+01    0.1219677    0.1073956 -76.27 0.0007037473    1.672    0.402
       476 -10.1199    101.0045     48.9820   9.0275298001e+01   5.2242518343e+01    0.1655698    0.1474626  24.77 0.0004668507    1.031    0.030
       477 -10.3480     46.5390     48.9358   1.0841552889e+02   6.0997305737e+01    0.1849721    0.1056881 -39.70 0.0006237254    1.567    0.362
       478  -9.5851    195.7602     47.9863   7.0122299225e+01   3.0437652729e+01    0.1663382     0.115491 -38.96 0.0003232873    1.507    0.336
       479 -12.2813     61.8492     44.7710   1.0135119637e+02   5.9635138174e+01    0.2823496    0.2172877 -21.70 0.0003094018    1.170    0.146
       480  -9.6994    122.6455     45.7402   8.3487226357e+01   4.8167354009e+01    0.1434789   0.09746781  29.05 0.0003674871    1.615    0.381
       481  -9.8351    115.1765     44.8733   8.5073848834e+01   4.9911688307e+01    0.1863206    0.1487252  20.42 0.0004095872    1.295    0.228
       482 -11.3070     34.9802     44.9031   1.1151564268e+02   6.2965386674e+01    0.1969294    0.1846646  17.16  0.001442487    1.400    0.286
       483 -10.3575     37.3382     40.6276   1.0911211822e+02   6.3412045436e+01    0.2624559    0.1584856   1.91  0.001289488    1.839    0.456
       484 -10.8472    199.5026     43.8154   6.8557410488e+01   3.0123934621e+01     0.229899    0.1722723  71.60  0.000278074    1.225    0.184
       485 -10.3699    141.0383     43.1573   7.8498098314e+01   4.4329247525e+01    0.2532553    0.1876486  -6.63  0.001303517    1.703    0.413
       486  -9.8684     80.4761     44.0571   9.4792195678e+01   5.6776198547e+01    0.1928504     0.121056 -31.13  0.001026981    1.578    0.366
       487 -10.1555     25.9693     44.2584   1.1490292795e+02   6.3948192684e+01    0.1553987    0.1245745 -11.44 0.0003899896    1.113    0.101
       488  -9.8867     86.5236     43.4543   9.2675280690e+01   5.5793834711e+01    0.1287173    0.1174516  12.46 0.0008071711    1.080    0.074
       489 -10.7477     20.2618     41.7076   1.1640231467e+02   6.4872497581e+01    0.2129141    0.1386128 -30.24   0.00140186    1.225    0.184
       490 -10.7343     23.4783     38.7929   1.1410326417e+02   6.5081277596e+01    0.2483156    0.1992305 -51.00   0.00110941    1.534    0.348
       491  -9.8253     69.6885     41.7005   9.7521882032e+01   5.8908401717e+01    0.1299977   0.08823834   3.53  0.000348912    1.603    0.376
       492 -11.1774    163.9519     43.3947   7.4097809503e+01   3.8817604301e+01    0.2987655    0.2552804 -56.88  0.001176772    1.234    0.189
       493 -12.0877      9.8332     39.1713   1.1994815671e+02   6.6086139306e+01    0.3624281    0.1516434 -30.42   0.00176231    2.222    0.550
       494 -11.3679      3.1368     39.9892   1.2302599639e+02   6.6367967483e+01    0.2316553    0.2125117  11.68  0.001735273    1.447    0.309
       495  -9.6624    186.7627     38.9836   6.9192764184e+01   3.3856621603e+01    0.1628256    0.1150472 -36.85 0.0002795655    1.529    0.346
       496 -10.8121    175.3635     39.0065   7.0961668036e+01   3.6625922271e+01    0.2247647    0.1758949  83.40 0.0004059593    1.236    0.191
       497 -11.5809    166.3688     37.8069   7.2128266875e+01   3.8969450686e+01    0.2509973    0.2148217  77.86 0.0002415313    1.086    0.079
       498 -11.2357    239.5169     36.4794   6.2098306089e+01   2.1905590624e+01     0.232909    0.2153267  63.40  0.001468701    1.377    0.274
       499  -9.8381     49.5199     37.4667   1.0324297734e+02   6.2443945514e+01    0.1245174   0.09682465  -6.81 3.666786e-05    1.090    0.083
       500 -10.3894     41.1083     36.2101   1.0603594836e+02   6.3673034341e+01    0.1938628    0.1558126 -62.18  0.001214359    2.086    0.521
       501 -10.4219     30.4583     36.0317   1.1025969565e+02   6.4862382957e+01    0.2875919     0.205276 -67.77  0.001600779    2.880    0.653
       502 -10.1336    129.4465     36.5103   7.8959518196e+01   4.7867140249e+01    0.1351199    0.1231884  48.00 8.810666e-05    1.020    0.019
       503 -10.8439     60.5398     33.9322   9.7860915133e+01   6.1421592593e+01    0.2594541    0.1874051 -30.92  0.001317266    1.368    0.269
       504 -11.3619     57.4219     32.1811   9.8325092538e+01   6.2119939465e+01    0.3647602    0.2942741   4.00  0.001440923    1.037    0.036
       505  -9.6868     96.6913     34.3042   8.6445842461e+01   5.5111076918e+01    0.1189305    0.1046685 -80.98 0.0003330404    1.607    0.378
       506 -10.2882     92.0125     33.5396   8.7512441918e+01   5.6113857449e+01    0.1873209    0.1622229  -7.19 0.0005192794    1.141    0.124
       507 -11.7321     79.1257     33.3324   9.1355061692e+01   5.8497959934e+01    0.4238989    0.2316916  36.04  0.002201181    1.704    0.413
       508  -9.8000     36.4373     34.5383   1.0728540917e+02   6.4459807442e+01    0.1995602   0.09877439  15.91 0.0007157085    2.367    0.577
       509 -10.3047    136.7999     33.2923   7.6375467302e+01   4.6577641341e+01    0.2801521    0.1190959  65.45  0.001078756    2.624    0.619
       510  -9.9813    117.9542     33.0376   8.0489482035e+01   5.0853128645e+01    0.1610638    0.1420062  40.77 0.0004984894    1.013    0.013
       511  -9.8069    232.9883     32.2572   6.1885559822e+01   2.3910596381e+01    0.1569746   0.09878096  75.42 0.0002968856    1.466    0.318
       512 -11.2601    141.9607     31.5019   7.4787358300e+01   4.5589690758e+01     0.339771    0.1844305  49.22 0.0008039905    1.659    0.397
       513 -10.9395    106.2259     32.0840   8.3091934487e+01   5.3462761479e+01    0.2035666    0.1614897  22.51 0.0005323869    1.222    0.182
       514 -10.3264      5.1344     32.4720   1.1982877660e+02   6.7511868500e+01    0.1424488   0.09504703   6.54 0.0004892261    1.529    0.346
       515  -9.6055    183.2483     31.4075   6.7775974453e+01   3.5679328773e+01    0.1296052    0.1012296  27.20 0.0005588887    1.709    0.415
       516 -10.3685     70.2758     28.7998   9.2542970660e+01   6.0581044145e+01    0.2173004    0.1608947  26.77  0.001357763    1.202    0.168
       517 -10.6696     32.0931     27.4901   1.0641749453e+02   6.5975739983e+01     0.256971    0.1573016 -49.83  0.001329437    2.205    0.546
       518  -9.7746    122.4896     28.4432   7.7931696301e+01   5.0396817213e+01    0.1329911    0.1168245  44.83 7.255406e-05    1.008    0.008
       519 -11.0950     76.0681     27.3252   9.0088427792e+01   5.9787846795e+01       0.2184     0.174204 -25.49  0.000703515    1.319    0.242
       520 -11.1610    187.1173     27.0187   6.6123812388e+01   3.5279596688e+01    0.2234963    0.1709466  73.67 0.0003798871    1.146    0.128
       521 -11.3264    101.3508     26.9336   8.2578330334e+01   5.5069633785e+01    0.2958443    0.1919919  43.72 0.0006639644    1.354    0.261
       522 -10.4816     17.6089     27.2354   1.1252097040e+02   6.7410758940e+01    0.2267034   0.07314292 -39.60  0.001105344    2.492    0.599
       523 -10.9457     17.2613     22.8517   1.1102824203e+02   6.8091187855e+01    0.2454704    0.1551687  30.01 0.0009989177    1.862    0.463
       524  -9.7524     37.8382     26.6306   1.0372282993e+02   6.5450897329e+01    0.1428909   0.09899052  34.02 0.0003936799    1.641    0.391
       525 -11.8357    188.6541    246.4755   1.1503787629e+02  -4.9477288363e+00    0.4097627    0.2453763 -50.15  0.001176436    2.096    0.523
       526 -10.8990      1.8739     25.4267   1.1892582398e+02   6.8846259111e+01    0.1900708    0.1235384 -40.11 0.0005295703    1.250    0.200
       527 -12.3448      8.3420     23.4736   1.1528261445e+02   6.8711648023e+01    0.3270622    0.1748534  19.17 0.0008628797    1.935    0.483
       528 -10.3386     65.4680     24.3145   9.2441365385e+01   6.1916637370e+01    0.2102905    0.1093626 -24.63 0.0008745009    1.945    0.486
       529 -10.3281     90.8579     24.5662   8.4599492349e+01   5.7411326671e+01    0.2856862    0.1213818  58.71  0.001154096    3.084    0.676
       530  -9.9088     61.4864     23.9122   9.3666254477e+01   6.2590468196e+01      0.17885    0.1077839 -26.15  0.001038084    1.609    0.379
       531  -9.9000    188.6284     23.2654   6.4989743796e+01   3.5359122149e+01    0.1387489   0.08948324 -78.64 0.0006988197    1.663    0.399
       532  -9.5222    132.3174     22.3184   7.3886041586e+01   4.8855358790e+01    0.1379737    0.0892818  33.56 0.0007040374    1.657    0.396
       533 -10.1023    138.3672     21.2937   7.2389179506e+01   4.7570486540e+01    0.1880714    0.1389945 -14.82 0.0005383908    1.613    0.380
       534 -10.4319    139.7816     18.0103   7.1130238160e+01   4.7580703462e+01    0.2583811    0.2085533 -67.21  0.001359434    1.455    0.313
       535 -10.3001    114.1451     20.8618   7.7324294258e+01   5.3050722636e+01     0.179863    0.1694474  76.86 0.0005161184    1.225    0.184
       536 -10.6595     73.8638     20.6060   8.8218928331e+01   6.0955630135e+01    0.1978918    0.1450643  -5.07 0.0005512234    1.316    0.240
       537 -10.0211    179.0000    247.9886   1.1715567759e+02  -3.5773722313e+00    0.1791798    0.1582915  31.68 0.0005362033    1.051    0.048
       538 -10.4831    182.3813     18.9960   6.4748713451e+01   3.7340132288e+01    0.2206112    0.1577109  59.54  0.000539406    1.293    0.227
       539 -11.0202    181.0151    244.5686   1.1623445296e+02  -3.3700257689e+00    0.3308556    0.2498669 -72.10  0.001800164    2.012    0.503
       540  -9.4573    157.7322     17.3280   6.7874954097e+01   4.3422613734e+01    0.1286361   0.09320118 -70.40 0.0002356948    1.576    0.365
       541 -10.8649    130.6303     16.7764   7.2485566240e+01   4.9806647365e+01     0.402545    0.1492424  52.01  0.001688916    2.190    0.543
       542 -12.5759    165.2657    243.4044   1.1917385429e+02  -4.9658800173e-01     0.615543    0.4308654  -9.06  0.001775778    2.175    0.540
       543 -11.5038    139.7024    243.9474   1.2435300396e+02   3.7984428007e+00    0.4638591    0.2870046 -66.20  0.002418783    2.059    0.514
       544 -10.8784    123.1509    247.2708   1.2806612889e+02   5.9872183402e+00    0.2878332    0.2054141  29.23  0.001631446    1.602    0.376
       545 -11.3894    118.6299    233.4608   1.2719523686e+02   9.3574737469e+00    0.3241004    0.2284244  76.39 0.0008581629    1.586    0.370
       546 -10.3624     21.3269     17.3019   1.0702173972e+02   6.8496519570e+01    0.1146827   0.06639674 -10.11 0.0005358999    1.642    0.391
       547 -11.5894    115.4683    244.0102   1.2917404857e+02   7.8621505688e+00    0.2694564    0.1758547 -78.04  0.001213609    1.837    0.456
       548 -12.2438    114.8366    236.8593   1.2840569865e+02   9.3319404786e+00    0.7193791    0.3123845 -60.38  0.003212118    2.603    0.616
       549 -11.3737    105.6030    246.6920   1.3142243068e+02   8.9613210821e+00    0.2532693    0.1792718  86.41 0.0005549846    1.531    0.347
       550 -12.3002    109.1604    244.2283   1.3044092725e+02   8.8527138205e+00    0.4128847    0.2907875  66.18 0.0008032866    1.344    0.256
       551 -11.1290    243.9062     14.1742   5.7201286312e+01   2.3791344860e+01    0.1980599    0.1311097 -70.14 0.0006676512    1.264    0.209
       552 -10.7362    173.0416     13.9479   6.4716039827e+01   4.0113671314e+01    0.1944694    0.1660821  79.14            0    1.017    0.016
       553  -9.8298    153.8273     14.3963   6.7672254009e+01   4.4645408384e+01    0.1957533   0.09830637  55.29 0.0009450458    1.687    0.407
       554 -12.3632     84.0346    238.2090   1.3466947639e+02   1.3977578300e+01    0.5332522       0.2994  43.21 0.0007924912    1.614    0.380
       555 -10.8266     79.6395     14.4815   8.4065450103e+01   6.0584147867e+01    0.2886487    0.1089107  51.47   0.00129433    2.528    0.604
       556 -11.4749     85.3509    245.0314   1.3513272878e+02   1.2436398026e+01    0.2641475    0.1931831  80.05 0.0006541979    1.267    0.211
       557 -11.1261     89.2252    244.4246   1.3432965782e+02   1.1964378653e+01    0.2812028    0.1724351  58.05 0.0006657995    1.402    0.287
       558 -10.5480     78.0000    248.0049   1.3681352412e+02   1.2957004211e+01    0.2162916    0.1371843 -78.37  0.001144835    1.602    0.376
       559 -10.1674     13.4840     14.4706   1.0942992940e+02   6.9597913549e+01      0.10864   0.07891043 -14.08 0.0002017248    1.004    0.004
       560 -12.8404     77.1254    241.8365   1.3637116458e+02   1.4288159520e+01    0.5534711    0.2865733  73.26  0.002680228    2.269    0.559
       561 -10.0933    206.9189    245.3076   1.1132775014e+02  -7.7436489823e+00    0.1806624    0.1385053  27.65 0.0004875826    1.110    0.099
       562 -11.1588    174.8000    243.1907   1.1724785570e+02  -2.0925326150e+00    0.3348689    0.1999041 -54.98  0.001720176    2.157    0.536
       563 -12.8672    143.0720    232.0271   1.2197747989e+02   5.4036578610e+00    0.3824942    0.2870397  31.70 0.0009884357    1.353    0.261
       564 -11.4954    146.7982    241.0405   1.2252552913e+02   3.1000471177e+00    0.3864821    0.2938669 -26.98  0.002189478    1.775    0.437
       565 -11.4615    143.8554    238.4014   1.2274275538e+02   4.0863227343e+00    0.3435571    0.2858298  57.79 0.0004650252    1.131    0.116
       566 -12.1775    127.9484    240.6460   1.2626083755e+02   6.4045495840e+00    0.4286681    0.3015124  62.77  0.002136247    1.412    0.292
       567 -11.0514    121.4740    242.6519   1.2781480547e+02   7.1201175131e+00    0.2256259    0.1279465 -58.69 0.0006264244    2.002    0.500
       568  -9.7640     71.7653    243.2945   1.3752441266e+02   1.4779908837e+01    0.1202917   0.07577021  72.75 0.0002242065    1.465    0.317
       569 -12.1137    203.7619    240.9954   1.1122500405e+02  -6.5871207561e+00    0.2790998     0.229381  -7.54  0.001768516    1.239    0.193
       570 -11.2294    197.6755    241.1988   1.1243718642e+02  -5.6202533536e+00    0.3760484    0.2059945  23.01  0.001785159    2.108    0.526
       571  -9.7308     64.6433    241.7306   1.3870680678e+02   1.6098215322e+01      0.18901     0.103346 -70.67 0.0004338495    1.812    0.448
       572 -10.6368     66.6508    238.7495   1.3805264214e+02   1.6411779254e+01    0.2032909    0.1746818  33.87  0.001292819    1.548    0.354
       573 -10.9120    190.8097    235.1589   1.1279076108e+02  -3.5066163093e+00    0.5012892      0.21716  28.11  0.001945909    2.942    0.660
       574 -11.6413    195.3962    232.5570   1.1144890297e+02  -3.8629309647e+00    0.4929313    0.3062586  57.88  0.001292499    2.253    0.556
       575 -12.0784    184.0849    239.6574   1.1485428291e+02  -3.0954898003e+00    0.3220083    0.2718053   1.25 0.0006069299    1.261    0.207
       576 -11.1905    181.8213    235.3911   1.1461708530e+02  -2.0026425888e+00     0.474721    0.2053406  34.93 0.0009664054    2.204    0.546
       577  -9.5413    242.5627    239.4804   1.0371435649e+02  -1.2337825490e+01    0.1209829   0.09861092   5.38 0.0001430256    1.020    0.019
       578  -9.3251    233.4971    239.5657   1.0537778417e+02  -1.1023667947e+01    0.1228527    0.1013262  10.82  0.000343408    1.025    0.024
       579  -9.7893    221.3488    239.6735   1.0765290360e+02  -9.1908527973e+00    0.1150456   0.09929393  65.42 -3.672356e-05    1.755    0.430
       580 -12.0206    153.9661    232.7853   1.1985249901e+02   3.3397943534e+00    0.4771029     0.318978  68.25  0.002367397    1.978    0.494
       581 -11.7917    218.9249    233.0390   1.0696959785e+02  -7.8247272938e+00    0.3496817    0.2423339  -1.03 0.0004679322    1.597    0.374
       582  -9.8729     59.1663    234.8393   1.3909841096e+02   1.8240705856e+01    0.1406344    0.1231592 -88.40            0    1.253    0.202
       583 -11.5253     80.3514    231.1401   1.3462981026e+02   1.5965380574e+01    0.2630323    0.2108793  33.70 0.0004071853    1.523    0.343
       584 -10.7818    178.5172    232.1650   1.1475531923e+02  -8.8116798917e-01    0.2855459    0.1729222  32.63  0.001030879    1.553    0.356
       585 -11.9463     74.1924    230.3097   1.3575637110e+02   1.7049201171e+01    0.3185425    0.2113831 -62.59 0.0006036678    1.605    0.377
       586 -10.3339     71.4947    225.4583   1.3577706274e+02   1.8454459130e+01    0.2417521    0.1099197  56.17  0.001118967    2.097    0.523
