#   1 NUMBER                 Running object number                                     
#   2 MAG_AUTO               Kron-like elliptical aperture magnitude                    [mag]
#   3 X_IMAGE                Object position along x                                    [pixel]
#   4 Y_IMAGE                Object position along y                                    [pixel]
#   5 X_WORLD                Barycenter position along world x axis                     [deg]
#   6 Y_WORLD                Barycenter position along world y axis                     [deg]
#   7 A_WORLD                Profile RMS along major axis (world units)                 [deg]
#   8 B_WORLD                Profile RMS along minor axis (world units)                 [deg]
#   9 THETA_WORLD            Position angle (CCW/world-x)                               [deg]
#  10 FWHM_WORLD             FWHM assuming a gaussian core                              [deg]
#  11 ELONGATION             A_IMAGE/B_IMAGE                                           
#  12 ELLIPTICITY            1 - B_IMAGE/A_IMAGE                                       
         1 -13.9210    215.9695     27.7374   3.5346648072e+02   2.9433920031e+01    0.9150984    0.7807735 -43.13  0.004043763    1.221    0.181
         2  -8.9595    189.6657     15.2889   3.5232242292e+02   3.6326542522e+01    0.1355966   0.07285129 -61.11 0.0006232491    1.630    0.386
         3 -12.5148    249.0906    221.2548   2.7339158295e+01  -2.4258697416e+00    0.6178672    0.1821436 -42.60  0.002777342    4.210    0.762
         4 -12.9747    248.1291    245.6285   3.0983606513e+01  -5.1109922784e+00    0.7587919    0.4280978 -13.95  0.005704644    1.375    0.273
         5 -12.3076     59.9407    228.0284   6.5594755842e+01   1.8417071039e+01    0.2209659    0.1954291  -6.80 0.0008758782    1.365    0.267
         6  -9.9692     89.9988    212.0109   5.6881115017e+01   1.8069120675e+01    0.1843381    0.1732294  43.87 0.0004161922    1.078    0.072
         7 -10.5937     89.8829    222.3788   5.8044507296e+01   1.5999777597e+01    0.4200193    0.1860527  33.70  0.001943714    1.858    0.462
         8 -12.0074     89.3109    217.2654   5.7630638171e+01   1.7087738782e+01    0.4075926    0.3396807  47.32 0.0007967635    1.138    0.122
         9  -9.9844     60.9415    219.3815   6.4653995301e+01   2.0078231217e+01    0.1566254    0.1271971  42.10 0.0003292973    1.038    0.037
        10 -16.2145     66.9969    141.1242   5.3485238399e+01   3.8156322115e+01     6.359559     3.380803  72.50   0.01660487    3.108    0.678
        11 -11.5347     67.9184    214.6096   6.2531207500e+01   2.0266581401e+01    0.1922596    0.1750318  83.73 0.0003665469    1.182    0.154
        12 -10.8759    152.6666    208.3369   4.2171081855e+01   1.0410316824e+01     0.243967    0.1954454  -6.19 0.0008187509    1.192    0.161
        13 -11.1231    250.5009    205.2232   2.4683864007e+01  -6.1266678475e-01    0.3569158   0.08231501 -38.25  0.001560121    3.611    0.723
        14 -10.3396    161.2113    202.2030   3.9463447087e+01   1.0329445239e+01    0.2180232    0.1438876 -39.30  0.001240345    1.512    0.339
        15  -9.1145    182.4961    202.4976   3.5343235950e+01   7.4766962727e+00    0.1223713     0.102221  -5.19 -0.0002962163    1.004    0.004
        16  -9.4282     60.9820    201.9772   6.3076550594e+01   2.3856100221e+01    0.1521145    0.1256015 -81.36 0.0005480064    1.291    0.225
        17  -9.0908     97.0182    238.6669   5.8094277396e+01   1.2079043605e+01    0.1658764    0.1294882  29.21 0.0003663441    1.058    0.054
        18 -10.1555    192.5937    194.1013   3.2102943814e+01   7.5135314088e+00    0.4551079    0.2603749 -64.21  0.001585081    6.150    0.837
        19  -9.3333     88.7930    193.7342   5.4973041568e+01   2.2138400788e+01    0.1786846    0.1446485  58.05 0.0002761155    1.264    0.209
        20 -10.2864    159.0512    191.2851   3.8139033588e+01   1.2560868330e+01     0.206929    0.1756062 -29.42  0.000391103    1.150    0.130
        21  -9.2479     55.1347    191.7309   6.3621292552e+01   2.6916455814e+01    0.2003551    0.1468753  58.22  0.001086875    1.287    0.223
        22  -9.1779     70.1640    186.8563   5.9033707562e+01   2.6201704388e+01    0.2185208    0.1531149  47.07 0.0006851021    1.321    0.243
        23 -12.8105     53.7161    231.2574   6.7287495783e+01   1.8456267960e+01    0.3500261    0.2073697  77.63  0.001910231    1.975    0.494
        24  -9.7389     73.9920    181.9456   5.7390840736e+01   2.6860169365e+01    0.2102442    0.1832579  62.35 0.0004917845    1.114    0.102
        25 -11.9907    173.5640    176.1664   3.2564588138e+01   1.3173284546e+01    0.6986365    0.4204983 -48.45  0.002389156    1.744    0.426
        26 -11.7945    179.5810    169.5051   3.0171335559e+01   1.3461891350e+01    0.6387127    0.4911061 -39.26  0.003068694    1.238    0.192
        27 -10.7334    154.1745    179.1623   3.7092723436e+01   1.5532392000e+01    0.1754727    0.1657178  82.57 0.0006645599    1.343    0.256
        28  -9.8010    160.4729    176.9635   3.5366818068e+01   1.4992074225e+01    0.1965908    0.1254464 -44.55 0.0006535577    1.547    0.354
        29  -9.3410     72.6770    177.0061   5.7119909254e+01   2.8224261388e+01    0.1901275    0.1719166 -81.41 0.0003422688    1.137    0.120
        30 -10.6318     60.2950    165.2974   5.9171698420e+01   3.2782729204e+01    0.4790192      0.25402 -61.69  0.001771669    1.872    0.466
        31 -11.0915    230.2885    166.8291   2.1144077067e+01   6.8487752879e+00    0.1846797    0.1271889 -42.14   0.00084656    1.434    0.303
        32 -10.5558    100.0929    161.3916   4.7115776442e+01   2.7940694133e+01    0.2520924    0.2087337 -75.38 0.0002995355    1.313    0.238
        33 -10.2101    238.3233    161.6630   1.9066036322e+01   6.5916169744e+00    0.1077333   0.08326815 -53.34 0.0005118263    1.716    0.417
        34 -10.4213     62.6028    239.7350   6.5875506116e+01   1.5833906792e+01    0.1176258   0.08747835  -3.69 0.0006975288    1.722    0.419
        35 -10.1156    125.8462    159.0695   3.9954385813e+01   2.4229071527e+01    0.2211266     0.199355  77.46 0.0008397916    1.270    0.213
        36 -10.1082    123.6546    155.0576   3.9733104896e+01   2.5493785945e+01    0.2061036     0.178719 -49.99 0.0004884975    1.158    0.136
        37 -12.1210    133.8798    146.0569   3.5388168244e+01   2.5694676259e+01     1.348322    0.3243547 -54.04  0.003269424    5.894    0.830
        38 -10.0085    129.9723    153.5165   3.7857011460e+01   2.4747608792e+01    0.2751531    0.1437137  32.76  0.001035268    2.027    0.507
        39 -12.0219     98.5338    151.0252   4.5688423017e+01   3.0688542964e+01    0.6255141    0.4403425  16.19  0.002867039    1.726    0.421
        40 -11.3153     90.8369    149.0840   4.7544688721e+01   3.2427462218e+01    0.3233511    0.3019039 -72.96 0.0003354819    1.074    0.069
        41 -12.9495     95.1653    143.7241   4.5268515948e+01   3.3042846321e+01    0.8086557    0.7043115   8.22  0.003641837    1.305    0.234
        42 -11.1699    112.0540    150.7353   4.1909505487e+01   2.8474909891e+01    0.4366963    0.2645865  66.39  0.001682462    2.615    0.618
        43 -10.2029    143.4908    145.9883   3.3099789193e+01   2.3990640672e+01    0.2058753    0.1277923 -70.72 0.0008106208    2.614    0.617
        44 -10.9703    104.9664    137.6948   4.1227902005e+01   3.2819460605e+01    0.2653055    0.2459277  88.17 0.0002995071    1.117    0.105
        45 -12.1796    107.1628    134.0969   3.9840456711e+01   3.3291166127e+01    0.5980389    0.4248786 -48.87  0.002805734    1.398    0.285
        46 -12.1754     96.0451    131.4872   4.2510716453e+01   3.5927541878e+01     0.435518    0.3143592 -45.95 0.0005146558    1.418    0.295
        47 -10.0525    131.1785    126.0809   3.1648446305e+01   3.0601200742e+01    0.2338885    0.2036154 -19.82 0.0008606482    1.274    0.215
        48 -11.4695    135.3163    130.3627   3.1621245871e+01   2.8861708368e+01    0.5589788    0.3217838 -52.35  0.001686219    1.745    0.427
        49 -11.4162    114.9646    125.9743   3.5851114985e+01   3.3761209642e+01    0.3428691    0.2873111 -19.37  0.000991029    1.405    0.288
        50 -10.9957    161.1260    118.1883   2.3036379203e+01   2.6370817660e+01    0.5238727    0.3078942 -66.22  0.002063135    2.669    0.625
        51 -10.8290    135.0028    120.0295   2.9274670892e+01   3.1172698999e+01    0.3412758    0.1718188 -51.82  0.001217143    2.007    0.502
        52 -10.5786    102.5254    120.6972   3.8150583862e+01   3.7388880082e+01     0.290612    0.2550607  -6.54 0.0006391814    1.356    0.262
        53 -10.0198    110.1179    115.9442   3.4803270907e+01   3.7055687710e+01    0.2273277    0.2204883 -65.37 0.0003826517    1.014    0.014
        54 -10.9276    134.3098    105.4662   2.5788173267e+01   3.4438722342e+01    0.5529205    0.2031258 -46.24  0.001883635    2.609    0.617
        55 -11.8388    117.1364    109.3853   3.1196741180e+01   3.7158766894e+01    0.6158193     0.328734  61.05  0.002207697    2.667    0.625
        56 -12.3510    119.4815    104.2511   2.9219214594e+01   3.7824861348e+01    0.5368294    0.3920586 -53.21  0.002054836    1.342    0.255
        57 -11.7006    111.8964     99.3958   2.9981230285e+01   4.0504387788e+01     0.589945    0.3842445  78.55  0.000909814    2.448    0.591
        58  -9.4574    113.6437     95.2862   2.8347915835e+01   4.1047110197e+01    0.1593095    0.1206937  86.27 0.0007022332    1.674    0.403
        59  -9.2125    155.5800     87.7273   1.6451521704e+01   3.3372417792e+01     0.211108    0.1273757 -49.45 0.0009489298    1.571    0.363
        60 -10.1265     96.3277     86.9087   3.1019875660e+01   4.6600067432e+01    0.3828113    0.2738421  85.42  0.001490646    1.947    0.486
        61  -9.7880     75.8213    101.8753   4.2164598199e+01   4.7001007020e+01    0.2707607    0.2186276  55.85 0.0007328169    1.288    0.224
        62 -13.0474    173.8558     67.1591   7.7972696217e+00   3.2892792367e+01    0.7122314    0.6040673 -57.74 0.0008182346    1.039    0.037
        63 -11.1587    164.9246     69.3100   9.7691442512e+00   3.4527761163e+01    0.3524996      0.26218 -29.58  0.001626539    1.443    0.307
        64 -13.7695    190.6711     53.7680   2.0929971891e+00   3.1267041479e+01     1.102711    0.9286995  26.39  0.004027896    1.674    0.402
        65 -12.0872    196.4107     48.3159   9.0228257784e-02   3.0814303211e+01     0.359908    0.3304097  59.29 0.0008962359    1.350    0.259
        66 -10.1364    126.6077     60.0547   1.4268594530e+01   4.5053876395e+01     0.461841    0.2272037 -69.08  0.001271647    5.031    0.801
        67 -10.5174     70.4200    234.3573   6.3680098694e+01   1.5985661257e+01    0.1268954     0.112991 -31.44 0.0008496211    1.374    0.272
        68 -12.1988     48.3739    229.2675   6.8391412493e+01   1.9431761062e+01    0.3176808    0.1684151 -58.41  0.001685337    2.204    0.546
        69 -19.4953     21.0310    144.7299   6.9318180145e+01   4.2576507820e+01     19.82461     6.323764 -81.68   0.06588472    3.270    0.694
        70 -10.0232     60.8802     21.3728   1.7492854806e+01   6.6627483765e+01    0.2130012    0.1910773 -54.40 0.0008090723    1.243    0.196
