#   1 NUMBER                 Running object number                                     
#   2 MAG_AUTO               Kron-like elliptical aperture magnitude                    [mag]
#   3 X_IMAGE                Object position along x                                    [pixel]
#   4 Y_IMAGE                Object position along y                                    [pixel]
#   5 X_WORLD                Barycenter position along world x axis                     [deg]
#   6 Y_WORLD                Barycenter position along world y axis                     [deg]
#   7 A_WORLD                Profile RMS along major axis (world units)                 [deg]
#   8 B_WORLD                Profile RMS along minor axis (world units)                 [deg]
#   9 THETA_WORLD            Position angle (CCW/world-x)                               [deg]
#  10 FWHM_WORLD             FWHM assuming a gaussian core                              [deg]
#  11 ELONGATION             A_IMAGE/B_IMAGE                                           
#  12 ELLIPTICITY            1 - B_IMAGE/A_IMAGE                                       
         1 -14.1533    166.1080     50.0950   7.3035207237e+01   3.7394240260e+01     1.875566     1.168812  22.12  0.005967079    2.139    0.532
         2 -14.1384    180.1192     34.8733   6.5435341415e+01   3.5865387587e+01     1.104604    0.9762397  11.40  0.003645428    1.156    0.135
         3 -12.0977    189.7036     14.8209   5.7365013129e+01   3.5622733823e+01    0.2755356    0.2504232  83.82 0.0007685559    1.132    0.117
         4 -13.4069    202.7647      3.6114   5.2196965638e+01   3.3216152745e+01    0.8794666    0.4993318  36.90  0.002950795    1.988    0.497
         5 -13.0857    197.6502      3.3358   5.2676228499e+01   3.4603340922e+01    0.5669737     0.456307  81.20  0.002336953    1.254    0.202
         6 -10.9412     57.3312      5.3319   8.5113150770e+01   6.7192850442e+01    0.1322006    0.0867475  -1.76            0    1.723    0.420
         7 -10.5175    154.0798    195.8575   1.0853083645e+02   1.5721492937e+01    0.1841024    0.1415387  59.60  0.001224488    1.267    0.211
         8 -18.7101     52.8831    245.1534   1.2971863781e+02   2.2564656158e+01     5.262469     3.912714  49.97   0.04773397    1.347    0.258
         9 -10.2921     64.8736    195.6879   1.2459863196e+02   2.8757286945e+01    0.1547655    0.1298892 -89.63 0.0005718859    1.255    0.203
        10 -11.6136     91.2101    194.2457   1.1973335635e+02   2.5601541016e+01    0.2275359    0.1344496  60.43 0.0004087636    1.482    0.325
        11 -10.7754    167.5989    188.6300   1.0507441274e+02   1.4459327629e+01    0.2174477    0.1854989 -83.06  0.001459468    1.531    0.347
        12 -19.1062     34.8868     99.6810   1.2095255397e+02   5.0904060174e+01      15.8328    0.8909897 -67.64   0.02812994   16.136    0.938
        13 -13.7298     11.1761    206.2631   1.3425695439e+02   3.2613113764e+01    0.4243736    0.1860528  39.35  0.002982924    2.103    0.525
        14 -11.0092    205.5311    180.4761   9.7075209464e+01   8.8458109369e+00    0.2398084    0.1852299  48.11   0.00101384    1.285    0.222
        15 -11.1402    208.5271    178.5044   9.6220424998e+01   8.5542586409e+00    0.3381115    0.2260428  20.44  0.001958797    1.538    0.350
        16  -9.1965    179.2541    206.2814   1.0559212247e+02   1.0150841004e+01     0.107154   0.07767315  22.41 0.0006848347    1.469    0.319
        17 -11.5306     73.1887    174.8058   1.2116725200e+02   3.1379800627e+01    0.2024231    0.1417901 -64.91 0.0007299801    1.525    0.344
        18 -11.4580    195.8890    170.1900   9.6961733909e+01   1.1936185984e+01    0.3438621    0.3048286  45.83  0.001002131    1.174    0.148
        19 -10.7566    193.8127    164.9446   9.6385452006e+01   1.3043529190e+01    0.2796193    0.2688814 -59.64  0.001659431    1.307    0.235
        20 -10.4763    158.5308    204.5082   1.0890685650e+02   1.3786154160e+01    0.3096453    0.1428207  62.60  0.001192213    4.382    0.772
        21 -12.0768    137.7096    171.3112   1.0806006073e+02   2.2271160625e+01    0.2477401    0.2033648  57.96 0.0009523459    1.097    0.088
        22  -9.8745    195.6926    174.3158   9.7725013383e+01   1.1418501217e+01    0.1928139    0.1493819  58.31 0.0006501444    1.467    0.318
        23 -11.9424     97.2494    161.1261   1.1473987571e+02   3.0574686010e+01    0.2417318    0.2169225 -81.99 0.0004032211    1.162    0.139
        24 -13.4722    102.1391    153.7156   1.1268511211e+02   3.1226736200e+01    0.5940663    0.4707754 -37.02  0.003664615    1.697    0.411
        25 -10.3443      7.0885    161.3142   1.3286921672e+02   4.0767890700e+01    0.1314773    0.1102019  80.39 0.0007429636    1.238    0.192
        26  -9.6400    132.3021    159.6360   1.0732013762e+02   2.5192071010e+01     0.130695   0.09327888  78.48 0.0007035809    1.731    0.422
        27 -10.9068    120.1403    156.9228   1.0938890727e+02   2.7741841821e+01    0.2754484    0.1715826 -66.73  0.001478566    1.858    0.462
        28 -10.0880    163.3489    204.0310   1.0800847411e+02   1.3062528952e+01    0.1496691    0.1353609  46.69 0.0004661814    1.144    0.126
        29 -12.1825    134.3876    148.2096   1.0497225346e+02   2.6857736700e+01    0.5422034    0.2333275 -57.39  0.002237502    2.922    0.658
        30 -12.3538    134.0000    143.9949   1.0430381308e+02   2.7693246677e+01    0.7338405    0.2584774 -58.49  0.002394559    4.605    0.783
        31  -7.3984     15.4833    213.3354   1.3387079397e+02   3.1094841848e+01   0.08952378   0.06398676  65.61 0.0005944796    1.110    0.099
        32 -10.2715    174.9954    149.0305   9.6903303965e+01   1.9033122837e+01    0.2044021    0.1638932  81.42 0.0006336503    1.671    0.402
        33 -12.1816    144.6265    145.5494   1.0235170812e+02   2.5458376658e+01    0.3437319    0.2707495 -76.60  0.001098607    1.541    0.351
        34 -11.1694      6.6330    145.8471   1.3206982514e+02   4.3735379396e+01    0.1791042    0.1675493  48.07   0.00157945    1.472    0.321
        35 -12.9493    110.9128    139.7911   1.0858907158e+02   3.2497654405e+01    0.5555822    0.3932707 -21.93  0.002791245    2.423    0.587
        36 -12.3416    100.4459    139.4765   1.1087418426e+02   3.4246046667e+01    0.2496231    0.2210647  58.59 0.0002646115    1.095    0.087
        37 -12.9526      2.7266    125.7574   1.3158984478e+02   4.7983949178e+01    0.7691581    0.2517276 -81.68  0.003930983    2.485    0.598
        38 -11.2257    105.7594    125.9359   1.0730858146e+02   3.6095077668e+01    0.2833907    0.2280147 -42.14 0.0009463857    1.413    0.292
        39 -12.3477    117.9590    129.7973   1.0520928986e+02   3.3247490338e+01    0.3486234    0.3050978  26.75  0.001075457    1.322    0.244
        40 -12.1196    135.5327    124.2443   1.0012220683e+02   3.1092660884e+01    0.7663903    0.1343139 -48.98  0.001908183    6.554    0.847
        41 -11.0651    160.7317    127.6350   9.5384799374e+01   2.5461807013e+01     0.342009    0.2133545 -60.23  0.001512315    2.170    0.539
        42 -10.5944    112.0500    119.0203   1.0448089878e+02   3.6422005607e+01    0.1982114    0.1884051  83.22 0.0003112336    1.023    0.022
        43 -11.8041    105.9966    130.8072   1.0813911571e+02   3.5078297740e+01    0.3220103    0.2840082 -75.67  0.001215521    1.105    0.095
        44 -12.0260     67.7356    116.7395   1.1496563594e+02   4.3612177909e+01     0.210679    0.1862608 -54.35 0.0009232734    1.253    0.202
        45 -11.1057    168.3740    113.2157   9.0502918032e+01   2.6360103077e+01    0.3510579    0.2732007 -73.79   0.00121732    1.734    0.423
        46 -11.4578      2.3462    112.8762   1.3072364086e+02   5.0630454816e+01    0.2375641    0.1919494 -50.98  0.001875888    1.530    0.346
        47 -10.5516    205.5093    110.2016   8.2544006715e+01   1.8633947416e+01      0.32256    0.1926059  41.78 0.0008794811    1.610    0.379
        48 -12.2499     60.3825    109.1898   1.1562189853e+02   4.6139856165e+01    0.2485623    0.2066085 -66.53  0.001638277    1.119    0.106
        49 -11.7566    139.3739    200.3471   1.1173826307e+02   1.7460858434e+01    0.2103792    0.1779436  89.07  0.001287403    1.358    0.264
        50  -9.9754     80.5095    105.9006   1.0976662469e+02   4.4186289988e+01    0.1934647    0.1175713 -58.98 0.0004707868    1.520    0.342
        51 -11.4242     66.9909    104.7237   1.1311562971e+02   4.6278736775e+01    0.1764913    0.1614366 -87.34  0.001178791    1.067    0.062
        52  -9.9112    150.1737    101.1623   9.1478575385e+01   3.2451410476e+01     0.195564    0.1711836  88.96 0.0004568181    1.323    0.244
        53  -9.8242     82.2884     76.3609   1.0260275497e+02   5.0213483109e+01    0.1765871     0.123832  50.96 0.0006160449    1.597    0.374
        54 -10.9510      1.3946    249.3146   1.3707176874e+02   2.7066573111e+01   0.07556747   0.05586612  63.94 0.0007578162    1.288    0.224
        55 -12.4474    193.3998    192.4395   1.0112571130e+02   9.4860075773e+00    0.6061861    0.3992977 -47.66  0.003010349    2.031    0.508
        56 -13.2558    184.2951     28.2590   6.2574297158e+01   3.5574981066e+01    0.5985923    0.5406199  42.25  0.001169306    1.088    0.081
        57 -10.0639     13.6760     59.9482   1.2107936268e+02   6.1158270704e+01    0.1625228    0.1146501 -70.13 0.0004054066    1.112    0.101
        58  -9.8610    110.8062     20.8505   7.4867336542e+01   5.4927406067e+01    0.1853948    0.1710278 -73.72 0.0006944517    1.341    0.254
        59 -10.7826    169.1398    236.7164   1.1107421393e+02   8.1497250267e+00    0.1568315    0.1404049  32.69 0.0003480149    1.250    0.200
        60 -10.6305    209.0392    198.0265   9.9367466721e+01   6.1471781301e+00    0.1677286    0.1385522  65.64 0.0006607251    1.674    0.403
        61 -10.3888    198.7914    222.8061   1.0464311770e+02   5.0947981019e+00    0.1639401    0.1170859  32.98  0.000511198    1.099    0.090
