#   1 NUMBER                 Running object number                                     
#   2 MAG_AUTO               Kron-like elliptical aperture magnitude                    [mag]
#   3 X_IMAGE                Object position along x                                    [pixel]
#   4 Y_IMAGE                Object position along y                                    [pixel]
#   5 X_WORLD                Barycenter position along world x axis                     [deg]
#   6 Y_WORLD                Barycenter position along world y axis                     [deg]
#   7 A_WORLD                Profile RMS along major axis (world units)                 [deg]
#   8 B_WORLD                Profile RMS along minor axis (world units)                 [deg]
#   9 THETA_WORLD            Position angle (CCW/world-x)                               [deg]
#  10 FWHM_WORLD             FWHM assuming a gaussian core                              [deg]
#  11 ELONGATION             A_IMAGE/B_IMAGE                                           
#  12 ELLIPTICITY            1 - B_IMAGE/A_IMAGE                                       
         1 -15.5102    244.8531     14.9599   1.6206493848e+01   2.7416707169e+01     2.445905    0.6214221 -44.97   0.01388227    2.628    0.619
         2 -13.7141     12.0019     23.4364   6.5119120575e+01   7.1100611080e+01    0.6636566    0.3685527 -21.49  0.003539006    2.151    0.535
         3 -12.0720      1.7262     25.2340   7.2472784141e+01   7.1997955765e+01    0.5145352     0.155886 -51.06  0.002168594    3.686    0.729
         4 -13.1196     25.0245      4.0151   4.8576299121e+01   7.1552627328e+01    0.6478783    0.2660658  36.02  0.003231119    2.166    0.538
         5 -13.4532      6.6594     10.8500   6.2589454603e+01   7.3532968994e+01    0.8432328    0.5098925 -13.29  0.005019347    1.877    0.467
         6 -12.6018     10.6036      1.9961   5.5449038497e+01   7.4057070129e+01     1.032433    0.1638745  40.15  0.003420169    5.032    0.801
         7 -12.1848     13.4133     12.8093   5.9317517735e+01   7.2370128310e+01     0.319632    0.2156302  -0.60  0.001510028    1.563    0.360
         8 -12.5833     15.5741      6.9845   5.5123415521e+01   7.2757174630e+01    0.4510413     0.273755   7.60  0.002366321    1.960    0.490
         9 -11.9407     26.1691     16.3448   5.3954649229e+01   6.9993015510e+01    0.2263634    0.1464638   0.36  0.001296483    1.925    0.480
        10 -12.6485     19.8576     14.0445   5.6208314517e+01   7.1268269033e+01    0.3499343    0.2267836  -7.02  0.002088703    1.834    0.455
        11 -11.0190     41.5832      2.3402   4.0695693129e+01   6.8696984335e+01    0.2807582    0.1211879  34.61  0.001342291    2.551    0.608
        12 -10.3917     49.2530    243.2142   9.3977651227e+01   1.4368651466e+01    0.1952392    0.1409029  50.11  0.000904744    1.357    0.263
        13 -12.7864    234.2617    244.3913   5.3929711675e+01  -5.3010295183e+00    0.6987918     0.208988 -38.30  0.003492495    2.483    0.597
        14 -11.9260    240.0614    239.4344   5.2320088426e+01  -5.0182471204e+00    0.3059009    0.1354718 -35.15  0.001241404    1.667    0.400
        15 -12.0903    243.6476    235.3331   5.1187945270e+01  -4.6905691051e+00    0.3124357    0.1474267 -25.89  0.001365003    1.858    0.462
        16 -11.7305    244.9203    230.4108   5.0285842464e+01  -4.0597811738e+00    0.3438929    0.1250546 -37.59  0.001894408    2.011    0.503
        17 -12.3909    248.8250    225.2310   4.8962868517e+01  -3.5980404812e+00    0.3996748    0.2991815 -12.91  0.003173487    1.221    0.181
        18 -12.0837    248.8380    248.0487   5.2224493036e+01  -6.9120349893e+00    0.5559731    0.2240752 -36.75  0.003399061    1.770    0.435
        19 -11.5296    250.0354    232.8046   4.9885318859e+01  -4.8107708465e+00    0.3480423    0.1410605 -39.42  0.001559715    1.769    0.435
        20 -12.4370    243.0629    245.4766   5.2726854971e+01  -6.1274180483e+00    0.6270322    0.2009134 -33.40  0.003201337    2.524    0.604
        21 -12.0748    247.3207    239.3406   5.1217879926e+01  -5.5570188776e+00     0.430774    0.1750697 -35.71  0.002247125    1.784    0.439
        22 -11.8481    225.7282    248.2619   5.5851998140e+01  -5.2059136054e+00    0.3010362    0.1679053 -24.05  0.001410012    1.442    0.306
        23 -12.6852    212.4935    248.1354   5.8056840223e+01  -4.0977281993e+00    0.4383288    0.2313858 -17.65  0.002557787    1.829    0.453
        24 -10.3152    183.4931    250.4644   6.3696441623e+01  -1.8575430390e+00    0.1224049   0.09320737 -14.29  0.000312719    1.029    0.028
        25 -11.5613    168.8292    250.4059   6.6595211186e+01  -4.0978207897e-01     0.297775     0.109763  21.22  0.001304244    2.731    0.634
        26 -10.8487     87.5032    250.5098   8.5112712908e+01   8.5317639006e+00    0.2927186    0.1196588  23.95  0.001216373    2.186    0.543
        27 -11.1823     74.6015    250.3234   8.8283224696e+01   1.0024226367e+01    0.3465364    0.1422047  33.51  0.001483429    2.064    0.516
        28 -11.6670     65.2287    249.1164   9.0498941415e+01   1.1324097158e+01    0.4454372    0.2488112  37.55    0.0021951    1.603    0.376
        29 -11.4487     50.1205    250.1127   9.4369894907e+01   1.2726268524e+01    0.5237441    0.1736002  28.06  0.002071621    2.457    0.593
        30 -11.3269     44.8284    244.9419   9.5252743707e+01   1.4438185243e+01    0.4149731    0.2494467  47.64   0.00163321    1.598    0.374
        31 -12.0245     36.7941    248.6387   9.7569059515e+01   1.4419044270e+01    0.5481215    0.2586181  44.08  0.002541477    1.917    0.478
        32 -11.0235     27.3434    248.8127   9.9920346798e+01   1.5302141870e+01    0.3800454    0.1930448  42.77  0.001447147    1.719    0.418
        33 -12.1803     25.5707    228.7882   9.8902112733e+01   2.0161263726e+01    0.6374138    0.3854571  66.90  0.003110134    1.789    0.441
        34 -12.0626     20.3603    249.0656   1.0164763545e+02   1.5899901796e+01    0.4832726    0.2555734  37.08  0.001875094    1.595    0.373
        35 -12.4732      2.4019    211.1886   1.0384728977e+02   2.6550997336e+01    0.9735579    0.3429111 -83.70  0.003619256    2.994    0.666
        36 -11.5927     18.7121    221.8452   1.0019263677e+02   2.2502461265e+01    0.4401876    0.2731841  70.24  0.001682194    1.706    0.414
        37 -12.1291     12.2705    217.1358   1.0157963661e+02   2.4245250033e+01    0.6250747    0.3568273  53.59  0.002266722    1.705    0.414
        38 -12.1824     12.1882    248.9638   1.0362089537e+02   1.6658624197e+01    0.5556444    0.2371281  37.62    0.0019057    1.908    0.476
        39 -12.6899     15.9869    240.3067   1.0216856688e+02   1.8303450179e+01    0.7358422    0.3680843  45.30  0.002768157    1.773    0.436
        40 -12.2995      6.6585    236.3834   1.0425672215e+02   2.0031827932e+01    0.6199526    0.3621154  56.52  0.003228119    1.607    0.378
        41 -11.6880     14.1830    231.9631   1.0208593272e+02   2.0435931481e+01    0.5134965      0.29138  52.08   0.00190941    1.660    0.398
        42 -11.6681     11.2327    225.6915   1.0243706823e+02   2.2211672353e+01    0.4667434    0.2426667  49.93  0.001574129    1.806    0.446
        43 -12.2682      4.9159    228.2929   1.0422851536e+02   2.2107196745e+01    0.5953501    0.3113805  58.39  0.002208934    1.869    0.465
        44 -11.9413      2.2385    220.7534   1.0447626149e+02   2.4166056721e+01    0.4441609    0.2594302  80.66  0.001558471    1.738    0.425
        45 -11.5630      3.4932    250.3704   1.0576697862e+02   1.7089494873e+01    0.3956154    0.1865448  19.74  0.001908613    2.083    0.520
        46 -12.8840      3.3635    243.0584   1.0542761957e+02   1.8754791622e+01    0.6717387    0.3613718  73.54  0.003377074    1.921    0.479
        47 -12.0137     29.5626    240.7211   9.8781465334e+01   1.6940990561e+01    0.5059694    0.2998254  56.15  0.001978469    1.699    0.411
        48 -11.0687    202.4983    240.4914   5.8697036828e+01  -1.9924440132e+00    0.2182888   0.07880954 -37.08  0.001034184    2.325    0.570
        49 -11.4314     72.9785    240.3361   8.7621045290e+01   1.2405863060e+01    0.3748332     0.180064  45.26  0.001601171    2.186    0.543
        50 -10.9672     38.2553    240.3876   9.6541418490e+01   1.6157610426e+01    0.3504535    0.1987849  44.77  0.001390428    1.632    0.387
        51 -11.3285    214.6490    239.6524   5.6449519536e+01  -2.9521681309e+00    0.1863766    0.1027904 -20.18 0.0009625839    1.676    0.403
        52 -11.7300     57.4211    242.1657   9.1793558774e+01   1.3730724002e+01    0.5243672    0.2483895  45.36  0.002288585    2.100    0.524
        53 -10.3714     64.9608    239.9835   8.9639607183e+01   1.3393618425e+01    0.2328413    0.1475494  53.80  0.001136581    1.749    0.428
        54 -10.5359    220.2001    238.7736   5.5386314579e+01  -3.2957973377e+00    0.1669507   0.09928217 -24.05 0.0009198847    1.371    0.271
        55 -10.8174    128.9920    240.0000   7.3796072019e+01   5.8928620565e+00    0.2210029   0.06965189  25.96 0.0008048015    2.959    0.662
        56 -11.2343     45.2310    237.1369   9.4463594980e+01   1.6197012918e+01    0.3874002    0.2059137  42.03  0.001516827    1.729    0.422
        57 -11.8096    231.4715    234.7786   5.2974886588e+01  -3.6289217566e+00    0.3580323    0.1417872 -35.73  0.001963815    1.948    0.487
        58 -10.6749     32.8207    236.3084   9.7605795140e+01   1.7656595407e+01    0.3036842    0.1743207  60.71  0.001363814    1.889    0.471
        59 -10.5250     82.0221    236.0429   8.4812727749e+01   1.2322100884e+01    0.2322922    0.1542025  53.23  0.001138158    1.751    0.429
        60 -10.3647     95.9837    235.4938   8.1193857088e+01   1.0779557854e+01    0.2089003   0.09268118  44.43 0.0008105507    2.592    0.614
        61 -10.8867    207.0035    233.9862   5.6927602473e+01  -1.3437659107e+00    0.2001274      0.11151 -19.79  0.001139554    1.740    0.425
        62 -11.2680     39.9625    231.0389   9.5295125948e+01   1.8191572596e+01    0.3881049    0.2533182  63.45  0.001938602    1.674    0.402
        63 -11.2924    217.7396    231.6241   5.4735148258e+01  -1.9461872184e+00    0.2281089    0.1049172 -35.81  0.001272837    1.720    0.419
        64 -10.9078     59.3401    231.7966   9.0247019088e+01   1.5922013636e+01    0.3682372    0.1368004  38.40  0.001418993    2.398    0.583
        65 -10.9499     48.7382    230.6453   9.2936080349e+01   1.7361443321e+01    0.3651601    0.2244412  69.68  0.001696976    2.001    0.500
        66 -12.0031    236.7537    228.3279   5.1206023084e+01  -3.0802156909e+00    0.3416658    0.1477436 -33.13  0.001949091    1.835    0.455
        67 -10.7367     32.6294    229.3701   9.7087985001e+01   1.9335411293e+01    0.3125792    0.1825922  54.74  0.001190914    1.751    0.429
        68 -10.2791    229.4257    227.2617   5.2184923759e+01  -2.2895780927e+00    0.2213757   0.07926443 -40.79   0.00113521    2.110    0.526
        69 -10.0912    223.6772    225.6583   5.2862185494e+01  -1.5253193290e+00    0.1220801   0.06710292 -21.83 0.0007050637    1.726    0.421
        70 -10.7464     43.5570    221.0161   9.3388863059e+01   2.0262508822e+01    0.2995677    0.1683998  40.74  0.001377624    1.660    0.398
        71 -12.1477    248.5198    215.1574   4.7524407476e+01  -2.0543925754e+00    0.4551355    0.1450053 -39.08  0.002323492    2.294    0.564
        72 -11.9966    239.1713    219.2574   4.9493260476e+01  -1.8863521388e+00    0.2727863    0.1364358 -34.52  0.001464962    1.510    0.338
        73 -10.3871    227.6277    219.1782   5.1250059571e+01  -8.4552909583e-01     0.173742   0.07713993 -36.77 0.0009555676    1.748    0.428
        74 -11.4203     34.8014    217.1872   9.5427627347e+01   2.2128501180e+01    0.3747571    0.2425217  70.26  0.001796846    1.735    0.424
        75 -10.7822     24.3246    217.4606   9.8330878781e+01   2.3082218493e+01    0.3173264    0.1960932  63.51  0.001235261    1.715    0.417
        76 -11.3817     21.6144    211.2507   9.8564603967e+01   2.4912190427e+01    0.4380955    0.2524872 -85.87  0.002024265    1.846    0.458
        77 -11.0049     28.8550    211.4230   9.6553732190e+01   2.4183486922e+01     0.316566    0.1949264  66.46  0.001468066    1.799    0.444
        78 -12.6008     12.4036    205.4839   1.0068429782e+02   2.7210543352e+01    0.7381725    0.4161706  53.80  0.003048528    1.775    0.437
        79 -12.2073      3.5348    197.2893   1.0259546360e+02   3.0058150929e+01    0.5389756    0.3388819  69.44  0.002024169    1.620    0.383
        80 -11.6633      5.2603    183.1059   1.0099924864e+02   3.3707907512e+01    0.3414816    0.2205853  75.38  0.001155921    1.610    0.379
        81 -11.8874      1.9129    178.4038   1.0164324938e+02   3.5218522374e+01    0.6077222    0.2531356 -81.45   0.00236573    2.387    0.581
        82 -11.7285      8.6850    196.5083   1.0105234114e+02   2.9865196658e+01    0.5723982    0.2333078  85.45   0.00203928    3.078    0.675
        83 -12.3675      3.9358    188.5033   1.0182649163e+02   3.2356825371e+01    0.8706286    0.3666884  64.13  0.003200952    2.912    0.657
        84 -10.2891     36.2345    207.8307   9.4121718216e+01   2.4370018809e+01    0.2649149    0.1185993  57.32 0.0009532036    2.832    0.647
        85 -10.1725    239.8408    206.6983   4.7497109751e+01   2.4573650967e-02    0.1690238     0.103641 -36.02  0.001132548    1.199    0.166
        86 -10.3440    246.9903    205.5031   4.6295331646e+01  -4.3590758882e-01    0.1871665    0.1067414 -39.89  0.001146371    1.285    0.222
        87 -11.2309     25.9876    203.4645   9.6639528332e+01   2.6520451929e+01    0.3144668     0.163832  77.55  0.001257449    2.415    0.586
        88 -10.5309     18.8819    201.4964   9.8512334781e+01   2.7690501379e+01    0.2484112    0.1795667  65.19  0.001008834    1.405    0.288
        89 -11.9235     16.3055    196.1919   9.8802609976e+01   2.9316485941e+01    0.4244336    0.2161501  49.79  0.001819582    1.998    0.499
        90 -10.5433    250.5213    200.2589   4.5016350657e+01   6.1468549351e-02    0.2695265   0.07671811 -43.25  0.001286569    2.516    0.603
        91  -9.7791     31.3055    201.6553   9.4924599641e+01   2.6477748549e+01    0.1562213   0.09885109  58.50  0.000704196    1.691    0.409
        92 -10.6192    243.5555    199.7524   4.5903562091e+01   7.8022770678e-01    0.2239099   0.07729716 -41.22  0.001136954    2.126    0.530
        93 -11.2616     11.2684    190.9092   9.9839345652e+01   3.1145653400e+01    0.3040127    0.1832444  83.41  0.001396936    1.762    0.432
        94 -11.9693     17.1545    189.7880   9.7977410825e+01   3.0952720398e+01    0.3854704    0.2291499  68.15   0.00172115    1.873    0.466
        95 -10.7638     24.1737    186.4767   9.5519138431e+01   3.1214939274e+01    0.3088728    0.1827416  79.47  0.001326579    1.975    0.494
        96 -12.4237     11.6305    184.2745   9.9154491387e+01   3.2900203560e+01    0.4223819    0.2500689 -85.93  0.001614042    1.720    0.418
        97 -12.4395      9.0917    177.8541   9.9363328347e+01   3.4841790128e+01    0.3923847    0.1936558 -74.97  0.001508024    1.925    0.481
        98  -9.8213    249.6790    184.3427   4.2700059978e+01   2.6326013055e+00    0.1026742    0.0755484 -60.72 0.0007050106    1.724    0.420
        99 -10.0814     30.5103    184.5089   9.3351469776e+01   3.1138344245e+01    0.1455153     0.139918  70.20 2.424126e-05    1.023    0.023
       100 -11.8705     17.3900    182.1601   9.7180714184e+01   3.2993506960e+01    0.4784157    0.2069002  83.80  0.001617501    3.248    0.692
       101 -10.8799     23.2791    179.8578   9.5102176877e+01   3.3095975579e+01    0.2460771    0.1759886  73.70   0.00118743    1.509    0.337
       102 -11.4325     18.4384    174.2890   9.6048933408e+01   3.5052003596e+01    0.2890512    0.1641394  33.86  0.001286654    1.727    0.421
       103 -11.3285     17.4983    170.0422   9.5899813553e+01   3.6299082005e+01    0.2906598    0.1426698 -80.65  0.001150819    2.146    0.534
       104 -10.8118      1.4946    170.4290   1.0111207729e+02   3.7413611855e+01    0.3705243    0.1590499 -74.02  0.001244724    2.135    0.532
       105 -12.7452      6.4954    171.3948   9.9597255808e+01   3.6798819865e+01    0.4839788    0.2799295  84.15  0.002112934    1.867    0.464
       106 -12.1331      2.7732    165.6310   1.0027585484e+02   3.8637930386e+01    0.4545013    0.2858484  52.21  0.002166253    1.670    0.401
       107 -12.3574     10.6842    166.3866   9.7751630922e+01   3.7857814712e+01    0.3344176    0.2074656  57.41  0.001524718    1.753    0.430
       108 -11.3714     15.3968    165.1553   9.6061321933e+01   3.7820882840e+01    0.2154983     0.132999  88.80 0.0009516544    1.761    0.432
       109 -11.9306      5.6342    161.4180   9.8930983220e+01   3.9595761103e+01    0.3169948    0.2281659  66.85  0.001348506    1.473    0.321
       110 -12.2696     16.5025    158.0681   9.4883523062e+01   3.9684238644e+01    0.4949012    0.1919034 -87.83  0.001511987    3.793    0.736
       111 -12.9975      3.6496    154.1503   9.8877805829e+01   4.1727768880e+01    0.7042187    0.2205736 -62.92   0.00252312    2.594    0.615
       112 -10.2010     20.3268    155.6532   9.3269202090e+01   4.0022904037e+01    0.1603124    0.1040713  59.08 0.0007049961    1.750    0.429
       113 -10.5301    250.0000    150.9765   3.7433649646e+01   7.8949975836e+00     0.188788   0.04696339 -45.19 0.0008007655    2.931    0.659
       114 -12.6361     10.1039    155.8153   9.6828385225e+01   4.0812500236e+01     0.380159    0.2156987 -78.75  0.001676228    1.746    0.427
       115 -12.0798      2.3159    143.4120   9.8215307712e+01   4.4755663643e+01    0.2928719    0.2063242 -84.04  0.001367184    1.411    0.291
       116  -9.7313    244.0000    148.9639   3.7832909973e+01   8.9089630429e+00    0.1907742   0.04846632 -45.26 0.0007986288    2.916    0.657
       117 -12.6238      4.1339    136.9591   9.6807335266e+01   4.6397256664e+01    0.4345786    0.2065103 -82.30  0.001731689    2.263    0.558
       118  -9.5779    250.6742    140.3313   3.5662935114e+01   9.4960935715e+00     0.108571   0.07064217 -63.89 0.0007050931    1.708    0.414
       119 -10.0245    243.5291    139.4891   3.6354136491e+01   1.0486367822e+01    0.1132361   0.08372103 -48.48 0.0008096281    1.034    0.033
       120 -12.5175      3.3101    128.4818   9.6072700510e+01   4.8740501437e+01    0.5823503    0.2407035  87.06  0.001889775    3.738    0.732
       121 -10.7471    248.1041    129.7146   3.4249483074e+01   1.1468708040e+01    0.2032052    0.1154708 -52.29  0.001314994    1.385    0.278
       122 -11.8065    248.5373    118.7397   3.2433126535e+01   1.3112882371e+01    0.3479171   0.07844006 -45.55    0.0014539    3.230    0.690
       123 -10.9331    241.7180    125.5254   3.4279242632e+01   1.2934785432e+01    0.2169759   0.07582144 -45.37   0.00108041    2.142    0.533
       124 -10.1742    239.3072    120.6658   3.3747187010e+01   1.4017630485e+01     0.113428   0.07092799 -64.64 0.0004665165    1.670    0.401
       125 -10.6232    243.2953    113.6540   3.2156562284e+01   1.4578691612e+01    0.1130033   0.06766374 -63.48 0.0004469764    1.670    0.401
       126 -11.7843    248.4452    106.9428   3.0538048210e+01   1.4913672307e+01    0.2139648    0.1148736 -55.03  0.001030447    1.486    0.327
       127 -10.6669    243.2150    105.2245   3.0780996493e+01   1.5875294186e+01    0.1833478   0.05985185 -50.92 0.0008755153    2.461    0.594
       128 -10.3796    230.6062    103.7920   3.1865574668e+01   1.7870082886e+01     0.168924   0.08051287 -52.40  0.000948242    1.685    0.407
       129 -10.8246    238.6049    102.7995   3.0850303525e+01   1.6880481359e+01    0.1627091   0.07751483 -52.07 0.0009447253    1.636    0.389
       130 -11.9753    249.1039     97.7922   2.8999252233e+01   1.6181186520e+01    0.2500933    0.1071229 -54.34  0.001224355    1.904    0.475
       131 -12.2265    242.4571     92.9111   2.8831932151e+01   1.7814547475e+01    0.2138819    0.1178458 -56.55  0.001105749    1.448    0.309
       132 -11.0470      1.6246     94.3061   9.1634206280e+01   5.7681572334e+01    0.2610803    0.1300503 -73.62  0.001132182    2.163    0.538
       133 -11.9152    249.4576     87.9395   2.7384031359e+01   1.7556527994e+01    0.2055163    0.1084077 -55.22 0.0009227485    1.446    0.308
       134 -11.2271    244.6231     88.2350   2.7864930096e+01   1.8188730346e+01    0.1467339   0.08087919 -42.02 0.0007000865    1.580    0.367
       135 -11.9498    243.2522     82.6094   2.7070043744e+01   1.9188621161e+01    0.2089197   0.09206445 -52.35  0.000858377    1.719    0.418
       136 -13.3118    248.5595     74.7221   2.5343416097e+01   1.9531056133e+01    0.4518752    0.1873177 -42.23  0.002644128    2.016    0.504
       137 -10.7491      3.0000     80.9937   8.8394165015e+01   6.0784964672e+01    0.2174111   0.07244139 -65.39 0.0008036965    2.951    0.661
       138 -11.1193    243.4395     76.7321   2.6094678302e+01   1.9988345592e+01    0.1435568   0.08310841 -41.61  0.000949243    1.587    0.370
       139 -10.7721    239.4971     72.4987   2.5737237620e+01   2.1154801476e+01     0.108681   0.07757729 -60.81 -2.356943e-05    1.027    0.027
       140 -12.4438    142.0331    247.9247   7.1941603144e+01   2.8696108399e+00     0.596153    0.2624551   4.91  0.002168414    3.692    0.729
       141 -10.0963      9.3139     69.3303   8.2420539730e+01   6.2930593968e+01    0.1448354   0.08581787 -26.92 0.0007044647    1.676    0.403
       142 -12.1692      2.7308     40.2237   7.7498206846e+01   6.9329716141e+01    0.3854859    0.2241512 -47.91  0.001998807    1.724    0.420
       143 -12.3114      1.9518     60.0052   8.3975327893e+01   6.5509977798e+01    0.4912288    0.1924506 -65.42  0.002021417    3.030    0.670
       144 -11.7368      8.3360     43.9579   7.5379928324e+01   6.8114484675e+01    0.2878529    0.1310392 -45.92  0.001408051    2.130    0.530
       145 -12.2566     12.4569     37.5812   7.0636111345e+01   6.8798399313e+01    0.3573288    0.1933734 -34.87  0.001890822    1.896    0.473
       146 -12.7347      2.7775     50.1300   8.0681612995e+01   6.7449596532e+01    0.5935903    0.2614281 -53.75  0.002853987    2.203    0.546
       147 -11.5389     18.8061     30.6457   6.4218018149e+01   6.9124114913e+01    0.2679862    0.1717007 -10.29  0.001487806    1.804    0.446
       148 -12.0688    194.4354    246.0701   6.0987932681e+01  -2.1599282519e+00    0.3893598    0.1612594 -26.76  0.001789676    2.651    0.623
       149 -10.5624    109.8240    248.6144   7.9466716729e+01   6.3716021036e+00    0.1951869    0.1071881  32.79  0.000948146    1.682    0.405
       150 -11.4979     97.4427    245.1106   8.2032752969e+01   8.5304736095e+00    0.4059164    0.1687085  38.21  0.001688031    2.317    0.568
       151 -11.2910    158.1787    245.5905   6.8114155883e+01   1.5520683079e+00    0.1845956     0.106491   8.12 0.0009568522    1.756    0.431
       152 -11.0839    202.9678    249.4941   5.9929319131e+01  -3.4867297226e+00    0.2308392    0.1227535 -28.13  0.001205665    1.582    0.368
       153 -11.3336    177.8787    243.8599   6.3833392383e+01  -1.8266578952e-01    0.2060501    0.1390374 -16.65  0.001251101    1.307    0.235
       154 -11.5578     84.2475    244.5119   8.5237578525e+01   1.0187948763e+01    0.3445466    0.1789973  44.20  0.001555152    2.027    0.507
       155 -11.8023      2.9952     33.9983   7.5094472452e+01   7.0411591648e+01    0.3177793    0.1504116 -43.27  0.001586119    2.048    0.512
       156 -11.8859    115.9863    244.0969   7.7412867158e+01   6.5799370027e+00    0.3091998    0.1481354  38.04  0.001384397    2.122    0.529
       157 -12.5333    226.0798    241.2402   5.4781361241e+01  -4.1717649836e+00    0.3422347    0.1472895 -33.70  0.001937801    1.830    0.454
