#   1 NUMBER                 Running object number                                     
#   2 MAG_AUTO               Kron-like elliptical aperture magnitude                    [mag]
#   3 X_IMAGE                Object position along x                                    [pixel]
#   4 Y_IMAGE                Object position along y                                    [pixel]
#   5 X_WORLD                Barycenter position along world x axis                     [deg]
#   6 Y_WORLD                Barycenter position along world y axis                     [deg]
#   7 A_WORLD                Profile RMS along major axis (world units)                 [deg]
#   8 B_WORLD                Profile RMS along minor axis (world units)                 [deg]
#   9 THETA_WORLD            Position angle (CCW/world-x)                               [deg]
#  10 FWHM_WORLD             FWHM assuming a gaussian core                              [deg]
#  11 ELONGATION             A_IMAGE/B_IMAGE                                           
#  12 ELLIPTICITY            1 - B_IMAGE/A_IMAGE                                       
         1 -15.6413    245.7313    100.8226   6.8621498626e+01   1.2894483894e+01     8.059393     1.389646 -38.85   0.02742887    4.127    0.758
         2 -13.4835    220.2990    117.2786   7.5348858264e+01   1.4849620307e+01     1.450032    0.7426988 -23.68  0.006678624    2.215    0.549
         3  -9.0084     74.8495     17.3838   7.4419388093e+01   6.4156127912e+01    0.1981905    0.1128048  48.12 0.0001402848    1.560    0.359
         4 -12.0596    240.2330    228.0766   9.2477028338e+01  -2.9318309373e+00    0.2624853     0.193017 -31.61  0.001975615    1.672    0.402
         5 -12.9498     76.9713    219.4163   1.2463209048e+02   1.9696021319e+01      1.65757    0.5636522  33.77  0.004491005    2.246    0.555
         6 -12.5598     68.9247    218.4305   1.2648207433e+02   2.0910558783e+01     1.785554    0.6018544  54.71  0.004847045    4.082    0.755
         7 -11.0831    248.4118    215.5611   8.9291630415e+01  -2.3857312896e+00     0.278691    0.2099431  54.82  0.001710364    3.441    0.709
         8 -10.1903    249.4957    212.4959   8.8645395721e+01  -2.1516065992e+00    0.1557219    0.1116033  -5.69 0.0008137404    1.005    0.005
         9 -10.1493    130.6018    206.3929   1.1028024114e+02   1.4634880763e+01    0.3436269    0.1175866  28.99  0.001255669    2.895    0.655
        10 -10.5275    100.9863    175.9951   1.1308857035e+02   2.5374146308e+01    0.2071659    0.1857086  36.16   0.00117135    1.005    0.005
        11 -14.0901    247.1376    128.0911   7.3928591551e+01   8.9550394779e+00     3.350914    0.8322595 -31.82   0.01204221    3.885    0.743
        12  -9.5988    102.7205    249.2818   1.2164357939e+02   1.1057267905e+01    0.2495479    0.1323513  23.15  0.001348444    1.690    0.408
        13 -12.3158    248.1688    225.4769   9.0862069381e+01  -3.4703778631e+00    0.3881495    0.2567238 -33.56  0.002828948    1.747    0.428
        14 -10.7011     28.9066    137.3754   1.2993109130e+02   4.4573986675e+01     0.316194    0.1686652 -69.18  0.001439638    1.775    0.437
        15 -10.2434     20.8345    133.6161   1.3234518161e+02   4.6275905665e+01    0.2643119    0.1853417  87.26 0.0008755079    1.370    0.270
        16  -8.8770     10.8275    133.8708   1.3584597096e+02   4.6975732299e+01    0.1835783    0.1360124  60.78 0.0002981846    1.267    0.211
        17 -11.3737     52.1810    142.5402   1.2267051355e+02   4.0642991400e+01    0.3652627    0.1636603 -48.84  0.001401824    2.486    0.598
        18 -11.9720     45.9953    135.4732   1.2376490279e+02   4.3237060996e+01    0.3439679    0.3060952 -86.02 -3.040919e-05    1.097    0.088
        19 -11.6970     74.7092    130.6042   1.1307748102e+02   4.0470573191e+01    0.3086624     0.244824  81.25  0.001503263    1.426    0.299
        20 -10.0574     60.3600    131.3001   1.1810865691e+02   4.2452892356e+01    0.1535846    0.1143975 -22.92 0.0007036082    1.716    0.417
        21 -10.7803     36.6797    130.7452   1.2639613925e+02   4.5527519597e+01    0.2387215    0.2106508 -44.71 0.0004379668    1.229    0.186
        22 -10.3695     26.7291    130.5775   1.2993708778e+02   4.6555719526e+01    0.2491503     0.140273  13.12  0.001014908    2.055    0.513
        23 -12.9367     84.3024    131.6135   1.1011461608e+02   3.8630013641e+01    0.8194138    0.4588581 -86.33  0.002694362    3.480    0.713
        24 -12.8387     90.5454    149.4027   1.1158585318e+02   3.3226740881e+01    0.5075417    0.3666653  46.25  0.002449973    1.322    0.244
        25 -10.4938     67.6056    133.2079   1.1596188183e+02   4.0909401456e+01    0.2194553    0.1343366 -52.01 0.0009580356    1.686    0.407
        26 -12.2283     67.7337    123.1744   1.1401431621e+02   4.3458571458e+01    0.6064575    0.2071268  31.78  0.001665346    2.853    0.649
        27  -8.9758     12.6556    123.3164   1.3429748677e+02   4.9595744669e+01    0.1496286   0.08735058  56.67 0.0007048391    1.717    0.418
        28 -11.6640     77.1247    120.2160   1.1011856924e+02   4.2694451670e+01     0.371702    0.2300157 -67.93 0.0009622889    1.820    0.451
        29 -11.6241     36.3588    148.1149   1.2861192289e+02   4.1045645001e+01    0.4715119    0.2325953  23.39  0.000665446    2.073    0.518
        30  -9.9046     47.6606    119.3284   1.2061973186e+02   4.7265960592e+01    0.1606518    0.1043654  61.62 0.0006082447    1.735    0.424
        31 -11.8088     58.5952    120.5723   1.1678935875e+02   4.5482762188e+01    0.3573421    0.2646219  77.88  0.001530312    1.552    0.356
        32 -10.0533     39.1578    114.8198   1.2311310789e+02   4.9459385296e+01    0.2019597    0.1666373 -36.11 0.0004693735    1.322    0.244
        33  -9.0282     13.5063    114.5257   1.3311103911e+02   5.1844979638e+01    0.1377195    0.1226687  76.69 3.651251e-05    1.064    0.060
        34 -11.6234    219.3663    134.9947   7.9214245366e+01   1.2331200011e+01     0.833102    0.3524013 -27.49  0.003508313    2.599    0.615
        35  -9.4501     48.4403    101.2438   1.1682979573e+02   5.1895555365e+01    0.2005265    0.1425261 -80.14 0.0004108018    1.552    0.356
        36 -11.2154     77.4408     94.0056   1.0355860441e+02   4.9109738316e+01    0.2688361    0.2640755  44.69 0.0002330571    1.002    0.002
        37 -10.5808     28.9536    148.7014   1.3108630344e+02   4.1642876478e+01    0.2519468    0.1591673  31.88  0.001099931    1.514    0.340
        38 -12.7543     78.7600    151.7517   1.1557361837e+02   3.4553771807e+01    0.6746339    0.3424677 -45.24  0.002690451    2.292    0.564
        39 -10.2080     71.2039     74.3131   1.0004051033e+02   5.4863590319e+01    0.3490139    0.1804979  45.50  0.001383744    1.957    0.489
        40  -9.7325     73.5102     58.9787   9.3661776743e+01   5.7691051663e+01    0.2256339    0.1934997  40.77 0.0003300575    1.123    0.109
        41  -9.1131     19.9647    154.5168   1.3445888526e+02   4.0984550653e+01    0.1908574    0.1257363  27.72  0.000489754    1.502    0.334
        42 -13.4330    213.6978    131.1890   7.9305063638e+01   1.3869299211e+01    0.9610546     0.480688 -43.10  0.004613777    1.926    0.481
        43  -9.7613     22.1018    142.2886   1.3273582322e+02   4.3917834621e+01    0.2188436    0.1737754 -66.46 0.0004088607    1.259    0.206
        44 -10.3685     27.5940    141.9073   1.3085771490e+02   4.3520942992e+01    0.2607344    0.1856462  38.85 0.0005328835    1.338    0.253
        45 -12.5272    228.2511    137.4529   7.8377579787e+01   1.0530642126e+01    0.9871289    0.3094627  40.11  0.003891995    3.834    0.739
