#   1 NUMBER                 Running object number                                     
#   2 MAG_AUTO               Kron-like elliptical aperture magnitude                    [mag]
#   3 X_IMAGE                Object position along x                                    [pixel]
#   4 Y_IMAGE                Object position along y                                    [pixel]
#   5 X_WORLD                Barycenter position along world x axis                     [deg]
#   6 Y_WORLD                Barycenter position along world y axis                     [deg]
#   7 A_WORLD                Profile RMS along major axis (world units)                 [deg]
#   8 B_WORLD                Profile RMS along minor axis (world units)                 [deg]
#   9 THETA_WORLD            Position angle (CCW/world-x)                               [deg]
#  10 FWHM_WORLD             FWHM assuming a gaussian core                              [deg]
#  11 ELONGATION             A_IMAGE/B_IMAGE                                           
#  12 ELLIPTICITY            1 - B_IMAGE/A_IMAGE                                       
         1 -14.3932    162.4928     55.2963   7.3889958654e+01   3.7332052468e+01     1.999701     1.514488  17.00  0.006081535    1.582    0.368
         2 -14.2322    175.6558     40.0266   6.6559574222e+01   3.6173153381e+01    0.9816889    0.9488041 -13.40  0.003144028    1.059    0.056
         3 -14.7322    197.4844      7.6677   5.3633190966e+01   3.4242500274e+01     2.777707    0.9400704  62.11   0.01058417    2.556    0.609
         4 -10.6005    167.9648    230.5056   1.1154948706e+02   5.7094090916e+00    0.1732515    0.1712408 -39.07  0.001336979    1.283    0.221
         5 -12.8976    247.5170    244.4142   1.0023495949e+02  -8.0849564403e+00    0.7384849    0.3199208  23.85  0.003939306    2.347    0.574
         6 -18.1251     63.5497    236.0515   1.3031347589e+02   2.0224996491e+01      7.60129     5.529407  87.93   0.04648923    1.295    0.228
         7 -12.5300    203.6981    199.8204   1.0045799102e+02   3.8899849560e+00    0.3991479    0.3009064  14.75  0.002436886    1.315    0.239
         8 -11.9517    160.2440    198.4721   1.0836334198e+02   1.1781554297e+01    0.5528755    0.4049936  79.61  0.002116859    1.957    0.489
         9 -11.9261    153.4748    201.0914   1.1006877717e+02   1.2541876719e+01    0.2723912    0.2575294 -11.54  0.001408224    1.244    0.196
        10 -12.0036    151.3896    183.4012   1.0768835435e+02   1.5915544491e+01    0.3360285    0.2541553 -71.13 0.0004489022    1.667    0.400
        11 -12.5600    151.9189    192.0045   1.0897454970e+02   1.4330278843e+01    0.3976864    0.3160749 -86.73  0.001705604    1.612    0.379
        12 -12.1285    154.9419    187.8502   1.0770770483e+02   1.4498103395e+01    0.3663353    0.2284904  41.48  0.001255758    1.424    0.298
        13 -19.1332     44.3808     99.9535   1.1899811191e+02   5.0389170859e+01     16.05615    0.9304274 -62.75    0.0273851   14.618    0.932
        14  -9.6599    176.5112    186.5374   1.0324338726e+02   1.0768916522e+01    0.1324368      0.11674  41.83 4.817486e-05    1.063    0.059
        15 -11.6854     33.5118    184.3001   1.3185263491e+02   3.3135064775e+01     0.175355    0.1394694  85.10   0.00025572    1.095    0.087
        16  -9.4644    219.3371    224.1620   1.0171651938e+02  -1.7882373033e+00    0.1349937    0.1063279 -36.24 0.0004791501    1.630    0.387
        17 -10.3474    172.6160    189.0769   1.0443632619e+02   1.1075600975e+01    0.2185217    0.1668191  52.15  0.000885241    1.285    0.222
        18 -11.1986    168.5375    177.0591   1.0313272941e+02   1.3832178732e+01    0.3730439    0.2437547 -70.10  0.001709728    2.534    0.605
        19 -10.7455    165.8893    173.1008   1.0294587118e+02   1.5019875861e+01    0.2291525    0.1976052 -60.93 0.0004280717    1.346    0.257
        20 -10.5604    201.0062    168.5202   9.5171088114e+01   8.9992136525e+00    0.2859017     0.226113 -71.87  0.001507259    1.950    0.487
        21 -11.1619    204.7874    166.3211   9.4019946931e+01   8.6119051476e+00    0.3955752    0.3245252 -35.22  0.001934338    1.315    0.240
        22  -9.5480    198.5500    177.5296   9.7384444792e+01   8.0698169775e+00    0.1332221    0.1188327  26.49 3.254901e-05    1.035    0.034
        23 -10.8999      3.8124    176.1026   1.3698889776e+02   3.7536750654e+01   0.07696919   0.04984982  57.42  0.000536288    1.352    0.260
        24 -11.4539    230.2000    166.5238   8.9474567498e+01   3.7748797121e+00    0.3077029    0.1714142 -48.64  0.001392535    2.581    0.613
        25 -11.9089    189.4643    155.2271   9.4686630266e+01   1.3455149191e+01    0.4456624    0.3989936  27.49  0.001545935    1.037    0.036
        26 -12.0524    193.5545    166.0482   9.6101686642e+01   1.0842306178e+01    0.3186131    0.3013254  -3.89 0.0007201766    1.097    0.088
        27 -11.5516    190.1645    161.0760   9.5757999988e+01   1.2330034382e+01    0.3967612    0.3219243  66.21  0.001164247    1.516    0.341
        28 -11.6129    204.6887    176.4763   9.6036151968e+01   7.0767971170e+00    0.5131506    0.3346556 -53.81  0.002104603    2.182    0.542
        29 -10.6031     26.4819    165.3333   1.3173641714e+02   3.7700267237e+01    0.3980495    0.1235264  25.90  0.001547243    5.317    0.812
        30 -10.4544    130.9111    158.2881   1.0766142606e+02   2.4418376985e+01    0.2250716    0.1873385 -77.94  0.000518058    1.307    0.235
        31 -12.4827    133.9597    145.8045   1.0458787805e+02   2.6374085141e+01     1.302261     0.331495 -54.89   0.00325632    6.179    0.838
        32 -11.3590    164.8912    152.8664   9.9217981381e+01   1.8866385030e+01    0.3615889    0.2756362  70.90  0.001740092    1.639    0.390
        33 -11.8491    151.8720    151.3861   1.0171050170e+02   2.1758929341e+01    0.5839036    0.3609892 -84.46  0.001974683    3.788    0.736
        34 -12.1433    144.5179    146.1643   1.0227116559e+02   2.4242938239e+01    0.5402711    0.3675109 -84.16   0.00234188    2.342    0.573
        35 -10.6304      9.6447    210.8335   1.3777526530e+02   3.0478289588e+01       0.1659   0.07803559  79.37  0.001068241    1.743    0.426
        36 -10.7728    174.2993    148.7096   9.6376908455e+01   1.7706551063e+01    0.3223938    0.2649377 -76.05  0.001056533    1.581    0.368
        37 -12.5030    102.5487    137.1528   1.1034707464e+02   3.3903317746e+01    0.2858568    0.2682136  73.80 0.0003166343    1.044    0.042
        38  99.0000     10.7815    206.4953   1.3737241110e+02   3.1155439663e+01    0.3157089     0.204726  27.70   0.00225768    2.195    0.544
        39 -12.2576    106.0692    130.8443   1.0823884681e+02   3.4681648882e+01    0.4128567     0.345372 -76.09  0.001208765    1.207    0.171
        40 -11.5488    106.7291    124.5019   1.0675608743e+02   3.5958333659e+01    0.2868896    0.2426703 -36.12 0.0005795466    1.311    0.237
        41 -11.0414    161.1267    128.3188   9.4634497867e+01   2.4328174459e+01    0.4837904     0.351184 -79.94   0.00214117    2.059    0.514
        42 -11.6020    118.2546    128.7943   1.0478872076e+02   3.2928940118e+01    0.3092268    0.2641641 -21.96 0.0006340102    1.413    0.292
        43 -12.2398    135.7245    127.3311   1.0023394429e+02   2.9842740038e+01     1.025897    0.2138864 -50.11   0.00250652    5.722    0.825
        44 -11.2614    122.1232    122.7324   1.0249483899e+02   3.3497979773e+01    0.4326086    0.2688983 -17.72  0.001576743    3.277    0.695
        45 -10.5082    112.9610    118.1861   1.0377169169e+02   3.6212479183e+01    0.2294776    0.2037032 -58.77 0.0004043569    1.094    0.086
        46 -11.2636    168.2824    113.0999   8.9340472232e+01   2.5675012729e+01    0.4072679    0.3193648 -67.77  0.001302944    1.582    0.368
        47 -11.0129    134.6132    106.0811   9.5341993795e+01   3.4487891031e+01    0.5384657    0.1412521 -46.32  0.001530886    3.855    0.741
        48 -10.7488    205.4110    110.3227   8.1187146565e+01   1.7687915502e+01    0.3507016    0.2364833  36.96  0.001024668    1.558    0.358
        49 -10.4798    130.6989    109.6815   9.7234329114e+01   3.4556188814e+01    0.2776998    0.1784658 -34.29  0.001159375    1.724    0.420
        50 -11.3164    117.3317    109.2645   1.0052945685e+02   3.7316509201e+01    0.2573596    0.2193298  51.72  0.001368101    1.205    0.170
        51 -10.7971     76.8761     99.8493   1.0941669312e+02   4.6326740665e+01    0.2039768    0.1831397 -38.67 0.0007931524    1.159    0.137
        52 -11.2913     68.1123     99.6666   1.1193547622e+02   4.7606444341e+01    0.5079907    0.1453248  29.23  0.001485382    5.773    0.827
        53  -9.6172    124.5316     92.0283   9.4116130585e+01   3.9499952876e+01    0.2184712    0.1445212 -44.33 0.0003832759    1.472    0.321
        54  -9.9351    149.2880     80.9863   8.4769348178e+01   3.6157763726e+01    0.2182382    0.1967184 -34.71 0.0005172471    1.097    0.089
        55 -10.5218     86.0707     77.4975   1.0086768900e+02   4.9779612809e+01     0.221351    0.1755852 -45.73  0.000572162    1.157    0.136
        56 -10.1618    105.4829     73.4927   9.3871818302e+01   4.7102179581e+01    0.2780981    0.1450887  44.23   0.00082733    2.014    0.504
        57 -12.3734    193.8037    196.2278   1.0164762735e+02   6.1445243015e+00     1.108199    0.6014916 -60.76  0.004294397    4.398    0.773
        58 -10.3992    166.2947    233.6863   1.1226070263e+02   5.5479313004e+00    0.1632363    0.1549987  83.84 0.0006216133    1.321    0.243
        59 -13.1787    179.9915     32.6473   6.3523683546e+01   3.6006202252e+01    0.5204331    0.4451654  29.62  0.001154723    1.253    0.202
        60 -10.5547     13.5400     59.7885   1.2111245606e+02   6.1889962001e+01     0.186396    0.1661455 -79.57 0.0003835771    1.232    0.188
        61 -12.2570    187.1056     29.7415   6.1543598013e+01   3.4513014855e+01    0.5923609    0.2383909 -50.12  0.002012237    3.144    0.682
        62  -9.8011    120.0017     24.5112   7.2383800297e+01   5.2101280909e+01    0.2043565    0.1361656  55.49 0.0004085273    1.487    0.328
