#   1 NUMBER                 Running object number                                     
#   2 MAG_AUTO               Kron-like elliptical aperture magnitude                    [mag]
#   3 X_IMAGE                Object position along x                                    [pixel]
#   4 Y_IMAGE                Object position along y                                    [pixel]
#   5 X_WORLD                Barycenter position along world x axis                     [deg]
#   6 Y_WORLD                Barycenter position along world y axis                     [deg]
#   7 A_WORLD                Profile RMS along major axis (world units)                 [deg]
#   8 B_WORLD                Profile RMS along minor axis (world units)                 [deg]
#   9 THETA_WORLD            Position angle (CCW/world-x)                               [deg]
#  10 FWHM_WORLD             FWHM assuming a gaussian core                              [deg]
#  11 ELONGATION             A_IMAGE/B_IMAGE                                           
#  12 ELLIPTICITY            1 - B_IMAGE/A_IMAGE                                       
         1 -10.1327      9.3785     19.7392   1.2445139232e+02   7.0094167951e+01    0.3520682    0.2237568 -12.38 0.0006359345    1.906    0.475
         2 -10.4924     24.6454     16.7111   1.1575209129e+02   6.9561233559e+01    0.3202662    0.2846774 -14.96 0.0008371987    1.235    0.190
         3  -9.0918     31.4017     11.1209   1.0992620378e+02   6.9956734716e+01    0.3942131    0.1823308 -33.68  0.001772293    1.993    0.498
         4  -9.7347     64.2101     14.2880   9.6948109359e+01   6.5015770245e+01    0.4324725    0.2713085  18.65 0.0007812529    1.923    0.480
         5  -8.2411     76.8344      7.1638   8.8642855207e+01   6.3846855134e+01    0.2755695    0.1624549  13.64   0.00119577    2.129    0.530
         6  -9.0275     74.5715     13.3213   9.2584365591e+01   6.3394962601e+01    0.3944287    0.2412023 -18.51  0.001282915    1.592    0.372
         7  -8.8869     80.1289     12.9619   9.0462654515e+01   6.2424394213e+01    0.2901202    0.2541716  50.98  0.001252406    1.404    0.288
         8  -8.7999     88.5035     13.1554   8.7806415754e+01   6.0766923924e+01    0.3069836    0.1887159  24.34  0.001451144    1.832    0.454
         9  -8.7237     96.9916     12.0189   8.4679792336e+01   5.9160108905e+01    0.3189273    0.2163326  37.81 0.0008666354    1.461    0.316
        10  -8.1552    106.0602     10.6862   8.1526083532e+01   5.7335975909e+01    0.2008433    0.1751771  25.55 0.0004791519    1.093    0.085
        11 -10.5447     20.1096      8.7788   1.1461483930e+02   7.1472260600e+01    0.2641532    0.2014372  -9.03 0.0004071807    1.390    0.281
        12  -8.1283      2.1232      8.0249   1.2413701771e+02   7.2870272353e+01    0.2223486    0.1668484 -76.92  0.001540226    1.570    0.363
        13  -8.7617    128.6287      7.1589   7.4609354666e+01   5.2348965951e+01    0.4408451    0.1462468 -14.17  0.001356662    3.634    0.725
        14  -7.5435     39.4852      8.5037   1.0470166137e+02   6.9493929609e+01    0.1267678   0.09971715 -27.14 0.0008104736    1.011    0.011
        15  -8.4817    119.0062      7.0014   7.6636592692e+01   5.4727838565e+01    0.2522724    0.1537425  25.59  0.000871443    1.741    0.426
        16  -8.4015     84.4953      6.0126   8.5499976894e+01   6.2506797538e+01    0.2000506    0.1078207   0.34 0.0008098474    2.482    0.597
        17  -8.7020     68.7806      4.0842   8.9879851886e+01   6.5734460375e+01    0.4239451    0.1711343 -19.09  0.001572813    3.079    0.675
        18  -8.8833     56.5899      4.4956   9.4897333935e+01   6.7725797467e+01    0.3607189    0.2020911 -12.57  0.001556989    2.067    0.516
        19  -9.9535     49.1373      4.6054   9.8167577292e+01   6.8835093280e+01    0.2504549    0.1826923 -13.60 0.0003271514    1.218    0.179
        20  -8.0350     12.7093      5.6431   1.1721210121e+02   7.2657235084e+01    0.1932515    0.1012821 -30.68  0.001096977    1.798    0.444
        21  -8.3739    125.1284      4.1440   7.4015518551e+01   5.3521127364e+01    0.2776833     0.178385  16.20  0.001041443    1.648    0.393
        22  -9.2538    110.8511      4.0107   7.7166334430e+01   5.6981679194e+01    0.4132476    0.2029471 -31.03  0.001775409    1.978    0.495
        23  -7.5231     91.3566      5.3227   8.3035655004e+01   6.1181258090e+01    0.1522412   0.09416831  19.36 0.0007045458    1.766    0.434
        24  -8.7536    104.4978      3.7191   7.8608003661e+01   5.8480671324e+01    0.3759711    0.1765081  -6.99  0.001445155    2.550    0.608
        25  -8.1184    153.6143      3.1955   6.8420799909e+01   4.6267454308e+01    0.2056554    0.1334749   4.46 0.0003099827    1.653    0.395
        26  -8.0937    182.1913      2.0975   6.4046063281e+01   3.8701134626e+01    0.2192357    0.1834833  34.56 0.0004001293    1.182    0.154
        27  -7.8049    143.1880      2.1616   6.9729143412e+01   4.9102865277e+01    0.1908756    0.1677771 -50.93 0.0003138445    1.292    0.226
        28  -7.8604      3.1573      1.3021   1.2078999311e+02   7.4120786219e+01    0.1232646   0.09853636  19.73  0.000360465    1.621    0.383
        29  -7.4967    204.3568    231.2798   1.1587517092e+02   3.9976239500e+00    0.1112312   0.06335255  24.27 0.0007013177    1.661    0.398
        30  -7.8063    249.5961    250.1928   1.1163062442e+02  -3.9018903658e+00    0.1234305   0.07457364   4.32 0.0009343897    1.618    0.382
        31  -9.4723    212.8796    250.4901   1.1699370038e+02   1.0455148471e+00    0.3168799   0.09169505  44.79  0.001592747    2.751    0.636
        32 -10.3175    201.0186    248.8134   1.1856116315e+02   2.8418489550e+00    0.4376765    0.1779351  30.19  0.002015252    2.390    0.582
        33  -9.1418    184.4707    250.0118   1.2119237834e+02   5.0468256718e+00    0.2617908   0.07425061  35.63  0.001183099    3.326    0.699
        34  -9.1607    151.2332    249.3351   1.2619053390e+02   9.7306180505e+00    0.2948898     0.127794  38.18  0.001182398    1.793    0.442
        35  -7.7581    123.5315    250.5329   1.3053586350e+02   1.3305947385e+01    0.1692818   0.07390461  35.48  0.001014134    2.175    0.540
        36  -7.8588    195.0047    229.0899   1.1705912364e+02   5.5988092554e+00    0.1699514     0.102175  22.31 0.0005335158    1.688    0.407
        37  -7.9887     92.1774    234.6249   1.3413990593e+02   1.9335767208e+01    0.1381299   0.07656903  37.15 0.0007367321    1.702    0.412
        38  -7.6795    100.5428    229.5382   1.3239964503e+02   1.8974799237e+01    0.1010511   0.07643996  52.50  0.000338429    1.049    0.046
        39  -7.5162    175.0200    228.0248   1.2011925345e+02   8.6870455217e+00       0.1284   0.09939989  36.67 0.0003690794    1.044    0.042
        40  -7.6828    229.5282    226.4855   1.1133974455e+02   7.4753012071e-01    0.1111775   0.07595605  25.29 8.341362e-05    1.073    0.068
        41  -7.0602    142.3240    226.3115   1.2525741490e+02   1.3688127730e+01    0.1014533   0.07348477  22.31  0.000628864    1.657    0.396
        42  -7.8086      3.4997    226.4380   1.4728550598e+02   2.9791896005e+01   0.08853055   0.05836494  65.56  0.000197156    1.019    0.019
        43  -7.6706    223.4637    224.7472   1.1202214005e+02   1.7924187887e+00    0.1322364   0.08878709   2.03 0.0009305074    1.567    0.362
        44  -7.5482     70.1974    225.6068   1.3699968288e+02   2.3252939631e+01    0.1305311   0.08014459  35.46 0.0009376551    1.736    0.424
        45  -7.5628    206.4513    222.7441   1.1440112485e+02   4.5245383438e+00    0.1354799   0.09366812  -2.40 0.0009401276    1.679    0.404
        46  -7.2706    200.3186    223.3121   1.1545306036e+02   5.3929852089e+00    0.1116747   0.06798297  21.32 0.0003412938    1.645    0.392
        47  -9.0500    238.9865    219.9394   1.0894901183e+02  -6.3095928363e-02    0.2919022    0.1458639  -4.02  0.001489349    2.700    0.630
        48  -7.4575     51.6921    221.6718   1.3971554352e+02   2.5905423053e+01   0.07644642   0.07565048 -63.58 0.0005459698    1.658    0.397
        49  -8.3040    182.3865    219.8542   1.1789157299e+02   8.4922331147e+00    0.2221574    0.1114548  31.60  0.001006349    1.836    0.455
        50  -7.9666    130.4238    220.2941   1.2659771815e+02   1.6177225435e+01    0.1231499   0.09905898 -87.93 0.0009391155    1.524    0.344
        51  -7.5479     40.5059    220.5025   1.4142745052e+02   2.7252390670e+01   0.09434605    0.0692099  64.44 -0.0001189336    1.060    0.057
        52  -7.5992    105.6808    217.3446   1.3048065968e+02   2.0017636404e+01    0.1102523   0.06516691  64.81 0.0007049351    1.725    0.420
        53  -7.6464    203.7569    216.3923   1.1394493547e+02   5.5838721281e+00    0.1625269   0.07908818  34.29 0.0004841159    1.651    0.394
        54  -8.5191    193.7996    215.5780   1.1544740547e+02   7.2101638779e+00    0.2573799    0.1439223  25.82    0.0009971    1.787    0.440
        55  -9.2128    247.7201    214.9691   1.0687519579e+02  -9.1405389124e-01    0.2220286    0.1510291  13.11 0.0006836139    1.201    0.167
        56  -7.4277    210.6761    214.7212   1.1259352254e+02   4.6895314062e+00    0.1143327   0.06805126  22.46 0.0006992131    1.588    0.370
        57  -7.4962    179.4513    214.5414   1.1767443424e+02   9.5540610379e+00    0.1132249   0.08656048  35.16 0.0002066759    1.019    0.019
        58  -8.4116    231.9598    212.2444   1.0886357717e+02   1.6733982127e+00    0.2439262    0.1306423  -2.62  0.001375049    2.420    0.587
        59  -8.1951    121.8995    213.4119   1.2732375511e+02   1.8341263873e+01    0.2049628    0.1113436  35.28  0.001238492    1.777    0.437
        60  -7.6635    173.5657    219.1706   1.1925526673e+02   9.9176805407e+00    0.1291251   0.09955727  -7.62 0.0007277874    1.668    0.401
        61  -7.7392    186.0286    210.4702   1.1602123838e+02   9.0003342249e+00    0.1778023   0.08813486  39.44 0.0006737707    1.575    0.365
        62  -7.8371    162.9978    207.9678   1.1958835843e+02   1.2925306236e+01    0.1728312    0.1201219  20.23 0.0006165325    1.657    0.397
        63  -8.0621    235.8654    205.2451   1.0716075555e+02   1.7325749131e+00    0.2233044    0.1198638  10.00  0.001236779    2.192    0.544
        64  -9.3180    124.0038    206.0047   1.2615472178e+02   1.9105577206e+01    0.1582818    0.1253021  51.02  0.001163872    1.009    0.009
        65  -7.6544    247.2404    205.0129   1.0537057896e+02   2.2939366783e-02    0.1308767   0.08430453 -14.85 0.0008789382    1.597    0.374
        66  -7.8293    215.9898    205.4731   1.1035344133e+02   4.8111161018e+00    0.1734777   0.08890983  38.95 0.0008067829    1.527    0.345
        67  -8.0268    117.3378    205.3755   1.2726237135e+02   2.0159071216e+01     0.206143   0.08935437  38.36 0.0006248178    2.067    0.516
        68  -7.4696     48.1949    205.6090   1.3932024235e+02   2.8787100806e+01    0.1282792   0.08592296  33.81 0.0009473877    1.747    0.428
        69  -7.2042    148.6740    204.6900   1.2165416288e+02   1.5587426830e+01    0.1101144   0.08068652  19.17 0.0006823376    1.658    0.397
        70  -8.0436    196.0574    200.9219   1.1294805704e+02   8.5062749549e+00    0.1967317     0.120188  19.97  0.001144905    1.780    0.438
        71  -7.9479    250.5237    199.4947   1.0396320839e+02   2.0685900954e-02    0.2023771    0.1009319 -20.51  0.001187314    2.106    0.525
        72  -7.4646    100.0073    199.0043   1.2968878835e+02   2.3560063311e+01    0.1339048    0.1055093  56.19 0.0005628749    1.020    0.020
        73  -7.8532    243.4888    198.0681   1.0480479082e+02   1.2307629758e+00    0.1545632    0.1002264 -12.16 0.0005993339    1.556    0.357
        74  -7.4153    229.5124    198.5114   1.0707428781e+02   3.3797839221e+00    0.1186267   0.08782702  22.97 -2.944483e-05    1.025    0.025
        75  -8.4349    165.7699    197.7834   1.1771659174e+02   1.3819130806e+01     0.207663    0.1311899  35.54 0.0007497201    1.358    0.263
        76  -7.2695     42.6925    198.6434   1.3982368729e+02   3.0506524957e+01   0.08581629   0.07481549 -52.97 0.0007041778    1.725    0.420
        77  -7.3795    141.2922    197.3418   1.2202757688e+02   1.7767916871e+01    0.1084979   0.08518684  12.48 0.0005156036    1.654    0.395
        78  -7.8196    184.1714    195.2191   1.1411603097e+02   1.1141683823e+01    0.1462549    0.1289412  53.68  0.000481788    1.315    0.240
        79  -7.9582    193.0294    193.8050   1.1236682568e+02   9.8493879424e+00    0.2059813    0.1142564  23.48  0.001080235    2.051    0.513
        80  -7.4831      1.5117    194.4745   1.4655668201e+02   3.4971381402e+01   0.09526359    0.0643855  70.33 7.773715e-05    1.016    0.016
        81  -7.5906    237.6761    193.6774   1.0497525342e+02   2.5643052616e+00    0.1240224   0.07082748  17.86 0.0007047142    1.682    0.405
        82  -7.1644    124.4942    193.4613   1.2460026620e+02   2.0918281458e+01     0.114283   0.09514011  48.27 0.0001036546    1.049    0.046
        83  -7.4861    150.3116    192.3280   1.1972335106e+02   1.7069120308e+01     0.114187   0.08581772  14.93 0.0007041896    1.666    0.400
        84  -7.6418     90.0358    192.4469   1.3084615102e+02   2.5962344770e+01    0.1683632   0.09132782  42.93  0.000920582    1.585    0.369
        85  -8.5505    245.8377    190.6693   1.0318370251e+02   1.5651200050e+00    0.1931617    0.1325981   4.89  0.001117227    1.296    0.228
        86  -7.8594    225.0000    189.0046   1.0621438869e+02   5.0940645019e+00    0.1671657   0.06485811 -29.95 0.0007240743    2.879    0.653
        87  -7.6311     64.5375    189.5357   1.3527337424e+02   2.9638498484e+01    0.1060909   0.08387686  67.18 0.0008083285    1.019    0.018
        88  -7.1442    231.3589    191.3115   1.0557851531e+02   3.8146956556e+00     0.127472   0.07208806  19.35 0.0007042568    1.742    0.426
        89  -7.6678    165.1616    182.8097   1.1560691493e+02   1.5987984145e+01    0.1679953    0.1324508  18.49   0.00107227    1.353    0.261
        90  -8.4369    249.7451    182.0829   1.0106080400e+02   1.7737480932e+00    0.1917332    0.1328878  28.25 0.0004598921    1.159    0.137
        91  -7.3348    130.6253    182.7134   1.2206665363e+02   2.1662918439e+01    0.1158115   0.08846647  16.73 0.0007017967    1.719    0.418
        92  -7.5592    156.0264    181.4807   1.1709561063e+02   1.7719671145e+01     0.180001   0.09430226  26.19 0.0002585471    2.665    0.625
        93  -7.7079    183.7911    180.4360   1.1183584856e+02   1.3124350471e+01    0.1746228   0.09871339  34.20 0.0004756641    1.587    0.370
        94  -7.4589     96.5566    178.4252   1.2809819088e+02   2.7454344752e+01    0.1117707   0.09758628  58.87 1.243584e-05    1.085    0.078
        95  -7.4367     69.0455    178.2464   1.3342260878e+02   3.1077884724e+01    0.1368613     0.082464  42.13 0.0005762406    1.541    0.351
        96  -7.5084    121.6704    177.6773   1.2310722379e+02   2.3880390056e+01    0.1126185   0.09233788   7.24  0.000704943    1.696    0.410
        97  -8.1371    148.7256    174.9437   1.1747518704e+02   1.9941206627e+01    0.2509719    0.1442743  22.28  0.001164684    2.653    0.623
        98  -7.5025    138.3546    175.3090   1.1953064413e+02   2.1607362506e+01    0.1203276   0.09195811  13.47 0.0003453688    1.724    0.420
        99  -7.7431    205.6677    174.6472   1.0696324939e+02   1.0047547964e+01    0.1336455   0.08384752  15.72 0.0007046126    1.782    0.439
       100  -7.4879    192.6472    173.6704   1.0908941723e+02   1.2474190598e+01    0.1335281   0.08616126  17.02 0.0007046835    1.774    0.436
       101  -8.3475    184.1440    172.1402   1.1036070428e+02   1.4191927713e+01    0.2652156    0.1704764  20.04  0.001422864    1.781    0.438
       102  -8.2195    177.2243    167.4627   1.1081948512e+02   1.6092272224e+01    0.2395802     0.154108   6.04  0.001173094    2.330    0.571
       103  -7.3709    199.2687    166.3873   1.0658755642e+02   1.2250993145e+01    0.1314926   0.08852474   9.72 0.0006988124    1.707    0.414
       104  -8.0082    168.6405    163.8285   1.1180288035e+02   1.8178382264e+01    0.2463931    0.1535561  23.98   0.00114868    1.901    0.474
       105  -7.7088    122.9422    162.5301   1.2068306052e+02   2.6270520080e+01    0.1683636    0.1058468  20.39 0.0008085301    2.485    0.598
       106  -7.6322    160.1520    159.7960   1.1273617403e+02   2.0337082761e+01    0.1755162    0.1433499  16.64 0.0006121045    1.324    0.245
       107  -7.7261    204.6952    159.3220   1.0427739557e+02   1.2190769804e+01    0.1160933    0.1048219  85.75 0.0003129625    1.637    0.389
       108  -7.4738    138.4926    158.4459   1.1684760770e+02   2.4385185224e+01    0.1265757    0.1137103  42.63 6.928658e-05    1.041    0.039
       109  -7.5064     21.3276    157.3054   1.4111648148e+02   3.9967195353e+01   0.09413032   0.07355244 -55.35 0.0005990658    1.651    0.394
       110  -7.7065    168.5385    151.9506   1.0963747427e+02   2.0038127585e+01    0.1821969    0.1132785 -12.08 0.0008092761    2.580    0.612
       111  -7.4963    205.6607    151.7103   1.0259565894e+02   1.3026456538e+01    0.1387831   0.09043886  18.45 0.0007022931    1.643    0.391
       112  -7.4166    107.3246    151.7082   1.2231475524e+02   3.0715394315e+01    0.1274625   0.08873525  70.88 0.0007015982    1.615    0.381
       113  -8.0511    133.6820    147.8308   1.1602060939e+02   2.7081384763e+01    0.2262426    0.1699379  35.11  0.001015803    1.332    0.249
       114  -7.5943    120.0772    148.4442   1.1904032216e+02   2.9283223704e+01    0.1775038    0.1109033  19.67 0.0008076162    2.595    0.615
       115  -9.4330     67.0494    144.6783   1.3020233559e+02   3.7704637330e+01    0.4394229    0.2533557  70.19   0.00239929    1.941    0.485
       116  -7.9215    199.4813    144.0117   1.0213170187e+02   1.5281721597e+01    0.1926209    0.1298329 -28.38 0.0005186156    1.552    0.356
       117  -7.9836     14.1997    139.8078   1.4139100541e+02   4.3981193846e+01    0.2116095    0.1238626 -21.92  0.001082769    4.259    0.765
       118  -8.1663    139.4785    138.4637   1.1303771632e+02   2.7736436719e+01    0.3019291    0.2069177   2.63  0.001379991    2.509    0.601
       119  -7.7477     40.9627    140.0000   1.3552001698e+02   4.1560803064e+01    0.1628623   0.06128875  32.74 0.0004217004    2.877    0.652
       120  -8.4601      4.6180    134.1164   1.4308142378e+02   4.5831366149e+01    0.1764294    0.1382069 -18.28  0.001321028    2.090    0.522
       121  -7.8539     68.8767    133.1457   1.2826564244e+02   3.9832137646e+01    0.1581116    0.1416516 -47.32 0.0007399805    1.341    0.254
       122  -8.3167     23.6631    129.7098   1.3847339539e+02   4.5268843875e+01    0.2735607    0.1384197 -48.87  0.001523336    2.497    0.600
       123  -7.6869    132.3705    125.2850   1.1195808490e+02   3.1494932459e+01     0.137946     0.107266   8.44  0.000549581    1.705    0.413
       124  -8.9008    239.6346    123.3100   9.0617226287e+01   1.0091494647e+01    0.2444773    0.1940844   8.64 0.0005121498    1.096    0.088
       125  -9.3447     13.4053    120.2578   1.4005343200e+02   4.8044514033e+01    0.3530107    0.1632631 -44.35  0.001817068    3.171    0.685
       126  -9.2668      2.9619    108.8363   1.4165397810e+02   5.1153046577e+01    0.3818248    0.1714234 -48.90  0.002108519    2.647    0.622
       127  -8.1108    133.7260    106.4030   1.0738105760e+02   3.4866347219e+01    0.2365489    0.1732096 -20.32 0.0006965467    1.694    0.410
       128  -7.5329    124.3591    107.2696   1.0984596339e+02   3.6499304607e+01    0.1395987    0.1105596   6.45 0.0002805397    1.644    0.392
       129  -9.2383     15.0566    105.1232   1.3822295750e+02   5.1142307431e+01    0.4724261    0.2101522 -37.40  0.002136573    4.050    0.753
       130  -8.3773     66.2183    105.0266   1.2447103282e+02   4.6170140901e+01    0.2087574    0.1722238   7.87  0.001272801    1.642    0.391
       131  -7.3310     77.6892    104.6888   1.2131226374e+02   4.4724381844e+01    0.1270867     0.098162 -30.42 0.0007027788    1.627    0.385
       132  -7.7829    242.6629    103.6712   8.5468631783e+01   1.1902812775e+01      0.15042   0.09440211  16.42 0.0007051938    1.730    0.422
       133  -7.7360     94.0358    103.4680   1.1669832282e+02   4.2554434167e+01    0.1800152    0.1219153   8.79 0.0008095588    2.537    0.606
       134  -9.2732     11.0240     96.0000   1.3834288569e+02   5.3394641567e+01    0.1890163    0.1469648  48.59  0.001382477    1.452    0.311
       135  -7.6601    129.5214     97.5111   1.0617740287e+02   3.7427328368e+01    0.1436573    0.1364631  -7.01 0.0008088588    1.082    0.076
       136  -8.2281     44.4995     91.7957   1.2823174834e+02   5.1559486406e+01    0.2200894    0.1349973 -34.93  0.001166879    2.164    0.538
       137  -8.4268     20.6768     92.0001   1.3516154606e+02   5.3596714081e+01    0.2008193   0.03618219 -54.66 0.0006944724    4.267    0.766
       138  -7.5612     57.4884     91.5713   1.2440002510e+02   5.0194667790e+01    0.1264571    0.1091074 -60.77 -0.0001853966    1.077    0.071
       139  -8.1131     97.0035     90.1295   1.1278952438e+02   4.4899846608e+01    0.3148198    0.1887846  15.28  0.001233474    3.192    0.687
       140  -8.1359    244.3284     87.3159   8.1117311708e+01   1.3565982992e+01     0.149648   0.09696515  17.43 0.0003482601    1.677    0.404
       141  -8.2412     65.0273     86.4998   1.2113252516e+02   5.0397521190e+01    0.2255781    0.1338247  27.64 0.0006262732    2.101    0.524
       142  -9.4749     35.7884     82.0706   1.2914105963e+02   5.4562785738e+01    0.5257524    0.2538084 -35.14  0.002237072    3.146    0.682
       143  -7.9594    126.9918     83.8259   1.0310948264e+02   4.0607726015e+01    0.3896397    0.2092706  21.59  0.001236155    4.025    0.752
       144  -7.4959    210.5089     82.6157   8.5140945673e+01   2.1770654974e+01    0.1468777    0.1351399   9.09 5.745799e-05    1.031    0.030
       145  -8.3873     88.3278     78.9240   1.1236580201e+02   4.8695329978e+01    0.4513889    0.2633703   8.99  0.001552993    4.374    0.771
       146  -9.7220      8.0368     77.3006   1.3700717439e+02   5.7679112804e+01    0.4013035    0.1748608 -46.92  0.002040749    2.363    0.577
       147  -7.9925    184.4659     78.0568   8.8550767112e+01   2.8620112055e+01    0.2278968    0.1458307 -27.66 0.0005341942    1.528    0.345
       148  -8.7678     48.8895     76.7928   1.2399324387e+02   5.4446131679e+01    0.2869661    0.2283344 -40.66  0.001694947    1.310    0.237
       149  -7.6998    106.9950     76.0000   1.0618437566e+02   4.6066395437e+01    0.2337884    0.0824966  43.84 0.0008127061    3.014    0.668
       150  -7.9395     74.9351     74.5173   1.1523652920e+02   5.1678250740e+01    0.2144961    0.1702379 -32.99 0.0006436404    1.326    0.246
       151  -9.7508     24.1534     73.0825   1.3124897226e+02   5.7537937220e+01    0.7602382     0.288218 -37.52  0.002959217    4.295    0.767
       152  -8.0233     23.4531     69.4790   1.3084158364e+02   5.8394026703e+01     0.187645    0.1585104 -85.12 0.0004711236    1.156    0.135
       153  -8.7376     43.3370     68.1170   1.2388723698e+02   5.6953431458e+01    0.2609063    0.1735554 -30.04  0.001458511    1.834    0.455
       154  -8.0171     80.4921     67.9865   1.1169491079e+02   5.2245716014e+01    0.2087276    0.1219081 -47.06 0.0003639825    1.527    0.345
       155  -8.4448     84.0709     63.9190   1.0935727112e+02   5.2531945150e+01    0.4237816     0.282586  -3.16  0.001887844    2.478    0.596
       156  -8.4055     61.6576     67.2060   1.1754514129e+02   5.5064648571e+01    0.3264196    0.1718463 -45.94    0.0010895    1.707    0.414
       157  -9.4053     65.5540     61.1586   1.1456196137e+02   5.5857766088e+01    0.3718801    0.2792892  -2.92 -2.181372e-05    1.765    0.433
       158  -7.6274    106.3411     67.3271   1.0374081575e+02   4.7924479797e+01    0.1495504    0.1119061  -4.22 0.0007051373    1.736    0.424
       159  -9.5868     17.6822     62.4785   1.3153256528e+02   6.0361368750e+01     0.490567    0.1798013 -51.50   0.00192753    2.220    0.550
       160  -8.9116     51.7216     60.5420   1.1913128109e+02   5.7717096580e+01    0.3433965    0.2767213  75.67  0.001813449    1.555    0.357
       161 -10.7678     38.2279     57.7220   1.2318563521e+02   5.9750605437e+01    0.5046811    0.2917785 -25.80  0.002540292    2.413    0.586
       162  -7.8070    193.6751     61.1270   8.1792268301e+01   2.8867531033e+01    0.2112185     0.180449 -12.86 0.0003745019    1.119    0.106
       163  -7.3511    111.6340     58.6601   9.9404909201e+01   4.8559029584e+01    0.1563694    0.1125762   2.76 0.0002353419    1.844    0.458
       164  -9.4437      3.1081     55.0646   1.3542558948e+02   6.2845402480e+01    0.4452811    0.2184999 -52.97  0.002633687    1.658    0.397
       165  -7.9965     99.4218     54.2960   1.0145857332e+02   5.1768350149e+01    0.2796185    0.1302445 -37.14  0.001122451    2.046    0.511
       166  -9.5789     75.0607     50.4616   1.0794294322e+02   5.6705382930e+01    0.3698755    0.2525511 -14.55 0.0003937633    1.921    0.479
       167  -7.6396    118.9445     51.4774   9.4876047566e+01   4.8341162966e+01    0.2195505    0.1479757  49.08 0.0004575185    1.573    0.364
       168  -7.5977     81.3056     51.6413   1.0625473608e+02   5.5476328210e+01    0.1376289      0.10781 -75.01 0.0007040017    1.726    0.421
       169 -10.2871     45.3861     49.0157   1.1815929265e+02   6.0909326777e+01    0.2331294     0.209745 -26.46 0.0004892029    1.181    0.153
       170 -10.0220      9.9222     47.6439   1.3150409066e+02   6.4115033714e+01    0.4962164    0.2288818 -39.67  0.001839631    2.236    0.553
       171  -9.0332     31.3732     44.2895   1.2221188524e+02   6.3299018198e+01    0.3060598    0.1903353 -27.37 0.0007347877    1.882    0.469
       172  -9.1653     26.4604     46.5303   1.2476429216e+02   6.3228491314e+01    0.3362436    0.1902141 -18.12  0.001728213    2.610    0.617
       173  -9.4054    248.6269     47.4547   7.0010203735e+01   1.7290430466e+01    0.2669412    0.2339749  -7.24 0.0003167647    1.047    0.045
       174  -8.1289    106.8652     48.1533   9.7053285397e+01   5.1453557070e+01    0.2046514     0.185508 -40.30 0.0002706164    1.127    0.112
       175  -9.0624      2.0722     45.7015   1.3418455139e+02   6.4945429051e+01     0.284772    0.1896037 -48.29  0.001095011    1.346    0.257
       176  -8.9154      3.6935     40.4580   1.3250224457e+02   6.6008964451e+01    0.3303166   0.08433535 -68.51  0.001238355    2.922    0.658
       177  -9.0242     22.6696     47.6990   1.2654486956e+02   6.3267369214e+01     0.307905    0.1682091 -36.56 0.0006786329    1.938    0.484
       178  -9.1530     41.7757     40.3567   1.1685308183e+02   6.3123800106e+01    0.2818202    0.1339096  15.48  0.001210725    3.474    0.712
       179 -10.1262     83.2777     40.0327   1.0134153610e+02   5.7375559407e+01    0.2661074    0.2303483   1.61            0    1.191    0.160
       180  -7.2578    123.4663     40.5186   8.9609045834e+01   4.9180590784e+01    0.1523294    0.1370852  -0.48 0.0001629236    1.055    0.052
       181  -9.5755     17.4307     38.7335   1.2638772400e+02   6.5582751342e+01    0.4051692    0.1401112 -36.94  0.001644389    3.623    0.724
       182  -8.6926    106.4981     36.8079   9.2798688390e+01   5.3487296305e+01    0.4166069    0.2404398  22.25  0.001660893    2.489    0.598
       183  -9.0477     91.8745     37.1149   9.7371335754e+01   5.6344708661e+01    0.3729814    0.2467905  26.74  0.001160275    1.755    0.430
       184  -9.2732     96.0475     33.3334   9.4513519593e+01   5.6187235885e+01    0.3178791    0.2193905 -13.40 0.0003391803    1.566    0.361
       185  -9.1010     70.4461     36.0340   1.0425102459e+02   6.0235157817e+01    0.4309449    0.2641144  12.04   0.00194635    2.494    0.599
       186  -9.4076     54.6281     36.5637   1.1042724199e+02   6.2386867526e+01    0.2862642    0.2406518  -2.93 0.0008512029    1.300    0.231
       187  -8.8869     37.4699     35.6675   1.1704719301e+02   6.4542455603e+01    0.2955501    0.1876856  -2.38  0.001594857    2.211    0.548
       188  -9.1013      7.2234     33.9877   1.2953799219e+02   6.7223828620e+01    0.4120897    0.2333113 -34.56  0.002504327    1.814    0.449
       189  -7.3177    143.7572     33.9622   8.2266803134e+01   4.5314598583e+01    0.1879481    0.1252476 -23.08 0.0002241758    1.461    0.315
       190  -8.4300     76.8762     34.1174   1.0118129550e+02   5.9550204133e+01    0.2088663    0.1809462 -46.84 0.0008822723    1.236    0.191
       191  -7.7444     81.8450     32.3918   9.8746457470e+01   5.9003498623e+01    0.1807144    0.1258769  25.50 0.0002611451    1.620    0.383
       192  -8.1867     19.0641     32.4561   1.2392250052e+02   6.6805374691e+01    0.1484306    0.1180114   8.84 0.0006647119    1.564    0.361
       193  -9.0537      1.5184     30.0643   1.3110475672e+02   6.8346779555e+01    0.2754718   0.09948727 -66.27   0.00106064    2.037    0.509
       194  -8.3346    127.8886     30.2239   8.4456917813e+01   4.9704699314e+01    0.2056684    0.1975148 -18.99 0.0003162287    1.107    0.097
       195  -7.8680    112.7064     30.0035   8.8272842844e+01   5.3225336340e+01    0.3160335     0.158431  30.24  0.001170176    2.674    0.626
       196 -10.3715    143.2334     26.9811   7.9697862178e+01   4.6380250101e+01    0.2809353    0.2429894  -4.55 0.0002123565    1.109    0.098
       197 -10.3571     71.9932     25.7722   9.9384715584e+01   6.1839493409e+01    0.5723837    0.2977811  39.89 0.0007783439    2.134    0.531
       198  -8.4813     62.0079     26.9788   1.0369010928e+02   6.3191144937e+01    0.2225166    0.1773713  11.91 0.0008302798    1.368    0.269
       199  -9.0275     57.5296     25.1966   1.0469311257e+02   6.4163572825e+01    0.2849654    0.2483373  14.61  0.001371365    1.258    0.205
       200  -7.6975    184.0036     27.5178   7.2531112171e+01   3.5687376032e+01    0.2103179     0.146908  59.62 0.0003753115    1.435    0.303
       201  -7.9720    153.2251     26.8261   7.7613173846e+01   4.3850635011e+01    0.2208246    0.1661248  28.91  0.000525383    1.352    0.260
       202  -7.6415    123.4540     26.8062   8.4153027468e+01   5.1233003960e+01    0.2078257     0.137339  -9.73 0.0005959591    1.612    0.380
       203  -9.1069     48.2932     25.7408   1.0873362250e+02   6.5293985392e+01    0.2791167     0.201867  12.95 0.0006253842    1.626    0.385
       204  -7.7244    102.3738     25.3773   8.9219232697e+01   5.6155561309e+01    0.2731407    0.1063197  38.85 0.0009564603    3.002    0.667
       205  -9.7860     83.2699     22.1555   9.3779078351e+01   6.0452617272e+01    0.6147068    0.2524996  36.76  0.002381991    2.886    0.654
       206  -7.3423    130.9654     22.0014   8.0389241582e+01   5.0067631565e+01    0.1771228    0.1626792  10.28 0.0003610229    1.009    0.009
       207  -8.8200     92.1402     21.1757   9.0441976625e+01   5.8889336337e+01    0.3305169    0.2204886  20.41  0.001608522    1.703    0.413
       208  -8.5363     45.7465     20.1409   1.0741232229e+02   6.6657380202e+01     0.248353    0.1517006 -50.20  0.001135757    1.582    0.368
       209  -8.3224     62.8943    247.9101   1.3947112336e+02   2.0965190696e+01    0.1263595    0.1046678  52.29 0.0006640778    1.351    0.260
       210  -8.0715    116.8699     19.8604   8.2862706840e+01   5.3709651428e+01    0.1974979    0.1655312 -41.63 0.0002537218    1.317    0.241
       211  -7.2341     33.3200     20.2997   1.1309519125e+02   6.8037312076e+01    0.1272946   0.07856372 -27.09 0.0003025248    1.622    0.383
       212  -7.2503    161.7034     19.2648   7.3224709008e+01   4.2522553775e+01    0.1460973    0.1146821 -59.83 0.0002051658    1.511    0.338
       213  -7.2812    146.5697     19.4213   7.6059479064e+01   4.6455644232e+01    0.1522107    0.1369674  19.44 9.614357e-05    1.048    0.046
       214  -7.5503    112.2747     19.6624   8.3962177493e+01   5.4791582726e+01    0.1434425    0.1093409 -51.23 0.0003594822    1.608    0.378
       215  -7.8277     74.1878    247.5956   1.3778009345e+02   1.9741578255e+01    0.1250206   0.07181519  38.48 0.0009424072    1.630    0.386
       216  -7.8157     32.2334    247.5561   1.4388570896e+02   2.4182190575e+01     0.111828   0.07007408  39.14 0.0009511877    1.646    0.393
       217  -8.1533    102.5149     17.9964   8.5885594643e+01   5.7181739942e+01     0.314699    0.1498401  24.03  0.001046969    3.544    0.718
       218  -8.1967    127.8097     16.9409   7.8990041454e+01   5.1464983210e+01    0.2263194    0.1849725  17.22 0.0003749824    1.183    0.155
       219  -8.2029    218.5807    245.1054   1.1548349241e+02   7.0711290224e-01    0.1739248    0.1107343   0.17  0.001204205    1.838    0.456
       220  -8.5331     50.5673     15.2712   1.0304962419e+02   6.6893551209e+01     0.278719    0.1915921  -0.40   0.00114057    1.691    0.409
       221  -8.6109    243.4115    244.3526   1.1174194277e+02  -2.6525307433e+00    0.1883564    0.1096109  16.46  0.001370437    1.494    0.330
       222  -9.4594    157.5182    244.9752   1.2478640447e+02   9.3377307032e+00    0.2044802     0.111085  34.04 0.0009094962    1.589    0.371
       223  -8.8437    234.0019    243.4613   1.1299319726e+02  -1.2992752486e+00     0.181374    0.1138747  11.15 0.0006936096    1.516    0.340
       224  -8.2862    146.7340     14.0893   7.3918187880e+01   4.7008675368e+01    0.2402204    0.2029674  45.43 0.0004040135    1.143    0.125
       225  -9.6953    192.5026    243.8562   1.1926745350e+02   4.5036948145e+00    0.2440015    0.1334137  32.25 0.0009372931    1.448    0.309
       226  -8.2057    134.6429     13.2978   7.5976469379e+01   5.0187814565e+01    0.2574421    0.1503971  40.16 0.0004437223    1.684    0.406
       227  -9.0530    175.9800    243.9732   1.2182065102e+02   6.8423216951e+00    0.1625902    0.1015232  23.19  0.001131115    1.714    0.417
       228  -7.5846     95.5380    243.4744   1.3427140183e+02   1.7742752091e+01   0.09741665   0.07049375  52.84   0.00015233    1.035    0.034
       229  -7.8446     25.8253    241.1809   1.4455451709e+02   2.5674392966e+01    0.1084806   0.08594049  55.94 0.0006132978    1.341    0.254
       230  -9.1788    249.2727    239.0061   1.1016741127e+02  -3.0476887482e+00     0.207982    0.1233885 -11.46  0.001257326    1.822    0.451
       231  -9.0378    170.2029    239.5282   1.2222489659e+02   8.1324351633e+00    0.1924373    0.1338342  21.30 0.0009207235    1.555    0.357
       232  -7.9800    202.1725    239.6054   1.1727316585e+02   3.5229310441e+00    0.1521967   0.07069536  34.81 0.0009346974    1.630    0.386
       233  -7.5949    121.5296    239.4484   1.2989436495e+02   1.4917664795e+01    0.1018639   0.07414181  48.76 0.0001500596    1.012    0.011
       234  -8.9160    242.1649    236.6869   1.1088139161e+02  -1.8949527523e+00    0.2505043    0.1317795  16.86  0.001077125    1.834    0.455
       235  -7.6830    224.3147    238.3224   1.1375092218e+02   4.7437590541e-01    0.1082407    0.0600377  21.25 0.0003148567    1.660    0.398
       236  -7.9694     79.7711    238.3810   1.3634792607e+02   2.0326714675e+01    0.1313237   0.07414941  38.93 0.0009372757    1.612    0.380
       237  -7.1743    148.2783    237.7034   1.2549028516e+02   1.1456394542e+01   0.09768748    0.0656988  59.36 0.0002573124    1.534    0.348
       238  -7.9755    195.7802    236.2098   1.1783786006e+02   4.7727915457e+00    0.1461894   0.09427948  26.60 0.0004628207    1.333    0.250
       239  -9.8157    189.0814    234.3353   1.1865253671e+02   5.9380878144e+00    0.2593479     0.198484  57.34  0.001723469    1.609    0.379
       240  -8.5711    186.9896    227.0661   1.1807570991e+02   7.0055933941e+00    0.2415566     0.164121   6.78  0.001642368    1.860    0.462
       241  -7.7268    137.8745    235.1694   1.2689370772e+02   1.3217767627e+01    0.1361195    0.1019104  32.63 0.0004990214    1.321    0.243
       242  -8.2922    161.8729    234.2155   1.2295123515e+02   9.9181638656e+00    0.1912857    0.1108309  31.93 0.0005996376    1.573    0.364
       243  -9.0536    247.1759    225.3265   1.0852040624e+02  -1.6935123895e+00    0.2621318    0.1404126   1.09   0.00163938    2.113    0.527
       244  -8.7624    248.3484    233.0102   1.0946009964e+02  -2.4653464963e+00    0.1525491    0.1122443  -7.29 0.0004608678    1.453    0.312
       245  -8.2170    235.9781    231.0154   1.1100679791e+02  -5.6831956671e-01    0.1475126   0.09259179  18.68 0.0003261842    1.325    0.245
