#   1 NUMBER                 Running object number                                     
#   2 MAG_AUTO               Kron-like elliptical aperture magnitude                    [mag]
#   3 X_IMAGE                Object position along x                                    [pixel]
#   4 Y_IMAGE                Object position along y                                    [pixel]
#   5 X_WORLD                Barycenter position along world x axis                     [deg]
#   6 Y_WORLD                Barycenter position along world y axis                     [deg]
#   7 A_WORLD                Profile RMS along major axis (world units)                 [deg]
#   8 B_WORLD                Profile RMS along minor axis (world units)                 [deg]
#   9 THETA_WORLD            Position angle (CCW/world-x)                               [deg]
#  10 FWHM_WORLD             FWHM assuming a gaussian core                              [deg]
#  11 ELONGATION             A_IMAGE/B_IMAGE                                           
#  12 ELLIPTICITY            1 - B_IMAGE/A_IMAGE                                       
         1 -14.0941    165.0658     46.7470   7.3737940225e+01   3.8277889593e+01     1.211962     1.050778 -15.36  0.004155847    1.379    0.275
         2 -14.3451    181.9135     15.3276   6.2901923433e+01   3.8044255304e+01      1.49679    0.9411944  65.52  0.005819412    1.379    0.275
         3 -10.0355     31.1918    247.2733   1.4444648140e+02   1.9222247071e+01    0.1392535   0.09053174  71.10 0.0002818947    1.172    0.146
         4 -13.9720    103.0834    244.1815   1.3083714690e+02   9.7017349830e+00     1.106131    0.5198311 -64.21  0.005299223    2.370    0.578
         5 -19.8834     64.7433    166.8498   1.2893857345e+02   3.2979769704e+01     19.79486      5.78436 -63.83   0.06701362    3.175    0.685
         6 -12.0823     11.6291    205.8636   1.4499456584e+02   3.0032642140e+01    0.3224274    0.2331828  40.21  0.001203895    1.627    0.385
         7 -10.4209    220.0475    198.5269   9.9549871591e+01  -2.3039872110e+00     0.198593    0.1304831  39.41 0.0007537217    1.540    0.351
         8 -10.5030    150.9358    195.3500   1.1334269687e+02   1.1324107511e+01    0.5049596    0.3385887  37.89  0.002391654    1.482    0.325
         9 -10.0004    113.1510    195.7693   1.2198319067e+02   1.8286407376e+01    0.3691409    0.2527662 -10.38  0.001455386    3.138    0.681
        10 -11.0274    169.4653    194.0151   1.0901431719e+02   8.0064580962e+00    0.2256769     0.144618 -48.14  0.001038595    1.617    0.382
        11  -9.1371    120.7705    197.0077   1.2044743079e+02   1.6635767169e+01    0.1822147    0.1653885  76.34 0.0003437985    1.030    0.029
        12 -10.5168    134.5453    237.4570   1.2366864622e+02   5.7554520423e+00    0.2218218    0.1867487 -59.93 0.0008317966    1.332    0.249
        13 -12.0718    174.4173    185.5297   1.0627546144e+02   8.7950083548e+00    0.5835006    0.2867002 -59.21  0.002092965    2.861    0.651
        14  -9.3091     13.5297    240.5044   1.4700968112e+02   2.2574379860e+01     0.233413    0.1085437  75.04 0.0009528538    1.876    0.467
        15  -9.3030     25.0316    185.4390   1.4050360298e+02   3.3290543494e+01    0.1371242    0.1212881  47.08 0.0002892882    1.381    0.276
        16 -11.3375    164.7661    187.2216   1.0872312275e+02   1.0355348325e+01    0.2818192    0.2431882  81.14 0.0005277327    1.327    0.246
        17 -10.0410    107.6660    183.8223   1.2126635821e+02   2.2041068719e+01     0.317886    0.2010334  39.97 0.0009771534    1.613    0.380
        18  -9.5932     30.7586    182.8250   1.3898912182e+02   3.3295274614e+01    0.2582465    0.1931401   1.25   0.00131693    2.261    0.558
        19 -11.7740    141.2312    164.4411   1.0950170760e+02   2.0201540298e+01    0.6260638    0.3711371 -89.23  0.001894905    4.088    0.755
        20 -12.4639    148.2832    179.2114   1.1086025344e+02   1.5397669448e+01    0.8459735    0.4200053  51.86   0.00238844    2.183    0.542
        21 -13.0162    142.8249    171.5844   1.1060043921e+02   1.8227375377e+01    0.8626644    0.5551499  60.70  0.002373186    1.818    0.450
        22 -12.0120    138.1120    172.1217   1.1182345907e+02   1.9047211530e+01    0.6010779    0.4068983 -77.35  0.001769967    1.950    0.487
        23  -9.6634     27.5992    179.7744   1.3936294467e+02   3.4345600754e+01    0.3363797     0.216703 -29.19   0.00170595    2.767    0.639
        24 -10.2406    185.5104    169.0256   1.0046118474e+02   1.0007107837e+01    0.4025028    0.2704264 -58.10   0.00112132    1.694    0.410
        25 -12.0809    189.3051    178.5161   1.0166528884e+02   7.2750449076e+00    0.4870287    0.3920701  55.23  0.001299882    1.346    0.257
        26 -10.8849    188.3894    174.1812   1.0094964067e+02   8.3479667597e+00    0.3510902    0.3038689 -83.57  0.001160855    1.392    0.282
        27  -9.4652    162.5015    180.4521   1.0787899391e+02   1.2265077807e+01    0.1495779    0.1448918  67.34 1.188892e-05    1.030    0.029
        28 -11.6252    153.7313    184.9990   1.1075393570e+02   1.3026689058e+01    0.3844655    0.2812214 -73.20  0.001273484    1.680    0.405
        29  -9.7652    152.8100    237.2302   1.1992002719e+02   2.6337209840e+00    0.1657975    0.1435671  16.79 0.0003021758    1.280    0.219
        30 -10.3342    225.4056    176.2310   9.4033762882e+01   7.7219077335e-01    0.1998975    0.1256484 -48.64 0.0009462812    1.654    0.395
        31 -10.0968    203.3981    174.1719   9.7861421830e+01   5.3540301757e+00     0.212443     0.134175 -52.19 0.0009132205    1.716    0.417
        32 -10.7038    195.3313    172.7663   9.9204663975e+01   7.2387159181e+00    0.3496008     0.259503 -42.84  0.001002451    1.320    0.242
        33 -10.6743     26.2292    173.5801   1.3900309104e+02   3.5944458409e+01    0.2357062     0.190045 -59.98 0.0002072866    1.312    0.238
        34 -10.1686    207.8011    171.7861   9.6479484020e+01   4.9601455276e+00    0.3899102    0.2098117 -54.96  0.001043378    2.295    0.564
        35 -11.6072    125.0375    171.4609   1.1482736396e+02   2.1763053066e+01    0.3370467    0.2992838 -40.75  0.001123021    1.231    0.187
        36 -10.0550     25.4549    165.0059   1.3821506890e+02   3.8053829007e+01    0.1982823    0.1715203 -31.66 0.0007329051    1.548    0.354
        37 -11.2643    132.7740    161.6574   1.1096048367e+02   2.2562527330e+01    0.4613466    0.1869443  39.66  0.001582555    2.593    0.614
        38 -10.1411    125.2390    237.0246   1.2550260613e+02   7.4298188659e+00    0.1567805    0.1358316 -85.17            0    1.218    0.179
        39  -9.8981     18.4770    157.1347   1.3895712817e+02   4.0574094324e+01    0.4010651    0.2200484  84.88  0.001543711    1.917    0.478
        40 -10.4409     22.9729    156.0815   1.3774726844e+02   4.0415371303e+01     0.202995    0.1876624  22.29 0.0004418482    1.422    0.297
        41 -11.1953    188.9349    154.6108   9.6569810230e+01   1.2323215966e+01    0.5246703    0.4672387  57.24  0.002746782    1.180    0.153
        42 -10.8368    164.8412    152.9097   1.0145231996e+02   1.7868421402e+01    0.3602633    0.2825039  59.70  0.001192431    1.365    0.267
        43 -10.1501    160.5693    235.0681   1.1801293913e+02   1.6721208399e+00     0.250166    0.1804775  33.69 0.0006842267    1.299    0.230
        44  -9.7545    174.8353    149.0739   9.8340460237e+01   1.6548550006e+01    0.2429958    0.2106242 -81.96 0.0005990993    1.290    0.225
        45 -10.5767      8.6193    138.0910   1.3912232039e+02   4.5855762800e+01    0.3350187     0.197509 -53.63  0.001370724    1.521    0.342
        46 -11.0092    160.2162    127.4947   9.6489914023e+01   2.4539773877e+01    0.4498267    0.2773691 -55.09  0.001252776    1.718    0.418
        47 -10.2644     28.3072    233.5766   1.4397459190e+02   2.2324989637e+01    0.1290621   0.08658204 -83.53 0.0008367485    1.265    0.209
        48 -10.6949    134.2182    241.3337   1.2427304754e+02   5.0828851956e+00    0.2505082    0.1725203 -47.98 0.0008248669    1.704    0.413
        49 -10.2542    231.2915    113.6995   7.9333254140e+01   1.1421048542e+01    0.2505423    0.2398715 -38.22 0.0007702605    1.131    0.116
        50  -9.6031    167.9668    112.7971   9.1033256083e+01   2.5907997953e+01    0.2701105    0.1866208  86.90  0.001085688    2.104    0.525
        51 -10.5773    217.7109    219.1749   1.0391216004e+02  -5.4255450991e+00    0.2528016    0.1120467 -46.75  0.001017322    2.608    0.617
        52 -10.0422    205.3543    110.2412   8.2926824401e+01   1.7757515232e+01    0.3090386    0.2111424  49.48  0.001026567    1.561    0.359
        53 -11.5183     23.8323    217.2371   1.4355470790e+02   2.6282454775e+01    0.1872307    0.1314842 -83.07  0.000477519    1.186    0.157
        54 -10.4388    119.4772    212.2849   1.2316801492e+02   1.3492703918e+01    0.1684315    0.1357571 -68.40 0.0002514791    1.281    0.219
        55 -10.2555    113.3730    207.8940   1.2384115263e+02   1.5521157610e+01    0.1891047    0.1588841 -75.25 0.0006172807    1.192    0.161
        56 -11.6844    103.7850    196.2612   1.2420471300e+02   1.9808501245e+01    0.5158835    0.3212108  88.49   0.00163693    2.126    0.530
        57 -10.8973    107.7058    203.7036   1.2446411362e+02   1.7438044006e+01    0.2796388    0.1942562 -61.43 0.0002735733    1.456    0.313
        58 -11.7510    103.7583    202.0817   1.2510304853e+02   1.8480725553e+01    0.6552368    0.3562093 -83.55  0.002541948    2.810    0.644
        59  -9.5914     98.3566     80.8274   9.9882511773e+01   4.7540755004e+01    0.2366491    0.1894674  49.73 0.0009498203    1.352    0.260
        60 -13.3776    153.3433     60.9274   7.9996951578e+01   3.9007623288e+01     1.216695    0.8546134  45.56 0.0008976853    1.428    0.300
        61 -10.4369    163.8127    246.4455   1.1908966724e+02  -8.7421430730e-01    0.2360886     0.194236  69.65  0.000761147    1.439    0.305
        62 -12.5383    169.6824     38.5984   7.0719345362e+01   3.8253376198e+01    0.4457616    0.3936455 -66.49 0.0008427919    1.147    0.128
        63 -10.4435     13.4972     59.9585   1.2313349893e+02   6.2549673814e+01    0.1710733    0.1588954  27.60 0.0004341985    1.421    0.296
