#   1 NUMBER                 Running object number                                     
#   2 MAG_AUTO               Kron-like elliptical aperture magnitude                    [mag]
#   3 X_IMAGE                Object position along x                                    [pixel]
#   4 Y_IMAGE                Object position along y                                    [pixel]
#   5 X_WORLD                Barycenter position along world x axis                     [deg]
#   6 Y_WORLD                Barycenter position along world y axis                     [deg]
#   7 A_WORLD                Profile RMS along major axis (world units)                 [deg]
#   8 B_WORLD                Profile RMS along minor axis (world units)                 [deg]
#   9 THETA_WORLD            Position angle (CCW/world-x)                               [deg]
#  10 FWHM_WORLD             FWHM assuming a gaussian core                              [deg]
#  11 ELONGATION             A_IMAGE/B_IMAGE                                           
#  12 ELLIPTICITY            1 - B_IMAGE/A_IMAGE                                       
         1 -14.2779     14.5923    134.6057   1.2024112605e+02   4.5385014160e+01     3.601345     3.466338  72.17   0.02651553    1.262    0.208
         2 -12.0508    207.0948     25.3580   4.3346666846e+01   3.0388364761e+01    0.8598498     0.760081   0.70  0.002790014    1.447    0.309
         3 -12.2695    196.7490     37.1863   4.7774688221e+01   3.1443416643e+01      1.35596     1.002253 -20.48  0.007036463    1.583    0.368
         4  -9.4208    212.1508      7.7888   3.8408453809e+01   3.1155112923e+01    0.2301444    0.1903004 -80.07 0.0008221064    1.037    0.036
         5  -9.0861    237.5953      5.7573   3.5820991817e+01   2.5495219612e+01    0.2263557    0.1873529 -77.86 0.0005742879    1.052    0.049
         6  -9.0556     63.2590    236.9510   1.1894727838e+02   1.7710154148e+01    0.1702818    0.1422025 -62.17  0.001210922    1.553    0.356
         7 -11.3404    247.4385    246.9040   8.5730947139e+01  -1.1354828546e+01     0.627024    0.5424608  -0.08  0.004862478    1.366    0.268
         8 -10.8825    249.4514    239.1927   8.4144126615e+01  -1.0753286181e+01    0.5353618    0.2867521 -34.73  0.002476115    2.065    0.516
         9  -8.6326     68.7574    231.0446   1.1742494983e+02   1.8094982229e+01    0.1099221   0.08421008  75.40            0    1.125    0.111
        10  -8.1798    220.8784    229.1473   8.7501856239e+01  -5.4484662852e+00    0.1673952    0.1399769  24.01 0.0002892554    1.173    0.147
        11  -8.7524     73.9565    227.0470   1.1606529458e+02   1.8155277050e+01     0.130626    0.1033217  65.30            0    1.011    0.011
        12 -11.5103     54.9826    225.8718   1.1962323405e+02   2.0883777130e+01    0.1764563     0.136365  73.03 0.0003233036    1.047    0.045
        13 -10.8966    248.3074    218.2792   8.0779223592e+01  -8.0697519645e+00    0.4591194    0.2654439 -17.79  0.002632588    1.698    0.411
        14 -11.1042    112.5362    224.3229   1.0806943538e+02   1.2955290540e+01    0.8172625    0.4493935  37.87  0.002770153    1.652    0.395
        15  -9.3954     50.5676    214.5663   1.1956463276e+02   2.3690205359e+01    0.2125977    0.1153381  64.97  0.001178423    1.672    0.402
        16  -8.5766     59.8769    250.8832   1.2059753490e+02   1.5629186170e+01      0.12124   0.05882206  40.28 0.0006869676    1.793    0.442
        17 -14.2642     53.9269    245.0141   1.2123676095e+02   1.7421752135e+01    0.8247447    0.4947567 -66.92  0.005156313    1.855    0.461
        18 -11.4710     32.7548    210.2603   1.2271962026e+02   2.6649086508e+01    0.2016147     0.159894 -81.70 0.0005812095    1.258    0.205
        19 -11.0887     31.0105    206.7602   1.2280997078e+02   2.7563375983e+01    0.2858639    0.1715826 -61.55    0.0012296    1.831    0.454
        20 -14.9151      4.7351    204.6780   1.2769431013e+02   3.0590963019e+01     1.049666    0.4863189 -78.55  0.006254498    1.793    0.442
        21  -8.4581     46.9073    206.7825   1.1964728352e+02   2.5744100889e+01    0.1266992    0.1215735  88.51 0.0004722147    1.370    0.270
        22  -9.5078    239.0154    204.8531   7.9976164533e+01  -4.9060624542e+00    0.2357761     0.197389   4.13 0.0003337242    1.059    0.056
        23 -10.8117     37.2663    205.1648   1.2145386485e+02   2.7205106985e+01    0.1770537    0.1430885  82.10 0.0004351319    1.088    0.081
        24 -10.8145     38.2360    201.5094   1.2097056776e+02   2.7867263062e+01    0.3001941    0.1593851  56.40  0.001370325    1.639    0.390
        25 -15.6284     39.9872    244.6537   1.2365405754e+02   1.9168954988e+01    0.9430182    0.6002141  71.68  0.006595728    1.242    0.195
        26  -7.3830    209.2330    201.6406   8.4877949630e+01   4.0405866805e-01    0.1157885    0.1048426 -66.95 0.0006898842    1.581    0.367
        27 -10.3752     17.0231    200.5227   1.2511974028e+02   3.0303247798e+01    0.1627312    0.1138917  76.75  0.001112274    1.092    0.084
        28  -7.5672    194.7795    199.3716   8.7290809750e+01   3.2803171231e+00    0.1918654    0.1491288   6.47 0.0005231033    1.333    0.250
        29  -7.4802    193.4474    196.4811   8.7026764741e+01   4.0019526387e+00    0.1356628    0.1218275  18.99 8.077253e-05    1.031    0.030
        30  -9.6270     21.1329    197.2068   1.2409196013e+02   3.0598600250e+01    0.1995823    0.1186333  82.73 0.0007295929    1.398    0.285
        31  99.0000     25.0295    194.5415   1.2311928944e+02   3.0775776370e+01    0.4013963    0.1925855 -71.55   0.00161024    1.832    0.454
        32  -9.1393    104.1466    196.9367   1.0631693948e+02   1.9751971628e+01    0.2945606    0.1891073  89.74  0.001427546    1.975    0.494
        33  -7.4079    209.3658    197.1822   8.4026010887e+01   1.0867284980e+00      0.16451    0.1226479 -45.62 0.0003456951    1.592    0.372
        34  -7.3851     90.3223    196.6914   1.0935195913e+02   2.1979434010e+01     0.140769   0.09008525  67.97 0.0006134029    1.646    0.392
        35 -18.0973     12.7418    238.0788   1.2793134148e+02   2.3337276889e+01     2.238383     1.405846  81.11   0.01644488    1.232    0.188
        36 -15.9942     35.2697    231.3365   1.2366143995e+02   2.2188123563e+01     1.135528    0.6563748  56.85  0.007409719    1.349    0.259
        37  -7.7758     96.5667    193.0129   1.0747454359e+02   2.1802492536e+01    0.1951636    0.1279805 -64.21 0.0005030311    1.570    0.363
        38  -7.3170    236.2999    192.6736   7.8166309819e+01  -2.7294703326e+00    0.1132977    0.1053095 -66.15 0.0003743089    1.636    0.389
        39  -8.4463    177.1486    191.9635   8.9534131542e+01   7.7596998477e+00    0.2088773     0.192262  17.23 0.0005823563    1.031    0.030
        40 -10.4062    115.4072    191.7841   1.0304810033e+02   1.8972523177e+01    0.3982604    0.2169375  35.09  0.001175981    1.865    0.464
        41  -8.7861     81.1775    235.1712   1.1542061117e+02   1.5615624049e+01    0.1530925    0.1351862  68.86 0.0003681393    1.169    0.144
        42  -8.8185    128.8122    191.2376   9.9942804034e+01   1.6757406065e+01    0.1795359    0.1633707   4.42 0.0008387571    1.304    0.233
        43 -10.4710      1.6066    189.6075   1.2747473363e+02   3.3995456833e+01    0.2941045    0.1215649  88.02  0.001262111    2.079    0.519
        44 -11.0233     61.9259    231.0973   1.1872655813e+02   1.8986504519e+01    0.1688416     0.130706  68.29  0.001164422    1.024    0.024
        45  -9.7424    118.8967    183.3358   1.0092554911e+02   2.0178369558e+01    0.3598838    0.3004385   0.93 0.0006698115    1.605    0.377
        46  -8.6917      1.3426    182.9233   1.2714414597e+02   3.5443581137e+01    0.1252813   0.08278177 -82.19 0.0008359402    1.228    0.186
        47  -8.2589    105.5381    180.9988   1.0366798096e+02   2.2979815873e+01    0.2060895    0.1355916 -64.02 0.0004178433    1.571    0.364
        48  -7.7100     39.7973    181.1770   1.1886200011e+02   3.2147560292e+01    0.1053117    0.0730371  68.51            0    1.276    0.216
        49  -9.0606    147.5284    179.9886   9.3778367629e+01   1.5648982744e+01    0.2316361    0.1834007  41.61 0.0006666905    1.185    0.156
        50  -8.8677     71.1640    178.8852   1.1144392143e+02   2.8742628781e+01    0.2681128     0.200795 -39.56  0.001466093    1.784    0.439
        51  -9.3655     75.5797    173.5538   1.0969546322e+02   2.9347313490e+01    0.3198414    0.2207552 -44.20 0.0009963772    1.785    0.440
        52  -7.8542     16.8565    179.2449   1.2368854865e+02   3.4908230977e+01    0.1364323    0.1063154 -79.11 0.0003045817    1.191    0.161
        53  -7.9996    197.9564    177.0182   8.2358797002e+01   6.5559501991e+00    0.2030995    0.1866829   6.38 -0.002661949    1.016    0.015
        54  -8.0587    141.6633    177.2924   9.4620321354e+01   1.7318451425e+01    0.1482939       0.1107  71.38 0.0002999498    1.643    0.391
        55  -9.6470    175.6065    172.6008   8.6131875219e+01   1.1692624765e+01    0.3451134    0.3180255 -47.24 0.0009385158    1.172    0.147
        56  -8.2417    124.5160    172.9842   9.7847574833e+01   2.1435897733e+01    0.2271374    0.1845732  45.32  0.000457383    1.173    0.148
        57 -11.3703      6.9156    170.1301   1.2515918831e+02   3.7794711181e+01    0.1908164    0.1512749  84.57  0.001358073    1.061    0.058
        58  -8.7623     11.3148    168.0213   1.2404396374e+02   3.7904478469e+01    0.1699459    0.1416062  77.83 0.0005230744    1.128    0.113
        59  -8.0889    110.7584    167.9080   1.0026820963e+02   2.5037637087e+01    0.3317787    0.1907988  72.14  0.001248108    2.828    0.646
        60  -7.9838     31.3485    167.5917   1.1947116551e+02   3.6150581570e+01    0.1321729    0.1218209  32.80  0.000273007    1.394    0.283
        61  -8.1031     88.9363    165.3208   1.0521907946e+02   2.9265176607e+01    0.1914489    0.1736763  75.95 0.0003810684    1.023    0.023
        62 -12.6813     67.3920    142.1213   1.0705666017e+02   3.8008958489e+01     2.522043     1.418237 -79.47   0.01093563    2.033    0.508
        63  -9.0569     80.4729    151.7579   1.0517179046e+02   3.3796192670e+01    0.2807045    0.2563765  32.78 0.0005591997    1.246    0.198
        64  -7.7067    148.2102    149.8139   8.7576592583e+01   2.1946047582e+01    0.1967322    0.1765999  -1.14 0.0003230713    1.252    0.201
        65  -8.4419     90.5250    143.5672   1.0104918025e+02   3.4207191093e+01    0.2050509    0.1921955  74.84 0.0008437109    1.053    0.050
        66  -9.7934     82.2700    142.5691   1.0309353340e+02   3.5750261407e+01    0.3550529    0.3277531 -53.23 0.0007386728    1.143    0.125
        67  -9.6069     85.6230    146.2592   1.0285765875e+02   3.4336371417e+01    0.4188203    0.2556269  76.94  0.001530615    2.348    0.574
        68  -8.4812     86.6976    143.3485   1.0203906124e+02   3.4872608538e+01     0.237608    0.1971247 -79.68 0.0009589334    1.176    0.150
        69  -8.8233    133.0485    143.4850   8.9910009662e+01   2.6444211444e+01    0.7013968    0.2251839 -56.29  0.001905293    4.315    0.768
        70  -7.6357    126.6088    147.4544   9.2386849037e+01   2.6809368838e+01     0.148222    0.1447037 -72.85 0.0001188505    1.030    0.030
        71  -7.7783    113.1125    145.1985   9.5382873319e+01   2.9894681180e+01    0.2036954    0.1672085  75.75  0.001017011    1.336    0.251
        72  -9.2728    103.1972    142.6427   9.7476404775e+01   3.2287790960e+01    0.5456405    0.3390393 -17.15  0.001900314    3.557    0.719
        73  -8.6981     98.2650    143.3665   9.8935660391e+01   3.2968232638e+01    0.2680824    0.2173495  62.87 0.0002858763    1.278    0.217
        74  -7.4552    143.6642    142.3335   8.7019728372e+01   2.4535379341e+01    0.1608463     0.123019  84.70 0.0007052129    1.739    0.425
        75  -9.2083     81.4451    136.6328   1.0221978763e+02   3.7322401948e+01    0.3896344    0.2345266  72.31   0.00159614    2.423    0.587
        76  -7.8277    104.9816    133.6270   9.5118392815e+01   3.4125456952e+01    0.1999756     0.186007  50.40 0.0007974079    1.101    0.092
        77  -7.4919    141.7048    133.6947   8.5513590449e+01   2.6873177911e+01    0.1543112    0.1247942  -4.78            0    1.582    0.368
        78  -7.7019    117.1602    133.4059   9.1784207034e+01   3.1906963798e+01    0.2097228    0.1416457  53.02 0.0004106152    1.573    0.364
        79  -7.9948    112.4928    132.4907   9.2830883811e+01   3.3011205251e+01    0.3192583    0.1465412 -51.54  0.001068991    2.123    0.529
        80  -7.7056    245.0245    131.0000   6.3775385841e+01   5.5416685083e+00    0.2069716   0.07960294  49.32 0.0007986665    2.916    0.657
        81  -8.2180    125.5746    126.8457   8.8029017233e+01   3.1771192627e+01    0.3730651    0.2340162 -41.47  0.001036969    1.647    0.393
        82  -9.0022    120.2309    128.0587   8.9737292143e+01   3.2559045178e+01    0.3040972    0.2142479  48.67 0.0004499101    1.455    0.313
        83  -8.3911     89.0248    124.4466   9.7605539649e+01   3.9086718674e+01     0.272047    0.2011597 -76.95 0.0005662406    1.497    0.332
        84  -9.4068    200.9345    122.5892   6.9584178573e+01   1.6104599422e+01    0.3564066    0.3046943 -65.93 0.0004317073    1.337    0.252
        85  -7.0655    144.6827    124.3097   8.2500021186e+01   2.8323246315e+01    0.1594155    0.1258926  89.42 0.0007032558    1.637    0.389
        86  -7.8626    131.9769    121.9047   8.5142691492e+01   3.1579068103e+01     0.241717    0.1907661 -89.95 0.0005179063    1.615    0.381
        87  -7.5236    117.6303    122.3152   8.9073265506e+01   3.4409725214e+01    0.1627289    0.1215144  80.66 0.0007035924    1.781    0.438
        88  -8.6163     77.5378    116.3035   9.9211360895e+01   4.2867173437e+01    0.2672038    0.1363951 -61.64 0.0007507139    1.931    0.482
        89  -7.4801    157.2408    114.0603   7.6826617175e+01   2.7738995739e+01    0.1965076    0.1325695 -40.48 0.0003179756    1.476    0.322
        90  -8.2658    109.6826    111.7883   8.8678936241e+01   3.8406635812e+01    0.2900562    0.2039137  56.46 0.0007057908    1.611    0.379
        91  -8.6310     83.8350    164.1660   1.0630827457e+02   3.0325168507e+01    0.2088565     0.174489  77.08 0.0004270453    1.140    0.123
        92  -7.4549    196.4822    107.4690   6.6671671679e+01   1.9965370956e+01    0.1521378    0.1462502 -40.46 5.284621e-05    1.007    0.007
        93  -7.4632    112.6988    107.6968   8.6763004025e+01   3.8759031966e+01    0.1533858    0.1220048 -10.53 0.0003036909    1.590    0.371
        94 -10.7091     91.2779    156.4019   1.0315753692e+02   3.1003349542e+01    0.6437017     0.506524  19.06  0.003341847    1.610    0.379
        95  -8.9995     68.2167    104.0139   9.9331393125e+01   4.7173635072e+01    0.2424048    0.2125033  29.96  0.001349415    1.266    0.210
        96  -7.4867    136.9185    105.8001   7.9662756069e+01   3.4089164641e+01    0.2048482    0.1247217  44.27  0.000328141    1.667    0.400
        97  -9.6343     98.2324    152.8585   1.0073746152e+02   3.0703823543e+01    0.2783282    0.2327383 -70.87 0.0003794539    1.161    0.139
        98  -7.8407     88.9061     97.2864   9.1099425645e+01   4.5543446256e+01    0.2607466    0.2006437 -79.49 0.0008644388    1.638    0.389
        99  -8.6486     35.6059     97.6044   1.0859593367e+02   5.2481959632e+01    0.3311643    0.1853152  56.98  0.001383426    2.488    0.598
       100  -7.3906    122.9970     95.9848   8.0657935879e+01   3.9244950293e+01    0.1842045    0.1807787 -31.57 0.0003740712    1.003    0.003
       101 -10.6909      9.0062    155.1354   1.2354831145e+02   4.1023207090e+01    0.2658278    0.2140312  89.38 0.0002577845    1.054    0.051
       102  -7.6751    112.5669     88.4916   8.1441080612e+01   4.3037412771e+01    0.1524618    0.1456494 -25.73 7.626046e-05    1.021    0.020
       103  -8.2329     77.3560    248.3905   1.1728592811e+02   1.3763649666e+01    0.1785203   0.09575003  37.37 0.0005996049    1.761    0.432
       104 -13.5166    118.4844    239.6919   1.0868822572e+02   9.2725766950e+00     3.387712     3.041653  37.50   0.02028161    1.208    0.172
       105  -9.3108    106.9101     78.7175   8.0143524614e+01   4.6233765973e+01    0.4096711    0.2963112 -12.21  0.001054199    1.772    0.436
       106  -7.1099     95.2592     77.6097   8.3396579745e+01   4.8729820105e+01    0.1472477    0.1159548 -74.41 0.0006970124    1.693    0.409
       107  -8.0373    203.0254     74.9866   5.7004477349e+01   2.4205312322e+01    0.3237511    0.1859319 -27.30  0.001355681    1.934    0.483
       108  -8.2050     86.2310     70.9472   8.4221138226e+01   5.1741485700e+01    0.2165402    0.1770184 -19.67 0.0004779893    1.241    0.194
       109  -7.1262     52.6880     69.2702   9.5652130881e+01   5.7113215645e+01    0.1213626    0.1050265  78.76 0.0002133894    1.549    0.354
       110  -7.7441     76.8542     67.2001   8.6206317777e+01   5.4094003716e+01    0.1858798    0.1510124 -16.30 0.0003148008    1.248    0.198
       111  -7.2921    126.2339     66.3277   7.0668740108e+01   4.4453953404e+01     0.147634    0.1162209  -0.83 0.0003958243    1.523    0.343
       112  -7.7668    119.1702     65.8100   7.2420284038e+01   4.6139751767e+01     0.199222    0.1691739  13.39 0.0002515588    1.269    0.212
       113  -7.2186    130.6932     65.3316   6.9174713355e+01   4.3603553480e+01     0.153578     0.120737 -74.55 0.0007039462    1.663    0.399
       114  -7.4159     49.6660     61.2800   9.4384610785e+01   5.9160229288e+01    0.1200242    0.1043832  76.85 0.0002185166    1.611    0.379
       115  -8.1318     50.8929    157.5267   1.1362499010e+02   3.6374917203e+01    0.1817598    0.1272273  38.24  0.001013814    1.538    0.350
       116  -8.3966     44.9347     57.9356   9.5204933696e+01   6.0398615709e+01    0.1919142    0.1631564 -36.12 0.0002983718    1.042    0.040
       117  -7.5604     11.6245     57.4858   1.0878059238e+02   6.3344192163e+01    0.1212573   0.09180341 -50.49  0.000128404    1.032    0.031
       118  -8.2439     77.1283    244.7011   1.1702019475e+02   1.4445828618e+01   0.09839883   0.06584496  84.72 0.0002225951    1.503    0.335
       119 -11.8234    186.8170     44.5400   5.1264113198e+01   3.2932906740e+01    0.9149727     0.738444  30.91  0.003617481    1.488    0.328
       120  -7.7023     74.4641    242.3945   1.1731757797e+02   1.5221879451e+01    0.1170359   0.08971666  59.28 0.0002057794    1.027    0.026
       121  -7.4075    164.4968     22.5131   4.8250488112e+01   4.1425449528e+01    0.1405061    0.1282101  80.72 -0.0001024775    1.028    0.027
       122  -7.5547    132.1891     19.6647   5.3078741533e+01   4.9839084279e+01    0.1970672    0.1098423 -10.92 0.0006454082    2.294    0.564
       123  -7.5622     25.8410     53.1065   1.0162807245e+02   6.3256410758e+01    0.1691696    0.1151656 -33.83 0.0002420173    1.275    0.215
       124  -8.3277    233.5646    241.2271   8.7209509364e+01  -8.8194266658e+00    0.1472186   0.09658466 -12.24 0.0004670123    1.505    0.336
