#   1 NUMBER                 Running object number                                     
#   2 MAG_AUTO               Kron-like elliptical aperture magnitude                    [mag]
#   3 X_IMAGE                Object position along x                                    [pixel]
#   4 Y_IMAGE                Object position along y                                    [pixel]
#   5 X_WORLD                Barycenter position along world x axis                     [deg]
#   6 Y_WORLD                Barycenter position along world y axis                     [deg]
#   7 A_WORLD                Profile RMS along major axis (world units)                 [deg]
#   8 B_WORLD                Profile RMS along minor axis (world units)                 [deg]
#   9 THETA_WORLD            Position angle (CCW/world-x)                               [deg]
#  10 FWHM_WORLD             FWHM assuming a gaussian core                              [deg]
#  11 ELONGATION             A_IMAGE/B_IMAGE                                           
#  12 ELLIPTICITY            1 - B_IMAGE/A_IMAGE                                       
         1 -13.9100    211.3949     34.3495   3.5994629452e+01   2.9076025483e+01    0.6416389    0.6216271  64.31  0.001704202    1.341    0.254
         2 -13.9955    237.3198      8.3767   2.8486034643e+01   2.6776956355e+01    0.8167977    0.6145027 -68.49  0.004260829    1.022    0.022
         3 -11.4359      2.4169      3.7244   8.2328328439e+01   7.4384896148e+01    0.2624163   0.08562781 -39.98  0.001314688    2.695    0.629
         4 -12.4763    120.2056    246.0033   9.9043226103e+01   5.8511201940e+00    0.2470527    0.1691812  36.43  0.001399486    1.259    0.205
         5 -12.5525    139.6412    248.9747   9.5289847174e+01   2.4409127409e+00    0.3508413    0.2773349 -64.83  0.002139522    1.608    0.378
         6 -12.4449    107.1877    249.9235   1.0229533282e+02   7.0123154204e+00    0.2969557    0.2156586  51.49  0.001636314    1.281    0.219
         7 -14.6174     53.8856    184.7101   1.0692980877e+02   2.8982911318e+01     1.608537     1.039006  59.89  0.008025927    1.590    0.371
         8 -12.0469    191.9774    192.7985   7.4787830786e+01   4.6644910826e+00    0.7597802    0.4070234 -65.67  0.002118473    6.484    0.846
         9 -11.0081     66.9865    197.0179   1.0515070589e+02   2.4239431349e+01    0.2165528    0.1862276  71.74 0.0004839496    1.079    0.073
        10 -10.9274     82.6494    194.7372   1.0092466838e+02   2.2569765420e+01    0.2582234    0.1835074  19.90  0.001264256    1.679    0.404
        11 -12.6983    119.1248    211.9082   9.4555987640e+01   1.2921243857e+01    0.4102581    0.2276445  37.99  0.001599501    1.666    0.400
        12 -12.0310     81.1990    182.0594   9.9432200579e+01   2.5900828957e+01    0.3644082    0.3498391 -86.72 0.0009678063    1.045    0.043
        13 -11.4108     99.3108    181.0264   9.4509574083e+01   2.3324211832e+01    0.2669047    0.2492461   2.67 0.0006622167    1.192    0.161
        14 -16.3166     43.1906    196.7165   1.1095971347e+02   2.7311021267e+01     7.575306     2.566199  62.25   0.01972108    6.640    0.849
        15 -11.0687     86.8333    177.1309   9.7158280361e+01   2.6277534310e+01    0.1974043    0.1734926 -31.97 0.0004055853    1.289    0.224
        16 -14.4425     80.5620    157.9172   9.5586042282e+01   3.2140540631e+01      1.83073    0.8734661  62.44 0.0005764536    4.165    0.760
        17 -13.5627     69.1637    152.9610   9.7998803757e+01   3.5106301115e+01    0.5227911    0.4572281 -33.25  0.001231581    1.256    0.204
        18 -15.7011     69.8949    144.5880   9.6256602695e+01   3.7180168801e+01     4.569927     2.133545  66.13   0.00304179    7.300    0.863
        19 -12.5891     72.3036    166.0474   9.9315486402e+01   3.1268846811e+01    0.4660533    0.3181828 -54.55 0.0008076453    1.413    0.292
        20 -16.1669      3.6349    182.9279   1.1921939947e+02   3.4532790875e+01     7.547729    0.5835953 -72.07   0.02079796    5.964    0.832
        21 -11.0367     34.8401    171.8448   1.1036943966e+02   3.4427406515e+01    0.2699864    0.1853074  69.79  0.001007019    1.473    0.321
        22 -10.1730    110.4708    167.2656   8.9064421361e+01   2.4825334230e+01    0.2117534    0.1489504 -70.34 0.0009385082    1.612    0.380
        23 -10.0401    102.7603    164.9960   9.0707408575e+01   2.6726894083e+01    0.2087752    0.1951018 -66.42   0.00110578    1.051    0.048
        24  -9.3852     64.6548    162.7150   1.0092727427e+02   3.3197825673e+01    0.1465159    0.1104255 -29.09 0.0007018417    1.646    0.392
        25 -11.3801     33.2752    156.1116   1.0888466226e+02   3.8626321757e+01    0.2763298    0.1914464  37.41 0.0008465943    1.550    0.355
        26 -12.5072     87.9817    151.5394   9.2249983042e+01   3.2611689667e+01    0.6424527    0.4352754 -19.49  0.002477449    2.161    0.537
        27 -11.8349    133.8113    145.1259   7.8194767128e+01   2.5827689867e+01     1.151449    0.2564376 -53.66  0.002396053    6.681    0.850
        28 -10.7644    168.1567    232.8476   8.6876310911e+01   1.0303868251e+00    0.1919629    0.1726956  36.36 0.0005786149    1.219    0.180
        29 -11.8433     54.4300    148.4031   1.0158044057e+02   3.8257767697e+01    0.3977876    0.2110164 -59.80  0.001740082    1.680    0.405
        30 -10.0612    174.6931    149.3134   6.9386177267e+01   1.6681867496e+01     0.149415    0.1216704 -82.91 0.0003102704    1.623    0.384
        31 -11.5590    101.9618    137.9883   8.5329292604e+01   3.3655138450e+01    0.5464882    0.3271704 -21.35   0.00190082    2.929    0.659
        32 -11.3337    105.9889    131.1430   8.2575330965e+01   3.4612617114e+01    0.4224888    0.3300489 -56.55  0.001383123    1.268    0.211
        33 -12.3640     89.5249    137.0877   8.8804262936e+01   3.6051371070e+01    0.3056491    0.2606033 -44.32 0.0004471396    1.150    0.130
        34 -18.1729     13.6781    240.2706   1.2068515001e+02   2.0696141633e+01     6.023335     2.716901  25.28    0.0305327    2.772    0.639
        35 -12.4806     67.7783    170.6711   1.0129605984e+02   3.0718440753e+01    0.4552028    0.3169138 -26.64  0.002105613    1.973    0.493
        36 -11.1221    134.8610    128.7450   7.4024095454e+01   2.9454029144e+01    0.3229602    0.2002592  44.99  0.001347858    1.662    0.398
        37 -10.5805    111.3980    129.0050   8.0502083884e+01   3.4107753415e+01    0.2882534    0.2250914  14.59 0.0006501987    1.542    0.351
        38 -11.0935     98.5140    124.6737   8.3234590613e+01   3.7581875883e+01    0.3037775    0.2484792  -4.90  0.000700522    1.470    0.320
        39  -9.9282    107.7233    118.0557   7.8838030605e+01   3.7446645773e+01    0.2130924    0.1952948 -40.56 0.0002797191    1.062    0.058
        40 -10.4591    231.2990    113.8853   5.1072875319e+01   1.2580277325e+01    0.2214958    0.2029862  44.64 0.0007994287    1.297    0.229
        41 -11.5356     52.8844    110.6689   9.4800755800e+01   4.8151503504e+01    0.2759163    0.1784398 -48.70  0.001151828    1.390    0.281
        42 -11.3000     17.9606    110.4912   1.0701492026e+02   5.1651379735e+01     0.214845    0.1572699 -65.44 0.0005892697    1.163    0.140
        43  -9.7166    205.5388    110.4610   5.4375086495e+01   1.8230063270e+01    0.1443216      0.12886 -50.76 0.0003617021    1.013    0.012
        44 -11.7029     22.3569    108.8195   1.0518738697e+02   5.1730617268e+01    0.2407564    0.2362398  19.39 0.0007686666    1.191    0.160
        45 -10.7930     33.0322    100.0416   9.9602268535e+01   5.2960418847e+01    0.2089331    0.1628027  74.04 0.0006643038    1.641    0.391
        46 -10.7730    120.7579     98.9917   6.9951215046e+01   3.9099316294e+01    0.2100252    0.1295521 -43.93 0.0005453058    1.601    0.375
        47 -13.3076      2.0303     84.0574   1.0830364835e+02   5.9007802329e+01    0.8987383    0.3403302 -67.65  0.004007658    2.225    0.551
        48  -9.6590     75.5083     85.4794   8.0159144613e+01   5.0759344373e+01    0.1443684    0.1382049 -24.71 0.0008094565    1.064    0.060
        49 -10.9215     13.4064     59.9037   9.7923703551e+01   6.3704501327e+01    0.1813585    0.1651043  -2.41 0.0004537917    1.231    0.187
        50 -12.5554    190.1635     51.9098   4.2662037475e+01   3.1432090581e+01    0.4037832    0.3139396  52.52  0.000734448    1.423    0.297
        51 -13.6018    201.1653     43.9415   3.9322483795e+01   3.0061296434e+01    0.8076948    0.7417032 -76.67  0.003071082    1.120    0.107
        52 -15.6294     10.4206    206.6342   1.1932561354e+02   2.8358000997e+01     1.080672    0.8432918  -1.82  0.004546111    1.943    0.485
        53 -11.3978    123.7917    201.5004   9.1792411073e+01   1.4449219296e+01    0.2761566    0.1930201 -77.86 0.0009097012    1.893    0.472
