#   1 NUMBER                 Running object number                                     
#   2 MAG_AUTO               Kron-like elliptical aperture magnitude                    [mag]
#   3 X_IMAGE                Object position along x                                    [pixel]
#   4 Y_IMAGE                Object position along y                                    [pixel]
#   5 X_WORLD                Barycenter position along world x axis                     [deg]
#   6 Y_WORLD                Barycenter position along world y axis                     [deg]
#   7 A_WORLD                Profile RMS along major axis (world units)                 [deg]
#   8 B_WORLD                Profile RMS along minor axis (world units)                 [deg]
#   9 THETA_WORLD            Position angle (CCW/world-x)                               [deg]
#  10 FWHM_WORLD             FWHM assuming a gaussian core                              [deg]
#  11 ELONGATION             A_IMAGE/B_IMAGE                                           
#  12 ELLIPTICITY            1 - B_IMAGE/A_IMAGE                                       
         1 -11.3773     85.4157     23.6852   2.1413219604e+01   6.0744073028e+01    0.4700747    0.3359107  16.38  0.001390763    1.646    0.393
         2 -11.8981      3.6571     19.7076   6.3428481212e+01   7.4890564647e+01    0.4152696    0.3704956 -18.70  0.002140095    1.150    0.130
         3 -10.6397     45.3428     12.1527   3.1100445871e+01   7.0727864268e+01    0.2832905    0.1736761  38.20 0.0007361883    1.484    0.326
         4 -11.6141     49.8613     14.4552   3.0246428071e+01   6.9577811680e+01    0.4571143    0.2966782  41.65  0.001558935    1.416    0.294
         5 -11.4907     55.9185     19.9588   3.0545442357e+01   6.7664193853e+01    0.4712312     0.267345  50.23  0.001560575    1.765    0.433
         6 -11.3568     17.1153     12.5590   4.9097963550e+01   7.4985610364e+01    0.6666231    0.3076456 -24.19  0.002904351    2.793    0.642
         7 -10.4673    126.9447     14.6600   8.1554622680e+00   5.1284062076e+01    0.4495256    0.1961356  51.94  0.001862742    2.156    0.536
         8  -9.7121     34.9980     13.7237   3.7765541370e+01   7.2308805085e+01    0.1806162    0.1492942  18.08 0.0004815718    1.086    0.079
         9  -9.6065     27.7406     11.0896   4.0659416902e+01   7.3817040431e+01    0.1766122    0.1456197  -8.80  0.001137096    1.070    0.065
        10 -10.3358     69.1623      9.4074   1.9529490558e+01   6.6116905101e+01    0.2297728    0.1798443 -16.60 0.0006620247    1.365    0.268
        11  -9.3144    115.0370      8.7890   7.9335588926e+00   5.4927946325e+01    0.1877365    0.1007766  69.86 0.0005963634    1.666    0.400
        12 -10.1887     97.4104      6.9170   1.0584352179e+01   5.9583862983e+01    0.3651578    0.1690018 -52.71   0.00142811    3.055    0.673
        13 -11.4636     86.6480      6.7115   1.3006728913e+01   6.2263671842e+01    0.4812911    0.2155011  52.59   0.00163022    1.871    0.465
        14 -11.3216     78.8250      5.5519   1.4511188198e+01   6.4247862048e+01    0.3347936    0.2228803  13.70  0.001211284    1.739    0.425
        15  -9.3545      3.4862      8.4592   5.7809070229e+01   7.7035649546e+01    0.1210479   0.09500677 -20.38 6.449064e-05    1.010    0.010
        16 -10.6309    124.0290      6.6796   5.6490184615e+00   5.2787267568e+01    0.3366432    0.2013923 -84.66  0.001588804    1.830    0.453
        17 -11.7415    174.3455      3.9231   3.5905205206e+02   4.0189645091e+01     0.301056    0.2508528 -19.41   0.00113459    1.449    0.310
        18  -9.8990     63.3041      5.0439   1.9148115663e+01   6.7853345570e+01    0.1792638    0.1614641  21.29 0.0006941606    1.078    0.072
        19 -11.9690     12.4822      4.0192   4.7205503195e+01   7.6903217038e+01    0.5608289    0.2697734  33.85  0.002957702    2.122    0.529
        20 -11.2742    114.8477      1.8478   5.2107476422e+00   5.5559752295e+01    0.4368415    0.1804887  73.27  0.001441717    2.190    0.543
        21  -9.5370    220.0287      1.1979   3.5530685567e+02   2.9922875279e+01    0.1450576   0.08314777  84.55 0.0003327646    1.645    0.392
        22 -10.2169    178.9244      1.4374   3.5799680166e+02   3.9300802440e+01    0.1865317     0.111627  80.60 9.436342e-06    1.498    0.333
        23  -9.8605    153.5113      1.5154   2.4032579193e-01   4.5622340137e+01    0.1346877    0.1141285 -84.31 0.0008103267    1.017    0.017
        24  -9.7571     13.9713    117.1754   7.9826919940e+01   5.0563283662e+01    0.2270804    0.1358772 -34.73  0.001085022    1.980    0.495
        25  -9.8009     91.7730    116.2077   5.1933303556e+01   4.0701146164e+01    0.2108193    0.1859249 -14.63 0.0003916984    1.297    0.229
        26  -9.6195     95.8714    111.8264   4.9508148624e+01   4.1011332648e+01    0.2133052    0.1839379 -84.85  0.000447956    1.287    0.223
        27  -9.7470     13.2664    106.0346   7.8747197047e+01   5.3566919163e+01    0.1905597    0.1580995 -80.70 0.0004158658    1.070    0.066
        28 -13.3329    248.9092     98.6968   1.4482195360e+01   1.1650703305e+01    0.9390922    0.3779945 -25.38  0.003625824    3.286    0.696
        29 -10.2218      1.6893    104.9329   8.3068872716e+01   5.4525714035e+01    0.2284681    0.1307697 -58.10  0.001163673    1.536    0.349
        30 -10.7382    118.6775    102.8319   4.0120903242e+01   3.8401822303e+01    0.3195136    0.2129977  71.67  0.001238484    2.172    0.540
        31 -12.5257    235.6088     94.8711   1.5250004900e+01   1.4569636256e+01    0.4474941    0.2520214 -58.79  0.002150134    2.178    0.541
        32 -11.0577     64.7589     96.2565   5.6415452477e+01   5.0428933298e+01    0.3397012    0.2700773  28.32 0.0009518363    1.326    0.246
        33  -9.1911    143.4444     96.4642   3.1797335057e+01   3.4127820786e+01     0.154921    0.1522717 -40.72 0.0002302947    1.030    0.029
        34 -10.1610      4.8776     95.8277   8.0802551264e+01   5.6745247986e+01    0.2664948    0.1747739 -20.97  0.001067596    1.791    0.442
        35  -9.9236    133.0293     92.6835   3.3295306196e+01   3.7342592828e+01    0.2228363    0.2037486  54.06  0.000347022    1.100    0.091
        36 -10.2200     36.8359     90.1669   6.6314827629e+01   5.5715552317e+01    0.2035076    0.1555791 -36.52 0.0003531355    1.330    0.248
        37 -10.9031     11.8666     85.1451   7.6296682791e+01   5.9129850606e+01    0.2870401     0.195237 -70.30 0.0005583329    1.284    0.221
        38 -12.2111    237.4941     80.5038   1.1837966648e+01   1.6368619335e+01    0.4620909    0.1760302 -51.47  0.001837917    2.882    0.653
        39 -11.0891    101.2264     83.3944   3.9591044716e+01   4.6575085558e+01    0.3714546    0.1965163  55.74  0.001365578    2.243    0.554
        40 -11.1079     54.6222     78.8110   5.5671741897e+01   5.6308783273e+01    0.2650277    0.2542437  73.17 0.0002242706    1.146    0.127
        41 -10.4958    154.8418     75.8499   2.3255452556e+01   3.5356590783e+01    0.2291287    0.2121607   4.52 0.0007301834    1.243    0.195
        42 -10.8930    117.6769     75.1408   3.1968030614e+01   4.4543873995e+01    0.4228082    0.2906935 -66.70  0.001771439    1.899    0.473
        43 -10.2810    134.6854     75.6739   2.7706806079e+01   4.0333261753e+01    0.1579337    0.1246682  13.60 0.0004529661    1.668    0.401
        44 -12.0912     36.1913     73.2645   6.2403074434e+01   6.0059863340e+01    0.5305901    0.3783665 -19.63  0.001985659    1.575    0.365
        45 -10.9775     99.7521     72.8928   3.6596991276e+01   4.9136441036e+01    0.3784762    0.2622914  55.91  0.001187703    1.535    0.349
        46 -11.3420     63.7911     69.5372   4.8786554102e+01   5.7025989899e+01    0.2766342     0.250391  24.05 0.0002036353    1.119    0.106
        47 -10.1219      7.5493     68.7558   7.5427353429e+01   6.3536670029e+01    0.2087967    0.1786727   9.53  0.000436989    1.320    0.242
        48  -9.4720     83.1799     68.1806   4.0654197862e+01   5.3670930565e+01    0.1988669    0.1789886  78.09 0.0002997316    1.285    0.222
        49 -11.0405     28.2122     66.5136   6.4428715812e+01   6.2543695424e+01    0.3848554    0.1557276 -62.86    0.0015259    2.341    0.573
        50 -10.0642    204.5011     65.6045   1.2283938895e+01   2.5337272036e+01    0.2795416    0.1476206 -56.90  0.001208645    2.039    0.510
        51 -11.6129    250.1498     60.3168   6.1709114481e+00   1.6854819514e+01    0.4358466    0.1417747 -36.05  0.001906375    2.371    0.578
        52 -11.4234    249.2039     54.6728   5.0492723127e+00   1.7778242363e+01    0.4328057    0.2610796  67.12   0.00255711    1.940    0.484
        53 -10.6508      4.4357     63.7603   7.6057048839e+01   6.4927692223e+01     0.266229    0.1775159 -55.16 0.0008727495    1.242    0.195
        54 -10.1595     99.0987     61.7218   3.2849782109e+01   5.1499921782e+01    0.3928609    0.1941889 -56.09  0.001338405    2.952    0.661
        55  -9.4884      3.9645     75.3124   7.8334142604e+01   6.2067967803e+01      0.21045   0.05733496  38.34 0.0006975561    4.316    0.768
        56 -10.8477     21.8885     61.8852   6.6409393411e+01   6.4238003636e+01    0.2480417    0.2171929 -33.84  0.001502489    1.057    0.054
        57 -10.0959     22.2710     58.0313   6.5111894966e+01   6.5122349687e+01    0.1915048     0.178769 -89.38 0.0003384854    1.247    0.198
        58 -11.1556    231.3448     60.8070   8.0582367236e+00   2.0382034598e+01    0.2154468    0.1665799 -78.49 0.0009503406    1.344    0.256
        59 -11.2419     66.8261     60.1531   4.4127438320e+01   5.8532860262e+01    0.3728392    0.3156949  53.86  0.001159886    1.327    0.246
        60  -9.6904     56.9907     59.9966   4.8357619443e+01   6.0274223288e+01    0.1724901    0.1619394  -7.25 0.0003326696    1.021    0.021
        61 -10.5548     15.4775     60.6450   6.9494637186e+01   6.5037841153e+01    0.3018799    0.1290059   9.10  0.001251028    2.821    0.645
        62 -10.9340      3.3563     57.8458   7.5439620672e+01   6.6418280122e+01    0.4641722    0.1938466 -69.93  0.002080023    2.098    0.523
        63  -9.6609    114.4020     60.8122   2.7989540045e+01   4.8044223307e+01    0.2012926    0.1495011 -23.65 0.0003623858    1.538    0.350
        64  -9.3068     84.6728     57.6925   3.6218936960e+01   5.5473325612e+01    0.1543441    0.1171788   8.03  0.000544403    1.654    0.396
        65  -9.3104     17.3022     57.3419   6.7627874789e+01   6.5693533418e+01    0.1465046   0.08304048 -36.67 0.0007038626    1.677    0.404
        66  -9.6763    136.6574     56.3007   2.0971769489e+01   4.3260713069e+01    0.1587916    0.1148905 -75.23 0.0007037386    1.675    0.403
        67  -9.4806     78.3075     56.2793   3.8028770799e+01   5.7082089901e+01    0.1483036    0.1147122   6.64 0.0001887262    1.557    0.358
        68 -10.1325     46.1393     56.6870   5.2248299647e+01   6.2665351176e+01    0.2922242    0.1143362  38.95  0.001103668    2.685    0.627
        69  -9.6348     99.4576     55.4856   3.0411944890e+01   5.2568051346e+01     0.150079    0.1454782  35.00 7.954131e-05    1.008    0.008
        70 -10.7695     85.5380     50.2085   3.2953470794e+01   5.6673999651e+01    0.4697652    0.3127101  70.31   0.00200946    2.136    0.532
        71 -10.4689    169.7744     50.0479   1.2939481592e+01   3.5843897216e+01    0.3157611    0.1298487 -50.01  0.001152952    2.595    0.615
        72 -10.3774    115.5136     50.9793   2.4145611285e+01   4.9458076588e+01    0.4627612    0.2049685  67.60  0.001486552    3.236    0.691
        73 -11.0702     73.8080     50.7517   3.7558002355e+01   5.9055994171e+01    0.2843646    0.2368709   3.01 0.0005423973    1.301    0.231
        74 -10.9711     94.1421     48.0315   2.9185738574e+01   5.5104363963e+01    0.4289871    0.2150754 -32.67  0.001413435    2.154    0.536
        75  -9.3151     91.5260     43.5353   2.8196745143e+01   5.6455853975e+01    0.1459669    0.1397804  42.06 0.0001023117    1.027    0.026
        76 -10.8639     39.0383     44.2185   5.1019120327e+01   6.6308475511e+01      0.33079    0.2965579 -47.19  0.001580494    1.204    0.169
        77 -11.2452    249.1078     44.8620   2.9690417017e+00   1.9063007552e+01    0.3566397    0.2023531 -41.36  0.002078124    1.374    0.272
        78 -10.9254    119.4309     43.5552   2.0432576874e+01   4.9634495369e+01    0.4572418    0.2660446 -54.38  0.001904898    2.072    0.517
        79 -10.4848     23.3536     45.1068   6.0269616236e+01   6.7967905648e+01    0.3221076    0.1925342   7.50  0.001609414    1.873    0.466
        80 -11.0877     51.7321     46.4261   4.5440473445e+01   6.3949416592e+01    0.3844725     0.234556  34.55  0.001557454    1.642    0.391
        81 -10.7126    158.9783     39.4696   1.1416140863e+01   4.0048390067e+01    0.2522315    0.2072894 -39.73 0.0003450363    1.232    0.188
        82  -9.6635     89.8550     39.2091   2.6921332032e+01   5.7529016352e+01    0.1979292    0.1628867  18.20 0.0002431806    1.317    0.241
        83  -9.7362     95.9991     38.2337   2.4602494770e+01   5.6227142277e+01    0.1997471    0.1801743  51.89 0.0003236611    1.056    0.053
        84 -10.4161    119.0995     35.1756   1.7377325337e+01   5.0911326736e+01    0.2222152    0.2102176 -23.87 0.0003470395    1.145    0.127
        85 -10.1751     46.9301     35.7387   4.3044485640e+01   6.6763195273e+01    0.1887837    0.1667832  17.58 0.0004243123    1.092    0.084
        86 -10.9037     39.4118     35.7230   4.7058690986e+01   6.7930779709e+01    0.4527856    0.2123862  40.65  0.001988413    2.295    0.564
        87 -10.6687     26.8003     34.6413   5.3956400460e+01   6.9796694019e+01     0.308361    0.2449039  19.89  0.001852897    1.276    0.216
        88  -9.9782     76.6982     35.1450   2.9666285064e+01   6.1125269494e+01    0.2215916    0.1773786 -48.94  0.001037066    1.434    0.302
        89  -9.6524    131.2857     34.3144   1.4507907823e+01   4.7883213103e+01    0.1450896    0.1088603  31.76 0.0002296561    1.582    0.368
        90 -10.7423      4.0590     31.3608   6.7771170460e+01   7.2453221725e+01    0.2565444    0.1891049  36.50  0.001263021    1.675    0.403
        91 -10.1537     92.4874     31.0073   2.2568886189e+01   5.8103064045e+01    0.2129204    0.1813703  50.62 0.0003223526    1.092    0.084
        92  -9.7788     17.6490     31.1724   5.8315568968e+01   7.1460193333e+01    0.1784604    0.1393261 -36.95 0.0006161241    1.119    0.106
        93  -9.5535     59.1888     29.7998   3.4222056061e+01   6.5573676228e+01    0.1974956    0.1522241  10.95  0.001063805    1.357    0.263
        94  -9.7727    103.9796     28.2668   1.8246812135e+01   5.5647309874e+01    0.2005218    0.1663005  58.14 0.0002324464    1.115    0.103
        95  -9.6855    160.8075     27.1563   7.3531925252e+00   4.1141506708e+01    0.1885056    0.1541857  55.27 0.0007130014    1.295    0.228
        96  -9.5675    153.4378     27.5460   8.4959799393e+00   4.2984513430e+01    0.1416927    0.1266443 -82.82 6.360661e-05    1.018    0.018
        97 -10.4533     46.9347     26.7676   3.8558593823e+01   6.8306806357e+01    0.2089067     0.177669 -18.90 0.0003280516    1.129    0.114
        98  -9.8938    120.7561     25.9580   1.3528089480e+01   5.1656141904e+01    0.3193197    0.1371082  44.01  0.001187673    2.608    0.617
        99  -9.9540    244.7653    198.9911   3.4774370792e+01  -2.3063969708e+00    0.1533713   0.08024786 -30.93 0.0008811012    1.631    0.387
       100  -9.0895    239.2671     24.6338   3.5933694641e+02   2.3423001946e+01    0.1320631   0.06557757 -54.75 0.0006654055    1.655    0.396
       101  -9.7082    128.7285     24.0247   1.1282631139e+01   4.9813983597e+01    0.1857805    0.1788983 -69.07 0.0003419852    1.089    0.082
       102 -10.6420     98.4356     22.7401   1.7318580608e+01   5.7704701781e+01    0.2537509    0.2153462  41.39 0.0005336509    1.129    0.115
       103  -9.8684     38.6446     22.6002   4.0813563372e+01   7.0357645916e+01    0.1658956    0.1191222  39.98  0.000924226    1.463    0.317
       104 -10.3579    244.3660    180.2024   3.1464125501e+01   3.0581645863e-01    0.1678455   0.09453446 -39.39 0.0009422775    1.734    0.423
       105 -10.1786    224.2457    172.9642   3.3358080339e+01   4.1772229933e+00    0.1673881   0.09425537 -34.66 0.0006833907    1.575    0.365
       106  -9.9948     21.4777    170.0381   8.2345679619e+01   3.6215381732e+01    0.2032241    0.1621227  37.71 0.0008044027    1.276    0.216
       107 -10.2620      6.9327    159.5240   8.5660385382e+01   4.0062258027e+01    0.2890846    0.1588414 -55.95 0.0006842784    1.938    0.484
       108 -10.9661     50.1414     19.3566   3.2919511934e+01   6.8858065128e+01     0.378264    0.2132802  31.88   0.00152104    1.775    0.437
       109 -10.8086    108.7256     18.4352   1.3069579609e+01   5.5598701651e+01    0.2758866    0.2470661  64.46  0.000835423    1.016    0.016
       110 -10.0547     71.0219     18.4955   2.3668210716e+01   6.4682022323e+01    0.1987617    0.1802703   1.56 0.0004827803    1.115    0.103
       111 -10.1824     15.3293     17.0222   5.3027307388e+01   7.4405173427e+01    0.2534114    0.1255592 -36.43  0.001284211    1.836    0.455
       112  -9.8327     12.7980    158.1574   8.3904990497e+01   3.9950431938e+01    0.2112823    0.1530045  65.40 0.0008964771    1.228    0.186
       113  -9.4141     91.0100    148.7731   5.9177176903e+01   3.2602810792e+01    0.1982334     0.123793  35.84 0.0002922738    1.571    0.364
       114  -9.9646     85.8537     15.9098   1.7626271039e+01   6.1548251025e+01    0.3376803    0.1535457  58.10  0.001442038    1.951    0.487
       115  -9.1678     23.5090     16.5385   4.6861625703e+01   7.3536066990e+01    0.1257572    0.1072965  -6.21 8.504167e-05    1.049    0.047
       116 -10.6670    181.8653     14.0071   1.1890482303e+00   3.7352291162e+01    0.3827943    0.1362178 -75.59  0.001111226    5.221    0.808
       117  -9.5942     39.8140    147.6092   7.4764087306e+01   4.0119920304e+01    0.1991479    0.1176263  42.50 0.0004586283    1.636    0.389
       118 -10.0833    162.6154     12.7744   2.7507542758e+00   4.2260732404e+01    0.1960514    0.1104193 -41.32 0.0009578543    1.701    0.412
       119  -9.7563    120.6898     13.0011   8.5890918113e+00   5.3072241975e+01    0.1910433    0.1727191  59.49 0.0005387989    1.076    0.070
       120 -10.1311     25.3981    146.3362   7.9124541941e+01   4.1912574350e+01    0.2508116    0.1629677  31.26 0.0008617871    1.590    0.371
       121  -9.5724    241.5143     10.5010   3.5619179572e+02   2.4553166623e+01    0.1176929   0.09083888 -58.43  0.000810266    1.035    0.034
       122  -9.7550      6.8340    143.1368   8.4582257161e+01   4.4241275581e+01    0.1861847    0.1371782 -62.26  0.001064653    1.340    0.254
       123 -10.8199    168.8440     12.8532   2.1196258086e+00   4.0684813715e+01    0.1982321    0.1800268  59.77  0.001075362    1.243    0.195
       124 -11.3934    246.0141    137.9909   2.3029319546e+01   6.2396418764e+00    0.1922165    0.1389505 -53.72 0.0008772846    1.695    0.410
       125 -10.0194     28.6877    138.1024   7.7183984250e+01   4.3775881399e+01    0.1955135    0.1610345 -77.18 0.0003586865    1.105    0.095
       126 -10.1421     51.5260    136.5266   6.9447794925e+01   4.1676468964e+01    0.1467293    0.1365575 -87.73  0.000270059    1.014    0.014
       127 -10.1686     10.8676    134.1401   8.2587412748e+01   4.6299734375e+01    0.1823928    0.1461778 -54.91  0.001061125    1.297    0.229
       128 -11.6085    235.7403    130.7422   2.2995621915e+01   8.9783594168e+00    0.3649502    0.1560647 -31.43  0.001613782    2.127    0.530
       129 -10.4837     17.9762    132.2157   8.0067308282e+01   4.6271796842e+01    0.2456373    0.1655321  50.78 0.0008733402    1.481    0.325
       130  -9.6726     11.4760    130.4721   8.2056306011e+01   4.7220380884e+01    0.1357595    0.1170761 -78.48 9.186198e-05    1.062    0.059
       131  -9.3202     78.4914    129.4641   5.9262800364e+01   3.9634097717e+01    0.1527593    0.1487542 -83.88 9.207415e-05    1.020    0.020
       132  -9.7014     57.9975    129.7637   6.6150331643e+01   4.2630858700e+01    0.1886588    0.1256872  30.75 0.0003657921    1.561    0.359
       133 -10.5821    250.6091    127.7748   2.0327616740e+01   7.0600399734e+00     0.186158   0.09344448 -41.85 0.0009518977    1.712    0.416
       134 -10.8471    134.9702    125.0201   4.1527814778e+01   2.9855038559e+01    0.2382321    0.2339091 -74.72 0.0004484243    1.041    0.039
       135  -9.5532    103.2979    119.7164   4.9163315026e+01   3.7622242757e+01    0.1576917     0.124401  77.05 0.0001867653    1.546    0.353
