#   1 NUMBER                 Running object number                                     
#   2 MAG_AUTO               Kron-like elliptical aperture magnitude                    [mag]
#   3 X_IMAGE                Object position along x                                    [pixel]
#   4 Y_IMAGE                Object position along y                                    [pixel]
#   5 X_WORLD                Barycenter position along world x axis                     [deg]
#   6 Y_WORLD                Barycenter position along world y axis                     [deg]
#   7 A_WORLD                Profile RMS along major axis (world units)                 [deg]
#   8 B_WORLD                Profile RMS along minor axis (world units)                 [deg]
#   9 THETA_WORLD            Position angle (CCW/world-x)                               [deg]
#  10 FWHM_WORLD             FWHM assuming a gaussian core                              [deg]
#  11 ELONGATION             A_IMAGE/B_IMAGE                                           
#  12 ELLIPTICITY            1 - B_IMAGE/A_IMAGE                                       
         1 -13.2202      3.6007     50.0161   1.2565403897e+02   6.4558468193e+01    0.9378173    0.5892394 -76.13  0.001674671    2.439    0.590
         2 -15.2504      6.7311    136.5283   1.4021529739e+02   4.6020864716e+01     9.267031     2.689854 -78.35   0.03228923    4.082    0.755
         3 -13.5724    200.2142     28.7712   6.4838416717e+01   3.1929873883e+01     1.373025     1.196726  52.67  0.007104678    1.315    0.240
         4 -13.5403    216.3266     11.0096   5.9029195161e+01   3.0253804527e+01    0.9196697    0.7836921  70.74  0.004743043    1.251    0.201
         5 -12.1623      2.6612     12.0031   1.1356422240e+02   7.0786217099e+01    0.6186994    0.1553799 -46.94  0.002798703    3.732    0.732
         6 -12.0339      3.5812      4.1657   1.0983742657e+02   7.1766952978e+01    0.4154213    0.2691534 -45.35  0.002966791    1.974    0.493
         7 -11.0435    124.6687    243.6811   1.2731153642e+02   6.3937596613e+00    0.2136821      0.15247  46.65  0.001093658    1.193    0.161
         8 -11.2457    234.2049    238.2023   1.0501254852e+02  -1.0937522225e+01    0.4245458    0.2673772 -63.60  0.001723719    4.811    0.792
         9 -12.8681    235.5558    247.7583   1.0639426004e+02  -1.2446866148e+01     1.333828    0.5055979  26.55  0.005476756    3.218    0.689
        10 -12.0318    156.0028    249.0750   1.2183389339e+02   1.2908683781e-01    0.5740726    0.1920422  44.87   0.00229854    2.573    0.611
        11 -12.0646    139.0537    248.9738   1.2515855114e+02   3.0173784209e+00    0.5153425    0.3379323 -75.15  0.002753347    2.091    0.522
        12 -11.7051    124.5130    249.9954   1.2813883008e+02   5.2678663754e+00    0.5861526    0.1481911  42.60  0.002116934    3.213    0.689
        13 -10.8424     65.0979    248.4874   1.3923221477e+02   1.4711173484e+01    0.2773252    0.1865551  79.51 0.0006459702    1.314    0.239
        14 -11.4844     46.2309    247.7105   1.4253863845e+02   1.7388258874e+01    0.4520583    0.2232144 -72.27  0.002591422    1.931    0.482
        15 -11.9360     29.2661    249.3909   1.4556962458e+02   1.9151361037e+01    0.7016221    0.2341776  45.65   0.00362881    2.388    0.581
        16 -11.5791     33.8156    247.9943   1.4470610696e+02   1.8877787588e+01    0.3570091    0.2353919  62.74  0.002446228    1.179    0.152
        17 -12.8134     36.8249    243.7486   1.4388542300e+02   1.9339996157e+01    0.6940718    0.3901638  62.74  0.004286715    1.440    0.306
        18 -12.7159      5.7060    227.8126   1.4818737982e+02   2.5977526369e+01    0.6322402    0.5123149  53.26  0.004903696    1.425    0.298
        19 -12.7092      6.2902    247.3114   1.4920045630e+02   2.2095785898e+01     1.102798    0.4911465  57.05  0.006846331    1.749    0.428
        20 -12.9594     11.2196    240.3931   1.4801184271e+02   2.2913394715e+01    0.8463891    0.4410282  75.61  0.005293357    1.545    0.353
        21 -11.7657    173.4824    247.5195   1.1816628993e+02  -2.5750143832e+00    0.4064152    0.2137776  53.38  0.001907271    2.186    0.543
        22 -10.5948     53.5726    238.6248   1.4047801584e+02   1.8226186726e+01    0.2098765    0.1626651  60.48 0.0006425264    1.152    0.132
        23 -11.9566    199.0724    248.4001   1.1332840751e+02  -6.9439326480e+00    0.3796748    0.3090284  42.35  0.002437887    1.250    0.200
        24 -10.4107     81.1893    248.9747   1.3631387990e+02   1.2300316964e+01     0.178396    0.1409581 -40.64  0.001098527    1.975    0.494
        25 -13.0761     43.9511    213.0421   1.4000796453e+02   2.4830756531e+01     1.287361    0.9303741  46.15  0.007655022    1.425    0.298
        26 -14.0736     34.1172    223.7850   1.4283741728e+02   2.3722639302e+01    0.8204822    0.5865302  70.97  0.002495372    1.117    0.104
        27 -13.4306    109.0959    230.6655   1.2877906800e+02   1.1509612665e+01     2.543354          nan  42.67  0.005097782    9.999    0.900
        28  -9.7558    228.5329    228.0335   1.0427715270e+02  -8.5897800945e+00    0.1602964    0.1121447 -61.21 0.0008095664    2.545    0.607
        29 -11.9344     89.4105    226.4588   1.3227922943e+02   1.5546973549e+01    0.9923483    0.1454996  45.66   0.00280963    5.272    0.810
        30 -10.8576      6.5723    215.4168   1.4725495639e+02   2.8436953983e+01    0.2039752    0.1470328  82.88 0.0005958572    1.003    0.003
        31  -8.7912    152.5836    213.2007   1.1701377094e+02   7.3296406949e+00     0.171885    0.1353109 -36.79 0.0002792883    1.462    0.316
        32 -12.5122      9.8722    206.8740   1.4606248318e+02   2.9923301426e+01    0.6536421      0.42992  36.34    0.0029264    1.817    0.450
        33 -10.6785     53.9065    204.0622   1.3707202120e+02   2.5550609395e+01    0.4439648    0.1973314  61.09  0.001931919    2.509    0.601
        34  -9.4377     34.7352    202.7539   1.4088583763e+02   2.8196649151e+01    0.1771637    0.1557827  56.57  0.000580191    1.307    0.235
        35 -11.7153     56.9443    197.2889   1.3566856057e+02   2.6685266232e+01     0.298426    0.2312671 -65.97 0.0005106963    1.291    0.225
        36  -9.5568    192.2801    193.5530   1.0497488235e+02   3.6467500205e+00    0.4531012    0.2430909 -68.75  0.001182663    6.708    0.851
        37 -11.9917     63.6397    188.9859   1.3317932359e+02   2.7699181880e+01    0.2710074    0.2474664 -76.27 0.0004657936    1.187    0.158
        38 -12.1738     13.6960    122.1662   1.3649508463e+02   4.8816420290e+01    0.5196953    0.2956949  52.56  0.002227719    2.192    0.544
        39 -10.8537     74.5224    176.3222   1.2889240275e+02   2.9144575745e+01    0.2517583    0.2249327 -87.50 0.0002862275    1.036    0.035
        40 -13.3192     60.9872    174.0848   1.3179809471e+02   3.1583463017e+01      0.54908    0.2833401 -46.89   0.00215834    2.284    0.562
        41  -9.3424     93.5275    170.8142   1.2338810482e+02   2.7489394037e+01    0.2293787    0.1812243  72.60 0.0004879628    1.295    0.228
        42 -11.8989     82.2782    167.1675   1.2555404021e+02   3.0175841893e+01    0.7164295    0.5451646 -52.04  0.002177261    1.342    0.255
        43 -12.9403     28.8374    230.4481   1.4431833255e+02   2.2958420572e+01    0.3096655    0.2546788 -77.45 0.0007588482    1.355    0.262
        44 -10.1961     95.6973    151.6446   1.1931956227e+02   3.1762594813e+01    0.3377016    0.2912263 -30.91 0.0008260642    1.354    0.262
        45  -9.3138     98.9493    147.6643   1.1767211286e+02   3.2166931207e+01    0.2006927    0.1884615  63.06 0.0004159268    1.087    0.080
        46 -12.0377     84.1607    150.6530   1.2215329112e+02   3.3895467093e+01    0.3151852    0.2505616 -46.83 0.0004389519    1.295    0.228
        47 -12.2633     67.2516    143.4138   1.2531849644e+02   3.8158321511e+01     0.692453    0.4461103  63.82  0.003300629    1.899    0.473
        48  -9.7657    108.1533    137.0119   1.1295375484e+02   3.3069873440e+01    0.4291393     0.288422 -10.77  0.001632188    2.730    0.634
        49 -10.5719     95.1889    134.1516   1.1583621880e+02   3.6072403402e+01    0.2536232    0.2244994 -31.78 0.0004205519    1.229    0.186
        50 -10.4100     26.0598    128.3399   1.3401704876e+02   4.6398703824e+01    0.1722169    0.1542553 -79.86  0.001158086    1.116    0.104
        51  -8.9326    105.9206    123.6908   1.1048156018e+02   3.6624150289e+01    0.1928617    0.1858988  57.71 0.0003085771    1.074    0.069
        52  -9.7600    167.6432    112.6299   9.2102015133e+01   2.5826359266e+01    0.2975089    0.2534649 -81.04 0.0009010246    1.301    0.231
        53 -11.6800    242.5100     94.4960   7.4195298883e+01   1.2223692898e+01    0.3612962    0.2893659  27.33   0.00195174    1.750    0.429
        54 -10.1293     62.3566     79.3939   1.1219976087e+02   5.3363543316e+01    0.3890932    0.2028425  44.62  0.001688318    2.368    0.578
        55  -9.7626    159.2277     77.6111   8.4604074187e+01   3.4605753718e+01     0.213509    0.1354757  45.65 0.0004421308    1.589    0.370
        56  -9.0977     53.2830     73.0938   1.1350102729e+02   5.5783456953e+01    0.3325255    0.1560941  53.02  0.001114575    5.285    0.811
        57 -11.7753    163.7800    248.8701   1.2027356281e+02  -1.1552085551e+00    0.4917527    0.2400896  52.17  0.002253748    2.195    0.544
        58  -9.9423     88.7614    249.5818   1.3495610150e+02   1.1047088757e+01    0.1773574   0.09355419  51.86 0.0004313189    1.573    0.364
        59 -11.1317     11.9877     22.7553   1.1336086096e+02   6.8542828870e+01    0.1851946    0.1316002 -47.52   0.00130806    1.650    0.394
        60 -12.2622     98.3714    246.9537   1.3284809523e+02   1.0059632017e+01    0.5276466    0.3530149  62.15  0.001981149    1.322    0.244
