#   1 NUMBER                 Running object number                                     
#   2 MAG_AUTO               Kron-like elliptical aperture magnitude                    [mag]
#   3 X_IMAGE                Object position along x                                    [pixel]
#   4 Y_IMAGE                Object position along y                                    [pixel]
#   5 X_WORLD                Barycenter position along world x axis                     [deg]
#   6 Y_WORLD                Barycenter position along world y axis                     [deg]
#   7 A_WORLD                Profile RMS along major axis (world units)                 [deg]
#   8 B_WORLD                Profile RMS along minor axis (world units)                 [deg]
#   9 THETA_WORLD            Position angle (CCW/world-x)                               [deg]
#  10 FWHM_WORLD             FWHM assuming a gaussian core                              [deg]
#  11 ELONGATION             A_IMAGE/B_IMAGE                                           
#  12 ELLIPTICITY            1 - B_IMAGE/A_IMAGE                                       
         1 -15.0072     68.5439    144.3769   1.0039896068e+02   3.6990496595e+01     5.003765      2.65149  71.83  0.009661274    4.048    0.753
         2 -14.4891    201.5356     40.6206   4.1811331233e+01   3.0203106354e+01      1.60438      1.35947  18.99  0.004924786    1.549    0.355
         3 -14.4446    212.7545     29.7635   3.7915371723e+01   2.9054071061e+01     1.064615    0.8894341  19.16    0.0025794    1.669    0.401
         4 -10.4094      1.7881     29.1218   9.7472938120e+01   6.9298701762e+01    0.1630501    0.1370168 -33.45 0.0005655931    1.211    0.174
         5 -12.1201    216.8498     12.0885   3.3513802710e+01   3.0157289537e+01    0.4683354    0.2969202  49.10  0.002694521    1.934    0.483
         6 -13.4447    238.1877      4.9879   3.0371665749e+01   2.6455233425e+01    0.7911364    0.5037674  85.12   0.00510873    1.439    0.305
         7  -9.7470     59.4775      7.4820   6.0815531848e+01   6.5460457233e+01    0.1241285   0.09946216  17.79 6.358698e-05    1.012    0.012
         8 -10.3661      2.3072      3.1675   8.6243135685e+01   7.3501263752e+01    0.2261361   0.06865884 -37.93  0.001094164    2.622    0.619
         9 -12.0611    111.6489    204.5534   9.9169994958e+01   1.6391671134e+01    0.7946584    0.3179237 -65.24  0.002594383    3.599    0.722
        10 -11.1635    140.2350    249.3933   9.9234817468e+01   3.5365212071e+00    0.2886378    0.2229588  82.08  0.001730516    1.902    0.474
        11 -10.5272     92.8290    250.0052   1.0880522136e+02   1.0176810538e+01     0.256426    0.1829948  18.31  0.001537086    1.731    0.422
        12 -15.8946     42.3353    197.0895   1.1416926652e+02   2.7450556851e+01     6.285212     2.148045  61.78   0.01667022    5.734    0.826
        13 -15.9940      6.6773    172.0179   1.2005986370e+02   3.6591546897e+01     7.213503     1.058496 -72.15   0.02316726    4.632    0.784
        14 -11.9633    193.9579    196.2687   7.9517629067e+01   4.3393185683e+00     1.063732    0.6350867 -65.87  0.003778115    4.416    0.774
        15 -11.5298    204.5296    199.9970   7.8099275277e+01   1.9742286962e+00    0.4031797    0.1842088  32.42  0.001768476    2.190    0.543
        16  -9.4177     82.0142    195.0103   1.0474607738e+02   2.2925119330e+01    0.2085741    0.1631669 -27.65  0.001081532    1.664    0.399
        17  -8.9305     76.4681    194.4717   1.0598726142e+02   2.3819057610e+01    0.1341636    0.1217572  74.57 3.528962e-05    1.017    0.017
        18 -13.8904     20.9776    221.7269   1.2061287850e+02   2.4334685368e+01    0.5155243    0.4172993 -60.07  0.001314794    1.485    0.327
        19 -10.5425    149.3656    187.4921   8.7558184639e+01   1.3709253284e+01    0.2905736    0.2506044 -88.21 0.0009848275    1.496    0.331
        20  -9.9722     79.6452    182.8139   1.0362262283e+02   2.6079853071e+01    0.2656402    0.2043846 -82.78 0.0009473191    1.341    0.254
        21 -17.6758     17.4477    242.6098   1.2251700243e+02   2.0531547233e+01     6.707446      2.33584  26.87   0.03053761    3.832    0.739
        22 -10.3170     99.3381    180.7670   9.8417031299e+01   2.3626588268e+01     0.248526    0.2367181  -5.95 0.0006064848    1.154    0.134
        23  -9.0998     89.5142    180.4700   1.0081902860e+02   2.5198390196e+01    0.1411781    0.1305454  75.86 0.0001739705    1.054    0.051
        24 -10.7677    189.1068    177.4388   7.6801596594e+01   8.6464622323e+00    0.4593472    0.3627611 -68.29  0.002318345    1.849    0.459
        25 -13.7156     68.5969    155.2044   1.0224382376e+02   3.4291057572e+01    0.6336582    0.4832717 -49.59  0.001674296    1.287    0.223
        26 -11.3986    107.5262    203.9116   1.0002573541e+02   1.7169739477e+01    0.4126293    0.2624266  63.05  0.001722218    1.946    0.486
        27  -9.5091    148.6568    175.3129   8.5382355793e+01   1.6408533903e+01     0.231137    0.1526948 -52.25 0.0008446662    1.605    0.377
        28 -10.6950    146.5562    171.7827   8.5174911310e+01   1.7553229603e+01    0.3318231    0.2604524 -70.88 0.0009366961    1.612    0.380
        29 -10.6552    121.7318    172.8401   9.1435333570e+01   2.1758077417e+01    0.2962203    0.1788527  21.49  0.001231216    2.093    0.522
        30 -10.1037     34.9698    171.9753   1.1330743581e+02   3.4100978333e+01    0.2005373    0.1656223  86.67 0.0005026353    1.077    0.071
        31 -12.7553     80.5582    160.0143   9.9808015744e+01   3.1437972173e+01    0.8414096    0.4547161  57.73 0.0004035641    2.444    0.591
        32  -9.4525    185.5551    169.7341   7.5951678244e+01   1.0773554416e+01    0.1960635    0.1367081 -49.84  0.000590538    1.573    0.364
        33 -11.1758    230.5896    167.3640   6.6673538020e+01   3.3515608666e+00    0.4414734    0.1699129 -48.34  0.001571886    3.427    0.708
        34  -9.3669    110.8514    167.8287   9.3246437063e+01   2.4780578368e+01    0.1994958     0.172248  82.41 0.0003394483    1.304    0.233
        35 -12.2924     67.3836    173.4164   1.0535302297e+02   2.9991504212e+01    0.4483297    0.2890114 -35.15  0.002135413    2.021    0.505
        36  -9.1357     27.5363    163.5291   1.1423411020e+02   3.6854321073e+01    0.1298655    0.1088279 -86.82 5.383801e-05    1.029    0.028
        37 -12.3593     87.7000    153.3133   9.6674407525e+01   3.2016561389e+01    0.6512798    0.4421415 -25.55  0.002927375    1.965    0.491
        38 -12.0197     55.2882    148.7816   1.0488708455e+02   3.7570447423e+01    0.8435845    0.5944805 -78.32  0.004383863    1.414    0.293
        39 -11.2042    134.2357    147.0041   8.2952656064e+01   2.5405699098e+01    0.7435804    0.2807216 -54.80    0.0023222    3.202    0.688
        40 -10.7778    132.6300    139.8221   8.1727913575e+01   2.7358017343e+01    0.4764042    0.2190315 -53.01  0.001525207    2.330    0.571
        41 -10.7077    174.4057    148.8677   7.3802330703e+01   1.7097329651e+01     0.299677    0.2712805 -87.12 0.0008018177    1.382    0.277
        42  -9.4439    164.4916    148.9925   7.6065538281e+01   1.9033814367e+01    0.2070366    0.1350088 -67.30 0.0005740691    2.380    0.580
        43  -8.9736    111.7192    149.7345   8.9440950797e+01   2.8919439039e+01    0.2415334    0.1165937  48.67  0.000884722    2.389    0.581
        44 -10.3160    143.6090    145.8017   8.0324929956e+01   2.3858467106e+01    0.2264027    0.1453171 -56.60 0.0009538752    1.741    0.426
        45 -10.8969     28.5850    144.0510   1.1164085363e+02   4.1527149662e+01    0.3140395    0.1973812  50.72  0.001667875    1.757    0.431
        46 -11.0542    101.7384    139.0527   8.9896249022e+01   3.3220391998e+01    0.5893203    0.3717373 -21.27  0.002324213    2.390    0.582
        47 -10.3778    197.9817    139.4745   6.6703929110e+01   1.4312810374e+01    0.2810484    0.1934274 -53.37 0.0009746731    1.637    0.389
        48 -12.3517     89.0656    138.7362   9.3423174441e+01   3.5386216665e+01     0.296514    0.2583472 -37.41 0.0004221193    1.151    0.131
        49 -10.6530     26.4408    137.7536   1.1140971555e+02   4.3270837030e+01    0.3194527    0.1843444  36.07  0.001107371    1.920    0.479
        50 -11.4494    135.6562    128.3305   7.8196338625e+01   2.9364484856e+01    0.7779132    0.2105704 -49.33  0.002107162    3.962    0.748
        51 -10.3652    111.2071    129.7616   8.5130947999e+01   3.3763118746e+01    0.3503892    0.2599592   8.49 0.0007208466    1.718    0.418
        52 -11.2659     44.4756    130.2626   1.0499090328e+02   4.3412198722e+01    0.3303625    0.2226841 -68.81  0.001500707    1.354    0.262
        53 -10.2906    160.9566    127.9962   7.1905833360e+01   2.4208450321e+01    0.2480347    0.2356009 -26.70  0.001316571    1.012    0.012
        54 -10.3391     28.3605    127.9350   1.0945726209e+02   4.5535120781e+01    0.2144141    0.1783778  51.06 0.0008506082    1.359    0.264
        55 -11.0700     98.3387    125.6601   8.7841140195e+01   3.7030606382e+01    0.3013734    0.2472514  -9.24 0.0004880838    1.409    0.290
        56 -11.0498    118.2379    123.0950   8.1555111271e+01   3.3997081408e+01    0.5824237    0.3501801  -0.33  0.001807748    3.912    0.744
        57 -12.2464     71.8121    168.6536   1.0351344174e+02   3.0554509453e+01    0.5201385    0.2837178 -54.70 0.0009466616    1.740    0.425
        58 -10.0137     87.3376    120.6189   8.9928202845e+01   4.0078009495e+01    0.3327779    0.2331845  71.67  0.001437854    2.130    0.531
        59 -10.8312    105.9501    131.0689   8.6916397595e+01   3.4403402830e+01    0.4136693     0.321292 -56.42  0.001459605    1.287    0.223
        60 -10.0052    107.5979    118.8436   8.3496140104e+01   3.6989061424e+01    0.2309565    0.2041582  11.82 0.0003653173    1.202    0.168
        61 -10.4934     32.8635    118.8813   1.0662930077e+02   4.7374731230e+01      0.22047    0.1576628 -44.42 0.0006971027    1.315    0.240
        62  -9.2020    167.9759    112.8163   6.6483148968e+01   2.5834349202e+01    0.2526965    0.1859262  84.71  0.001081177    2.062    0.515
        63 -10.4694    134.7361    111.8750   7.4220578824e+01   3.3185762129e+01     0.372579     0.132573 -46.22  0.001187314    2.791    0.642
        64 -10.3578    205.3005    110.2683   5.8430009387e+01   1.8317383436e+01    0.3182837    0.2489208  36.30  0.001121238    1.426    0.299
        65 -11.0557     33.8825    108.6243   1.0445886495e+02   4.9794434662e+01    0.3129559    0.2084225 -64.92  0.001209459    1.333    0.250
        66 -10.5015    116.0826    108.9900   7.8511841057e+01   3.7616876172e+01    0.3798687    0.2344849  37.09  0.001627218    1.687    0.407
        67  -9.6371    138.0131    105.0394   7.1533368417e+01   3.3946938791e+01    0.2331602    0.1919066 -87.31 0.0003603348    1.603    0.376
        68 -11.0655     36.1129    101.3217   1.0225967930e+02   5.1350639353e+01    0.4883469    0.1949762  41.10   0.00195819    3.109    0.678
        69 -11.2695    241.9836    102.0088   5.0734963984e+01   1.2470534555e+01    0.2156692    0.1489597 -62.02 0.0009126237    1.673    0.402
        70 -10.0703     42.0094     98.8305   9.9684911555e+01   5.1362899835e+01    0.2201796    0.1471521  56.32  0.001081653    2.053    0.513
        71 -14.3619     52.3931    188.3776   1.1093936606e+02   2.8304199603e+01     1.617381     1.055382  76.37  0.008606691    1.621    0.383
        72  -9.0331    125.2840     92.6056   7.1379172085e+01   3.9235129782e+01    0.1569645    0.1222323 -74.71 0.0006999862    1.762    0.433
        73 -10.3145     53.1462     90.8894   9.3858717201e+01   5.1972213814e+01    0.2092908    0.1878961 -71.67 0.0006684368    1.273    0.214
        74  -9.4656    156.2416     88.6246   6.2594116089e+01   3.3161566612e+01    0.3175564    0.1637371 -62.50 0.0009447788    4.071    0.754
        75  -9.6896    234.3137     86.3065   4.8293801214e+01   1.6479869428e+01    0.1271827    0.1037054   3.32  0.000287933    1.623    0.384
        76  -9.5258     74.9421     85.1298   8.4623711576e+01   5.0231224768e+01    0.2064466    0.1950098  78.59 0.0006198965    1.319    0.242
        77 -10.1933    112.2345     81.9237   7.1836408809e+01   4.4098954287e+01    0.4371727    0.2927209  76.75  0.001672108    2.889    0.654
        78  -9.8711    159.0571     82.5109   6.0256879271e+01   3.3637337210e+01    0.2253942    0.1476194  51.43 0.0006373226    1.545    0.353
        79  -9.3274     69.2868     81.3019   8.5462350498e+01   5.1921850568e+01    0.1749406    0.1637868 -84.70 0.0006625904    1.350    0.259
        80  -9.0193    184.3525     77.3097   5.3857145361e+01   2.8706564641e+01    0.1480932    0.1131133  18.91 0.0007044024    1.721    0.419
        81 -10.8042     13.4327     59.9070   1.0129785581e+02   6.2528641981e+01    0.2474839    0.1895066 -52.37 0.0004158573    1.174    0.148
        82  -9.8040    169.0707    236.0813   9.1497659771e+01   1.4334194860e+00    0.1885779       0.1633  10.93 0.0004990526    1.049    0.047
        83 -13.1882    175.2340    218.1367   8.7337308065e+01   3.5120111202e+00      1.02079    0.5048025  16.45  0.003844645    3.271    0.694
        84 -13.6514    191.6104     47.9260   4.4986534656e+01   3.1500319515e+01     1.075458     0.740088  39.39 0.0009813077    1.761    0.432
        85  -9.1943     37.4872     56.9324   9.0134499240e+01   6.1054978885e+01     0.185527    0.1120239 -45.43 0.0003145222    1.451    0.311
        86 -11.2654    139.3225     45.0391   5.3275989672e+01   4.4244804991e+01    0.3702432    0.2804419 -79.37 0.0003592956    1.724    0.420
        87 -10.7762    188.1099     31.1250   4.1128282880e+01   3.4470150147e+01    0.1969279    0.1758378  48.01 0.0005805966    1.240    0.194
        88 -13.1337    189.6386    210.4734   8.3028289705e+01   2.5501690776e+00    0.9111931    0.4809539  13.23  0.003653357    2.889    0.654
        89 -10.1571    198.0394     23.7472   3.8082336911e+01   3.3048423493e+01    0.2505283    0.1913757 -14.58 0.0009439146    1.662    0.398
        90 -15.5747      9.4324    207.4968   1.2197396267e+02   2.8412565546e+01     1.254242     1.056061 -19.11  0.003678562    1.812    0.448
        91  -9.5341    189.5169     15.0015   3.6867196266e+01   3.5945327117e+01    0.1763265    0.1219293 -32.34   0.00065162    1.545    0.353
        92 -10.0298     89.9595    212.7071   1.0521392668e+02   1.7903770700e+01    0.2389535    0.1848267 -86.07 0.0006474127    1.389    0.280
        93  -9.4157    164.3108    210.3090   8.8314133158e+01   6.6798971329e+00    0.1393989    0.1006356  -2.06  0.000433342    1.622    0.383
