#   1 NUMBER                 Running object number                                     
#   2 MAG_AUTO               Kron-like elliptical aperture magnitude                    [mag]
#   3 X_IMAGE                Object position along x                                    [pixel]
#   4 Y_IMAGE                Object position along y                                    [pixel]
#   5 X_WORLD                Barycenter position along world x axis                     [deg]
#   6 Y_WORLD                Barycenter position along world y axis                     [deg]
#   7 A_WORLD                Profile RMS along major axis (world units)                 [deg]
#   8 B_WORLD                Profile RMS along minor axis (world units)                 [deg]
#   9 THETA_WORLD            Position angle (CCW/world-x)                               [deg]
#  10 FWHM_WORLD             FWHM assuming a gaussian core                              [deg]
#  11 ELONGATION             A_IMAGE/B_IMAGE                                           
#  12 ELLIPTICITY            1 - B_IMAGE/A_IMAGE                                       
         1 -13.4458    222.3723      7.2184   3.5398452892e+01   2.8941852891e+01     1.205186    0.9902454  53.91  0.004750428    1.453    0.312
         2 -14.3231    195.7620     37.7878   4.5831260998e+01   3.1619160867e+01     2.929396     1.760858  24.22   0.01197785    2.990    0.666
         3 -10.6698     75.8836     13.7208   6.2130946701e+01   6.2490225182e+01    0.5526482    0.2639265  65.75  0.002034893    4.268    0.766
         4 -10.1879     46.2538     12.0014   7.2286317471e+01   6.7783645171e+01    0.1570873   0.09173262 -26.32 0.0005363384    1.578    0.366
         5 -10.5550     67.2108      2.4292   5.9649269596e+01   6.5253982958e+01    0.2959506    0.1133479  54.45  0.001309558    2.651    0.623
         6  -9.6803    189.7498     14.9762   4.0445432743e+01   3.5791645362e+01    0.2315444    0.1803385  77.27 0.0007503118    1.174    0.149
         7 -10.9350    248.1885    248.9029   8.3951259855e+01  -1.1686354092e+01     0.255935    0.2393409 -53.32  0.001904955    2.096    0.523
         8  -9.3808    174.0012    211.0008   9.1400099572e+01   4.8138584513e+00    0.1665491    0.1484848  22.14  0.001019186    1.006    0.006
         9  -9.8967     56.4095    209.2335   1.1599273290e+02   2.3694014568e+01    0.3948558    0.1838396  85.69  0.001390094    2.842    0.648
        10  -9.9612     42.5007    208.6788   1.1877960285e+02   2.5503401914e+01    0.2497303    0.1380058  65.14 0.0002475197    1.670    0.401
        11  -9.6600     35.6479    208.6747   1.2015271331e+02   2.6286704770e+01    0.1491068   0.09812024  69.15 0.0004146006    1.282    0.220
        12 -10.8489     65.9995    207.0027   1.1377196460e+02   2.2922077244e+01    0.2299921     0.177635 -83.21 0.0003353929    1.211    0.174
        13 -11.0985     64.7933    203.2143   1.1362819373e+02   2.3897431961e+01     0.215255    0.1760726  84.70 0.0004155521    1.077    0.072
        14 -11.3197    196.2684    204.5769   8.5803267991e+01   2.1000994232e+00    0.4687337    0.2276551  28.86  0.002043077    2.218    0.549
        15  -8.8629     93.7478    205.4619   1.0765052748e+02   1.9280922170e+01    0.2752225    0.1875255   2.71  0.001240207    2.917    0.657
        16  -9.0822     96.5080    202.4605   1.0665747811e+02   1.9493137877e+01    0.2164151    0.1279521 -62.99 0.0007850567    1.753    0.430
        17 -12.6486     53.4098    197.8706   1.1551103584e+02   2.6529314125e+01    0.4997414    0.2694823 -50.87  0.002515181    2.262    0.558
        18 -12.0807    134.0042    196.3877   9.7452634885e+01   1.4556773421e+01    0.4955545    0.3029927 -63.98  0.002325715    1.978    0.494
        19  -9.3412     38.8734    199.6126   1.1874605064e+02   2.7871477674e+01     0.184871    0.1355668  84.77 0.0004688989    1.137    0.120
        20 -10.7221    192.8265    194.6979   8.4651640885e+01   4.3700138186e+00     1.133907    0.5910217 -63.25  0.003156002    6.960    0.856
        21 -11.9483     49.3224    250.0724   1.2062790279e+02   1.6562428182e+01    0.1907543    0.1656991  55.03 0.0005222735    1.309    0.236
        22  -8.1543     70.2951    196.6463   1.1170420176e+02   2.4592204179e+01    0.1393285   0.08677898  71.81  0.000703268    1.688    0.408
        23  -9.5244     72.0976    250.0620   1.1656881358e+02   1.3676120698e+01    0.1555471    0.1188348  75.62 0.0003545468    1.174    0.148
        24  -9.1812     81.5446    194.2821   1.0891317150e+02   2.3522548808e+01    0.2776836    0.1976749  70.96  0.001525338    1.403    0.287
        25  -8.1818    195.7325    190.2976   8.3226460809e+01   4.6226755733e+00    0.1225391    0.1116464 -88.59 0.0002324399    1.518    0.341
        26 -11.0786    149.5745    187.9042   9.2532965548e+01   1.3494287985e+01    0.4356756    0.3220579 -78.42    0.0016789    1.876    0.467
        27 -11.7875    120.6799    184.3951   9.8475084618e+01   1.9420457416e+01     0.558751    0.3341112 -84.43  0.002186014    2.892    0.654
        28  -9.3901     92.9489    185.6387   1.0512230155e+02   2.3736127226e+01    0.2766201    0.1842953  63.27  0.001386493    1.586    0.370
        29  -9.5134    128.5172    185.4752   9.6853403243e+01   1.7807593818e+01    0.1414577    0.1335465  56.97  0.000809913    1.006    0.006
        30  -8.3154     76.3473    222.1746   1.1320534473e+02   1.8369894252e+01    0.3244485   0.09411599 -59.83 0.0007829709    3.434    0.709
        31 -11.0474     98.8260    181.3067   1.0309150882e+02   2.3785129971e+01    0.3907816    0.3159466  -3.96  0.001847563    1.772    0.436
        32 -11.0649    143.6222    178.6311   9.2160381684e+01   1.6513539919e+01    0.3457175    0.2755547 -39.97 0.0008860754    1.325    0.245
        33 -10.1266    188.7379    176.8582   8.1973976157e+01   8.3307182983e+00    0.4364251    0.3853437 -64.65  0.002428607    1.409    0.290
        34  -9.5399     84.0995    173.7122   1.0545528728e+02   2.7843408945e+01    0.1857893    0.1741136  80.90 0.0003555919    1.066    0.062
        35  -9.9771     54.5446    173.6534   1.1256462414e+02   3.1923247690e+01     0.260654    0.1996318  77.98 0.0006988395    1.205    0.170
        36  -9.7108     46.1989    173.1547   1.1448052877e+02   3.3042599095e+01    0.3270238    0.2852644  33.52  0.001119294    1.383    0.277
        37  -8.3187     39.4266    223.5068   1.2054945466e+02   2.2798207611e+01    0.1315931    0.1059706  41.66 0.0009131799    1.407    0.289
        38  -8.4621    194.3959    172.2298   7.9861741645e+01   8.1256631469e+00    0.1919724    0.1332574 -47.52 0.0008214833    1.558    0.358
        39  -9.1038     81.3335    220.6039   1.1203211163e+02   1.7985661603e+01    0.2260844    0.1388443  39.01 0.0007627368    1.545    0.353
        40  -9.3338    149.2437    176.9335   9.0557786725e+01   1.5816005263e+01    0.2115518    0.1932693  88.80 0.0004435725    1.228    0.186
        41 -10.3023    138.7498    169.7394   9.1584020432e+01   1.9340978560e+01      0.34431    0.2569537  39.22  0.001170118    1.320    0.243
        42 -10.0485    240.4937    169.0914   7.0566008329e+01   4.0525396776e-01    0.2027841    0.1176526 -33.94 0.0004882842    1.543    0.352
        43 -10.5631     57.4137    165.8481   1.1087291287e+02   3.3421725901e+01    0.4025782    0.2071377 -50.80  0.001859858    2.062    0.515
        44  -9.1860    187.7138    162.3792   7.9140785906e+01   1.1282365040e+01    0.2751933     0.171827 -50.12  0.001230476    1.762    0.433
        45  -4.8768     59.0558    220.1749   1.1647101827e+02   2.1082316792e+01    0.3394911    0.1833949  35.48  0.001836676    1.900    0.474
        46 -11.6140     93.9352    151.6095   9.9239912534e+01   3.1577611184e+01    0.7051049    0.5939866 -26.31  0.003724855    1.441    0.306
        47 -10.7985    133.9480    146.0083   8.7798888109e+01   2.5592773909e+01     1.312268    0.3343461 -54.54  0.003015843    5.903    0.831
        48  -9.3937    187.2089    151.5891   7.6857674146e+01   1.3492842466e+01    0.2095165    0.1395552  31.95 0.0008097574    1.620    0.383
        49  -8.9709    112.7326    150.5769   9.4150435964e+01   2.8570571108e+01    0.2048695    0.1393045  51.46 0.0006872658    1.541    0.351
        50  -8.8503    109.7043    147.9870   9.4404146333e+01   2.9732956258e+01    0.2285649    0.1971541  88.60 0.0003687811    1.239    0.193
        51  -9.6169    174.5799    149.0518   7.8978598531e+01   1.6599297793e+01    0.2836407    0.2175783  62.41  0.000724948    1.573    0.364
        52 -10.7676    106.0861    137.5833   9.3163401904e+01   3.2874522427e+01     0.550356    0.3767416 -27.36  0.002396984    1.939    0.484
        53 -10.5676    105.9222    130.7822   9.1693015784e+01   3.4536193996e+01    0.4118433    0.3414564 -58.17   0.00111325    1.162    0.139
        54 -11.6645     93.8824    137.6145   9.6491077290e+01   3.4988683273e+01    0.2927456    0.2602681 -44.72 0.0004800921    1.146    0.127
        55 -10.2280    136.1930    129.5866   8.3406003848e+01   2.8879470989e+01    0.6244764    0.1695277 -48.43  0.001730369    3.705    0.730
        56 -10.9952    119.7023    122.8941   8.6062034854e+01   3.3774770685e+01     0.641866    0.4007924 -17.97  0.002307813    2.832    0.647
        57  -9.2554    161.2189    128.0102   7.6959837289e+01   2.3865887895e+01    0.2891521    0.2138771  63.93  0.001294665    1.622    0.384
        58 -10.3251    101.3094    124.8892   9.1613422621e+01   3.6782829235e+01    0.3045762    0.2378609 -29.59 0.0006105997    1.450    0.310
        59 -10.7063    114.1838    129.0162   8.9032798530e+01   3.3414594778e+01     0.551627     0.343102  26.28  0.001363199    2.048    0.512
        60  -9.3506    109.4291    118.3515   8.7750218870e+01   3.6834521336e+01    0.2530177    0.2369047 -51.99 0.0002420138    1.020    0.020
        61 -10.0423    231.3453    113.7020   5.9790453367e+01   1.1468869760e+01    0.2726427    0.2440913 -41.14 0.0007330175    1.054    0.051
        62 -10.2554    134.5801    105.1677   7.7457076549e+01   3.4656189175e+01    0.8070996    0.1734367 -43.05  0.002001532    4.549    0.780
        63  -9.1595    167.8937    112.8173   7.1550705699e+01   2.5551875438e+01    0.3538387    0.2467685 -89.23  0.001393027    2.350    0.574
        64 -11.5257    118.3421    109.8616   8.3074256200e+01   3.7042132505e+01    0.5984125    0.4835966  71.71  0.002708036    1.507    0.336
        65  -9.6393    205.4901    110.1487   6.3313225985e+01   1.7580369063e+01    0.3100507    0.2176558  39.97  0.001021394    1.580    0.367
        66 -10.5492     66.8052    104.3516   9.7099920583e+01   4.7258117236e+01    0.3119681    0.2844564  15.78  0.001807072    1.229    0.186
        67  -9.7595     63.6154     99.9664   9.7071181370e+01   4.8740792183e+01    0.3035358    0.1920038  21.24  0.001440596    1.935    0.483
        68  -9.1944     53.3173    220.8658   1.1766312620e+02   2.1666372920e+01     0.351699    0.1241748  54.79   0.00153642    2.732    0.634
        69  99.0000     48.7966    217.3538   1.1825427850e+02   2.2940257207e+01    0.2649647     0.215928  21.61  0.001745499    1.719    0.418
        70 -10.1098    164.5894    217.1969   9.4342475177e+01   5.3412274718e+00    0.1817398      0.12176 -30.93 0.0009561956    1.751    0.429
        71 -11.4789     26.9735    214.8269   1.2229720898e+02   2.5947899372e+01    0.2774301    0.1797681  86.13  0.001071631    1.280    0.219
        72  -8.7641    155.7992     82.3888   6.5757758652e+01   3.4383592566e+01    0.2169225    0.1424774  41.74 0.0003962178    1.613    0.380
        73  -9.2994     65.4963     70.4009   8.8138586070e+01   5.5102330567e+01    0.2481232    0.1681311  36.42 0.0009153886    1.620    0.383
        74 -19.4943     12.6378    145.7641   1.1967929471e+02   4.2839563434e+01       19.281     4.547981 -76.22   0.06502396    3.977    0.749
        75 -12.7063    180.1284     52.1479   5.2142718125e+01   3.3467437953e+01    0.8360616    0.7717891  17.54 0.0008432509    1.237    0.191
        76 -10.2356     72.5929    245.4073   1.1608955279e+02   1.4445969791e+01    0.3442329    0.1627916  61.22  0.001794692    2.099    0.524
        77  -8.1907     63.5245    213.7566   1.1496838594e+02   2.1824632732e+01    0.1120221   0.09525644  -6.97 0.0001725907    1.869    0.465
        78  -8.4650     28.8871    209.8526   1.2157559091e+02   2.6778177249e+01    0.1757331      0.10917  66.07 0.0005213627    1.351    0.260
        79  -9.6568    168.1134    232.9649   9.6083536155e+01   2.1430547658e+00    0.2645552    0.1574476  43.50  0.000864809    1.523    0.343
        80  -9.9553    184.0793    211.5108   8.9454736845e+01   3.0122030066e+00    0.4080722    0.2267335 -51.14  0.001941455    2.270    0.559
        81  -9.6068     58.6068    228.9696   1.1732629385e+02   1.9380752865e+01    0.1558871    0.1173558  88.10 0.0004029747    1.212    0.175
