#   1 NUMBER                 Running object number                                     
#   2 MAG_AUTO               Kron-like elliptical aperture magnitude                    [mag]
#   3 X_IMAGE                Object position along x                                    [pixel]
#   4 Y_IMAGE                Object position along y                                    [pixel]
#   5 X_WORLD                Barycenter position along world x axis                     [deg]
#   6 Y_WORLD                Barycenter position along world y axis                     [deg]
#   7 A_WORLD                Profile RMS along major axis (world units)                 [deg]
#   8 B_WORLD                Profile RMS along minor axis (world units)                 [deg]
#   9 THETA_WORLD            Position angle (CCW/world-x)                               [deg]
#  10 FWHM_WORLD             FWHM assuming a gaussian core                              [deg]
#  11 ELONGATION             A_IMAGE/B_IMAGE                                           
#  12 ELLIPTICITY            1 - B_IMAGE/A_IMAGE                                       
         1 -13.4899    225.6471      6.4791   3.4798532932e+01   2.8481155951e+01      2.10708     1.259935  45.71    0.0106282    2.236    0.553
         2 -12.9561    182.5342     50.8471   5.1173043502e+01   3.3300053589e+01    0.9560917    0.9105686  12.05 0.0008000793    1.175    0.149
         3 -13.2520    194.4374     41.3220   4.6750564944e+01   3.1700404541e+01     1.151013     1.013983 -49.69  0.003697926    1.119    0.106
         4 -13.4267    202.3146     32.7894   4.3472939823e+01   3.0896916784e+01     1.047069    0.9084204 -16.98  0.001357237    1.362    0.266
         5 -10.8764     61.5477      2.0788   6.2179859623e+01   6.6525753327e+01    0.3309883    0.1500144  35.03  0.001640433    1.981    0.495
         6 -10.6563    169.2445    221.4857   9.3719740545e+01   4.2507210461e+00    0.4390233    0.1120202  40.00  0.001499048    3.406    0.706
         7 -10.1762    140.3168    249.9156   1.0354513912e+02   4.1842899873e+00    0.2621847    0.1832702  54.48  0.001288075    1.458    0.314
         8 -10.8180    120.1971    245.8419   1.0700116308e+02   7.8897148608e+00    0.3158883     0.161558  47.02  0.001188881    1.666    0.400
         9 -10.3197    125.3039    243.1468   1.0567787698e+02   7.5771953172e+00    0.3927846   0.09147453 -52.23  0.001420956    4.873    0.795
        10  -9.0450    107.5175    250.4690   1.0997151657e+02   8.9705062780e+00    0.1202081   0.09738171  47.82 0.0006643875    1.024    0.023
        11 -19.0197     15.0430    181.2096   1.2265472506e+02   3.4444515945e+01     17.13625     4.424463 -79.47   0.06357718    3.770    0.735
        12  -8.4233     96.2598    201.3545   1.0656837835e+02   2.0069090989e+01    0.1257909    0.1029827 -29.48 0.0004233009    1.615    0.381
        13  -9.2438    133.5604    195.7646   9.7260728075e+01   1.5138541785e+01    0.1880642    0.1367058 -70.10 0.0009480237    1.680    0.405
        14  -9.5615     82.4746    194.5116   1.0881484363e+02   2.3601729979e+01    0.2991988    0.2736593 -20.94  0.001503891    1.412    0.292
        15  -9.2230     79.6655    192.3150   1.0918221724e+02   2.4491286158e+01    0.2424241    0.1852076  54.85 0.0006733387    1.210    0.173
        16  -9.8898    120.0224    194.0264   1.0007906530e+02   1.7814756275e+01    0.2311655    0.1966552 -61.70 0.0003580488    1.251    0.201
        17 -11.2651    184.1813    211.6665   8.9026709433e+01   3.4111129688e+00    0.4687973    0.3536037 -51.84  0.002640962    1.665    0.400
        18 -10.6467    169.0078    214.1099   9.2571916881e+01   5.5505627164e+00    0.3101957    0.2012271 -40.83  0.001640071    1.701    0.412
        19  -9.9645    149.6814    187.6505   9.2195477930e+01   1.3928506234e+01    0.2736471    0.2457018  66.34 0.0008551411    1.240    0.193
        20 -11.4968    194.2734    198.7530   8.4649917056e+01   3.8784230387e+00     1.394877    0.6417844 -52.65  0.005369692    3.335    0.700
        21 -10.8044     98.9953    180.8624   1.0299188366e+02   2.4161164838e+01    0.3716035    0.2607415  23.33  0.001517098    1.706    0.414
        22 -15.1405     73.1485    151.7398   1.0494049271e+02   3.4948560018e+01       5.5915     2.952418  80.50  0.009696004    3.739    0.733
        23 -10.2709    189.2268    177.1996   8.1497039864e+01   8.6284748305e+00     0.474428    0.3548352 -59.05  0.002315385    1.757    0.431
        24 -10.1267    143.4581    178.4943   9.1940413062e+01   1.6963740955e+01    0.3303491    0.1799466 -41.52  0.001222878    1.996    0.499
        25  -8.8655    149.2992    176.9545   9.0287966337e+01   1.6200549106e+01    0.1960923    0.1823352 -44.42 0.0005096602    1.127    0.113
        26 -11.1476    203.5652    199.5068   8.2926719816e+01   2.1676036765e+00    0.3735946    0.2010929  33.63  0.001787527    1.751    0.429
        27  -8.1842    194.3571    172.2936   7.9419708024e+01   8.5787162460e+00     0.150923    0.1069192   5.11 0.0007030925    1.693    0.409
        28 -10.0272    137.9724    169.5373   9.1529862311e+01   1.9909789007e+01    0.3526219    0.2687731  33.65  0.000950037    1.304    0.233
        29  -9.1638    240.4736    169.4680   7.0044724487e+01   8.5913048155e-01    0.1346598    0.1141445 -12.14 0.0001334293    1.017    0.016
        30 -11.8349    109.5983    200.8080   1.0347899452e+02   1.8097330659e+01    0.5202675    0.3486266 -40.87  0.001805939    1.829    0.453
        31  -9.3560    187.8658    163.0211   7.8816930715e+01   1.1572774618e+01    0.2692202    0.1967265 -33.56 0.0008365153    1.352    0.260
        32 -11.3178    189.3800    209.6092   8.7610279582e+01   2.8820179218e+00    0.4493558    0.3501007 -21.96  0.002621549    1.319    0.242
        33 -10.3187     53.1952    157.5496   1.1110369350e+02   3.6101268229e+01     0.268051     0.146739 -52.74  0.001287231    1.805    0.446
        34 -10.3834    174.6027    212.1769   9.1085172270e+01   4.9392839682e+00    0.1955237    0.1739313  -1.81  0.001199881    1.118    0.106
        35 -11.5052     92.6475    151.8718   9.9711151486e+01   3.1991771698e+01    0.7327846    0.4996724 -33.56  0.003398333    1.829    0.453
        36 -10.7910    133.9142    145.5393   8.7547475883e+01   2.6057616726e+01     1.244744    0.3356088 -54.76  0.002967648    5.563    0.820
        37  -9.6299    187.0436    151.4970   7.6453710319e+01   1.3978064758e+01    0.2262924    0.1459186  41.07 0.0006742146    1.565    0.361
        38  -8.6819    112.5677    150.7560   9.4194188405e+01   2.8872350287e+01    0.2024973    0.1439858 -67.43 0.0004802884    1.551    0.355
        39  -9.3385    174.5092    148.5734   7.8521597139e+01   1.7126585017e+01    0.3836042    0.2535466 -66.99  0.001549988    2.337    0.572
        40 -10.5540    105.2822    138.0668   9.3511882824e+01   3.3188269767e+01    0.5823712    0.3386476 -30.42  0.002238779    2.459    0.593
        41 -10.3611    105.9996    130.7955   9.1708279899e+01   3.4798278178e+01    0.4175537    0.3282036 -64.02  0.001208602    1.319    0.242
        42 -11.6469     92.8385    137.9261   9.6949275968e+01   3.5341662239e+01    0.2887857      0.25707 -39.23 0.0003670371    1.164    0.141
        43  -8.2705    224.2837    206.6890   8.0280677179e+01  -2.3231208493e+00     0.108356    0.1060464 -78.99 0.0002685121    1.571    0.364
        44 -10.7788    113.9503    129.3936   8.9169022209e+01   3.3664727672e+01    0.4998068    0.4260757  33.78  0.001514298    1.216    0.178
        45 -10.5231    135.8534    129.3085   8.3274961845e+01   2.9347456401e+01    0.5650533    0.1836639 -46.05  0.001737741    3.034    0.670
        46  -9.0551    160.2297    127.4472   7.6772522594e+01   2.4569052249e+01    0.3456867    0.1149551 -52.27 0.0008889466    4.467    0.776
        47  -8.7168     96.4189    128.3088   9.3875223324e+01   3.7073328344e+01    0.1949692    0.1418437 -64.72 0.0003222527    1.430    0.301
        48 -10.3134    100.6740    125.1000   9.1919727162e+01   3.7106786191e+01    0.3237398    0.2510761 -21.84   0.00107295    1.548    0.354
        49 -10.9544    120.0220    122.6136   8.5861685192e+01   3.4074482421e+01    0.6548196    0.4100588  -8.17  0.002208269    3.321    0.699
        50  -9.2805    109.0606    118.3656   8.7890382226e+01   3.7172734885e+01    0.2374869    0.2033803 -36.77 0.0003360561    1.162    0.140
        51 -10.0046    231.2815    113.6751   5.9311916491e+01   1.1918205011e+01    0.2633246    0.2590352 -55.83 0.0007338154    1.124    0.111
        52  -9.0471    167.8494    112.7244   7.1246825500e+01   2.5931408985e+01    0.3125504    0.2048774 -65.47  0.001233653    2.183    0.542
        53 -11.6280    117.7066    109.3088   8.3092362747e+01   3.7572196213e+01    0.6100138    0.4994423  72.61  0.002519891    1.511    0.338
        54  -9.8750    134.5237    105.0859   7.7341443151e+01   3.4981730324e+01    0.5976221    0.1530453 -43.59  0.001621369    3.845    0.740
        55  -9.3741    205.4710    110.2001   6.2913846707e+01   1.7965780868e+01    0.2553164    0.2108176  48.48 0.0006472503    1.287    0.223
        56  -8.7107     62.8399     98.6296   9.7419344900e+01   4.9296447718e+01    0.1921279    0.1280871  42.53 0.0006507391    1.702    0.412
        57 -10.6472     51.4736     89.3190   9.9065761898e+01   5.2877509158e+01    0.3057766    0.2107246  50.94 0.0008906809    1.851    0.460
        58  -9.1654     93.6098    205.1896   1.0765885604e+02   1.9655684310e+01    0.2429572    0.1736606  18.21  0.001237745    1.843    0.458
        59  -8.5961    184.3570     77.2960   5.8229249011e+01   2.8693367850e+01    0.1542125     0.116268  22.23  0.000592947    1.698    0.411
        60  -9.2594     87.3801    204.1645   1.0891472652e+02   2.0794630658e+01    0.2780789    0.1785674  67.76  0.001438974    1.688    0.408
        61 -12.2452    112.4888    205.8774   1.0354925231e+02   1.6580507472e+01      1.31643    0.2563179 -49.65  0.003737986    5.779    0.827
        62  -8.6192    168.2196    248.1675   9.7887267552e+01   1.9665897430e-01    0.1518874    0.1246502  46.29  0.001001518    1.283    0.221
        63 -10.7952    114.7251    245.4488   1.0803185161e+02   8.7719055096e+00    0.3524997    0.2170876 -54.52  0.002066649    1.941    0.485
        64 -10.9001    109.2020    241.5065   1.0868478263e+02   1.0275980457e+01    0.3815184    0.1951763  33.44  0.001957797    1.855    0.461
        65 -11.1277    107.7131    204.0156   1.0435547048e+02   1.7726808385e+01    0.4186738    0.2700461  59.46 0.0004116843    1.640    0.390
        66  -9.4384    189.7747     14.9066   4.0294927326e+01   3.5975313130e+01    0.1933355    0.1748163  49.25  0.000965796    1.235    0.190
