#   1 NUMBER                 Running object number                                     
#   2 MAG_AUTO               Kron-like elliptical aperture magnitude                    [mag]
#   3 X_IMAGE                Object position along x                                    [pixel]
#   4 Y_IMAGE                Object position along y                                    [pixel]
#   5 X_WORLD                Barycenter position along world x axis                     [deg]
#   6 Y_WORLD                Barycenter position along world y axis                     [deg]
#   7 A_WORLD                Profile RMS along major axis (world units)                 [deg]
#   8 B_WORLD                Profile RMS along minor axis (world units)                 [deg]
#   9 THETA_WORLD            Position angle (CCW/world-x)                               [deg]
#  10 FWHM_WORLD             FWHM assuming a gaussian core                              [deg]
#  11 ELONGATION             A_IMAGE/B_IMAGE                                           
#  12 ELLIPTICITY            1 - B_IMAGE/A_IMAGE                                       
         1 -14.6436    192.1691     83.0586   4.3134359542e+01   2.6009743324e+01     2.051334     1.717152   4.10   0.01160686    1.314    0.239
         2 -14.4364    170.2323     59.1003   4.0004853225e+01   3.4573874302e+01     2.140728     1.510017 -63.81  0.003751691    1.634    0.388
         3 -13.8477    151.7616     43.3499   3.8151052741e+01   4.1449689072e+01     2.863349     1.186022  53.26   0.01079198    2.369    0.578
         4 -14.8465    135.7593     72.0987   5.0956545644e+01   4.0793259003e+01        2.146     1.706264 -18.71   0.01044004    1.423    0.297
         5 -14.4026    117.1460     62.9413   5.2698448735e+01   4.6966527234e+01     2.911733     1.688486 -18.52  0.009636791    2.720    0.632
         6 -14.3767    228.4686     56.4359   3.1776995374e+01   2.2105938322e+01     3.460288     1.375211 -44.00   0.01545571    2.259    0.557
         7 -14.6063    195.2532     43.5909   3.2015315994e+01   3.0768358576e+01     2.081225      1.73304   6.37  0.009140031    1.431    0.301
         8 -15.8077    208.8230     62.8406   3.5553906831e+01   2.5307918959e+01     3.542901     2.424502 -52.54   0.01916225    1.486    0.327
         9 -11.5071     37.2429     26.0248   7.0325228078e+01   7.0789307360e+01    0.8147334    0.3492101 -51.69   0.00316505    2.355    0.575
        10 -11.6970     73.4846     18.6487   4.7531380765e+01   6.4963281971e+01     1.170754    0.5577813 -53.27  0.004097358    3.355    0.702
        11 -12.5353     50.2295     27.6619   6.3380359832e+01   6.8321056311e+01      1.06514    0.7519101   1.46  0.005081312    1.878    0.468
        12 -13.9427      8.0565     67.5777   1.0071245234e+02   6.3361687435e+01       1.2171    0.7757899 -63.66  0.004266275    1.378    0.274
        13 -14.5761     27.6827     61.0730   8.9028133069e+01   6.3668733280e+01     2.238323     1.509429 -28.02   0.01117313    1.678    0.404
        14 -13.1625     13.7507     36.1820   9.0920385598e+01   7.1023456790e+01     1.471324    0.7131409 -43.60  0.003135381    1.908    0.476
        15 -12.4617      2.8239     35.7057   9.8643790417e+01   7.1709318726e+01     1.091238    0.4084021 -74.56  0.004593424    2.385    0.581
        16 -13.8157     60.2635     34.4332   6.1629222436e+01   6.5134862886e+01     1.640065      1.10439 -11.37  0.007220449    2.120    0.528
        17 -13.9150    174.3674     41.4831   3.4040319895e+01   3.6010204601e+01     2.089563     1.217204  19.16  0.004381052    3.048    0.672
        18 -13.3585      4.0454     53.2151   1.0092603492e+02   6.7248557446e+01     1.082404    0.6201133 -83.46  0.005080234    1.632    0.387
        19 -13.1736    161.8192     36.6089   3.4293076417e+01   3.9783925210e+01     1.163709    0.6612898  58.26  0.004291417    1.748    0.428
        20 -11.2982    103.8517     27.7473   4.2400316734e+01   5.6147016845e+01    0.5492509    0.2540805 -40.89  0.001585943    2.220    0.550
        21 -10.5626     31.2917     20.4708   7.1387957125e+01   7.2781505912e+01    0.4659249     0.380767  34.03  0.002716309    1.291    0.225
        22 -10.7869    159.5820     22.0599   2.9774967174e+01   4.2109796657e+01    0.5048738    0.2179583 -46.17  0.001672459    2.272    0.560
        23 -10.9562     48.6304     18.2221   5.8906485023e+01   7.0338718736e+01    0.4549977    0.4271463  12.47  0.002280726    1.037    0.036
        24 -11.4211     64.5214     13.2236   4.7990745754e+01   6.7796872677e+01    0.4115572    0.2772135 -53.10   0.00196773    1.869    0.465
        25 -11.1794     94.5118     10.1193   3.6393536534e+01   6.0782055080e+01    0.4325741    0.3304041 -32.25  0.001142119    1.370    0.270
        26  -9.5813    106.4446     10.9726   3.4069742218e+01   5.7530248060e+01    0.2023115    0.1033011 -49.58 0.0004681723    2.253    0.556
        27 -10.3761     54.0258     10.7785   5.1290261069e+01   7.0441124931e+01    0.2879635    0.2126311 -55.67  0.001475018    1.744    0.427
        28 -10.5122     49.0987      9.1223   5.2753531024e+01   7.1702972937e+01    0.3614947    0.1737577  47.58 0.0008185666    2.008    0.502
        29 -11.1147    117.2692      9.3962   3.1261990036e+01   5.4774955860e+01    0.3430855    0.2030936  47.15 0.0007553772    1.708    0.415
        30  -9.8816    112.0226      6.3614   3.0845106411e+01   5.6489012545e+01    0.5235308      0.15313 -39.85  0.001722219    3.376    0.704
        31  -9.5616    104.6446      7.2203   3.2666120616e+01   5.8393953504e+01    0.1781323    0.1379285  -2.91 0.0002036015    1.468    0.319
        32 -10.2428     68.4414      5.4157   4.1595529452e+01   6.7870322690e+01    0.3714625    0.2086883 -62.91   0.00141873    3.157    0.683
        33  -9.5313     60.4882      5.3890   4.4712625612e+01   6.9737716459e+01    0.1369244     0.125955  37.45 9.957833e-05    1.037    0.035
        34  -9.3433     71.4551      3.4590   3.9312911101e+01   6.7354328608e+01    0.1394974    0.1289998  41.10 0.0001008425    1.004    0.004
        35 -10.1193     94.1088      1.8261   3.2198606852e+01   6.1708672612e+01    0.2188225    0.1746655 -51.98 0.0006775793    1.358    0.264
        36  -9.5196     99.9285      7.0690   3.3591178143e+01   5.9668562602e+01    0.1669774    0.1592885  68.81 0.0004003572    1.022    0.022
        37 -13.8357    165.8322     80.0540   4.6899718572e+01   3.2320319528e+01      1.46443    0.9673846 -27.85  0.004225627    1.548    0.354
        38 -10.2820    229.0657    250.1251   6.8463239232e+01  -1.2445633453e+00    0.1564866   0.09331982   6.89  0.000569838    1.245    0.197
        39 -11.9958    165.2550    248.1514   7.8945058079e+01   5.9602170704e+00    0.3231795    0.2085543  17.50  0.002304943    1.208    0.172
        40 -13.5092    110.0459    240.9074   8.8816185117e+01   1.3518960950e+01    0.5605305    0.3040666  39.61  0.002500717    1.449    0.310
        41 -12.1199    104.6903    249.3772   9.0633252122e+01   1.2932802024e+01    0.4281323    0.1811009  29.79  0.002390989    1.762    0.433
        42 -12.8921     37.7259    248.0349   1.0395003100e+02   2.0296201896e+01    0.4609125    0.3775097  26.12  0.003723904    1.311    0.237
        43 -11.2333    154.6862    248.9704   8.0975946499e+01   7.1018019558e+00    0.2068286    0.1221388  12.98  0.001089736    1.609    0.378
        44 -13.1149    236.0933     86.5834   3.8013897700e+01   1.6944021507e+01    0.6516029    0.4028311  65.34  0.001340181    2.137    0.532
        45 -11.9186    133.5314    247.4995   8.4818109257e+01   9.7953992130e+00    0.1869616    0.1362209  27.29  0.001375725    1.020    0.019
        46 -13.5954     85.9139    238.9969   9.3595744560e+01   1.6644680070e+01    0.6344458     0.353788  36.46  0.004009046    1.310    0.236
        47 -13.7003     52.1778    233.7719   1.0031695248e+02   2.1196449772e+01    0.8817546    0.2945781  34.86   0.00453874    2.022    0.505
        48 -12.2681    180.2995    242.8779   7.5614893697e+01   4.8135509914e+00    0.2212043    0.2122093  24.95  0.001867457    1.671    0.402
        49 -13.5992     58.0857    244.3394   9.9675570224e+01   1.8854354886e+01    0.6946145    0.3243274  47.59  0.004229141    1.669    0.401
        50 -11.5365     87.1563     97.8668   7.2923243488e+01   4.5843912405e+01    0.3654115    0.3260215 -24.61 0.0005052995    1.247    0.198
        51 -10.8173     80.9726     99.8366   7.5556824471e+01   4.6474983356e+01    0.2591672    0.2211586 -58.35 0.0005117732    1.178    0.151
        52 -11.3435      2.4396    242.7228   1.1074600221e+02   2.4248753736e+01    0.1777013   0.08220764  79.32  0.001143791    2.142    0.533
        53 -11.1524    170.4724     97.8746   5.0831444091e+01   2.8294466239e+01    0.3790903    0.2940521  18.43  0.001933958    1.487    0.328
        54 -11.5440    124.6361    100.9097   6.2267588891e+01   3.7649017090e+01    0.2642746    0.2094699  32.63 0.0005670739    1.307    0.235
        55 -10.5156    142.8865     98.1444   5.6876644111e+01   3.4253854572e+01     0.220972    0.2055109 -81.49 0.0002482647    1.196    0.164
        56 -10.8125    138.9369     97.9795   5.7787467273e+01   3.5151161906e+01    0.2201908    0.2178216  18.06            0    1.013    0.013
        57 -12.0328    104.8085     86.3923   6.3947782241e+01   4.4978179750e+01    0.6038651    0.3916181 -81.22  0.002218957    2.777    0.640
        58 -12.4690    107.4791     95.4757   6.5716005975e+01   4.2419575178e+01    0.6850492    0.3110896 -37.80  0.002286411    2.658    0.624
        59 -12.1406    105.3587     93.2729   6.5755264351e+01   4.3345502556e+01    0.5001051     0.292785 -28.64  0.001891837    2.424    0.588
        60 -11.0873    190.4820    100.6476   4.7867057930e+01   2.3668497637e+01    0.3119095    0.2122949 -12.65  0.001540512    1.682    0.405
        61 -10.5979     11.0361     97.3071   1.0259042484e+02   5.5417327685e+01    0.1841318    0.1710204  66.04  0.001155684    1.084    0.078
        62  -9.6192    166.5200     95.4945   5.0990239641e+01   2.9555164395e+01    0.1451153    0.1373831  -8.08 0.0001136413    1.033    0.032
        63 -10.1200    157.2874     95.5658   5.2921855404e+01   3.1564583028e+01     0.287194    0.1463998  55.10  0.001145017    2.151    0.535
        64 -12.1212    177.5000     86.0448   4.6389498127e+01   2.8722858246e+01    0.5072936    0.3828536  70.20  0.002590781    1.583    0.368
        65 -12.0297     95.6702     89.9887   6.7931053106e+01   4.6053777250e+01    0.6475273     0.419084  49.69  0.001325887    1.581    0.367
        66 -11.5534     61.7680     93.1094   8.1077803063e+01   5.1258812575e+01    0.2506481    0.2152086  35.54 0.0006239564    1.182    0.154
        67 -12.1760    116.0247     89.3919   6.1462831791e+01   4.1922058393e+01    0.4416375    0.3557718   3.04 0.0002397136    1.579    0.367
        68 -12.8926    121.7838     86.3965   5.8961422268e+01   4.1273206672e+01    0.5707712    0.4283098  -3.26  0.002233484    1.860    0.462
        69 -12.2243     48.2093     86.0136   8.5015720394e+01   5.4954596100e+01    0.4215595    0.3021972  65.23  0.001480826    1.583    0.368
        70 -12.9368     52.7116     89.9589   8.4004341018e+01   5.3347494531e+01    0.4676625    0.4071228 -26.70 0.0003739473    1.284    0.221
        71 -11.2459     52.8336     86.3917   8.3140246775e+01   5.4246276805e+01    0.2804965    0.2190325  20.11  0.000207461    1.405    0.288
        72 -11.3212    174.7680     90.8404   4.8165636565e+01   2.8541843777e+01    0.4012375    0.2882068 -44.78  0.001883911    1.393    0.282
        73 -12.1437    127.4838     90.5217   5.8624148987e+01   3.9163740572e+01    0.4013921    0.2748619  24.86  0.001725753    1.861    0.463
        74 -10.3525    166.7427     89.9994   4.9475308245e+01   3.0446054181e+01    0.3265522    0.1978941  60.96  0.001440289    1.913    0.477
        75 -11.3028    111.9825    101.2872   6.5937201799e+01   4.0212442338e+01    0.2141266     0.200303  41.71  0.000417657    1.050    0.047
        76 -11.6546    138.7759     88.0602   5.5051666352e+01   3.7105306479e+01    0.2664773    0.2508921 -41.88 0.0002966133    1.063    0.059
        77 -11.3552    139.7125     81.1497   5.2798349219e+01   3.8192735542e+01    0.4996049    0.2593917 -41.55  0.001515633    1.907    0.476
        78 -12.6739     67.0789     83.5651   7.6572435171e+01   5.2818583088e+01     0.813222    0.5275849  77.20  0.002450238    2.343    0.573
        79 -11.8319     64.6345     75.1801   7.5203746495e+01   5.5276537093e+01    0.3722795    0.2694371  22.31 0.0004627181    1.562    0.360
        80 -11.7103     38.8435     86.3844   8.9152547157e+01   5.5970873103e+01    0.3561392    0.2841602   4.28  0.001081829    1.454    0.312
        81 -10.3101    227.4659    242.4959   6.7705924311e+01  -3.7070721217e-01     0.102736   0.06935018   8.63 5.519942e-05    1.007    0.007
        82 -11.6840    250.5776     82.3982   3.5488544965e+01   1.4964982105e+01    0.3257199    0.1434902 -22.27            0    2.176    0.540
        83 -12.0487    148.2760     82.4829   5.1224528357e+01   3.5957343351e+01    0.6425092    0.3671467 -39.88  0.001066699    1.717    0.418
        84 -11.8839     72.3513     76.1019   7.2323317496e+01   5.3729633577e+01    0.5005193    0.2183703  39.37  0.001856733    2.280    0.561
        85 -11.6112     80.8800     79.8677   7.0173089538e+01   5.1275004175e+01    0.8815604    0.5028958 -69.89  0.003264775    2.579    0.612
        86 -13.2734     96.1365     71.0394   6.1925609028e+01   5.0163558266e+01    0.7633181    0.6403534 -52.23  0.002133908    1.214    0.176
        87 -10.9751     98.1077     81.1017   6.4501922240e+01   4.7554180041e+01    0.3636032    0.3140424 -19.01 0.0008608802    1.315    0.240
        88 -12.2064    103.6016     75.9086   6.1089753029e+01   4.7499523168e+01    0.5673585    0.3913128  26.32 0.0006758338    1.799    0.444
        89 -11.3303     18.9470     81.2643   9.7273359783e+01   5.9119973610e+01    0.2439142    0.2305423  73.37  0.000275567    1.074    0.069
        90 -11.0557    153.2571     98.9145   5.4696502314e+01   3.1839777528e+01    0.4610855    0.2988495 -65.51  0.001901841    2.333    0.571
        91 -14.6203     40.9066     76.9722   8.6207529069e+01   5.8183741320e+01     1.966645     1.067323 -41.71  0.008414846    2.028    0.507
        92 -10.3965    220.1516    241.1565   6.8678388091e+01   5.2933770740e-01    0.1339743     0.103139  17.60  0.001099396    1.357    0.263
        93 -12.1023     63.4973     45.4402   6.5111534789e+01   6.2288848124e+01    0.8528785    0.6312623 -63.70  0.004124523    1.604    0.377
        94 -11.7011     86.6612     21.5232   4.4448500326e+01   6.1375199356e+01    0.8856355    0.2995681  59.69  0.002037256    2.961    0.662
        95 -12.5915    178.0803    236.5822   7.5224428027e+01   5.8066590472e+00    0.2848814    0.2485658 -54.16  0.002197979    1.958    0.489
        96 -12.6771     35.4635     69.1526   8.6963742482e+01   6.0811244179e+01    0.6484941    0.5775629  88.51  0.002115792    1.150    0.130
        97 -13.7227    110.9418    249.3969   8.9400765406e+01   1.2204125159e+01    0.9521067    0.3704681  44.44  0.005002269    2.330    0.571
        98 -12.0370     94.3463    247.3837   9.2532514250e+01   1.4409975593e+01    0.2947393    0.1485434  47.91   0.00134202    1.815    0.449
        99 -11.6271     11.4039    248.3601   1.0911692115e+02   2.2601213757e+01    0.2363195    0.2007543  84.94  0.002049788    1.440    0.305
       100 -12.9556     13.9799     48.5620   9.4001159131e+01   6.7932371277e+01    0.8558178    0.5316048  77.71  0.003247081    1.946    0.486
       101 -11.0781    169.9512    234.5002   7.6445224735e+01   7.0422067228e+00    0.1751079     0.084911  30.96 0.0008962931    1.588    0.370
       102 -13.4466     82.2917    247.3721   9.4956657325e+01   1.5772540489e+01    0.7139678    0.3143907  30.56  0.004105134    1.682    0.406
       103 -12.4963     51.0953     45.3165   7.1173706082e+01   6.4495934000e+01     1.001114    0.4395497  27.06  0.003612827    2.920    0.658
       104 -11.2340    159.9610    219.8086   7.6446756233e+01   1.0215909211e+01     0.173589     0.150828   8.35 0.0002669579    1.180    0.152
       105 -12.0417     71.1966     31.9785   5.5462556837e+01   6.3336795632e+01    0.6385937    0.3961531  21.73  0.001828708    2.325    0.570
       106 -12.2352    123.7421     82.9966   5.7408519413e+01   4.1519878618e+01    0.7204049    0.3847494  24.82  0.002216984    3.804    0.737
       107 -10.7331    154.4246     77.5994   4.8468951274e+01   3.5382618718e+01    0.2889589    0.1801388  51.49  0.000703331    1.624    0.384
       108 -13.4076     54.2140     72.4987   7.8955798066e+01   5.7563777164e+01     1.019143    0.6274651 -80.24   0.00109574    2.180    0.541
       109 -11.0518     19.9865     75.9826   9.5970374282e+01   6.0433850566e+01     0.207849    0.1917129 -66.74 0.0004399013    1.038    0.037
       110 -11.6402     60.5117     71.7165   7.5935367740e+01   5.6790477267e+01    0.3238427    0.2500687 -29.12 0.0009727366    1.475    0.322
       111 -12.2654     87.3277     73.8563   6.5927438253e+01   5.1392340693e+01    0.6284272    0.4531977  -3.23 0.0008422346    2.121    0.529
       112 -12.3597     58.5003     60.8564   7.3353656689e+01   5.9721904336e+01    0.5644203    0.4362724  67.33  0.001200853    1.588    0.370
       113 -11.4163     53.1094     56.0985   7.4264459243e+01   6.1706129247e+01    0.4112543    0.3187965 -32.39  0.001474012    1.367    0.268
       114 -10.6923     52.4925    217.4887   9.9293357783e+01   2.4014771950e+01    0.1189926   0.09087659  44.10  0.000461078    1.007    0.007
       115 -13.2703     79.6828     59.2979   6.3742599467e+01   5.6151029072e+01    0.7938219    0.6105672  30.82  0.003850047    1.389    0.280
       116 -12.5322     92.5325     59.4965   5.9082032860e+01   5.3365418741e+01    0.7181208    0.4829616 -84.30  0.001942489    2.611    0.617
       117 -11.1127     91.1734     54.6176   5.7703183144e+01   5.4648767276e+01    0.3665775    0.2779648  52.15  0.001274678    1.324    0.244
       118 -12.2527    103.6081     60.9821   5.5979726546e+01   5.0549163486e+01    0.4440507    0.2922317  46.94 0.0005210561    1.503    0.335
       119 -11.3087    100.5191     54.0094   5.4351761793e+01   5.2614134794e+01    0.6196844    0.2905449  45.70  0.002326077    2.131    0.531
       120 -11.0621     69.8827    102.0163   8.0037199151e+01   4.7773366318e+01    0.2200145    0.2131306 -81.42 0.0003181622    1.026    0.026
       121 -11.2492     86.0936     29.5202   4.8589448859e+01   6.0326025678e+01    0.5264889    0.4389428 -77.47  0.002695982    1.443    0.307
       122 -11.6696     82.0827     35.0153   5.2626980305e+01   6.0365655579e+01    0.3769234    0.3322928 -70.55  0.001028549    1.298    0.230
       123 -12.1270     82.6410     48.8783   5.8515178745e+01   5.7674206897e+01    0.9514726    0.3458831  48.60  0.002715684    2.766    0.639
       124 -11.7855     75.6433     42.2981   5.8452844154e+01   6.0469856963e+01    0.4330682    0.2866602  48.10  0.001524007    1.508    0.337
       125 -11.4697     83.9495     41.0000   5.4659178392e+01   5.8876571089e+01    0.3350319    0.2055808  53.59 0.0006682659    1.651    0.394
       126 -11.3582     33.2631    214.6102   1.0345767863e+02   2.6495233135e+01     0.247761    0.1322937 -82.85  0.001470214    2.086    0.521
       127 -11.2217    100.1716     45.8172   5.1217419872e+01   5.4194913876e+01    0.3778197    0.3374177  30.54  0.001169029    1.168    0.144
       128 -11.1017     27.2862     45.9588   8.5024451551e+01   6.7490610000e+01    0.4916221    0.1804882 -61.58  0.001628474    2.458    0.593
       129 -10.8896     23.1887     44.1794   8.7021397135e+01   6.8317752772e+01    0.3026197     0.221856  53.12  0.001394628    1.599    0.375
       130 -13.1767     79.9307     41.8880   5.6569775776e+01   5.9614565372e+01     1.026894     0.744892  18.84  0.004711925    1.756    0.430
       131 -11.1723     50.7099    102.0489   8.7274828231e+01   5.0487142485e+01    0.2215337    0.2177704  74.87 0.0003524268    1.058    0.055
       132 -10.3257     35.7547     42.0346   7.8479896470e+01   6.7466149161e+01    0.3300561    0.2160267 -49.19  0.001648297    1.421    0.296
       133 -11.8575     40.8456     39.3485   7.4363251319e+01   6.7394450666e+01    0.3785676     0.347978  43.64  0.002212494    1.182    0.154
       134  -9.1962    105.3193     42.6429   4.8376844154e+01   5.3476705434e+01    0.1612985    0.1177827 -71.01 0.0007045121    1.758    0.431
       135 -12.5515     40.7022    240.3846   1.0303039482e+02   2.1248023486e+01    0.3591753    0.1856157  56.75  0.002294478    1.671    0.402
       136 -10.0074    115.8732     39.1289   4.4111919042e+01   5.1366373392e+01    0.2629363    0.1698487  54.59 0.0003896495    1.492    0.330
       137 -10.6198    110.5192     38.3524   4.5175843911e+01   5.2859159494e+01    0.3973846    0.2430349  65.46   0.00170224    1.718    0.418
       138 -12.6987     26.6125     35.9371   8.1927856112e+01   6.9957370849e+01    0.3462863    0.2840883 -14.36 0.0004740225    1.258    0.205
       139 -11.4361     92.4862     35.1059   4.9064413532e+01   5.7882628412e+01    0.3714493    0.3411465  56.32 0.0006988845    1.069    0.065
       140  -9.7137     96.5508     32.5473   4.6635087175e+01   5.7289624956e+01    0.2138871    0.1348898  44.65 0.0007564678    1.586    0.370
       141 -11.2956    132.0614     34.2479   3.8582843572e+01   4.7848717533e+01    0.3799059    0.2887896 -80.49  0.000699553    1.475    0.322
       142 -12.2788     54.3821     99.3910   8.5331104466e+01   5.0695858048e+01    0.3745751    0.2431207  29.95  0.001268806    1.576    0.366
       143 -10.7669    218.4806     29.4949   2.5975169328e+01   2.7244389687e+01    0.2944646    0.2305022  37.29  0.001775691    1.607    0.378
       144 -11.3535    215.6006     27.1982   2.5617445349e+01   2.8109708295e+01    0.5433179    0.2458715 -20.83  0.002439987    2.280    0.561
       145  -9.9068    111.8255     33.1351   4.2672370138e+01   5.3311247447e+01    0.2102481    0.1764196  27.93 0.0005314877    1.313    0.239
       146 -11.4812     12.7717    213.3255   1.0797313969e+02   2.8576087059e+01    0.2509117    0.2212647  89.33   0.00196818    1.342    0.255
       147  -9.0956     29.2950     30.2915   7.7744591240e+01   7.0943611767e+01    0.1390783   0.09647727 -24.93 0.0002122285    1.555    0.357
       148  -9.4523    124.5439     28.5852   3.7905039854e+01   5.0599329011e+01    0.1479558     0.140253  82.83 6.598072e-05    1.017    0.017
       149  -9.1701    114.2816     28.3223   4.0050397773e+01   5.3348300687e+01    0.2032698    0.1274317  62.96 0.0002375727    1.539    0.350
       150 -10.3066    111.3823     25.9514   3.9718135443e+01   5.4429733022e+01    0.3893761    0.1960091 -20.99 0.0008564266    2.339    0.572
       151 -10.9287    175.7507     24.9463   2.8770047235e+01   3.7665287657e+01    0.3731185    0.2387201 -55.75  0.001371604    1.538    0.350
       152 -10.8187    173.6161     18.3867   2.6955196375e+01   3.8912865612e+01    0.2969901    0.2225318 -43.57 0.0006169613    1.235    0.190
       153 -10.6904    148.6179     25.3888   3.2447414728e+01   4.4600602525e+01    0.3706868    0.2197243 -86.87  0.001080995    2.008    0.502
       154  -9.1157    147.3395    123.2927   6.2129277475e+01   2.8476749188e+01    0.1493543    0.1117705   6.79 0.0004245677    1.650    0.394
       155  -9.7183    219.4588    122.3956   4.8210526206e+01   1.5078304436e+01    0.1247252    0.1079198 -13.07 6.793893e-05    1.038    0.037
       156 -10.7304    163.7158     21.0822   2.8935991805e+01   4.1147869419e+01    0.2213933    0.2065874  86.69  0.000772782    1.066    0.062
       157  -9.5525    125.9495     24.7424   3.6082629787e+01   5.0716429610e+01    0.1980105    0.1226888  64.61 0.0008818512    1.539    0.350
       158 -10.9219     97.7577     22.0341   4.1411945859e+01   5.8499658330e+01    0.3242453    0.2556747 -36.88  0.001061381    1.313    0.238
       159  -9.8949    226.3855    119.0333   4.6465323458e+01   1.4371465278e+01    0.1727861    0.1315756 -24.87 0.0004323014    1.127    0.112
       160 -10.1859     45.9569     22.2092   6.2808702603e+01   7.0114357976e+01    0.2341845     0.196576 -68.41 0.0006579193    1.534    0.348
       161 -10.2734     41.9911     21.2421   6.4653248934e+01   7.0980867627e+01    0.3241907     0.249385  13.11  0.001749398    1.402    0.287
       162 -10.8269    200.8131     20.7551   2.5109737418e+01   3.2094696923e+01    0.3528698    0.2744198  60.45  0.002080262    1.424    0.298
       163 -14.0861    152.6837     64.4244   4.4826023556e+01   3.8009317789e+01     1.724403     1.261706 -73.19  0.008027939    1.710    0.415
       164  -9.9114    125.8679     20.6620   3.4450506437e+01   5.1231595079e+01    0.2061969    0.1769541  76.23 0.0004517469    1.120    0.107
       165  -9.9364    121.3526     20.7993   3.5369646828e+01   5.2427407211e+01    0.3223107    0.1788981  11.53  0.001029338    3.146    0.682
       166 -10.8120     59.9756     20.0948   5.4128799994e+01   6.7754748459e+01    0.2586431    0.1847158  39.84 0.0007015542    1.365    0.267
       167  -9.8671    139.5103     17.0364   3.0755171656e+01   4.7971939596e+01    0.2121896    0.1408097 -28.17 0.0005552328    1.535    0.349
       168  -9.8761     78.1017     17.2442   4.5066300713e+01   6.4060996262e+01    0.1898801    0.1641166 -83.57 0.0004743484    1.358    0.264
       169 -11.1371     64.2071     17.3785   5.0608401041e+01   6.7265371847e+01    0.2608356    0.1716756  48.01  0.001270188    1.459    0.314
       170  -9.7311    156.5128    118.5496   5.8921108454e+01   2.7533817370e+01    0.1434491    0.1361668   6.93 8.228711e-05    1.006    0.006
       171  -9.7396     93.9747     16.0524   3.9529923775e+01   6.0237813976e+01    0.2206645    0.1671404 -72.69 0.0004540231    1.583    0.368
       172  -9.5525    150.5703     13.2357   2.7854895992e+01   4.5415710606e+01     0.153603   0.09533384 -69.42            0    1.733    0.423
       173 -10.6191    203.0822    116.0361   4.9389131484e+01   1.8885679259e+01    0.3317141    0.1929491  64.35  0.001481785    2.769    0.639
       174 -12.6878    130.1770     99.2331   6.0343871123e+01   3.6807240746e+01    0.6863675    0.4273692 -12.48  0.002480579    2.955    0.662
       175  -9.6961    140.4292     11.4149   2.8500215799e+01   4.8307513154e+01     0.143383    0.1299539 -77.45 8.211307e-05    1.042    0.040
       176 -12.0493    131.3259    111.9661   6.3347495853e+01   3.3961852640e+01    0.4432053    0.3353636  52.15  0.001358057    1.366    0.268
       177 -11.3041    197.2197    108.8081   4.8691092067e+01   2.1079106915e+01    0.4362832    0.3066544 -72.90  0.002054124    2.488    0.598
       178 -10.2071    217.0488    108.3113   4.5459768848e+01   1.7457431308e+01     0.218984    0.1596857 -17.03 0.0005967531    1.279    0.218
       179 -10.9650    248.4945    105.9940   4.0785268493e+01   1.2449400272e+01    0.3340512    0.1790694 -51.69  0.000997971    2.692    0.628
       180 -10.4587     29.9460    107.0280   9.6131214839e+01   5.1445466979e+01    0.2008593    0.1860046  80.77 0.0002908584    1.018    0.018
       181 -10.7296    208.7269    104.5691   4.5849891443e+01   1.9518451438e+01    0.3252641    0.2046141 -57.62  0.001112488    2.299    0.565
       182 -13.1914     46.5042     52.5152   7.6338368034e+01   6.3545802020e+01     1.103424    0.7084806 -24.52  0.004905705    2.021    0.505
       183 -10.9056    135.0305    105.1257   6.0660878918e+01   3.4576999825e+01    0.2564966    0.2346278  -7.69 0.0003691971    1.150    0.130
       184 -10.4876    165.5792    102.8688   5.3100555182e+01   2.8477032613e+01     0.439761    0.1660158 -41.23  0.001592607    2.588    0.614
       185 -12.0542    235.7129    102.6371   4.1638176820e+01   1.4960139684e+01    0.2299661    0.2044189 -83.71  0.000640662    1.551    0.355
       186 -13.2435    198.9744     96.6406   4.5479710402e+01   2.2573250936e+01    0.9714585    0.6451593 -81.46  0.004239993    2.907    0.656
