#   1 NUMBER                 Running object number                                     
#   2 MAG_AUTO               Kron-like elliptical aperture magnitude                    [mag]
#   3 X_IMAGE                Object position along x                                    [pixel]
#   4 Y_IMAGE                Object position along y                                    [pixel]
#   5 X_WORLD                Barycenter position along world x axis                     [deg]
#   6 Y_WORLD                Barycenter position along world y axis                     [deg]
#   7 A_WORLD                Profile RMS along major axis (world units)                 [deg]
#   8 B_WORLD                Profile RMS along minor axis (world units)                 [deg]
#   9 THETA_WORLD            Position angle (CCW/world-x)                               [deg]
#  10 FWHM_WORLD             FWHM assuming a gaussian core                              [deg]
#  11 ELONGATION             A_IMAGE/B_IMAGE                                           
#  12 ELLIPTICITY            1 - B_IMAGE/A_IMAGE                                       
         1 -13.3574     11.3504     57.7701   9.7350303357e+01   6.4227868342e+01    0.9739922    0.6341887 -29.42  0.005070444    1.309    0.236
         2 -12.8088    235.6773     32.9813   3.2501572234e+01   2.4520246113e+01    0.7086847    0.6109606 -22.19  0.004973984    1.594    0.373
         3 -11.7830    221.1769     36.0816   3.4438290135e+01   2.7045841768e+01     0.424447    0.2460136  57.93  0.002390726    1.896    0.473
         4 -10.6287    154.5010     10.4897   3.5724930821e+01   4.4686516073e+01    0.1256224    0.1061394  82.45 0.0008104478    1.028    0.027
         5 -12.2478    175.8972    249.7939   8.6686326103e+01  -2.2843966316e+00    0.8170606    0.2291978  32.86    0.0030991    3.151    0.683
         6 -10.9989    172.3751    245.7941   8.6805197971e+01  -1.1403149924e+00    0.2240677    0.1925207  -9.53  0.001063621    1.134    0.118
         7 -11.0684     47.7100    238.5413   1.1294395492e+02   1.7575749948e+01    0.4719791    0.3008649  57.61  0.002578009    1.393    0.282
         8 -12.0416     59.6374    248.0014   1.1123148933e+02   1.4197027878e+01    0.4974869    0.3561632  77.16  0.003088959    1.390    0.281
         9 -12.1583     52.6908    246.3475   1.1253695327e+02   1.5375506530e+01    0.6155018    0.3519222  59.21  0.002510704    1.632    0.387
        10 -12.6736     31.7238    248.6265   1.1694886817e+02   1.7310069584e+01     1.047711    0.3265886  30.71  0.004569171    3.083    0.676
        11 -14.1155      7.0153    240.6979   1.2129986828e+02   2.1417897926e+01     3.321252    0.9558828 -83.21   0.01396614    3.536    0.717
        12 -13.3361     81.3888    231.4163   1.0487650636e+02   1.4800484869e+01    0.8500481    0.6646297 -66.12  0.003195773    1.370    0.270
        13 -12.8206     74.7104    224.8366   1.0566366082e+02   1.7123627585e+01    0.7746489    0.5711178  27.53  0.002903283    1.407    0.289
        14 -11.5740     72.5767    246.0725   1.0832926423e+02   1.2946558739e+01    0.2847577    0.2289232  85.26   0.00121873    1.282    0.220
        15 -12.9148     24.3305    194.0921   1.1444544809e+02   3.0163594886e+01    0.8855672     0.688964  51.32  0.004150359    1.246    0.198
        16 -11.7667    157.4245    233.6302   8.8101819935e+01   3.1493843708e+00    0.3865417    0.2305027  25.05   0.00148724    1.584    0.369
        17 -11.8117     58.0331    224.8447   1.0946390146e+02   1.9277224637e+01    0.6154205    0.3917816 -70.57  0.002520748    1.587    0.370
        18 -10.4698     52.4608    217.8995   1.1005295554e+02   2.1512935373e+01     0.354237    0.2332155  70.53  0.001322414    1.536    0.349
        19 -13.8036    140.0316    237.3743   9.2471009687e+01   5.0663873120e+00     1.019094    0.9008149  58.60  0.005456723    1.325    0.245
        20 -10.4004     41.5223    213.2932   1.1212970865e+02   2.3840896764e+01    0.4763904    0.1962391  48.41  0.002121027    2.264    0.558
        21  -9.9604    202.9573    210.0191   7.4503766407e+01   5.4059933410e-01    0.2230108     0.145583  -8.56  0.001135945    1.690    0.408
        22 -11.7500     48.2221    204.8428   1.0973696117e+02   2.5040110406e+01    0.7970025    0.4298382  73.26  0.003601975    2.230    0.552
        23 -12.8416      5.5592    205.8264   1.1962092418e+02   2.9107579415e+01    0.3877826    0.3192155  86.95 0.0007824221    1.064    0.060
        24 -11.1155     40.0281    179.4037   1.0901815591e+02   3.2171757698e+01    0.2523435    0.2359251 -37.81 0.0005190277    1.238    0.192
        25 -13.9846     11.8588    201.1290   1.1790702007e+02   2.9647326193e+01    0.9789918     0.659265  89.22  0.003051627    1.279    0.218
        26 -11.3997     48.2394    172.7969   1.0600633632e+02   3.2922990162e+01    0.2660355    0.2478272 -43.87 0.0004324175    1.181    0.153
        27 -13.7622     31.2182    143.5662   1.0691725784e+02   4.2213347053e+01     1.803945     1.145182 -60.61  0.009255003    1.364    0.267
        28 -13.5705     22.8110    127.7411   1.0724297912e+02   4.6993934311e+01     1.238238    0.8978153 -63.00   0.00693099    1.172    0.147
        29 -13.4698      7.3964    115.9227   1.1061012789e+02   5.1032962411e+01     1.073377    0.8742328  72.26  0.005521068    1.380    0.276
        30 -13.8077      5.7038    149.7994   1.1513579727e+02   4.2648839735e+01     1.559059    0.6686285 -83.19  0.005885154    2.229    0.551
        31 -14.3124      6.4433    140.9673   1.1400512339e+02   4.4819235692e+01     1.616324     1.342226  69.12  0.009557626    1.259    0.206
        32 -13.3305      4.5693    127.2134   1.1299686187e+02   4.8385034296e+01    0.8513317    0.7492189 -66.94  0.003790827    1.069    0.064
        33 -10.1376     61.9095    162.7928   1.0073945994e+02   3.3810106278e+01    0.2303912    0.1944637 -65.10 0.0004177499    1.111    0.100
        34 -12.6130     46.3893    159.3308   1.0468006278e+02   3.6583279677e+01    0.5171829    0.2991558 -33.30  0.001427107    2.273    0.560
        35 -11.0511     70.6068    156.3959   9.7155890283e+01   3.4285071110e+01    0.4688488    0.3590561 -10.07  0.001203036    1.661    0.398
        36 -11.8706    113.9145    145.2044   8.2366895887e+01   3.0033726197e+01    0.7498481    0.4900425 -33.47  0.003180639    1.729    0.422
        37 -11.5801     67.7516    143.4050   9.5647851814e+01   3.8028931729e+01    0.6934857    0.4150546  61.67  0.002730484    2.322    0.569
        38  -9.9757     87.8936    143.3631   8.9515601904e+01   3.5013868631e+01    0.3096433    0.2193186 -49.63  0.001306538    1.352    0.260
        39 -11.0437     75.4070    141.0882   9.2839961715e+01   3.7527196638e+01    0.3043396    0.2500168 -50.75 0.0004884135    1.152    0.132
        40 -10.8985     95.6682    132.7981   8.4854160087e+01   3.6353847705e+01    0.4766235    0.4365034  13.23  0.002257355    1.140    0.123
        41 -11.6142    110.4723    137.4437   8.1576004953e+01   3.2556126999e+01    0.4719596    0.4285655  48.01  0.001726952    1.152    0.132
        42 -12.5228    105.2974    131.8622   8.1768305328e+01   3.4864335826e+01    0.7714117    0.5970055  31.80  0.002414192    1.338    0.253
        43 -10.4970    126.7099    129.9896   7.5264176367e+01   3.1191343556e+01    0.3022973    0.2344932   6.65    0.0013678    1.604    0.376
        44 -10.0302     89.2439    127.7078   8.5640823349e+01   3.8708075624e+01    0.2399973    0.2250349  87.17  0.000400842    1.174    0.148
        45  -9.0140     91.9722    139.7677   8.7526329668e+01   3.5248797461e+01    0.1942283    0.1299357  32.89 0.0003679381    1.554    0.356
        46 -11.0135     94.2333    119.2363   8.2040731694e+01   3.9907467037e+01    0.5312814    0.4082455  13.14  0.002508446    1.503    0.335
        47 -11.6427     52.4825    119.0163   9.5727267468e+01   4.6235545702e+01    0.4606219    0.3847376 -37.17  0.002454809    1.147    0.128
        48 -10.2341     77.0003    119.8094   8.7686338382e+01   4.2639166054e+01    0.2555058    0.1706819  60.51  0.001087283    2.052    0.513
        49  -9.0711    102.0374    119.5247   7.9719208338e+01   3.8423759668e+01    0.2221909    0.1539555  36.57 0.0004019333    1.479    0.324
        50 -10.7266     23.9431    112.1808   1.0432326237e+02   5.0819687473e+01    0.2925213    0.2001123  16.31  0.001306372    1.673    0.402
        51  -9.9409     94.6904    111.0790   7.9806685914e+01   4.1752993015e+01    0.2775654    0.2140928  47.32  0.001331319    1.401    0.286
        52 -11.4702     51.3820    109.9511   9.4136435733e+01   4.8620145966e+01    0.4112375    0.2529976 -50.09  0.001956213    1.447    0.309
        53 -11.9335    245.1677    105.1712   4.6144020383e+01   1.2207136706e+01    0.2802425     0.166515 -56.21  0.001469444    1.691    0.409
        54 -11.1297     52.5981     91.6495   8.9203342761e+01   5.2821346099e+01     0.498252    0.3865837 -72.67  0.002601892    1.589    0.370
        55 -12.5065      1.9323     85.5501   1.0776768913e+02   5.8635328540e+01    0.9148607    0.1640475 -67.77  0.002815579    4.650    0.785
        56 -11.1893     25.9960     88.4827   9.8781390131e+01   5.6374243364e+01    0.3909312    0.3531353  -2.29   0.00161711    1.187    0.158
        57 -10.8099     12.0313     83.8833   1.0338974469e+02   5.8466419800e+01    0.2765485    0.1498559 -14.60  0.001363964    2.135    0.532
        58 -11.6324     37.6246     56.1827   8.4676677342e+01   6.2123465519e+01    0.7327626    0.4470339   3.66  0.003750077    1.833    0.454
        59 -12.2008     29.1381     56.8939   8.8760414122e+01   6.2910159798e+01    0.5260543    0.3663925 -35.25  0.003088679    1.225    0.184
        60 -12.1812     32.7456     48.3513   8.4154761805e+01   6.4144114933e+01    0.6477845     0.400435 -34.01  0.003617109    1.430    0.301
        61 -12.0136     21.8676     61.6195   9.3563679551e+01   6.2633462243e+01    0.6257771    0.4517656  47.70   0.00350257    1.983    0.496
        62 -14.3938    125.4069    238.0302   9.5800011991e+01   7.1222401776e+00     1.698032     1.187207  40.94  0.007157702    1.304    0.233
        63 -13.6315     92.7145    243.6449   1.0372588276e+02   1.0728153224e+01      1.64499    0.6090687  49.87  0.006439614    2.970    0.663
        64 -11.9476    229.7997     44.9483   3.5455283568e+01   2.4155489965e+01    0.4324737    0.2674318 -88.92  0.002481601    1.685    0.407
        65 -13.9847    103.3797    237.6100   1.0066003605e+02   1.0429411759e+01     1.515719     1.048658  68.34  0.006418135    1.768    0.434
        66 -10.9959     71.2414     32.0788   6.1711393141e+01   6.0833701525e+01    0.3302658    0.2158443  61.32  0.001663279    2.143    0.533
        67 -10.8079    170.8635     24.5721   3.7340442348e+01   3.9474887610e+01    0.2501987    0.1595435  86.06  0.001350919    1.554    0.356
