#   1 NUMBER                 Running object number                                     
#   2 MAG_AUTO               Kron-like elliptical aperture magnitude                    [mag]
#   3 X_IMAGE                Object position along x                                    [pixel]
#   4 Y_IMAGE                Object position along y                                    [pixel]
#   5 X_WORLD                Barycenter position along world x axis                     [deg]
#   6 Y_WORLD                Barycenter position along world y axis                     [deg]
#   7 A_WORLD                Profile RMS along major axis (world units)                 [deg]
#   8 B_WORLD                Profile RMS along minor axis (world units)                 [deg]
#   9 THETA_WORLD            Position angle (CCW/world-x)                               [deg]
#  10 FWHM_WORLD             FWHM assuming a gaussian core                              [deg]
#  11 ELONGATION             A_IMAGE/B_IMAGE                                           
#  12 ELLIPTICITY            1 - B_IMAGE/A_IMAGE                                       
         1 -12.5607    199.7549     38.1126   4.5649634666e+01   3.1041246473e+01     1.130935    0.9678074  21.94  0.006459322    1.452    0.311
         2 -12.5936    210.8938     26.9001   4.1400926773e+01   2.9782057549e+01    0.9556921    0.7562972  34.46  0.002831114    1.615    0.381
         3 -10.1623     33.0848      9.4333   7.8720251888e+01   7.0209941515e+01    0.5246022   0.09233962 -34.41  0.001629601    5.744    0.826
         4 -11.0125    235.7791      3.0975   3.3598486997e+01   2.6785971566e+01    0.7495831    0.3217586  74.55  0.003737571    2.186    0.543
         5  -8.5510     52.3171      4.3209   6.7320585315e+01   6.8048574008e+01    0.1292808   0.07723649  13.13 0.0004890329    1.662    0.398
         6  -9.2249     46.5088      7.5031   7.1434056118e+01   6.8600507973e+01    0.1228453   0.09654374   3.88 0.0008105704    1.016    0.016
         7  -9.6429     22.2872      1.7935   8.0272963917e+01   7.2497805986e+01    0.2014595    0.1411595   8.60  0.001389422    1.218    0.179
         8  -9.7737     49.4098    216.5688   1.1881580355e+02   2.3163753509e+01    0.7570983    0.3217367  59.29  0.003639715    2.342    0.573
         9  -9.2772    117.5455    250.1519   1.0869065804e+02   7.6141010084e+00    0.2249517    0.1691588  51.49  0.001016414    1.135    0.119
        10 -11.4404     86.5609    224.6975   1.1208082597e+02   1.6701656435e+01    0.9018772    0.6932279  53.92   0.00090057    1.106    0.096
        11 -11.3729     13.8535    189.9188   1.2401029849e+02   3.2535250915e+01    0.3989599    0.3158363 -75.57 0.0004365573    1.250    0.200
        12 -12.0571     43.2138    201.9602   1.1884862490e+02   2.6955241665e+01     1.380929    0.6644212  84.54  0.001562024    2.328    0.571
        13 -14.2476     46.3133    247.2004   1.2164027524e+02   1.7611297734e+01     8.138171     2.527927  27.15   0.02090198   11.614    0.914
        14  -8.5547     66.9734    195.6457   1.1309946829e+02   2.5442783577e+01    0.2435908    0.1563211  75.70  0.001060116    1.619    0.382
        15 -15.3394      8.1841    241.5786   1.2786720205e+02   2.2676559804e+01     15.89463     1.548419 -78.08   0.03546763    9.741    0.897
        16  -8.0106     40.3483    183.2763   1.1776506763e+02   3.1417147086e+01    0.1152431   0.09258922 -41.52 0.0007005261    1.635    0.388
        17  -8.5461     99.6324    180.8237   1.0356126739e+02   2.4055613438e+01    0.2313357    0.1857491  29.25 0.0006853388    1.359    0.264
        18 -10.2338     68.5879    175.9804   1.1034891021e+02   2.9707654982e+01    0.4074141    0.2694022 -36.44  0.002021406    2.103    0.524
        19 -10.2973     73.0242    170.9243   1.0858020374e+02   3.0298899475e+01     0.363487    0.2526625 -51.00  0.000857821    1.519    0.342
        20 -11.6918     68.3781    243.1874   1.1734210095e+02   1.5643138376e+01     0.521555    0.3220886  86.11  0.001853221    1.691    0.409
        21  -9.8937    102.6368    171.5896   1.0134650589e+02   2.5689360494e+01     0.472318     0.149371  43.52  0.001603671    3.069    0.674
        22  -9.0550     34.5862    166.8839   1.1745863940e+02   3.5818487410e+01    0.3499587     0.262997  40.27 0.0008648573    1.444    0.307
        23  -8.0071     28.4694    168.4954   1.1906617871e+02   3.6037958322e+01    0.1262283    0.1019149  88.71  3.85464e-05    1.013    0.013
        24 -10.8753     81.7443    161.8815   1.0502559148e+02   3.1221514594e+01    0.6202078    0.3553969  57.44 0.0006109595    2.003    0.501
        25 -11.9899     69.7860    157.2456   1.0739594177e+02   3.4020904630e+01    0.6127968    0.4980661 -34.05  0.001228294    1.491    0.329
        26 -12.6905     68.6135    144.3439   1.0563781902e+02   3.7338289941e+01     1.978974     1.023356  80.49  0.006504735    4.089    0.755
        27  -9.6178     38.6825    146.1751   1.1402486008e+02   4.0379941235e+01      0.30387    0.2025511  56.81 0.0009451587    1.587    0.370
        28 -10.6092     88.3987    154.8698   1.0211901582e+02   3.1914042581e+01    0.6188575    0.4232223 -23.91  0.001573829    2.181    0.541
        29 -11.0058     30.1265    143.2937   1.1593222027e+02   4.1897731401e+01    0.4972442    0.4388212 -37.98  0.003255766    1.355    0.262
        30  -9.3437    102.4646    140.0990   9.5495089433e+01   3.3201642297e+01    0.5944906    0.2985872 -32.71  0.001997835    3.260    0.693
        31 -10.6022     89.7007    139.9657   9.8990737215e+01   3.5340325782e+01    0.2974286    0.2550169 -36.64 0.0004286662    1.251    0.201
        32  -8.5641     83.3118    142.9708   1.0133890430e+02   3.5589408083e+01    0.2081403    0.1728362 -63.60 0.0004232405    1.126    0.112
        33  -9.4170     32.2658    156.6783   1.1693223753e+02   3.8469810670e+01    0.2212002    0.1575917 -73.29 0.0007044868    1.188    0.158
        34  -9.2530    111.4350    130.5138   9.0918985029e+01   3.3903862294e+01    0.3160734    0.2472074   3.74  0.001106385    1.654    0.396
        35  -8.6663    106.1088    130.7392   9.2450324835e+01   3.4815856469e+01    0.2968925    0.2594714 -78.72  0.001535058    1.227    0.185
        36  -9.1988    135.4445    128.6039   8.4023121158e+01   2.9661717100e+01    0.4339733    0.1450786 -42.70  0.001322416    3.060    0.673
        37  -9.5229     43.6713    129.1186   1.1019691679e+02   4.4064882221e+01    0.2301322    0.1783736  48.32   0.00117778    1.423    0.297
        38 -12.9081     10.3123    206.4402   1.2573740746e+02   2.9337799001e+01    0.6219939    0.5346129  35.26  0.002454455    1.508    0.337
        39  -9.2810     98.7915    126.5429   9.3569305452e+01   3.7107662134e+01    0.3276847    0.2538724  -3.53  0.001180099    1.702    0.413
        40  -8.8201    134.3192    148.1263   8.8832102006e+01   2.5438240163e+01    0.3975102    0.1395233 -57.48  0.001087842    4.236    0.764
        41  -7.9758    163.7095    121.6520   7.5306602708e+01   2.5134242267e+01     0.161838    0.1236908  -4.01 0.0003563921    1.664    0.399
        42  -8.7657    120.7338    121.2680   8.6132512112e+01   3.4304203192e+01    0.2610905    0.1215153 -38.11 0.0009038291    2.430    0.588
        43  -8.2048     92.9531    217.4625   1.0996159285e+02   1.7219955295e+01    0.1783614    0.1566021  82.16  0.000332468    1.112    0.101
        44  -8.2601    107.9466    119.2520   8.9217808994e+01   3.7216745830e+01     0.204532    0.1931785  22.90 0.0002342092    1.112    0.100
        45  -8.1130    158.1565    160.9436   8.5826264740e+01   1.7929114994e+01    0.2433862    0.1798246 -79.80 0.0009899177    2.030    0.508
        46  -8.1864    168.7312    113.5880   7.2061888438e+01   2.5682178289e+01    0.2160812    0.1523651  60.62 0.0009387534    1.655    0.396
        47  -8.4444    206.1317    110.0123   6.3490497395e+01   1.7987135221e+01    0.2602385    0.2186306  48.05 0.0009582409    1.274    0.215
        48  -8.1227    133.6853    105.3494   7.8423525127e+01   3.5212730461e+01    0.1614248     0.126966 -82.67            0    1.725    0.420
        49  -8.9391     45.4610    105.6956   1.0546439808e+02   4.9631601705e+01    0.2196076    0.1269754  24.91  0.001073801    2.024    0.506
        50  -9.3241     33.3328    100.4720   1.0844293489e+02   5.2055169288e+01    0.3162006    0.1502118 -75.52  0.001340778    2.384    0.581
        51  -9.3264     32.4039     95.7897   1.0784704613e+02   5.3256246368e+01    0.2924302    0.1514837 -57.15  0.001036997    1.544    0.352
        52  -8.0470     41.3244     91.7014   1.0389742115e+02   5.3403016518e+01    0.1284818    0.1008992  75.93 0.0007025588    1.629    0.386
        53  -9.0008     44.8638    219.5110   1.1994717924e+02   2.3094246296e+01     0.291643    0.2114227  60.62  0.001956363    1.140    0.123
        54  -8.7968     66.0319    207.1580   1.1453068103e+02   2.3070604398e+01    0.2065095    0.1604025 -89.11 0.0004639282    1.193    0.162
        55 -11.7655    190.0778     45.3061   4.8970404544e+01   3.2434338347e+01    0.8242775     0.530092 -15.35  0.002353712    1.989    0.497
        56  -9.2923     60.2902    232.5185   1.1799954629e+02   1.8668500096e+01    0.2254695     0.147511  69.97 0.0005253559    1.365    0.267
        57  -8.9368     53.7702    230.7127   1.1909893250e+02   1.9818494414e+01    0.2063847    0.1410813 -86.61 0.0008086806    1.381    0.276
        58 -12.2401     53.7811    191.3268   1.1556828756e+02   2.8061727419e+01     2.188696    0.9586944 -78.43  0.009792327    2.411    0.585
        59  -8.1801     25.1841    202.9504   1.2261332094e+02   2.8658807058e+01    0.1846499    0.1193161  66.79 0.0007619392    1.304    0.233
        60  -9.2186    143.5118     48.3981   5.8402792282e+01   4.3506754693e+01     0.277859     0.243078 -72.76 0.0005449081    1.309    0.236
        61  -8.2444    146.3191     42.9298   5.5999842718e+01   4.3602973594e+01    0.1975328     0.182852 -18.02 0.0004492159    1.125    0.111
        62  -8.7079     63.3120    201.8725   1.1457037209e+02   2.4554423221e+01     0.223822    0.1375561 -68.68 0.0004576538    1.577    0.366
        63  -8.8796     33.9114    227.3673   1.2259024146e+02   2.2753473627e+01     0.178988    0.1372115 -84.07 0.0001463196    1.255    0.203
        64 -14.7529      2.5798    200.2890   1.2687034668e+02   3.1289548654e+01     14.49114          nan -74.62    0.0297348   14.606    0.932
        65  -9.1229     48.7156    224.7710   1.1960617289e+02   2.1589266377e+01    0.2774006    0.1720554  63.42 0.0007931709    1.376    0.273
        66  -8.7205     54.9625    222.3383   1.1819427116e+02   2.1326324174e+01    0.1716979    0.1439556  86.22 0.0003972955    1.138    0.122
