#   1 NUMBER                 Running object number                                     
#   2 MAG_AUTO               Kron-like elliptical aperture magnitude                    [mag]
#   3 X_IMAGE                Object position along x                                    [pixel]
#   4 Y_IMAGE                Object position along y                                    [pixel]
#   5 X_WORLD                Barycenter position along world x axis                     [deg]
#   6 Y_WORLD                Barycenter position along world y axis                     [deg]
#   7 A_WORLD                Profile RMS along major axis (world units)                 [deg]
#   8 B_WORLD                Profile RMS along minor axis (world units)                 [deg]
#   9 THETA_WORLD            Position angle (CCW/world-x)                               [deg]
#  10 FWHM_WORLD             FWHM assuming a gaussian core                              [deg]
#  11 ELONGATION             A_IMAGE/B_IMAGE                                           
#  12 ELLIPTICITY            1 - B_IMAGE/A_IMAGE                                       
         1 -16.7316    241.5664     98.4126   4.5887766023e+01   1.3612240028e+01     8.032134     1.393782 -39.80   0.02358189    4.694    0.787
         2 -10.0903     40.8266     14.2055   6.6981627251e+01   6.8365522010e+01     0.168563    0.1139399  11.59 0.0003354095    1.327    0.246
         3 -11.6750    154.6315    240.0857   9.0539525577e+01   1.9598010537e+00    0.2729504     0.125594 -49.11    0.0012425    2.446    0.591
         4 -10.6399    144.8825    232.7465   9.1564642968e+01   4.7768016146e+00    0.2386887    0.1801997  83.39  0.001231039    2.106    0.525
         5 -10.5540    191.4928    226.5322   8.0605707257e+01  -1.1260165126e+00    0.1327545    0.1115916   2.37 0.0002072754    1.002    0.002
         6 -11.3988    162.8102    225.2591   8.6455559323e+01   3.4200999636e+00    0.3129024    0.2200272   5.55  0.001543576    1.574    0.365
         7 -10.1760     99.4767    225.0836   1.0077505779e+02   1.3226434287e+01    0.1909692    0.1340776 -63.56 0.0007036851    1.548    0.354
         8 -10.7822    148.8309    223.0086   8.9181434100e+01   6.0326152126e+00    0.2116725    0.1644983  86.38   0.00102783    1.988    0.497
         9  -9.8826    174.3068    222.6457   8.3538824179e+01   2.1295910688e+00    0.1267007    0.1085751  70.32 0.0004357358    1.718    0.418
        10 -10.8553    193.4145    221.2100   7.9295752543e+01  -4.9373858790e-01    0.1759749     0.124257 -49.59 0.0009513663    1.718    0.418
        11 -10.7642    126.0237    220.6525   9.4013480573e+01   1.0104676383e+01    0.1991488    0.1638613  36.17 0.0005492131    1.115    0.104
        12 -11.3492    204.5315    217.9492   7.6483057037e+01  -1.5576865316e+00    0.1948983    0.1193665 -37.97  0.000656806    1.583    0.368
        13 -10.5517    143.8790    216.6531   8.9279247543e+01   8.0832662832e+00    0.2443755    0.1864232 -34.86  0.001311478    1.394    0.283
        14 -10.8929    199.1320    214.8959   7.7017988447e+01  -2.4304919480e-01    0.1901884     0.181891 -18.75  0.000842983    1.295    0.228
        15 -11.3757    185.9648    214.4508   7.9647299892e+01   1.8278238496e+00    0.2384432    0.1947068 -55.01 0.0008864519    1.564    0.360
        16 -11.8152    218.0741    210.7588   7.2555574417e+01  -2.2818502363e+00    0.2808955    0.1810878 -50.61  0.001466781    1.997    0.499
        17 -10.8775    193.3879    210.2136   7.7343271342e+01   1.4536215037e+00    0.1822482    0.1251395 -49.18 0.0009456424    1.684    0.406
        18 -10.5445    177.3867    210.2094   8.0712503037e+01   3.9577987504e+00    0.1887504    0.1309038 -53.61 0.0009508859    1.735    0.424
        19 -10.7103    116.3340    209.8582   9.4663061646e+01   1.3948359586e+01    0.2705123    0.1371006 -65.96  0.001082656    2.542    0.607
        20 -10.8594    206.0146    208.0065   7.4389818927e+01  -6.3338540157e-02    0.1873931    0.1731006 -86.84  0.001100043    1.676    0.403
        21 -12.6609    186.1230    204.2155   7.7757132739e+01   3.6956819718e+00    0.4645375    0.2971117 -54.73  0.002235463    1.979    0.495
        22 -11.4294    198.6389    204.0183   7.5129204695e+01   1.7650957450e+00    0.2703139    0.2105369 -57.05  0.001336375    1.714    0.417
        23 -13.0503    164.6261    200.7588   8.1806461124e+01   7.8960257210e+00     0.892386    0.4465289 -37.13  0.003739655    2.135    0.532
        24 -11.6727    162.3168    193.3668   8.0952585637e+01   9.8075142450e+00     0.429818    0.2702534 -52.55  0.001592602    1.743    0.426
        25 -10.9027    148.8578    197.9825   8.4922734937e+01   1.1143432030e+01     0.331722    0.2036104 -75.09  0.001242107    3.161    0.684
        26 -10.8208    177.4997    197.9884   7.8441792878e+01   6.2991810469e+00    0.1895219    0.1288988 -70.09  0.000810463    2.562    0.610
        27 -11.4502    124.6556    197.5279   9.0655396062e+01   1.5343595309e+01    0.3742636     0.222658  58.52  0.001540901    2.257    0.557
        28 -10.5748    203.0440    197.0511   7.2926940579e+01   2.3476803460e+00     0.195801    0.1752478 -81.57  0.001029285    1.686    0.407
        29 -10.4848    112.3487    197.6648   9.3718601768e+01   1.7341861201e+01    0.1551267    0.1094307  67.15 0.0007047614    1.779    0.438
        30 -10.4105    193.4718    195.9664   7.4666817673e+01   4.0701662320e+00    0.2115733     0.129505 -41.62  0.001027228    1.584    0.369
        31 -10.7363    209.4917    194.9387   7.1247976779e+01   1.7292452187e+00    0.2066584      0.12235 -39.20 0.0007472665    1.569    0.363
        32 -10.6469    186.3652    193.2048   7.5624169201e+01   5.7621370775e+00    0.2001195    0.1293695 -50.77 0.0009523991    1.727    0.421
        33 -11.2457    205.8830    191.1263   7.1220678208e+01   2.9866568736e+00    0.2502846    0.1877151 -51.97 0.0009003613    1.589    0.371
        34 -11.3790    204.0469    184.6478   7.0312038214e+01   4.4857128920e+00    0.5417386    0.2120588 -49.69  0.001969725    3.043    0.671
        35 -10.4608    199.6388    191.1762   7.2479578586e+01   3.9755130590e+00    0.2054626    0.1166141 -32.37 0.0008636792    1.710    0.415
        36 -10.2414    179.4931    190.5353   7.6581611210e+01   7.4422034767e+00    0.2416423    0.1367715 -54.75  0.001024145    2.175    0.540
        37 -11.8230    172.3876    190.5627   7.8147627695e+01   8.6515478199e+00    0.2893398    0.2524106 -71.38  0.001108036    1.481    0.325
        38 -11.0763    138.8953    188.7900   8.5620031422e+01   1.4875115680e+01    0.4132799    0.2122019 -58.02   0.00162818    2.271    0.560
        39 -10.6560    210.5007    188.9917   6.9900082792e+01   2.6492816187e+00    0.2074368    0.1234921 -40.99 0.0007569501    1.572    0.364
        40 -10.4620    192.4803    187.4963   7.3226305374e+01   5.8512004046e+00    0.2403119    0.1315769 -52.45  0.001024739    2.178    0.541
        41 -10.6383    129.0264    187.7915   8.7865897184e+01   1.6818604072e+01    0.2739807    0.1996933 -71.13  0.001264769    1.685    0.406
        42 -10.4698    217.4966    187.0499   6.8182529261e+01   1.9111703686e+00    0.2094466    0.1197444 -38.77  0.001017155    1.576    0.366
        43 -11.0598    165.3181    186.1194   7.8872955228e+01   1.0802529775e+01    0.3636543    0.2533766 -66.95  0.001410663    2.031    0.508
        44 -11.3740    120.4546    185.2059   8.9553960377e+01   1.8895496021e+01    0.4871621    0.1580237 -58.92  0.001438353    3.861    0.741
        45 -11.4707     96.1930    187.3009   9.6153746977e+01   2.2387313795e+01     0.439839    0.1677884  46.26  0.001521834    2.809    0.644
        46 -11.7564    224.8617    183.7162   6.6165019217e+01   1.3771235356e+00    0.2462794    0.1690828 -59.45  0.001134326    2.174    0.540
        47 -10.3804    183.0052    183.7201   7.4479333358e+01   8.2052998777e+00     0.259818     0.184411 -54.92  0.001183989    1.645    0.392
        48 -11.9712    174.1728    182.3939   7.6143501718e+01   1.0018496973e+01    0.4770239    0.2750464 -43.96  0.001568789    1.693    0.409
        49 -12.3695    243.8316    181.1041   6.2345513664e+01  -9.5117717590e-01    0.3152134    0.1824134 -42.32  0.001052019    1.580    0.367
        50 -11.8463    147.5535    178.6884   8.1579215104e+01   1.5598823454e+01    0.4438794    0.2479641 -56.67  0.001807923    2.036    0.509
        51 -11.4060    137.9272    178.2674   8.3856233744e+01   1.7435403304e+01    0.3430329    0.2136923 -58.64  0.001475644    1.793    0.442
        52  -9.9444    205.6547    178.2950   6.8722267770e+01   5.4194056686e+00    0.1297776    0.1140254 -86.86 0.0007031859    1.668    0.400
        53 -10.9607    192.1729    177.0267   7.1188786254e+01   7.9525833057e+00    0.3543473    0.1950456 -42.89  0.001582348    1.721    0.419
        54 -11.2850    183.1071    175.0298   7.2694415470e+01   9.9473057446e+00    0.4082555    0.2090037 -39.13  0.001711303    1.881    0.468
        55 -11.3063     78.0841    175.8737   9.9146410258e+01   2.7970830328e+01    0.3424082    0.2010528  67.68  0.001374442    2.345    0.574
        56 -11.5543    177.0923    170.5224   7.3066214689e+01   1.1964562650e+01    0.4205928    0.2144506 -44.35  0.001314617    1.885    0.469
        57 -10.4882    134.4150    171.1872   8.3334066659e+01   1.9715819810e+01    0.2225329    0.1480842 -64.25 0.0009495826    1.790    0.441
        58 -11.2703    205.9440    168.9682   6.6757540826e+01   7.1493183072e+00     0.330092    0.1928462 -48.41  0.001063327    1.754    0.430
        59 -11.2762    121.8214    169.2415   8.6193353350e+01   2.2462155822e+01    0.4307448    0.2892919  88.57  0.001681737    2.475    0.596
        60 -12.3592    160.1633    239.7703   8.9308946427e+01   1.1950132320e+00    0.2950014    0.2262606 -47.55  0.001744468    1.507    0.336
        61 -10.3733    128.4622    158.9587   8.2343439581e+01   2.3719208068e+01    0.2213613    0.1409502 -77.28 0.0008093301    2.558    0.609
        62 -10.6534    167.8984    168.3251   7.4663198769e+01   1.4129525656e+01    0.3590401    0.1952441 -53.45  0.001444985    2.046    0.511
        63 -11.6077    196.5392    156.7106   6.6022737010e+01   1.1220859178e+01    0.4141223    0.2528041 -47.62  0.001346051    1.607    0.378
        64 -10.5965    105.7725    158.1797   8.8320937185e+01   2.8022832839e+01    0.2709864    0.1676983  73.83 0.0009583227    2.850    0.649
        65 -10.5895    188.2704    156.7790   6.7727935036e+01   1.2741090089e+01    0.2724122    0.1709874 -44.80  0.001064665    1.512    0.338
        66 -10.8874    167.6591    155.9759   7.2049506813e+01   1.6850138177e+01    0.4850254    0.1787563 -47.32  0.001627639    2.670    0.625
        67 -11.0246    119.8482    155.7165   8.3949719951e+01   2.6106700915e+01    0.3077045    0.2137923 -84.57  0.001242744    2.150    0.535
        68 -10.8368     82.2246    155.0941   9.4425763802e+01   3.2671768738e+01    0.3101053    0.1834327  58.32  0.001243777    2.163    0.538
        69 -10.8014     49.7943    155.2113   1.0393061505e+02   3.7028916766e+01    0.2547022    0.1324752  65.67 0.0009554618    2.814    0.645
        70 -11.0733    133.2381    152.7029   7.9740297276e+01   2.4305207381e+01    0.3684011    0.2469195 -82.50  0.001393682    2.518    0.603
        71 -10.4943    157.4714    155.4761   7.4312748838e+01   1.8945119093e+01    0.2892939    0.1460455 -56.91  0.001036796    2.446    0.591
        72 -11.9282    200.1444    147.1258   6.3219562973e+01   1.2458550619e+01    0.4942889    0.1978996 -40.70   0.00185588    2.288    0.563
        73 -10.8752     39.6239    147.8822   1.0584642017e+02   4.0061827563e+01     0.402276    0.1644677  55.99  0.001337451    3.809    0.737
        74 -12.2830    189.9005    147.8918   6.5432111259e+01   1.4248951783e+01    0.8224552    0.2958811 -38.86  0.002798347    2.741    0.635
        75 -11.5525     56.1254    145.7083   1.0052084027e+02   3.8745298824e+01    0.5275614    0.2839258  75.43  0.001838786    3.331    0.700
        76 -11.6204    148.8191    144.3180   7.3881273843e+01   2.3184536280e+01    0.5959059    0.3686842 -75.03  0.002045484    3.105    0.678
        77 -11.3826    107.5321    145.4055   8.5145015742e+01   3.0903615383e+01    0.4511782    0.2839949  75.87  0.001584763    2.944    0.660
        78  -9.9567    162.3066    149.9712   7.1940615928e+01   1.9216417594e+01    0.2506923    0.1233589 -63.57 0.0007040859    4.213    0.763
        79 -10.4691    182.2313    149.8215   6.7464187389e+01   1.5331243926e+01    0.2809298    0.1748474 -45.63  0.001072291    1.533    0.348
        80 -11.3548    195.4830    143.1468   6.3249375960e+01   1.4135788108e+01    0.2917141    0.2296961  -3.71  0.001466177    1.515    0.340
        81 -11.4926    125.3157    143.2583   7.9720130103e+01   2.8095618216e+01    0.4130737    0.2728414 -88.48  0.001483558    2.805    0.644
        82 -10.9718     88.0191    144.0055   9.0540973745e+01   3.4607601654e+01    0.2532995    0.1887562  74.76  0.001138943    1.715    0.417
        83 -10.5404    149.5715    168.8050   7.9081438400e+01   1.7454312059e+01    0.2197931    0.1472508 -59.60 0.0009536828    1.718    0.418
        84 -12.2383    229.6906    138.3347   5.6050868493e+01   8.7791164890e+00    0.2204827    0.1684594 -46.88 0.0008032718    1.206    0.171
        85 -12.0535    204.4948    154.4458   6.3971554343e+01   1.0218587757e+01    0.3483217     0.210527 -36.49  0.001435463    1.519    0.341
        86 -10.6319    185.2045    166.4661   7.0455990178e+01   1.1321884109e+01    0.2855068    0.1950052 -42.10  0.000948756    1.385    0.278
        87 -10.4970    181.9721    140.7863   6.5472022101e+01   1.7265238392e+01    0.2862873    0.1858517 -53.97  0.001270077    1.650    0.394
        88 -11.5150    192.1599    163.6797   6.8407988263e+01   1.0621948743e+01    0.6192579    0.2024705 -44.32  0.002093284    2.875    0.652
        89 -11.3821    219.6307    136.7809   5.7397475768e+01   1.0848118223e+01    0.5211585    0.1191356 -41.08  0.001561565    3.824    0.739
        90 -11.2127     23.3533    138.2564   1.0940842265e+02   4.4079301505e+01    0.3687482    0.1863888  70.88  0.001477774    2.839    0.648
        91 -10.1359    209.0000    137.9471   5.9528511956e+01   1.2588015760e+01    0.2399061   0.07434584 -41.58 0.0007933762    2.880    0.653
        92 -11.3191    197.9269    135.5566   6.1063883481e+01   1.5174025134e+01    0.5756934    0.1977888 -43.21  0.001991118    2.653    0.623
        93 -10.6274    192.5700    136.6632   6.2360695987e+01   1.6004888250e+01    0.2921828    0.1350741 -38.18  0.001092845    2.075    0.518
        94 -10.3171    187.6937    134.5251   6.2846570591e+01   1.7407979260e+01    0.2741243    0.1280798 -42.88  0.001064408    1.984    0.496
        95 -10.0993    162.3234    135.6675   6.8615096990e+01   2.2355893061e+01    0.1576832      0.12471 -84.59 0.0004491679    1.705    0.413
        96 -10.6522    179.5101    132.7679   6.4128398666e+01   1.9429294867e+01    0.3760819    0.1410845 -45.27  0.001286202    2.532    0.605
        97 -10.5943    113.0016    133.5150   8.0872440186e+01   3.2821486040e+01    0.2302268    0.1321825  59.88 0.0008103025    2.582    0.613
        98 -11.2928     83.7317    131.9135   8.9261775134e+01   3.8382215587e+01     0.451947    0.3084636  78.96  0.001851753    2.223    0.550
        99 -11.1174    132.0185    131.1368   7.5047480730e+01   2.9637243776e+01    0.5012631    0.2657796 -65.83  0.001598847    3.223    0.690
       100 -10.5349    142.7176    130.7494   7.2174595423e+01   2.7525496073e+01    0.3250168    0.1928104 -65.72   0.00117612    2.489    0.598
       101 -12.5160    221.0730    128.5462   5.5366543592e+01   1.2109218444e+01    0.3714756    0.1817879 -31.66  0.001541154    2.182    0.542
       102 -10.7748    204.7349    129.8737   5.8503150500e+01   1.4957282270e+01    0.2777739    0.1841529 -55.02 0.0009336708    1.602    0.376
       103 -10.6797    192.9379    129.0190   6.0530606459e+01   1.7460954194e+01    0.3161948     0.193516 -41.26  0.001184283    1.503    0.335
       104 -11.4663     99.2949    128.1973   8.3632740293e+01   3.6661659631e+01    0.5870544    0.3748581 -87.96  0.002071416    2.979    0.664
       105 -10.5672     73.0171    129.2912   9.2070068395e+01   4.0703636357e+01    0.3157569     0.194178 -88.42  0.001177669    2.702    0.630
       106 -10.9002     12.9603    129.4592   1.1145872798e+02   4.7117810572e+01    0.2837866    0.1287712  69.58  0.001041584    3.567    0.720
       107 -10.6525    212.0457    128.6806   5.6931067065e+01   1.3777263990e+01    0.2676852    0.1741311 -48.09  0.001310038    1.432    0.302
       108 -10.0659    186.4863    128.9645   6.1795689283e+01   1.8780960857e+01    0.2361091     0.139414 -42.57  0.001026579    1.573    0.364
       109 -10.3615    168.4077    128.6301   6.5546135470e+01   2.2602386255e+01    0.3189978    0.1302348 -54.84  0.000960052    3.414    0.707
       110 -10.7463    152.6012    128.3863   6.9149437936e+01   2.5985817904e+01    0.4006412    0.1867557 -57.54  0.001292848    2.980    0.664
       111 -11.7809    139.1037    164.1707   8.0704860672e+01   2.0485920283e+01    0.5500978    0.2864273 -63.72  0.001912263    2.792    0.642
       112 -12.8679    212.9866    163.4315   6.4261793079e+01   7.0004742613e+00    0.4341603    0.3184866 -19.95  0.001908267    1.378    0.274
       113 -10.7745    179.5515    123.7628   6.1978251718e+01   2.1274956186e+01    0.3797041    0.1399245 -44.20  0.001293713    2.554    0.608
       114 -11.9130     43.4440    121.7657   1.0027579362e+02   4.6420654751e+01    0.8344816    0.4138352 -87.02  0.002751663    3.842    0.740
       115 -11.6427     28.2444    121.9043   1.0540241660e+02   4.7861112893e+01    0.6583632    0.3153939  79.27   0.00211195    4.506    0.778
       116 -10.3115    188.4809    123.0157   5.9996904404e+01   1.9565569785e+01    0.2375165    0.1381334 -42.80  0.001031765    1.592    0.372
       117 -10.1806    158.3051    120.9656   6.5955506535e+01   2.6384361313e+01     0.258151     0.118101 -60.45 0.0007040736    4.222    0.763
       118 -10.1811    172.2196    120.2236   6.2664326535e+01   2.3554145845e+01    0.2526193    0.1122914 -51.19 0.0008789253    2.465    0.594
       119 -11.1557    141.9146    119.2778   6.9502032604e+01   3.0269017244e+01    0.3831582    0.2263353 -59.99  0.001471946    2.124    0.529
       120 -10.6102     71.1486    119.9917   9.0614761636e+01   4.3333999278e+01    0.2519714    0.1763256  89.33  0.001083504    2.056    0.514
       121 -10.8912    130.9827    118.7069   7.2198599558e+01   3.2708676600e+01    0.3363851    0.2061258 -71.03  0.001182251    2.761    0.638
       122 -11.0462      2.7892    116.6929   1.1306929155e+02   5.0947133398e+01    0.3840064    0.1555727  87.15  0.001375396    3.703    0.730
       123 -11.0526    117.6995    125.0232   7.7466872177e+01   3.3950657034e+01    0.3976704    0.2783247  89.34  0.001551577    2.361    0.576
       124 -10.8080     80.1062    164.2127   9.6667397751e+01   3.0646291668e+01     0.415873    0.2309492  83.46  0.001377118    3.479    0.713
       125  -9.8012    203.2955    115.3252   5.5435102773e+01   1.8020418823e+01    0.1415286    0.1121442  -6.36 0.0005655346    1.624    0.384
       126 -10.5037    192.7484    114.2281   5.7092485200e+01   2.0401448920e+01     0.277717    0.1692804 -44.26  0.000964336    1.513    0.339
       127 -10.4123    185.5982    114.7352   5.8582215295e+01   2.1808365344e+01    0.2954158    0.1379174 -37.87  0.001133777    2.099    0.524
       128 -11.3961     92.6862    112.7760   8.1851021948e+01   4.1592070977e+01    0.4260874    0.3101285 -77.87  0.001829224    1.879    0.468
       129 -11.5358     79.1114    112.3865   8.6155522012e+01   4.3987765185e+01    0.5460333    0.3414959 -82.47  0.002014234    2.881    0.653
       130 -10.5252    122.3162    112.6558   7.2978375948e+01   3.5880486860e+01    0.1610059    0.1269558 -88.98 0.0006731422    1.716    0.417
       131 -10.3818    174.3393    110.8427   5.9892734133e+01   2.5001075985e+01    0.3205179    0.1261453 -48.32  0.001089497    2.615    0.618
       132 -11.1302     66.7460    110.8637   8.9955683914e+01   4.6242040304e+01    0.2875249    0.2119153 -77.61  0.001356834    1.676    0.403
       133 -11.2467     14.2240    110.2036   1.0828136460e+02   5.1881365758e+01    0.3436187    0.2158386  89.89  0.001740773    1.814    0.449
       134 -10.2080    182.6785    108.5008   5.7632947301e+01   2.3652196561e+01    0.2708298    0.1304401 -41.76  0.001068789    1.948    0.487
       135 -10.3285    189.1606    106.6024   5.5930698631e+01   2.2622027436e+01     0.293175   0.09770641 -42.61 0.0009799373    2.760    0.638
       136 -12.4354     45.3965    102.0278   9.5458038643e+01   5.1142636854e+01     0.746092    0.4373257  77.61  0.002666434    3.788    0.736
       137 -11.9553     22.5936    101.8961   1.0383918497e+02   5.3335082530e+01    0.6952074    0.3634313  74.28  0.002524141    3.974    0.748
       138 -10.3544    139.3509    104.6641   6.6298598334e+01   3.3985139959e+01    0.1626741    0.1247627 -86.20 0.0007046015    1.787    0.440
       139 -11.4179     59.6074    124.3240   9.5382661098e+01   4.3840475209e+01    0.5328967    0.3079179  83.82  0.001856898    3.402    0.706
       140 -11.3084    109.2242    114.2221   7.7156780328e+01   3.8156919803e+01    0.5510589    0.3152785 -69.48  0.001865635    3.031    0.670
       141 -10.9741    128.7814    102.1919   6.8369616186e+01   3.6811212386e+01    0.2643577    0.1771669 -87.09 0.0009558612    2.829    0.647
       142 -11.6356    109.4298     98.9836   7.2933756578e+01   4.1558985526e+01    0.6173813      0.41102  77.67  0.002301785    2.818    0.645
       143 -10.8384     81.8613     99.7663   8.1924169515e+01   4.6527952787e+01    0.2892534    0.2065057 -80.02  0.001245821    2.126    0.530
       144 -10.6716    150.2264    103.2159   6.3253747350e+01   3.1877642615e+01    0.2571043    0.1162099 -51.32 0.0008876965    2.490    0.598
       145 -10.9403     94.8744     97.1034   7.6893237241e+01   4.4811376019e+01    0.2364334     0.215868 -87.02 0.0009786044    1.302    0.232
       146 -11.9166     63.6992     95.7367   8.7188361106e+01   5.0303287451e+01     0.510607    0.3476601  89.87  0.002120783    2.631    0.620
       147 -11.2379    124.8362     91.1045   6.6291279482e+01   3.9972396051e+01    0.2440547    0.2156422 -82.67  0.001239828    1.321    0.243
       148 -11.4818     34.5485     88.6193   9.6417014753e+01   5.5482252630e+01    0.6257313    0.2376646 -64.00  0.002333391    2.856    0.650
       149 -11.2767      4.5607     90.9971   1.0862268675e+02   5.7120002246e+01    0.2641432    0.1529561 -89.11  0.001304795    2.128    0.530
       150 -11.6100     86.9357     86.9601   7.6525715983e+01   4.8484792584e+01    0.4253193    0.2901446  83.39  0.001602774    3.144    0.682
       151 -11.6753     48.3531     83.9877   8.9777995063e+01   5.5033245717e+01    0.5048262    0.3273509  87.60  0.001993582    3.349    0.701
       152 -11.8116    104.8762     82.9507   6.9570342164e+01   4.5844398622e+01    0.4880845     0.304947 -66.79  0.001879198    2.673    0.626
       153 -10.8291     74.5216     80.5231   7.8873470748e+01   5.2007215517e+01    0.2619482    0.1392734 -57.61   0.00103714    2.396    0.583
       154 -11.6113     24.2228     79.3781   9.8343045586e+01   5.8538807162e+01     0.497869    0.2270003 -69.56    0.0020437    2.724    0.633
       155 -10.2874    119.3288     80.6480   6.4692427899e+01   4.3234361290e+01    0.1548097    0.1209741 -82.68 0.0007047468    1.770    0.435
       156  -9.8931    199.4344    169.4709   6.8148283154e+01   8.1771820559e+00    0.1439525    0.1281345 -22.88 0.0002076451    1.012    0.012
       157 -10.6494    127.6870     75.3570   6.0871137180e+01   4.2363370087e+01    0.1535494    0.1180471 -77.81 0.0007043899    1.741    0.426
       158 -11.9001     82.2310     72.3019   7.3532552250e+01   5.2332585799e+01    0.4400311    0.2768572 -62.93   0.00184462    2.473    0.596
       159 -10.9082     95.1052     70.7902   6.8754861508e+01   5.0170675498e+01    0.3680586     0.186952 -56.05  0.001336802    3.001    0.667
       160 -11.7547    205.6746    161.4343   6.5233788637e+01   8.6490846952e+00    0.4079206    0.2441069 -44.23  0.001351695    1.560    0.359
       161 -11.4967     51.3666     69.1510   8.4163968245e+01   5.7847026635e+01    0.4619123      0.25188 -63.59  0.001886994    2.836    0.647
       162 -11.0610     16.4936     69.4247   9.9163267164e+01   6.1351507033e+01    0.3254191    0.1064166 -59.06  0.001323585    2.584    0.613
       163 -10.0023    203.6433     65.6909   4.3709143778e+01   2.6532206064e+01    0.1299987    0.1060642  25.34 0.0007042515    1.730    0.422
       164 -11.0653     36.9961     63.5029   8.8436909082e+01   6.0755007827e+01    0.2690967     0.171496 -69.95  0.001267271    2.435    0.589
       165 -10.4103    159.3241    162.8774   7.5489990073e+01   1.6938563463e+01     0.310223    0.1385141 -53.63  0.001082113    2.561    0.610
       166 -11.0679     73.0147     58.7836   7.2215810526e+01   5.6495532729e+01    0.3896893    0.1820558 -48.99  0.001579344    2.560    0.609
       167 -10.5260     24.6017     58.7910   9.2530892045e+01   6.2955343984e+01    0.1740691     0.116078 -61.11 0.0009501763    1.690    0.408
       168 -11.0814    177.5831    159.4850   7.0601261592e+01   1.4193739197e+01    0.4474393    0.2414648 -53.71   0.00178844    2.110    0.526
       169 -10.9609     53.9138     52.7161   7.7488853084e+01   6.0652481115e+01    0.5127541    0.1892103 -54.05  0.001567283    5.221    0.808
       170 -11.1280     45.0409     49.4781   8.0088636619e+01   6.2473049188e+01    0.2047953    0.1578015 -28.17 0.0005105095    1.172    0.147
       171 -10.9161     30.6135     49.9799   8.6838851420e+01   6.4102073293e+01     0.367228    0.1634582 -59.48  0.001468658    3.380    0.704
       172 -10.5834     20.0000     51.0295   9.2255473570e+01   6.4909063776e+01    0.2067685   0.06247155 -54.04  0.000808351    2.984    0.665
       173 -10.6983     82.0000     46.0326   6.4396405305e+01   5.6946858279e+01    0.2187949    0.0764126 -36.13 0.0008075789    2.978    0.664
       174 -10.9478     93.5446    160.7205   9.2241770486e+01   2.9441487508e+01    0.2801315    0.1786954  54.79  0.001193943    1.810    0.447
       175 -10.9320     92.3584     49.7667   6.2409268302e+01   5.4313654508e+01    0.3955065    0.1114825 -42.57   0.00125354    4.099    0.756
       176 -10.7686     16.6206     43.3890   9.1373011188e+01   6.6658196215e+01    0.3164309   0.08200314 -48.60  0.001270495    2.961    0.662
       177 -10.8334     57.8437     41.6864   7.1665066405e+01   6.1907292824e+01    0.2642909    0.1529857 -57.61  0.001091307    3.416    0.707
       178 -11.5967      4.9278     40.0731   9.6308201029e+01   6.8126012881e+01      0.44521    0.1550198 -61.27  0.001849642    3.374    0.704
       179 -11.8040      7.5541     54.9575   9.9440115006e+01   6.5014250330e+01    0.5089955   0.08047699 -58.42   0.00167596    4.391    0.772
       180 -10.3779    151.4873    160.0011   7.6744341124e+01   1.9086378390e+01    0.2421516    0.1500902 -48.76  0.001031209    1.599    0.374
       181 -11.1664     27.4282     30.4358   8.0890509026e+01   6.7865236753e+01     0.374076   0.07242927 -38.04  0.001152525    5.358    0.813
