#   1 NUMBER                 Running object number                                     
#   2 MAG_AUTO               Kron-like elliptical aperture magnitude                    [mag]
#   3 X_IMAGE                Object position along x                                    [pixel]
#   4 Y_IMAGE                Object position along y                                    [pixel]
#   5 X_WORLD                Barycenter position along world x axis                     [deg]
#   6 Y_WORLD                Barycenter position along world y axis                     [deg]
#   7 A_WORLD                Profile RMS along major axis (world units)                 [deg]
#   8 B_WORLD                Profile RMS along minor axis (world units)                 [deg]
#   9 THETA_WORLD            Position angle (CCW/world-x)                               [deg]
#  10 FWHM_WORLD             FWHM assuming a gaussian core                              [deg]
#  11 ELONGATION             A_IMAGE/B_IMAGE                                           
#  12 ELLIPTICITY            1 - B_IMAGE/A_IMAGE                                       
         1 -10.8694     62.6477     52.3087   4.9121720284e+01   5.9200653652e+01    0.6298895    0.1419454 -50.93   0.00189996    4.099    0.756
         2 -10.8834     40.9231     13.8643   4.2282428521e+01   6.9287883971e+01    0.2087356    0.1652998 -15.06 0.0002631305    1.100    0.091
         3  -8.9820     67.3725      1.2458   2.4423230574e+01   6.6892829592e+01    0.1320257    0.0834341  22.26 0.0006942998    1.628    0.386
         4  -9.5629    107.3530    247.0211   7.1537508414e+01   1.1092895721e+01    0.1677647   0.07877693  87.49 0.0007046083    4.531    0.779
         5 -10.1310     53.0947    249.5208   8.0493721542e+01   1.8270695011e+01    0.2300531    0.1217134  50.78  0.001079893    1.384    0.277
         6 -10.1388     13.7139    250.4314   8.6468980682e+01   2.2719528750e+01     0.182489   0.05791038  47.16  0.001129404    2.104    0.525
         7 -10.3372     28.9223    243.4364   8.3925201472e+01   2.2172109396e+01    0.1977802   0.09562299  74.96  0.001257488    1.587    0.370
         8  -8.9482    247.5238    247.5184   4.8514634445e+01  -1.0722834276e+01    0.1067363   0.07743634  25.33 0.0001265333    1.066    0.062
         9 -11.1016    167.1646    242.0998   6.0899894830e+01   2.2763580914e+00     0.178144    0.1302801  35.20 0.0008649885    1.228    0.185
        10  -9.3987     16.3422    237.6742   8.5607005545e+01   2.4525801757e+01    0.1132782   0.04505259  64.22  0.000705108    1.735    0.424
        11 -10.3044     90.3719    235.2916   7.3405868282e+01   1.5460893360e+01    0.1985894    0.1206199  40.64  0.001243795    1.650    0.394
        12  -9.6347    231.1655    234.1302   4.9125553619e+01  -7.0620408068e+00    0.1763905    0.1220412  21.12 0.0009051911    1.206    0.170
        13 -10.3314     91.2680    230.3582   7.2830799465e+01   1.6141646753e+01     0.199002    0.1496631 -52.59  0.001350489    1.997    0.499
        14 -10.8663     87.6216    227.3606   7.3209460589e+01   1.7187958317e+01    0.2911947    0.1129308  44.07  0.001262784    2.075    0.518
        15  -9.6207    237.4958    229.9784   4.7473208268e+01  -7.6056425480e+00    0.1523681    0.1043152 -20.41  0.001043134    1.620    0.383
        16 -11.2209    162.4523    225.2799   5.9605433190e+01   5.3371678569e+00    0.3587805    0.2309753  35.28  0.002049994    1.442    0.306
        17 -11.1997    126.2625    220.8100   6.5604596469e+01   1.2180966147e+01    0.2805828    0.1850741  63.78 0.0007957802    1.384    0.277
        18  -9.5831    109.2803    222.3493   6.8865835385e+01   1.4701836067e+01    0.1018341   0.09332356  20.80 0.0007012492    1.645    0.392
        19 -11.2433     98.6652    225.3053   7.1067637131e+01   1.5869037795e+01    0.3271308    0.1822988  44.89  0.001228088    1.512    0.339
        20 -10.2169    114.8437    221.1277   6.7725596650e+01   1.4010030872e+01    0.1515427    0.1347604  45.92 0.0005135543    1.347    0.258
        21 -10.9944     95.8604    217.9076   7.0863833765e+01   1.7576038887e+01    0.3719791     0.196153  66.88  0.001718399    1.859    0.462
        22  -9.7066     74.9176    219.1695   7.4768889522e+01   2.0464860978e+01    0.1930712    0.1158976  64.71 0.0009469235    1.304    0.233
        23  -9.5161    143.4991    216.9953   6.1974109763e+01   9.8586860479e+00    0.1583953    0.1241414 -60.98 0.0006652158    1.560    0.359
        24  -9.7529     99.8987    217.1484   7.0048084103e+01   1.7080281883e+01     0.191791    0.1269474  62.91 0.0005411404    1.215    0.177
        25 -10.3678    170.4813    215.2704   5.6787736969e+01   5.3790961368e+00    0.2423626    0.1876994  42.33 0.0008666788    1.052    0.049
        26  -9.2667    151.4986    216.4863   6.0433307548e+01   8.5440732627e+00     0.126118    0.1009862  46.12 0.0008095363    1.071    0.066
        27  -9.1325    131.3231    214.3222   6.3899753173e+01   1.2392242562e+01    0.1151159    0.0941567  21.69 0.0007046545    1.679    0.404
        28  -9.9772     77.0036    211.2820   7.3712050762e+01   2.1600943093e+01    0.1747662    0.1246125  60.71 0.0008190129    1.085    0.078
        29  -9.5770    116.3359    210.6751   6.6279948508e+01   1.5552233398e+01    0.1330696   0.07949475  68.03 0.0007051264    1.717    0.418
        30 -10.3068    124.0356    205.9631   6.4244218886e+01   1.5073815616e+01    0.1841935    0.1460297  60.02            0    1.015    0.015
        31 -10.9097    165.2236    203.1196   5.5978958323e+01   8.1712956405e+00    0.2838517    0.1919143  64.45  0.001546595    1.679    0.404
        32 -11.9665    164.2279    195.2302   5.4951678854e+01   9.6276921222e+00    0.6685654    0.4198334  79.88  0.002930959    2.933    0.659
        33  -9.8024    130.6411    202.1429   6.2476624616e+01   1.4595324635e+01    0.2317816    0.1193278 -66.79  0.001095195    2.553    0.608
        34 -12.2623    172.8862    195.6429   5.3357359894e+01   7.9310885355e+00    0.4861655    0.3233661 -50.96  0.002193204    1.819    0.450
        35 -12.2503    177.8427    196.8992   5.2621099121e+01   6.8029298827e+00     0.357369    0.3145757   9.12  0.001405376    1.283    0.221
        36 -10.8474    125.9792    197.0774   6.2714777906e+01   1.6327333972e+01    0.3031232    0.1950883  36.17  0.001320354    1.678    0.404
        37  -9.6860    113.0572    198.1876   6.5411511340e+01   1.8362969911e+01     0.229337    0.1187318  63.26  0.001083887    2.039    0.510
        38  -9.5842    105.1994    197.5839   6.6889749554e+01   1.9795089744e+01    0.1844753    0.1464046 -69.40 0.0007723367    1.399    0.285
        39  -9.4574    144.6454    197.6671   5.9126241636e+01   1.2857891842e+01    0.1280646    0.1003033  16.74 0.0007044702    1.789    0.441
        40  -9.7834     66.6423    194.6833   7.4172297821e+01   2.6270290790e+01     0.261068    0.1273917  70.50  0.001313122    2.057    0.514
        41  -9.9660     14.3715    193.3250   8.3925903233e+01   3.2819355953e+01    0.1568409    0.1236076  43.61 0.0009000514    1.618    0.382
        42 -11.1149    179.9282    191.3982   5.1316137825e+01   7.2703999741e+00    0.2372637    0.1900714 -70.39  0.001164262    1.661    0.398
        43 -11.3986    204.7447    187.7477   4.6048042963e+01   3.1178160619e+00    0.4483188    0.2617742 -51.39  0.002184526    2.388    0.581
        44  -9.8702     21.9713    190.5128   8.2379225335e+01   3.2591526047e+01    0.1559485   0.09170781  47.38 0.0006135071    1.574    0.365
        45 -10.2398    138.9842    189.2560   5.9009194017e+01   1.5399534590e+01    0.2779201    0.1854558 -69.02  0.001470278    1.801    0.445
        46 -11.3904     94.6454    182.6404   6.7207725161e+01   2.4477034082e+01    0.4284821    0.3043964 -86.42  0.002026637    1.366    0.268
        47  -9.4671    129.3059    188.6214   6.0871940775e+01   1.7296642306e+01    0.1413247   0.09280428  75.54 0.0007026692    1.780    0.438
        48 -11.1268     11.6570    187.4050   8.4109213822e+01   3.4262042688e+01    0.1909354    0.1415538  80.01 0.0005277824    1.137    0.120
        49 -10.9435    180.6856    199.7124   5.2542427368e+01   5.8417446714e+00    0.2337636    0.1655622  45.39 0.0001866112    1.193    0.162
        50 -10.3958    109.6518    184.9706   6.4392287551e+01   2.1491095357e+01    0.3316194    0.2462161  75.00  0.001928596    1.254    0.203
        51  -9.7558    120.0000    184.4443   6.2179508441e+01   1.9776371029e+01    0.2643731   0.07546201 -56.35 0.0009276544    3.878    0.742
        52 -11.4739     98.0193    188.0436   6.7179171501e+01   2.2834950425e+01    0.6923757     0.206346  47.89  0.002695777    2.810    0.644
        53 -10.5297    175.2318    184.1441   5.0979629060e+01   9.3514913357e+00    0.2619042    0.1676035  66.51   0.00123585    2.064    0.515
        54 -10.1599    197.5772    182.7531   4.6464941388e+01   5.2271286350e+00    0.1703642    0.1287977 -51.25  0.000904552    1.638    0.389
        55 -10.6084     20.1964    181.4123   8.2160153870e+01   3.4619282542e+01     0.307622    0.1434056 -89.88   0.00172756    1.755    0.430
        56 -10.3383    147.9460    179.9999   5.5733837387e+01   1.5404265667e+01    0.2265277    0.1576373  74.20  0.001136981    1.724    0.420
        57 -10.0055    138.9594    179.9928   5.7583257642e+01   1.7130865926e+01    0.2337936      0.15417  72.83  0.001139496    1.812    0.448
        58 -11.2384      9.9918    180.0127   8.4023437078e+01   3.5913469784e+01    0.1727584    0.1186437  78.70 0.0003410076    1.012    0.012
        59 -10.7524     13.9479    178.3199   8.3173544545e+01   3.5879795680e+01    0.2183566    0.1296743 -80.66   0.00145131    1.403    0.287
        60 -11.5577      3.3471    177.6765   8.5154683051e+01   3.7000796049e+01    0.2805982    0.2092367  43.38  0.002136747    1.604    0.376
        61  -9.1477    193.3225    188.6620   4.8319377101e+01   5.1422211800e+00    0.1281869      0.10274  77.51   0.00070507    1.716    0.417
        62 -10.6357     77.4477    175.7888   7.0002069816e+01   2.8599326510e+01    0.2678573    0.1614683  68.78   0.00116327    1.542    0.351
        63  -9.1040    159.3405    175.6470   5.2663519189e+01   1.3966534703e+01    0.1456056    0.1043636  78.23 0.0007042102    1.806    0.446
        64  -9.7822    105.7676    175.1546   6.3860049095e+01   2.4153581883e+01    0.2411857    0.1255137  74.33   0.00095122    2.863    0.651
        65  -9.9214     44.4209    181.7867   7.7432352916e+01   3.1820576965e+01    0.2269041   0.09764048 -81.66  0.001134715    2.156    0.536
        66 -10.0196    134.9836    171.4829   5.7033407802e+01   1.9544735320e+01    0.2606908    0.1907878 -83.29 0.0009771736    1.590    0.371
        67 -10.9501    177.5279    169.8177   4.7926591619e+01   1.1334699939e+01    0.4310959    0.3322193 -69.25  0.002262317    1.677    0.404
        68 -10.8079    206.9654    169.4826   4.2190236108e+01   5.4362908589e+00    0.2476599    0.1974508 -53.80  0.001373544    1.567    0.362
        69 -11.1675    122.1361    168.5200   5.9316972974e+01   2.2583327962e+01    0.5262529    0.3574783 -79.57  0.002654728    1.686    0.407
        70  -9.4125    168.2050    169.0033   4.9652823252e+01   1.3384937530e+01    0.2215932     0.161287 -82.91  0.001063277    1.966    0.491
        71  -9.2849     55.3207    169.6538   7.4056610772e+01   3.3028495742e+01    0.1375712   0.07489195  71.33 0.0007049478    1.733    0.423
        72 -11.2865    139.5737    165.1309   5.4960210308e+01   1.9914273668e+01    0.4381985     0.286245  86.48  0.001863926    2.199    0.545
        73 -11.3364    219.9164    165.7662   3.9084661898e+01   3.4487413353e+00    0.4060039    0.2138854  55.50  0.001781714    2.282    0.562
        74  -9.4461     19.2967    166.6815   8.1367685987e+01   3.7794922902e+01    0.1233155   0.06330658  70.21   0.00030579    1.612    0.380
        75 -10.0969     80.5080    164.5405   6.7945396477e+01   3.0568022940e+01    0.3139721    0.1562377  82.90  0.001252832    2.908    0.656
        76 -10.2639    150.3825    163.3350   5.2315232424e+01   1.8096925298e+01     0.422037    0.2699261  22.80  0.001778229    2.467    0.595
        77 -11.5462    206.0802    162.1991   4.0890620024e+01   6.7644573347e+00    0.3583172    0.2584758 -79.61  0.001620373    2.510    0.602
        78 -10.0889    177.7526    160.3195   4.6031798082e+01   1.2974556053e+01     0.302692    0.2307875 -70.55  0.001209735    1.703    0.413
        79 -10.5371     93.0446    160.2182   6.4518811905e+01   2.9515433611e+01     0.369222    0.2020919  72.90  0.001382018    2.286    0.562
        80 -10.5932    146.8031    159.3615   5.2344779880e+01   1.9614442767e+01    0.2366791    0.1972419  73.27  0.000552147    1.206    0.171
        81  -9.5325    128.4915    158.5371   5.6226623147e+01   2.3449896863e+01    0.2447457    0.1347851 -67.39 0.0008549792    2.241    0.554
        82 -11.3254    197.0136    157.3369   4.1610369166e+01   9.4408214516e+00    0.3724922    0.2720937 -79.59  0.001718818    2.236    0.553
        83 -10.3951    183.4118    150.8924   4.2942376221e+01   1.3474653274e+01    0.4311379    0.2844112 -71.84  0.001791985    2.492    0.599
        84 -10.8975    188.8635    157.1345   4.3159947759e+01   1.1193849650e+01     0.395053    0.2875902 -65.21  0.001498802    1.853    0.460
        85 -12.1054    189.2402    149.2964   4.1432325745e+01   1.2498790040e+01    0.7092574    0.4026161 -54.75   0.00292556    2.281    0.562
        86 -10.4499    168.1937    157.3253   4.7396854732e+01   1.5546153112e+01    0.3561249     0.253054 -73.84  0.001603838    1.934    0.483
        87 -10.2278    105.3279    157.4506   6.1287426664e+01   2.8012634733e+01     0.304691    0.2104127  82.08 0.0009190095    1.547    0.354
        88 -12.8012    207.3933    155.4406   3.9239802218e+01   7.5875408063e+00    0.6969353    0.4187748  58.14  0.003158857    1.954    0.488
        89  -9.7577    119.4728    154.6498   5.7577232149e+01   2.6018544552e+01    0.2963133    0.1857172  86.50  0.001274649    2.185    0.542
        90 -10.3623     81.9600    154.4773   6.6236518306e+01   3.2588400323e+01    0.2668721    0.1698787  89.92 0.0009190566    1.609    0.379
        91 -10.8473     68.2286    153.6117   6.9315579699e+01   3.4838591293e+01    0.4281571    0.2364326  75.72  0.001690564    2.000    0.500
        92 -10.2212     49.4998    154.5396   7.3743808433e+01   3.7122272213e+01    0.3040265     0.141732  70.73  0.001089624    2.415    0.586
        93 -10.9261    133.5169    152.9515   5.4077933890e+01   2.3631444095e+01    0.4853978    0.2932135  78.41  0.001919506    2.566    0.610
        94 -11.4740    249.6267    152.1209   3.1175590199e+01  -2.7037790915e-01    0.3889034    0.1196628 -30.94  0.001417398    3.197    0.687
        95  -9.7309     99.0890    151.5806   6.1782398260e+01   3.0414021306e+01    0.3706967    0.1823556 -81.30  0.001309198    3.360    0.702
        96  -9.4620    162.6730    150.3681   4.7148179043e+01   1.8062730658e+01    0.2330965    0.1743242  83.35  0.001095626    1.715    0.417
        97 -10.7816    200.2807    148.6250   3.9127822880e+01   1.0231054968e+01    0.2961678    0.2424057 -86.58  0.001255622    1.661    0.398
        98  -9.7988     28.3227    148.9915   7.8004345019e+01   4.0768392062e+01    0.2079392     0.072742  83.93 0.0007049856    4.304    0.768
        99  -9.6761    157.8314    155.7796   4.9277766390e+01   1.8033457676e+01    0.2772991    0.1898931 -79.12  0.001226739    2.093    0.522
       100 -10.0595     39.6357    147.5678   7.5264039349e+01   3.9873685415e+01    0.3387417    0.1393682  64.23   0.00146138    2.754    0.637
       101 -11.5923    149.5244    143.6199   4.8620527901e+01   2.2255010233e+01     0.832193     0.482884 -64.57  0.003369387    2.252    0.556
       102 -10.7517    107.3181    144.6720   5.8645448823e+01   3.0502835939e+01    0.6958892    0.3932425  89.56  0.002635197    2.870    0.652
       103 -10.6600     56.4120    145.6501   7.1079278482e+01   3.8277598159e+01    0.4994443    0.2176537  65.12   0.00203205    2.877    0.652
       104  -9.5305    175.9986    146.0357   4.3421315932e+01   1.5994696293e+01    0.2386481    0.1837803  89.68  0.001128302    1.727    0.421
       105 -10.4011    195.1779    144.3449   3.9178717590e+01   1.2084170442e+01    0.3119456    0.1586451 -57.80  0.001073498    3.331    0.700
       106 -10.1264    166.0836    143.9221   4.5057025104e+01   1.8586205361e+01    0.3163213    0.2193138  88.15  0.001334597    2.188    0.543
       107  -9.6271    138.1744    144.1984   5.1309456117e+01   2.4536663625e+01    0.2141128    0.1707027  84.43 0.0007995568    1.358    0.264
       108 -10.9322    124.8618    142.3277   5.4029977836e+01   2.7662121368e+01    0.5270646    0.3098643 -76.78  0.002095558    2.424    0.588
       109 -10.2366     88.1683    143.6528   6.3098712452e+01   3.4068975291e+01    0.3110354    0.1939566  83.67  0.001452527    1.851    0.460
       110 -10.0675    182.3422    141.6641   4.1153810453e+01   1.5412032527e+01    0.3123973    0.2425989 -85.93  0.001008053    1.731    0.422
       111 -10.3590     69.4057    140.2325   6.7172101924e+01   3.7759549944e+01    0.3128667    0.1569473  79.13  0.001219245    2.912    0.657
       112 -11.1262    188.4862    136.0086   3.8626490064e+01   1.5083453552e+01    0.5487903    0.2428292 -47.45  0.002013074    2.519    0.603
       113 -10.0679    187.0678    129.1880   3.7318921297e+01   1.6679653147e+01    0.2935305    0.1975032 -66.24  0.001180369    2.075    0.518
       114 -10.0533    172.5844    137.8578   4.2333696641e+01   1.8326857135e+01    0.3788477    0.2515544 -75.76  0.001522281    2.387    0.581
       115 -10.3510     23.6619    138.2663   7.8083390093e+01   4.3658929249e+01    0.3704769      0.13395  67.36  0.001445116    3.622    0.724
       116 -10.7625    197.9916    137.0400   3.6983165726e+01   1.2757773313e+01    0.3629021    0.2130989 -46.36  0.001574531    1.836    0.455
       117  -9.9807    138.5225    137.5511   4.9849784294e+01   2.5890488263e+01    0.2659319    0.1415682 -61.43  0.001027453    2.258    0.557
       118 -10.0361    162.7563    135.9286   4.4016334522e+01   2.0921602458e+01    0.2866361    0.2109568 -67.15  0.001216683    1.611    0.379
       119 -10.8167     41.1817    132.2256   7.3132896699e+01   4.3250415023e+01    0.5298264    0.2303013  84.94   0.00208701    3.124    0.680
       120 -10.1073    179.6584    133.2546   3.9795633668e+01   1.7611445408e+01    0.3561926    0.2511733 -66.67  0.001573619    1.850    0.460
       121 -10.1101    112.8087    132.9995   5.5082363424e+01   3.2128541551e+01    0.3840493    0.2535406  82.50  0.001683059    1.933    0.483
       122 -11.4971    111.6639    128.4903   5.4443957130e+01   3.3385498636e+01    0.5052704    0.4134519  -4.31   0.00246034    1.912    0.477
       123 -11.0596    117.1561    123.2147   5.1925366072e+01   3.3518440812e+01    0.7603898    0.3928007 -62.54  0.002966833    2.177    0.541
       124 -11.0661    132.2570    130.6322   4.9837401937e+01   2.8730055931e+01     0.661154    0.3701176 -68.47  0.002359913    2.444    0.591
       125 -11.4343     83.3087    130.2356   6.2027437725e+01   3.8000307493e+01    0.7642047    0.3005639 -68.50   0.00273449    2.940    0.660
       126 -10.1303    143.2089    131.3758   4.7411447546e+01   2.6213864190e+01    0.3897644    0.2583304 -71.15   0.00166016    1.905    0.475
       127  -9.8253    192.9892    129.9853   3.6321201483e+01   1.5167145010e+01     0.240607     0.189115 -78.74  0.001099245    1.678    0.404
       128 -10.4577    168.7859    129.1181   4.1134545268e+01   2.0920854596e+01    0.3751273    0.2810808 -72.59  0.001248788    1.664    0.399
       129 -10.5710    153.1108    128.4854   4.4469297321e+01   2.4630164006e+01    0.5405031    0.2682781 -55.75  0.001995369    2.364    0.577
       130 -11.8663     98.6910    125.6314   5.7171566834e+01   3.6470806691e+01    0.9630226    0.4092047 -62.94  0.003474103    2.531    0.605
       131 -10.1516     72.9979    128.5425   6.4408558410e+01   3.9996401289e+01    0.3641255    0.2007393 -89.29  0.001542359    2.319    0.569
       132 -10.1887     12.2868    128.7183   7.9937672983e+01   4.6838909653e+01    0.2975429    0.1255589  76.17  0.001397891    2.493    0.599
       133 -10.9278     59.3056    123.7336   6.7229158671e+01   4.3063324524e+01    0.5965604    0.2800943  85.15  0.002067585    3.796    0.737
       134 -10.1818    180.2787    124.4976   3.7587352322e+01   1.9156415450e+01    0.3963496    0.2650578 -58.63   0.00134521    1.782    0.439
       135 -10.2551    181.3051    119.1713   3.6063967798e+01   1.9945513833e+01     0.336451    0.2208353 -20.45  0.001374169    2.028    0.507
       136 -11.1813     43.9064    122.0970   7.1087578158e+01   4.5337003163e+01    0.7737521     0.335534  83.59  0.002720194    3.926    0.745
       137 -10.1012    188.7489    123.7234   3.5664036498e+01   1.7315685037e+01    0.3096339    0.2092145 -50.77  0.001221548    1.599    0.375
       138 -10.8963     29.4967    123.5225   7.5062179417e+01   4.6511543908e+01    0.3053072    0.1600291  68.68  0.001558018    2.009    0.502
       139 -10.3167    104.9956    123.1313   5.5021931410e+01   3.5899680086e+01    0.2215096    0.1983853  87.44 0.0003298279    1.020    0.020
       140 -10.1143    158.6242    120.6788   4.1355539478e+01   2.5001595447e+01     0.394737     0.274912 -58.78  0.001392119    1.576    0.365
       141  -9.8515    172.7773    120.7602   3.8257797118e+01   2.1659091873e+01     0.323302    0.2135074 -53.45  0.001383108    1.643    0.391
       142 -11.1389    141.6353    117.9811   4.4654957878e+01   2.9471633685e+01    0.7780364    0.3208427 -54.10   0.00258261    2.776    0.640
       143 -10.4305     71.0042    119.4771   6.3352245632e+01   4.2458600012e+01    0.3691267     0.203272 -87.82  0.001536103    2.390    0.582
       144 -10.6106    130.6907    117.4835   4.7207578748e+01   3.1996662696e+01    0.5590882    0.3192822 -64.29  0.002175557    2.143    0.533
       145 -10.4915      2.9245    116.7123   8.1209944094e+01   5.0270118224e+01    0.4075589    0.1406541  78.58  0.001599303    3.715    0.731
       146 -10.0393    185.9569    115.2707   3.4127910516e+01   1.9581755328e+01    0.3546195    0.2085368 -45.96  0.001460181    1.743    0.426
       147  -9.7818     12.8164    116.1390   7.8595386694e+01   4.9683310356e+01    0.1570877    0.1172518 -64.70 0.0004735186    1.304    0.233
       148  -8.9705    203.4606    115.5150   3.0763764115e+01   1.5354666185e+01    0.1508705    0.1475579 -52.91 7.223897e-05    1.051    0.048
       149  -9.7411    193.0263    114.4811   3.2512677362e+01   1.8030856367e+01    0.2481398    0.2080481 -38.37 0.0006839468    1.191    0.161
       150 -11.1088     92.3235    110.4473   5.5661282208e+01   4.1195844992e+01    0.8956017    0.2944403 -60.35   0.00282438    3.365    0.703
       151 -11.2059     79.3141    112.5524   5.9727897710e+01   4.2858965255e+01    0.6020967    0.3280968 -86.23  0.002041364    2.861    0.650
       152 -10.4232    122.0888    111.1324   4.7844946238e+01   3.5270011930e+01    0.5248449    0.2542641 -53.23  0.001870252    2.063    0.515
       153 -10.8057     14.7356    111.4802   7.7585808532e+01   5.0613426585e+01    0.3817139     0.159829  78.04  0.001646352    2.955    0.662
       154 -11.0814     14.9938    106.9002   7.6991562608e+01   5.1658530810e+01    0.3101789    0.2545297  10.72  0.002144809    1.754    0.430
       155 -11.2094     22.8722    101.6049   7.4072980611e+01   5.2267237704e+01    0.5673442    0.2487904  70.00  0.002344849    3.331    0.700
       156 -10.0854    174.8930    111.1334   3.5369384113e+01   2.3065613896e+01    0.3959314    0.2116711 -50.20  0.001505296    2.026    0.506
       157 -10.0819    159.3133    111.2571   3.8828928319e+01   2.6801458280e+01    0.3655694     0.188288 -47.06  0.001105071    1.970    0.492
       158 -11.0744     66.2019    109.6101   6.2844728983e+01   4.5520470886e+01    0.4683301     0.234186 -75.68  0.001943338    2.276    0.561
       159 -10.1283    133.3229    108.7389   4.4386968741e+01   3.3371398386e+01    0.3838997    0.2464861 -63.05   0.00154608    1.763    0.433
       160 -11.5544    108.7411    112.2055   5.1604132585e+01   3.7735554227e+01    0.8533831    0.3260682 -57.12  0.002765123    2.769    0.639
       161  -9.5264     59.3048    108.6761   6.4642944116e+01   4.6680837129e+01    0.1408266   0.09447203  79.90 0.0003404087    1.641    0.391
       162  -9.1714    189.3524    106.8208   3.1264777586e+01   2.0359980919e+01    0.2273438    0.1484254 -27.48 0.0009480012    1.705    0.414
       163 -10.4201    139.7444    103.4711   4.1414254809e+01   3.3072878053e+01    0.5646307    0.3081374 -56.30  0.002040176    2.046    0.511
       164 -11.4901     45.6758    102.0655   6.7427566924e+01   4.9927865892e+01    0.6660551    0.3139892  72.96  0.002369411    4.023    0.751
       165 -10.6132    150.1123    101.3328   3.8330863060e+01   3.1089199518e+01    0.7355889     0.252863 -49.73  0.002167645    3.263    0.693
       166  -9.6814    166.7308    102.9604   3.4974627074e+01   2.6702944518e+01    0.3174752    0.1981926 -44.81  0.001314353    1.599    0.374
       167 -10.5586    128.5555    100.4498   4.3428196290e+01   3.6277208189e+01    0.5737624    0.2781964 -44.42  0.002152651    2.057    0.514
       168  -9.5703    175.5147    101.0284   3.2555680329e+01   2.4907480746e+01    0.2519299    0.1568622 -39.84  0.001036147    1.601    0.375
       169  -9.7088    159.8805    100.3080   3.5784765097e+01   2.8930433919e+01    0.3952233     0.197853 -48.67  0.001444525    2.072    0.517
       170 -10.3244     81.9896     98.9546   5.5979986885e+01   4.5681309752e+01    0.4906336    0.2333803 -66.94  0.001873559    2.431    0.589
       171 -10.7298     94.8729     95.5066   5.1365027131e+01   4.4265764624e+01    0.5851714    0.2055802 -53.01  0.002004803    2.666    0.625
       172 -11.2191     63.5832     95.3098   6.0681546177e+01   4.9317503178e+01    0.5917068    0.3184089 -84.23  0.002327056    2.806    0.644
       173 -10.2098     18.5112    103.0055   7.5519643417e+01   5.2293904478e+01    0.1979652    0.1672318 -28.66  0.001186575    1.611    0.379
       174  -9.4973    176.9957     92.9759   3.0020621813e+01   2.6102473766e+01    0.2640122    0.1945145 -70.92  0.001127853    1.668    0.401
       175 -11.4160    108.5576     97.1463   4.7906388191e+01   4.1262702436e+01     0.856307    0.4912565 -66.42  0.003001068    2.159    0.537
       176 -10.3552    138.5975     90.8344   3.8193285885e+01   3.6068131612e+01    0.4910488    0.2609075 -49.72  0.001876491    1.907    0.476
       177 -10.9975    124.7434     89.0997   4.1267793430e+01   3.9634919851e+01    0.7755572    0.3492298 -48.51  0.002802832    2.184    0.542
       178  -9.8525     43.5015     92.4689   6.6322555880e+01   5.2460137171e+01     0.132847    0.1090952 -70.18 1.372646e-05    1.017    0.016
       179  -9.4128    157.7121     90.5407   3.3532659418e+01   3.1464591616e+01    0.2998631     0.142962 -40.69  0.001070336    2.078    0.519
       180 -10.6830     34.5816     87.8757   6.8279138014e+01   5.4460201001e+01    0.6696203    0.2047283 -68.15  0.002548623    2.872    0.652
       181 -10.7684      4.6196     90.4244   7.8025154219e+01   5.6179388151e+01    0.3139103    0.1186391  89.78  0.001327376    2.990    0.666
       182  -9.3957    150.8403     88.3167   3.4483457980e+01   3.3628892805e+01    0.2372398    0.2001162 -56.08  0.001127377    1.186    0.157
       183 -11.0704     86.6532     85.5222   5.1178216568e+01   4.8048481051e+01     0.721964    0.3602193 -63.38  0.002769229    2.324    0.570
       184 -11.1706     48.5237     83.8727   6.2937267444e+01   5.3934864786e+01    0.5291046    0.2736419 -84.75  0.002105704    2.982    0.665
       185  -9.2171    179.5192     85.0313   2.7239864998e+01   2.6967789213e+01     0.244581    0.1254619 -56.39 0.0008102296    2.591    0.614
       186  -9.5057    116.5646     83.6771   4.1900346217e+01   4.2621177916e+01    0.2906905    0.1467435 -41.12 0.0006936341    2.002    0.500
       187 -11.0716    104.5030     81.6156   4.4719833187e+01   4.5592826257e+01    0.7150295     0.311944 -55.39  0.002518481    2.528    0.604
       188 -10.2144    140.8797     81.9699   3.5001257156e+01   3.7380652265e+01    0.4605924    0.2098437 -46.98  0.001620769    2.210    0.547
       189  -9.5291    158.4815     81.9896   3.0841524582e+01   3.2981901717e+01    0.2545084    0.1582814 -39.79 0.0007682295    1.592    0.372
       190 -10.6498     24.3723     79.9062   7.0151606998e+01   5.7230740487e+01    0.3565797    0.1814094 -86.74  0.001687664    2.283    0.562
       191  -9.8045    150.1751     79.1371   3.1891171063e+01   3.5653890663e+01    0.3916153    0.2033476 -46.03  0.001463061    1.928    0.481
       192 -10.0299     74.4013     79.5041   5.3389524500e+01   5.1452910601e+01    0.3617747    0.1303201 -58.66  0.001248054    2.879    0.653
       193  -9.2763    174.6451     77.8167   2.6112555446e+01   2.9589869248e+01    0.2438183    0.1412481 -45.79 0.0009492168    1.728    0.421
       194  -9.1160    167.5966     76.8201   2.7282302771e+01   3.1624036320e+01    0.2383523    0.1451687 -47.82 0.0009462149    1.670    0.401
       195 -10.6252    128.1319     73.2226   3.5532887108e+01   4.2228319195e+01    0.7158303     0.258157 -38.94  0.002275256    2.820    0.645
       196  -8.9583    211.6563     75.7048   1.8726886827e+01   2.0295588347e+01    0.1582639    0.1203896  23.58  0.000703172    1.665    0.399
       197  -8.8908    189.2913     75.6564   2.2612529519e+01   2.6124409848e+01    0.1691714    0.1199978 -65.37  0.000440216    1.656    0.396
       198  -9.2489    157.5672     75.2595   2.8995636008e+01   3.4528787701e+01    0.2287451     0.158873 -25.81 0.0009537266    1.639    0.390
       199 -10.2080    140.4911     74.0809   3.2650020693e+01   3.9077734153e+01    0.4283253    0.1548253 -40.05  0.001355573    2.707    0.631
       200 -10.0588     10.0255     74.1368   7.3997920406e+01   5.9583867522e+01    0.1787389    0.1368109 -70.10 0.0003484086    1.014    0.014
       201 -11.3772     82.1832     71.7343   4.8624403608e+01   5.1940980250e+01      0.57324    0.2589012 -58.56  0.002156046    2.484    0.597
       202  -8.4912    195.3064     72.6528   2.0641454615e+01   2.5064438484e+01    0.1705067    0.1183325 -65.11 0.0005737355    1.699    0.412
       203 -10.1664    119.1818     79.1421   3.9806947130e+01   4.3030421233e+01    0.3776556    0.1996509 -51.24  0.001466936    1.921    0.479
       204  -9.8813    115.5731     71.2897   3.8335282820e+01   4.5486897453e+01    0.3928809     0.147364 -41.08  0.001304503    2.621    0.619
       205 -10.5979    105.7273     70.4666   4.0910746640e+01   4.7764615106e+01    0.5078382    0.2221821 -49.78  0.001853893    2.287    0.563
       206 -10.6515     94.8695     69.1292   4.3773303781e+01   5.0214107766e+01    0.7537478    0.1945438 -49.98  0.002112522    4.034    0.752
       207 -10.8345     62.4707     70.2905   5.4808096500e+01   5.5312073259e+01    0.4386168    0.1132451 -53.05  0.001453529    3.219    0.689
       208 -10.9494     51.0615     67.7120   5.8099336618e+01   5.7374535313e+01    0.7005629    0.2087341 -62.37  0.002242102    3.896    0.743
       209  -8.9103    170.3261     70.3307   2.4724287042e+01   3.2109878535e+01    0.1670432    0.1279335  19.41 0.0007050919    1.707    0.414
       210  -9.0554    162.7035     70.6602   2.6432518804e+01   3.4062015336e+01    0.1640329    0.1290663  14.23 0.0007032035    1.659    0.397
       211  -9.2402    157.0000     69.0192   2.7164025048e+01   3.5861059032e+01    0.2691407   0.09142934 -36.31 0.0008003731    2.928    0.658
       212 -10.1146    146.9502     66.4257   2.8626724161e+01   3.8944082107e+01    0.4706639    0.2287217 -34.72   0.00170691    2.113    0.527
       213  -9.5322    203.4957     66.0034   1.7312831180e+01   2.4027171970e+01    0.2504278    0.1508671 -33.87  0.001038795    1.607    0.378
       214 -10.1680    138.5571     64.8727   3.0137080551e+01   4.1357231669e+01    0.4043176    0.1479299 -40.30  0.001301975    2.638    0.621
       215 -10.0766    121.3374     64.3641   3.4441130683e+01   4.5594573407e+01    0.4473786    0.2035321 -41.06  0.001645788    2.125    0.529
       216 -10.3347    110.0097     61.8862   3.6788393139e+01   4.8624344936e+01    0.5630362    0.2319798 -40.04  0.002013794    2.358    0.576
       217 -10.0997     37.3392     63.8486   6.2077114480e+01   5.9755467890e+01    0.2598923    0.1085863 -67.91 0.0009644837    2.517    0.603
       218 -10.2532     17.9154     62.2219   6.8953497657e+01   6.1765971553e+01    0.2546487    0.1012816 -48.43   0.00106198    2.133    0.531
       219 -10.8740     73.1875     56.7495   4.6837536241e+01   5.6664785689e+01    0.8367673     0.213498 -47.47  0.002658691    3.469    0.712
       220 -10.2671     99.9682     58.4304   3.8589918909e+01   5.1428147801e+01    0.5299086    0.1840751 -48.30  0.001725677    3.018    0.669
       221 -10.0560    130.5533     56.2679   2.9207764633e+01   4.4948082820e+01    0.3860007    0.1550002 -34.41  0.001294099    2.569    0.611
       222 -11.5846      7.3629     54.8257   7.1449429444e+01   6.4074875784e+01    0.6353835   0.07255141 -67.11  0.001867652    5.604    0.822
       223 -10.2493    119.0099     54.8480   3.1762970254e+01   4.7965018278e+01    0.3803549     0.194096 -52.73   0.00139736    2.379    0.580
       224  -9.4544    139.5014     55.0035   2.6548565980e+01   4.2943755813e+01    0.2488504    0.1538541 -36.48  0.001035995    1.601    0.375
       225 -10.0375      4.0613    249.3447   8.7824075848e+01   2.3898437534e+01    0.1417461   0.07913168  61.24 0.0008695156    1.141    0.124
       226 -10.2667     53.6374     52.0870   5.2448486386e+01   6.0478625269e+01    0.5717342    0.1835273 -60.04   0.00169027    4.846    0.794
       227  -9.8103    105.5755     51.5445   3.4404112732e+01   5.1589874744e+01     0.430671    0.1400477 -39.56   0.00139899    2.938    0.660
       228 -10.8042     92.0930     48.2105   3.7343287900e+01   5.4992937100e+01    0.7271664    0.2053727 -44.15  0.002281418    3.407    0.707
       229 -10.0553     31.0085     51.0250   6.1060491505e+01   6.3190040067e+01    0.2167456    0.1245802 -81.66 0.0009182217    2.597    0.615
       230  -9.1893    130.0000     46.9671   2.6010180619e+01   4.6733612942e+01    0.2592756   0.08709516 -34.33 0.0008044883    2.957    0.662
       231  -9.8651    113.6700     41.6352   2.8306765744e+01   5.1552708990e+01    0.3226012    0.2243372 -12.46 0.0007719368    1.747    0.428
       232 -10.0996     81.8002     45.5018   3.9744504914e+01   5.7445475484e+01     0.356261    0.1752193 -45.36  0.001524543    1.920    0.479
       233 -10.2333    122.8175     42.2233   2.6072615520e+01   4.9291773123e+01    0.5003583    0.2204206 -24.67   0.00167948    2.923    0.658
       234 -10.1008     16.5478     42.9631   6.4831301184e+01   6.6075175982e+01    0.3097239   0.09203947 -61.42   0.00132079    2.590    0.614
       235 -10.1628     58.1153     41.9972   4.7128091983e+01   6.1935213903e+01     0.314952    0.1700469 -65.22  0.001242605    3.206    0.688
       236  -9.4662    132.6195     41.7700   2.3444709102e+01   4.6941763511e+01    0.2275865    0.1366863 -42.39  0.000953979    1.684    0.406
       237 -10.8428      4.8663     40.5919   6.9291732842e+01   6.7283511087e+01    0.3804223    0.1382386 -74.76   0.00160032    3.220    0.689
       238 -10.0160     69.1549     40.9626   4.2503687210e+01   6.0467542697e+01    0.2210066    0.1546488 -67.21  0.001021644    2.055    0.513
       239  -9.4515     83.8076     40.1947   3.6965087092e+01   5.8061117858e+01    0.1992944     0.159949  -1.20 0.0007584784    1.386    0.278
       240 -10.2985     95.2741     36.5343   3.1708247748e+01   5.6443351541e+01    0.4044053    0.1950053 -36.27  0.001684442    1.974    0.493
       241  -9.5043     36.5193     40.0231   5.5286672994e+01   6.4969677887e+01    0.1739391    0.1046836 -75.07 0.0008103647    2.625    0.619
       242  -9.8155    111.6187     33.0403   2.5455806391e+01   5.3418577206e+01    0.3435278    0.1372708 -32.60  0.001254164    2.457    0.593
       243 -10.5509    105.7297     39.2647   2.9639384786e+01   5.3746157868e+01    0.4549153    0.1746744 -31.67  0.001581636    2.749    0.636
       244 -11.7993     45.3472     49.5203   5.4841221647e+01   6.2033500026e+01    0.4748892    0.1956116 -46.33  0.001473947    2.033    0.508
       245  -9.6986     27.3119     29.3576   5.5544065328e+01   6.7993019322e+01     0.130499   0.07353812 -31.57 0.0007043288    1.740    0.425
       246  -9.6680    101.3977     27.7344   2.6143831336e+01   5.6535683754e+01    0.2783563    0.1276061 -35.91  0.001022529    2.103    0.524
       247  -9.8322     91.5486     24.5659   2.7755771924e+01   5.9112470845e+01    0.4275771    0.1291348 -33.19  0.001458968    3.153    0.683
       248  -9.4102    110.3951     24.7679   2.2352883280e+01   5.4923668751e+01    0.2051481    0.1360801 -13.92 0.0009474682    1.673    0.402
       249  -9.5442     44.3539     25.2467   4.6047440570e+01   6.6914561441e+01    0.1896297    0.1280207 -29.51 0.0004004177    1.319    0.242
       250 -10.2552     12.8901     21.0159   5.9456675416e+01   7.0769615620e+01    0.1802567    0.1519776 -19.29 0.0007249718    1.230    0.187
       251 -11.4893    166.2947    247.8661   6.1730844835e+01   1.6904285741e+00    0.3228676   0.09861987  38.40  0.001365786    3.005    0.667
       252  -9.5380     97.3946     12.8094   2.0640777735e+01   5.9447201630e+01    0.2009409    0.1262221  -9.13 0.0007614896    1.763    0.433
