#   1 NUMBER                 Running object number                                     
#   2 MAG_AUTO               Kron-like elliptical aperture magnitude                    [mag]
#   3 X_IMAGE                Object position along x                                    [pixel]
#   4 Y_IMAGE                Object position along y                                    [pixel]
#   5 X_WORLD                Barycenter position along world x axis                     [deg]
#   6 Y_WORLD                Barycenter position along world y axis                     [deg]
#   7 A_WORLD                Profile RMS along major axis (world units)                 [deg]
#   8 B_WORLD                Profile RMS along minor axis (world units)                 [deg]
#   9 THETA_WORLD            Position angle (CCW/world-x)                               [deg]
#  10 FWHM_WORLD             FWHM assuming a gaussian core                              [deg]
#  11 ELONGATION             A_IMAGE/B_IMAGE                                           
#  12 ELLIPTICITY            1 - B_IMAGE/A_IMAGE                                       
         1 -13.8724     68.5607    144.6942   7.4235429949e+01   3.7201698346e+01     4.081139     1.879763  88.73   0.01191967    5.120    0.805
         2 -13.2184    217.2860     49.6230   1.7249000952e+01   2.4172970967e+01     1.301741     1.110569  20.48  0.007159745    1.455    0.313
         3 -12.9293    234.0930     36.7720   1.2250481104e+01   2.2043952786e+01    0.8489293     0.726445 -44.73   0.00289502    1.041    0.040
         4 -12.3742     11.9869     14.0241   6.1348596666e+01   7.4211098933e+01      1.06074    0.4684665 -61.67  0.004334604    3.645    0.726
         5 -12.2162      4.2379     11.4196   6.5313869897e+01   7.5370856452e+01    0.7407176    0.4316832 -55.88  0.001760529    1.628    0.386
         6  -8.5519    189.0031     15.4981   1.0629502144e+01   3.5199238391e+01    0.1972999   0.09477491  48.69 0.0008093995    2.444    0.591
         7  -9.7624     58.9719    250.1035   8.6832855507e+01   1.7056559575e+01    0.3044997    0.1163742  46.05 0.0007382472    1.843    0.458
         8 -12.4839     57.0101    163.8688   7.9847092202e+01   3.4257742391e+01     1.071191    0.6447836 -30.72  0.003877878    3.308    0.698
         9 -12.6336     22.9490    189.4275   9.0062003873e+01   3.2494652490e+01    0.4675337    0.4164324 -45.01  0.001313027    1.624    0.384
        10 -15.3213     33.3999    181.3502   8.7179440782e+01   3.3132492073e+01     5.456709     2.041835  60.90   0.02260653    2.751    0.636
        11 -10.5057     53.7645    236.8374   8.6937995813e+01   1.9894460096e+01    0.3567716    0.1836586  39.22 0.0008807748    1.611    0.379
        12 -10.8142     53.9782    229.7932   8.6432120185e+01   2.1106576394e+01     0.382113    0.1705267 -83.32  0.002051389    2.577    0.612
        13 -10.3334     48.6169    234.2339   8.7728966742e+01   2.0955152521e+01    0.2137483    0.1516382  69.62 0.0004660127    1.176    0.149
        14 -11.1144    126.3863    230.3897   7.2574369818e+01   1.1215064210e+01    0.4324941    0.3018994  86.57   0.00260842    2.104    0.525
        15  -9.0238     77.0927    233.0691   8.2274764281e+01   1.7634652308e+01    0.1614278    0.1411249  33.91  0.000711863    1.347    0.257
        16 -15.5627      8.0934    208.4896   9.4097759572e+01   3.0058247872e+01     6.428027     3.327062  88.53   0.04040273    1.662    0.398
        17 -10.9220    117.4392    230.2638   7.4269721097e+01   1.2534439935e+01    0.2723392    0.2260986  77.72  0.001919735    1.360    0.265
        18 -10.0492    140.0455    230.5048   7.0002268628e+01   9.1915532553e+00    0.1930934   0.09569947  38.79  0.001045786    1.629    0.386
        19 -10.8537     98.7062    228.0023   7.7650193818e+01   1.5574691422e+01    0.2924408    0.1771451  50.12  0.001779128    1.366    0.268
        20 -10.4572     62.0895    226.0659   8.4607117127e+01   2.0782439674e+01    0.2787442    0.1611305 -79.65  0.001203181    1.861    0.463
        21  -9.8519    141.0043    226.9880   6.9386324387e+01   9.5804004694e+00    0.1449226     0.117563  37.76 0.0003216158    1.007    0.007
        22 -14.7381     12.2272    240.9570   9.4596602930e+01   2.3690604440e+01     1.475161    0.7404876  44.39  0.007297237    1.499    0.333
        23 -13.6124     19.7005    226.8964   9.2699427662e+01   2.5438395498e+01    0.4861606    0.3796322  87.74 0.0007247531    1.293    0.227
        24  -9.9986     74.9055    199.2560   7.9604932262e+01   2.4209284774e+01    0.3247535     0.182571 -87.67  0.001413214    2.115    0.527
        25  -9.2545     72.5976    193.7871   7.9537130627e+01   2.5635094533e+01    0.2466935    0.1674739  85.61 0.0008505154    1.511    0.338
        26  -9.1817     82.0830    195.0758   7.7592924726e+01   2.4045001557e+01    0.1939829    0.1629544  62.49 0.0005097518    1.007    0.007
        27  -9.6831    191.2915    192.3107   5.4660748431e+01   6.9141025967e+00     0.235424    0.1543278 -60.08  0.001171097    2.639    0.621
        28  -9.7896     98.9937    181.2006   7.2056694025e+01   2.4351750555e+01    0.2667797     0.216663  30.42 0.0006012415    1.340    0.254
        29  -9.6136     79.1929    180.4814   7.6523121402e+01   2.7499672204e+01     0.317487    0.1869671 -89.71  0.001293511    2.057    0.514
        30  -8.9085    120.6622    180.0869   6.6999727511e+01   2.1039760501e+01    0.1798576     0.168382 -78.87  0.000635664    1.134    0.118
        31  -8.8109    118.7876    238.7968   7.4929262570e+01   1.1006734823e+01    0.1537627    0.1102445  56.03 0.0003070792    1.318    0.241
        32 -10.2566    102.0162    171.6950   6.9966734376e+01   2.5866828408e+01    0.2771679    0.2352655  41.96  0.001430661    1.160    0.138
        33  -8.3194    110.2635    166.9860   6.7276325560e+01   2.5495728055e+01    0.1674527    0.1195524 -59.65  0.000546108    1.465    0.317
        34 -11.7165     81.9885    135.2122   6.8945155968e+01   3.7443642351e+01    0.4307697    0.2957719 -56.56 0.0005470694    1.418    0.295
        35 -12.7281     56.7855    149.6352   7.8111590369e+01   3.7630409508e+01    0.5209946    0.4770118 -76.88  0.000937372    1.159    0.137
        36 -12.2158     70.6316    154.2673   7.5120277627e+01   3.4632753887e+01    0.7418435    0.5202036 -64.27 0.0005820894    1.387    0.279
        37 -14.9999      6.8538    230.0161   9.5153326839e+01   2.6133925880e+01     4.787728      1.48046  24.24   0.01734041    6.960    0.856
        38  -9.8240    133.8744    146.2110   5.7822413763e+01   2.5613715132e+01    0.6940558    0.1972683 -52.56  0.002033478    4.140    0.758
        39 -10.2134     95.8746    136.2973   6.5368738460e+01   3.4867406732e+01    0.5500315    0.3948279  -6.13  0.002395686    2.432    0.589
        40 -10.0583    106.3697    129.4847   6.1152760492e+01   3.4567858896e+01    0.4700885    0.3199364 -34.07  0.001792327    1.829    0.453
        41 -10.3042     43.9847    130.2804   7.8999620146e+01   4.3940362281e+01    0.2577274    0.1534313 -57.67  0.001135952    1.600    0.375
        42  -9.4768     94.7935    123.0721   6.2918224114e+01   3.8183365188e+01    0.2714083    0.2282434 -10.26 0.0006016577    1.578    0.366
        43  -9.3666    104.8361    117.2759   5.8794318111e+01   3.7691186665e+01    0.2355233    0.1964329 -67.91 0.0003488889    1.198    0.165
        44  -9.9506     17.8655    111.8731   8.4521931106e+01   5.1145551303e+01    0.2926031    0.1396093  65.36   0.00129089    2.469    0.595
        45  -9.3782    205.4108    110.6630   3.4827854219e+01   1.7489031382e+01    0.2595983    0.2344848  -7.21 0.0006017964    1.103    0.093
        46  -9.2813    121.0442     97.6195   4.9247597636e+01   3.8819074679e+01    0.2921922    0.2086494 -63.66 0.0009003287    1.586    0.369
        47 -11.0342     53.2191     93.8830   6.9345455811e+01   5.1886620047e+01    0.4844646    0.1869584 -60.14  0.001857698    2.295    0.564
        48 -12.3052     78.9360    148.7152   7.2101445501e+01   3.4706364504e+01     1.391794     0.739821 -38.78  0.005554241    2.894    0.654
        49  -9.3214     70.3536     68.7152   5.6065404250e+01   5.5245241286e+01    0.2367409    0.2089224 -82.75 0.0006369094    1.282    0.220
        50 -12.3570    207.9770     55.1077   1.9836209538e+01   2.5586046812e+01    0.9490946    0.5660149  36.12  0.002791593    2.324    0.570
        51 -10.0232     49.0053    244.5359   8.8276362674e+01   1.9143203447e+01    0.3904152    0.1495648  61.10  0.002051521    2.461    0.594
        52 -11.5287    226.4090     42.6406   1.4458465849e+01   2.3013767687e+01    0.4235637    0.3583445  39.00  0.001117539    1.456    0.313
        53  -9.8518     71.8523    244.2441   8.4117568346e+01   1.6433683378e+01    0.2319148    0.1440463 -87.34 0.0008791215    1.823    0.452
        54 -10.3272     73.3763     53.0035   4.9258168241e+01   5.8021521928e+01    0.3369079    0.2758688  79.42  0.001240676    1.633    0.387
        55 -10.0091    236.3881    161.1943   4.1031643099e+01   4.0133867296e+00    0.1800305    0.1042292 -38.29 0.0009565874    1.733    0.423
        56  -9.7156     57.0299     40.8533   5.0661747105e+01   6.3267612902e+01    0.3149216     0.241277  72.56  0.001357069    1.998    0.500
        57 -10.5481     13.3768     60.3581   7.7358108046e+01   6.4167063825e+01    0.2490752    0.1921841 -55.88 0.0004757882    1.073    0.068
        58 -10.2002     18.8554     34.1164   6.6459362240e+01   6.9612175677e+01    0.1858421    0.1678272 -72.08  0.001239121    1.303    0.233
        59 -10.9371      2.7414     23.0179   7.1676174374e+01   7.3193393739e+01    0.3713717    0.1817016 -42.79  0.002032154    1.647    0.393
        60  -8.3951     60.5123     21.4970   3.9868687151e+01   6.5949518662e+01    0.1347477     0.120347  -4.80 0.0004410599    1.004    0.004
        61 -10.8222     56.0689    243.6582   8.6950367590e+01   1.8460999567e+01    0.2271616     0.180952  86.98 0.0005294757    1.317    0.241
        62  -9.3740    111.4411    243.9971   7.6815397630e+01   1.1239346592e+01    0.1418434    0.1115098 -65.58 0.0008690841    1.590    0.371
