#   1 NUMBER                 Running object number                                     
#   2 MAG_AUTO               Kron-like elliptical aperture magnitude                    [mag]
#   3 X_IMAGE                Object position along x                                    [pixel]
#   4 Y_IMAGE                Object position along y                                    [pixel]
#   5 X_WORLD                Barycenter position along world x axis                     [deg]
#   6 Y_WORLD                Barycenter position along world y axis                     [deg]
#   7 A_WORLD                Profile RMS along major axis (world units)                 [deg]
#   8 B_WORLD                Profile RMS along minor axis (world units)                 [deg]
#   9 THETA_WORLD            Position angle (CCW/world-x)                               [deg]
#  10 FWHM_WORLD             FWHM assuming a gaussian core                              [deg]
#  11 ELONGATION             A_IMAGE/B_IMAGE                                           
#  12 ELLIPTICITY            1 - B_IMAGE/A_IMAGE                                       
         1 -12.9892     67.5895    144.2048   1.2760061400e+02   3.8145337569e+01      3.18397     1.454436 -83.78  0.002956817    5.668    0.824
         2 -12.2505    213.0376      2.8120   5.9363918882e+01   3.1940598207e+01     1.016741    0.5012489  65.82   0.00318499    1.767    0.434
         3 -13.1379    189.6101     26.8438   6.7804069500e+01   3.4896256777e+01     1.579417     1.193122  -4.01  0.006407965    1.901    0.474
         4 -13.0670    196.6791     20.8777   6.5381389906e+01   3.3872624635e+01     1.446884    0.9271083 -41.57  0.006421322    1.616    0.381
         5 -12.1171    203.2853     12.9443   6.2687173175e+01   3.3171883754e+01    0.5724861    0.5325369  53.04   0.00127796    1.311    0.237
         6 -11.5085     32.4011      7.9838   1.0062513302e+02   6.8791123690e+01     1.022807    0.2225231 -38.50  0.003966589    4.800    0.792
         7 -10.8671    125.1781    244.2487   1.2944385858e+02   6.8280935868e+00     0.435895    0.1936354 -56.27  0.002063095    2.597    0.615
         8 -10.1498    149.0806    249.3457   1.2552381010e+02   1.8696461846e+00    0.2281381    0.1903229 -79.47  0.001464582    1.427    0.299
         9 -10.9829    139.9874    249.0029   1.2721293019e+02   3.4813435873e+00     0.279332    0.2443018  59.10  0.001495707    1.081    0.075
        10 -11.3996    100.9737    238.2174   1.3337181807e+02   1.1950296412e+01    0.4276466    0.2467196  43.31  0.001312129    1.567    0.362
        11 -11.7929    100.7738    248.4252   1.3453369808e+02   1.0067163990e+01    0.6536772    0.4273881 -59.98  0.003921832    1.766    0.434
        12 -10.9157     93.5341    249.1195   1.3594036890e+02   1.1073780059e+01     0.365398    0.3451254 -51.44 0.0009740866    1.538    0.350
        13 -10.1639     96.5068    244.4977   1.3490829808e+02   1.1469411209e+01    0.2158797    0.1664435  74.79 0.0007610047    1.137    0.120
        14 -10.9497     81.9417    249.0492   1.3804075188e+02   1.2849384134e+01    0.3505604    0.2193283  80.92  0.002083619    1.568    0.362
        15 -10.1513     62.9883    250.0917   1.4149122426e+02   1.5380120492e+01     0.279182    0.1299193  51.81  0.001056089    1.713    0.416
        16 -12.1746     57.2561    225.3569   1.4035943482e+02   2.1036330282e+01    0.7784428     0.456647 -49.61  0.003013951    2.483    0.597
        17 -15.7612      4.9419    145.4969   1.4341865137e+02   4.4346165412e+01     15.99343     2.925617 -74.74    0.0480021    5.536    0.819
        18  -9.3557    225.9146    200.6182   1.0243901919e+02  -3.6461782719e+00    0.2389694    0.1880488 -47.16 0.0007603018    1.459    0.314
        19  -9.9206    193.0032    194.7897   1.0776748931e+02   3.5109241013e+00    0.8342827    0.4019629 -63.96  0.002129651    7.072    0.859
        20 -11.0163     71.4233    190.8956   1.3370299740e+02   2.6554411307e+01    0.4226308    0.2607404 -45.47  0.001586254    2.142    0.533
        21 -10.9792     75.9188    184.3148   1.3182649061e+02   2.7407469718e+01    0.3004067    0.2417611 -51.69 0.0006935337    1.439    0.305
        22 -12.0673     89.6400    165.0344   1.2563701564e+02   2.9814989029e+01     2.409494    0.7640594  52.39  0.001295276    4.487    0.777
        23  -8.9771    125.6479    173.6754   1.1854830221e+02   2.1357924192e+01    0.1480952    0.1214864  -8.18 0.0007047782    1.759    0.431
        24 -12.5804     72.0369    170.0929   1.3068061738e+02   3.1315277582e+01    0.4944961    0.2842454 -44.75  0.001398278    2.153    0.536
        25  -9.0788    249.6872    249.3307   1.0687651216e+02  -1.4379654288e+01    0.0983075   0.09280427  51.49 0.0005799182    1.675    0.403
        26 -13.3670     11.5135    206.7980   1.4731555974e+02   3.0284196255e+01    0.8999277    0.6000963  34.37  0.003162642    1.921    0.479
        27  -9.1924    163.6240    156.7767   1.0626596741e+02   1.7356519745e+01    0.2196493     0.145006 -57.36 0.0006603419    1.641    0.391
        28 -11.5710     46.0158    146.5105   1.3352929889e+02   4.0308289827e+01    0.3868827    0.3063459  31.85  0.002348459    1.527    0.345
        29 -11.2330     91.4044    147.9739   1.2210543406e+02   3.3617951560e+01    0.2889328    0.2594037 -37.85 0.0005052053    1.272    0.214
        30  -9.3756    134.1163    146.2066   1.1090652847e+02   2.6025566896e+01    0.6033179    0.1007032 -51.04   0.00127554    6.552    0.847
        31  -9.9594    103.3841    147.2912   1.1888580945e+02   3.1718589557e+01    0.6352819    0.3451272 -34.35  0.002339007    2.854    0.650
        32  -9.2874    112.5161    134.9085   1.1386793222e+02   3.2974474300e+01    0.3018648     0.238529   0.19 0.0009260746    1.806    0.446
        33 -10.5721     84.2911    172.9240   1.2821167599e+02   2.8795226648e+01    0.2749173     0.236945 -68.82 0.0004241886    1.136    0.120
        34  -9.9197    100.0411    131.8405   1.1649424088e+02   3.5994862706e+01    0.3187086     0.242526 -29.36 0.0006456133    1.607    0.378
        35  -9.1289    160.7468    127.7127   1.0016177019e+02   2.4377640949e+01    0.2591147    0.1265808 -54.87 0.0008983968    2.375    0.579
        36 -11.6568     44.6187    129.9171   1.3125934417e+02   4.4391119716e+01    0.4252921    0.2554617 -74.48  0.002192969    1.591    0.371
        37  -8.8851    108.8774    122.4733   1.1195019474e+02   3.6570163281e+01    0.2114497    0.1954118 -55.98 0.0003866149    1.038    0.037
        38 -13.8070     47.4095    225.8136   1.4223129460e+02   2.2238273307e+01     2.408183    0.6144691 -63.26  0.009935889    3.515    0.716
        39 -10.3124    168.2263    113.0927   9.4777525403e+01   2.5755219625e+01    0.3702299    0.3076381 -79.53 0.0007198801    1.352    0.260
        40 -10.3048     33.1877    110.8595   1.3113792032e+02   4.9957147454e+01    0.4750509   0.06668473 -61.25  0.001384328    4.870    0.795
        41 -14.7844     55.9674    210.5241   1.3917157297e+02   2.4338927186e+01     8.193175    0.5823925  46.16   0.02244752    6.731    0.851
        42  -8.5420    206.1802    110.3678   8.6360806340e+01   1.7315909938e+01     0.215224    0.1441293  66.67 0.0007551141    1.688    0.408
        43 -10.5555     41.1162    109.1393   1.2847267526e+02   4.9577519314e+01    0.4158056   0.08773144 -54.68  0.001440958    3.320    0.699
        44 -10.5277     73.1763    246.1796   1.3935050991e+02   1.4676829064e+01    0.4142838     0.129398  54.12  0.001731311    2.911    0.656
        45  -9.6145     65.2286    233.5923   1.3963840042e+02   1.8265090616e+01    0.1573252    0.1094221  38.42 0.0008092787    1.663    0.399
        46  -9.1010    130.6516    249.7053   1.2907542557e+02   4.9419112554e+00     0.118917   0.09541779  19.42 0.0003972484    1.675    0.403
        47 -11.3414    108.2878    245.6686   1.3282614794e+02   9.3683092432e+00    0.3847213     0.300295  87.36  0.001423873    1.281    0.219
        48 -14.5394      5.9660    238.4806   1.5021458494e+02   2.4484104588e+01     2.223549    0.6970477 -71.47   0.01174442    2.669    0.625
        49  -8.4098    169.6408    215.3116   1.1629355985e+02   4.1649506889e+00    0.1421247    0.1043029  71.12 0.0007042486    1.743    0.426
        50 -10.5692     71.6829    229.1155   1.3799455271e+02   1.8246180971e+01     0.263372    0.1769088  66.98  0.001587319    1.253    0.202
