#   1 NUMBER                 Running object number                                     
#   2 MAG_AUTO               Kron-like elliptical aperture magnitude                    [mag]
#   3 X_IMAGE                Object position along x                                    [pixel]
#   4 Y_IMAGE                Object position along y                                    [pixel]
#   5 X_WORLD                Barycenter position along world x axis                     [deg]
#   6 Y_WORLD                Barycenter position along world y axis                     [deg]
#   7 A_WORLD                Profile RMS along major axis (world units)                 [deg]
#   8 B_WORLD                Profile RMS along minor axis (world units)                 [deg]
#   9 THETA_WORLD            Position angle (CCW/world-x)                               [deg]
#  10 FWHM_WORLD             FWHM assuming a gaussian core                              [deg]
#  11 ELONGATION             A_IMAGE/B_IMAGE                                           
#  12 ELLIPTICITY            1 - B_IMAGE/A_IMAGE                                       
         1 -11.0026    241.4754     37.3860   3.8256981106e+01   2.1650390717e+01    0.9495193    0.2704993 -45.40  0.003813173    2.778    0.640
         2 -10.1319     99.3067     37.0784   6.1423074912e+01   5.5160103646e+01    0.7005117    0.2518798 -44.71  0.002408279    3.739    0.733
         3 -10.0600    157.2313     15.9317   4.2238191252e+01   4.3891254933e+01    0.4095734    0.3824799   9.33  0.002601655    1.256    0.204
         4 -11.4812    157.0480     23.4965   4.4548076972e+01   4.3140923801e+01    0.5877852    0.5199831  51.51 0.0004066928    1.151    0.131
         5  -9.3142    152.0481     17.9004   4.3592907409e+01   4.4966360486e+01    0.3746066    0.1964661 -20.75  0.001165764    2.266    0.559
         6 -10.9676      6.7501      7.5219   8.6518073061e+01   7.3658645936e+01    0.7265712    0.4202345 -46.05  0.004579588    1.887    0.470
         7 -10.5458     32.5250      6.2908   7.1890462327e+01   7.0898694053e+01    0.2682968    0.2388106   6.59 0.0006751266    1.330    0.248
         8  -9.3124     14.6387      3.2283   7.9591925185e+01   7.3476110083e+01    0.2518003    0.1579587   3.03  0.001132256    1.443    0.307
         9 -10.7886     16.0261      9.4667   8.2168260368e+01   7.2494212723e+01    0.8391147    0.4247901   2.72  0.004334113    2.551    0.608
        10 -10.4152     16.5444     19.6919   8.6890090917e+01   7.0929324794e+01    0.5364387    0.2631643 -48.72  0.002256694    2.194    0.544
        11 -10.7658     23.3765     17.7030   8.2342025916e+01   7.0526525889e+01    0.6382626    0.2329085  31.41  0.002831164    2.795    0.642
        12 -10.7012     40.7559     13.0160   7.1581650226e+01   6.8921684061e+01    0.9470499    0.4291817  22.63  0.004306362    2.803    0.643
        13 -10.4820     33.2341     13.5055   7.5324377727e+01   6.9909396160e+01    0.4316739    0.2331164 -32.43  0.001163374    1.725    0.420
        14 -10.6180     26.3960     10.4766   7.7155984273e+01   7.1179816785e+01      0.46551    0.3982225  61.44  0.002073442    2.293    0.564
        15 -10.3900     50.9780     18.1294   6.9713513659e+01   6.6724470097e+01    0.4122214    0.2774236  36.75  0.001259464    1.436    0.304
        16 -10.0978     44.8222     17.5541   7.2036906906e+01   6.7748185779e+01    0.8567489    0.4666525  -1.13  0.004088814    2.540    0.606
        17 -10.6731    192.5319     24.5763   4.0173445164e+01   3.4337459310e+01     0.645934    0.4422602  53.91  0.002810371    1.554    0.356
        18 -10.8382    148.7488      3.7104   3.9688172865e+01   4.7088613161e+01    0.8475776    0.3962434  49.09  0.003964796    2.073    0.518
        19 -10.5704    121.7646     17.6622   4.8774134358e+01   5.2326222568e+01    0.2394401    0.2274322  69.95 0.0001616292    1.089    0.082
        20 -10.3326    124.8848      9.9515   4.5449357711e+01   5.2309585848e+01    0.7816613    0.4667589  58.67  0.004110232    1.439    0.305
        21  -9.7984    134.3670     10.7153   4.4074787038e+01   4.9969527088e+01     0.544034    0.3161295  36.36  0.002688072    1.921    0.479
        22 -10.6224    136.8580     24.9725   4.8399338047e+01   4.7936074826e+01    0.5323727    0.2659212 -30.02  0.001656193    2.119    0.528
        23 -10.1983    142.3353     22.3607   4.6566601407e+01   4.6883967039e+01    0.6013412    0.3742035 -46.55  0.002094976    1.761    0.432
        24 -11.1626    133.9136     18.0750   4.6623000916e+01   4.9378104097e+01     1.004132    0.3792529  53.99  0.004151559    2.244    0.554
        25 -11.1148    141.0707     13.0149   4.3745530811e+01   4.8132580473e+01    0.3115285    0.2979822 -60.32 0.0005443973    1.136    0.120
        26 -10.2556    247.8978     17.5584   3.3546004695e+01   2.2758528776e+01    0.4995173    0.2761412 -70.57  0.002812513    1.677    0.404
        27  -8.8335    202.4786      7.9913   3.5015583193e+01   3.3789096343e+01    0.2734921    0.1349033  56.74  0.001347714    2.102    0.524
        28 -10.4552    209.3929     17.4846   3.6664570875e+01   3.1175748696e+01    0.8052636     0.494141 -38.83  0.004467234    1.574    0.365
        29 -10.5991    204.7405     12.4424   3.5885130728e+01   3.2801439080e+01    0.3243095    0.2898327 -66.46 0.0007424818    1.120    0.107
        30  -9.0314    209.3731     11.1755   3.5169377923e+01   3.1867039115e+01    0.3128707    0.1491705 -47.88   0.00156266    1.895    0.472
        31 -10.1810     79.0059     24.0101   6.2211592656e+01   6.1007082888e+01    0.4718378    0.3861049  15.12  0.002821379    1.118    0.105
        32  -9.6848     52.0025     25.9336   7.2934065677e+01   6.5529009706e+01    0.7223987    0.5651874 -13.53  0.004614046    1.135    0.119
        33 -10.1218    197.0393     18.3652   3.8095294280e+01   3.3966103252e+01     0.620701    0.2592491 -58.41  0.002538063    2.753    0.637
        34  -9.6414    193.5294     13.5081   3.7227412167e+01   3.5321782434e+01    0.4128109    0.2136853  69.11  0.002066683    1.743    0.426
        35 -11.6391     88.7129     15.9202   5.5876347150e+01   5.9926668791e+01    0.6741201     0.476671  30.33  0.002221103    1.323    0.244
        36  -9.8578     71.5824     19.0682   6.2476907366e+01   6.3015977184e+01    0.4940939    0.2982896  -4.60  0.001982315    1.923    0.480
        37 -12.2283     65.9322      6.0996   5.8348193420e+01   6.5423904105e+01    0.8863569    0.2801231  45.96  0.003824437    2.598    0.615
        38 -10.4094     78.0893      2.6698   5.3047727680e+01   6.3336461168e+01    0.3374559    0.1895619  49.74 0.0003086991    1.511    0.338
        39 -10.7508     65.2859     15.6231   6.3070013289e+01   6.4573278007e+01    0.6644058    0.3748846   2.00  0.002498731    2.272    0.560
        40  -9.8286     61.0609     12.5233   6.3118570261e+01   6.5673999785e+01    0.3296497    0.2406003  31.14  0.001123208    1.195    0.163
        41  -9.2543    183.8188     16.7331   3.9104580245e+01   3.7308518755e+01    0.4330295    0.3450629 -47.53  0.002197543    1.257    0.205
        42  -9.1300    182.0629      3.6321   3.5833229758e+01   3.9030171454e+01    0.3155359    0.2195317 -35.56 0.0008675816    1.525    0.344
        43 -10.7275    184.5745      8.9535   3.6970523608e+01   3.7922130242e+01    0.4345889    0.2741514  72.92 0.0005503836    1.409    0.290
        44 -11.4799    186.4011      3.8450   3.5465473342e+01   3.7975776766e+01    0.3524247    0.2469897 -40.86 0.0009730377    1.455    0.313
        45 -12.7006    113.1332     12.5249   4.8657277443e+01   5.4836961876e+01    0.4375013    0.3165509 -13.14 0.0003275826    1.546    0.353
        46 -10.9475    112.8965      4.0984   4.5562029329e+01   5.5610500459e+01     1.180024     0.303233  53.25  0.004511726    2.844    0.648
        47 -11.6521    101.3588     13.7026   5.1729111634e+01   5.7402538892e+01    0.3175489    0.2609597  12.15 0.0002682511    1.245    0.197
        48 -10.0880    100.2827      9.7008   5.0389690014e+01   5.8008767516e+01    0.2200141    0.1777577  27.87 0.0002113038    1.176    0.150
        49  -9.2922    248.3166      1.8926   3.0358748428e+01   2.4412007379e+01    0.1914269     0.142406  87.17  0.000230205    1.261    0.207
        50  -9.7437    249.6895      7.6288   3.1415821413e+01   2.3515608783e+01    0.4215147    0.1632133 -60.71   0.00128733    2.399    0.583
        51 -10.2880    243.0063      3.3982   3.0982554032e+01   2.5341475373e+01    0.4866433    0.2027467 -52.19   0.00230139    1.956    0.489
        52  -9.3476    229.1782     12.0962   3.3765848925e+01   2.7337678638e+01     0.310899    0.2038238  76.41  0.001877159    1.446    0.309
        53  -9.2453    240.0315      8.2833   3.2177158588e+01   2.5436548385e+01    0.2811711    0.1864895 -64.77  0.000916636    1.234    0.189
        54  -9.6736    234.4611      1.4188   3.1117617568e+01   2.7339782364e+01    0.3875861     0.137811  77.55  0.001796563    2.627    0.619
        55 -10.9932    237.5086     12.9377   3.3328199138e+01   2.5454325100e+01     0.569483     0.393596 -45.56  0.002973773    1.303    0.233
        56  -9.5187    233.1185      5.8210   3.2132137030e+01   2.7165954343e+01    0.3243255    0.2062362 -68.76  0.001970782    1.334    0.250
        57  -9.1103    237.4823      5.4428   3.1757880547e+01   2.6278821357e+01    0.2196709    0.1520836 -64.06  0.000511231    1.167    0.143
        58  -8.4818    216.8528     14.4767   3.5293160192e+01   2.9807739881e+01    0.2745115    0.1274933 -69.74  0.001231894    2.404    0.584
        59  -9.0725    171.2809     11.1316   3.9030414833e+01   4.0924053744e+01    0.2474676    0.1807238  37.83 0.0009029416    1.642    0.391
        60  -9.3122    168.8627      5.1970   3.7653998115e+01   4.2068919165e+01    0.2082356    0.1941629  70.40   0.00041817    1.136    0.120
        61 -10.4371     94.3511      5.0054   4.9874055804e+01   5.9714140701e+01    0.4766341    0.2767902  63.38  0.002211166    1.662    0.398
        62  -9.6269     85.6959      8.6239   5.3591095093e+01   6.1257571481e+01    0.4798172    0.2479638  25.95  0.002273922    2.228    0.551
        63  -8.7668     80.3951     11.2069   5.6205274492e+01   6.2112041521e+01    0.2069922    0.1820473  43.47  0.001357628    1.148    0.129
        64  -8.3403     77.2828     10.3077   5.6725305428e+01   6.2825182759e+01    0.2240322    0.1400523 -31.24 0.0007054043    1.754    0.430
        65 -10.3204    223.7413      5.1219   3.2645542713e+01   2.9273479092e+01    0.4505838    0.2110553 -37.58  0.001931429    1.959    0.489
        66  -9.5423    163.2370      7.1079   3.8855070580e+01   4.3263936371e+01    0.2613703    0.1107892  57.66 0.0008039985    2.074    0.518
        67 -10.0437    202.3204      3.0254   3.3837677664e+01   3.4318877596e+01    0.3593821    0.1871721  75.26  0.001270261    1.706    0.414
        68  -8.7894    130.5740      3.3637   4.2218590714e+01   5.1503934059e+01    0.2869099    0.2032741 -10.87  0.001645776    1.670    0.401
        69  -9.2229     38.0028      3.0409   6.7580947705e+01   7.0470652741e+01    0.2608235    0.2188119 -78.19  0.001598928    2.695    0.629
        70  -8.3555     34.4720      1.5126   6.8352772100e+01   7.1153754314e+01     0.211115   0.09923829  39.80 0.0008270067    1.997    0.499
        71  -9.1659    218.1414      3.3012   3.2654652003e+01   3.0699268451e+01    0.2130109    0.1777274 -84.73 0.0005467948    1.088    0.080
        72  -8.6789    121.9147      3.3207   4.3637166547e+01   5.3564392622e+01     0.195067    0.1468196  57.90  0.001160749    1.140    0.123
        73  -8.0484    210.4458      2.5101   3.3061013044e+01   3.2508559601e+01    0.1228837    0.1022907 -79.52 0.0005335803    1.035    0.034
        74  -8.6862    195.5562      5.2484   3.4965903881e+01   3.5678304584e+01    0.2474851    0.1387652 -80.33 0.0008220958    1.780    0.438
        75  -9.8896    138.5299      6.0847   4.1889749688e+01   4.9367489545e+01    0.2886703    0.1978173  46.84  0.000292492    1.404    0.288
        76  -8.0090     49.1725     79.6325   9.3721366749e+01   5.6011308005e+01    0.1805265     0.126902   9.06 0.0009419096    1.678    0.404
        77  -8.3555    110.8274    249.8118   1.0659925995e+02   8.1604548190e+00     0.170065    0.1260585  65.09  0.001063453    1.356    0.262
        78  -8.2274      3.5029    250.4383   1.2640182800e+02   2.1509889211e+01    0.1061058   0.07579354  69.65 0.0001249457    1.042    0.040
        79  -7.7894    124.4871     82.5306   7.0144484019e+01   4.1989147239e+01    0.1514713    0.1480066  -5.51 -7.212609e-06    1.023    0.022
        80  -8.8601    149.4172     76.7461   6.2288849575e+01   3.7275218757e+01    0.3395467    0.2010653  73.38  0.001293679    2.418    0.586
        81  -8.8119    147.5190     72.4642   6.1422332115e+01   3.8493300113e+01    0.3071643    0.2549759 -42.79 0.0006711751    1.204    0.169
        82  -7.7057    107.6445     77.3264   7.3207867741e+01   4.6659003200e+01    0.1530012    0.1209238 -85.79  0.000704575    1.773    0.436
        83  -9.3954     31.4748     77.1906   9.9845297673e+01   5.8467753328e+01    0.3825336    0.1860391  10.34  0.001639717    2.856    0.650
        84  -8.8131    220.6737     75.3513   4.9355048377e+01   2.0660287922e+01    0.2540126     0.116061 -45.82 0.0009183243    1.977    0.494
        85  -8.6800    217.2138     73.6067   4.9407883524e+01   2.1707891843e+01    0.3123694    0.1640233  53.21  0.001167591    2.073    0.518
        86  -8.4933     86.2566     76.4338   7.9571635537e+01   5.1030083194e+01     0.191484    0.1403302  49.00 0.0004795501    1.520    0.342
        87  -8.7817    233.5457     74.6831   4.7512437823e+01   1.7981563538e+01     0.280798    0.1835545 -73.53  0.001400133    1.802    0.445
        88  -8.3529    169.4575     74.6892   5.7525935110e+01   3.2787813315e+01    0.2012529    0.1471978 -23.81 0.0009374061    1.558    0.358
        89  -9.9359     18.0252     73.3891   1.0422105243e+02   6.0439514268e+01    0.4760301    0.3312175  49.88    0.0027633    1.928    0.481
        90  -9.5721    248.3842     73.5237   4.5484006523e+01   1.5106392198e+01    0.2496206    0.2052983 -22.33  0.001350572    1.416    0.294
        91  -8.5016    189.1124     73.4590   5.3652162357e+01   2.8251227731e+01    0.2092999    0.1434694  62.77 0.0004542994    1.498    0.332
        92  -8.5158     72.0862     73.0333   8.3313714833e+01   5.4164221859e+01    0.2087924    0.1752525 -83.41 0.0004332729    1.638    0.390
        93 -10.5440    243.3474     70.3016   4.5342462811e+01   1.6613847862e+01    0.4817954    0.2136171 -51.51  0.001184922    2.148    0.534
        94  -9.3370    160.2190     71.1273   5.8323709904e+01   3.5647216768e+01    0.4321606    0.2679392  73.87  0.001040476    2.017    0.504
        95 -11.0238    129.3517     70.6517   6.5158651156e+01   4.3111145793e+01    0.4894533    0.3312722  32.14 0.0005027081    1.709    0.415
        96  -9.9924    113.7163     70.4461   6.9236395387e+01   4.6669826273e+01    0.4450226    0.3783363 -86.18  0.002064673    1.477    0.323
        97  -9.0388     59.5595     70.8645   8.7181723060e+01   5.6520467714e+01    0.3286541    0.1841955 -46.94  0.001561476    1.627    0.385
        98 -10.0081     37.5240     71.0908   9.5800152638e+01   5.9205628445e+01    0.2695493    0.2045814 -28.73 0.0003670329    1.235    0.190
        99  -9.4361     38.9844     66.6172   9.3893931978e+01   6.0002302987e+01    0.5308475    0.3258645   8.34   0.00272398    1.988    0.497
       100 -10.2313     39.5930     60.5612   9.1745778032e+01   6.1185772155e+01    0.3478841    0.2850995  44.58  0.001124155    1.555    0.357
       101 -10.4942     34.7235     59.7162   9.3514386255e+01   6.1886986367e+01    0.3371411    0.2346413 -43.24  0.001580165    1.217    0.178
       102  -9.8244     28.9675     71.4422   9.9329096741e+01   5.9970037448e+01    0.2608134    0.1759264 -55.77 0.0003947226    1.299    0.230
       103  -8.0505     80.4886     71.6198   7.9931886690e+01   5.3032011098e+01    0.1387359    0.1326541 -10.30  0.000122358    1.060    0.057
       104  -8.9119    211.9303     70.0460   4.9268301082e+01   2.3466413822e+01    0.2053396    0.1884722 -59.92 0.0003378583    1.040    0.039
       105  -8.9191    192.0591     69.5376   5.2123495865e+01   2.8190252649e+01    0.2486508    0.2136733  26.08  0.001327332    1.437    0.304
       106  -9.2150    139.1677     69.2560   6.2338947859e+01   4.1052444084e+01    0.4657977    0.2287647  53.37  0.001101771    2.013    0.503
       107  -8.7913    235.9509     69.5078   4.6027356630e+01   1.8271835590e+01    0.1882694    0.1309517  68.00 0.0007504864    1.566    0.361
       108  -9.1826    204.1437     68.7269   5.0055292080e+01   2.5469725249e+01    0.2332026     0.176699 -53.30 0.0003469657    1.233    0.189
       109  -7.9357    221.6415     68.2416   4.7514092104e+01   2.1563658470e+01    0.1397616   0.09634972 -72.98 0.0006926287    1.592    0.372
       110  -8.8048    168.8750     68.0379   5.5737472325e+01   3.4051528324e+01    0.2233784    0.2184832 -63.87 0.0007930022    1.047    0.045
       111  -9.6239    173.2456     66.7466   5.4563849548e+01   3.3194521901e+01    0.2785664    0.2532254  -7.93  0.000512503    1.268    0.212
       112 -10.1204     95.4765     65.9328   7.3109583547e+01   5.1314830537e+01    0.4066604    0.2853912 -27.66 0.0003464993    1.474    0.322
       113 -10.4082    149.1813     66.9501   5.9378612913e+01   3.9040351711e+01    0.3323612    0.2536493  48.31  0.000341697    1.310    0.237
       114  -9.7897    144.2709     64.2642   5.9620692744e+01   4.0677731303e+01    0.3390374     0.284587 -73.20 0.0007574843    1.338    0.253
       115 -10.2562     16.4106     65.3932   1.0290232693e+02   6.2307139696e+01     0.584287    0.2688499 -19.57  0.001802152    3.074    0.675
       116  -9.2900     27.5288     61.5519   9.7130330394e+01   6.2214229625e+01    0.2632421    0.1974206  14.82  0.001159018    1.471    0.320
       117 -10.1362     24.5102     58.8616   9.7622804889e+01   6.3042570023e+01    0.4267364    0.2932853 -31.10  0.001706977    1.298    0.230
       118  -9.6313      2.2018     63.0717   1.0833568112e+02   6.3676175545e+01    0.3534574    0.2494783  49.96  0.002205129    1.957    0.489
       119  -9.9466     48.8744     65.2192   8.9487252704e+01   5.9124325760e+01    0.3104067    0.2656675  -4.11 0.0007069545    1.162    0.139
       120  -8.5513    228.3891     64.7705   4.5841036385e+01   2.0610941324e+01    0.1852754    0.1236471 -27.88 0.0005808807    1.639    0.390
       121  -9.1625    208.4227     64.6062   4.8399759566e+01   2.5121244561e+01    0.2295918      0.20476 -59.60 0.0002036755    1.020    0.020
       122 -10.6406    100.6407     62.4489   7.0324206330e+01   5.0897399894e+01    0.4806078    0.3729826 -57.41  0.002440287    1.546    0.353
       123  -9.0200     66.9547     64.6720   8.2384571503e+01   5.6660914938e+01    0.2139096    0.1771134 -36.23 0.0003393029    1.126    0.112
       124  -9.0665     28.4879     54.2219   9.4435033126e+01   6.3620350588e+01    0.3282492    0.1541419 -39.82 0.0009220624    1.834    0.455
       125  -9.7006    135.1733     59.8994   6.0294581641e+01   4.3577390377e+01     0.723777    0.3384187 -56.12  0.002357986    3.573    0.720
       126  -9.0828      9.3595     63.5686   1.0542024202e+02   6.3169824808e+01     0.208189    0.1809507 -80.29   0.00143023    1.354    0.261
       127 -10.0633    235.1882     61.8308   4.4359795156e+01   1.9585780957e+01    0.2876025    0.2492575  50.49 0.0006629204    1.409    0.290
       128  -8.4201    202.1492     63.6693   4.9051470450e+01   2.6727956079e+01    0.1953517    0.1223153  53.55 0.0006167956    1.696    0.410
       129  -8.3247    161.0455     62.2750   5.5547752710e+01   3.6908146021e+01    0.2014447    0.1874534  61.22 0.0005901727    1.068    0.064
       130  -9.1075     81.8570     61.7602   7.6093130065e+01   5.4682228924e+01    0.4291342    0.2268531  24.84  0.001703343    2.607    0.616
       131 -10.5870    243.6938     58.6013   4.2701297884e+01   1.8271793185e+01    0.3600027    0.2817444 -64.81 0.0005308421    1.139    0.122
       132  -9.6047    249.1167     59.2845   4.2288699832e+01   1.7064137526e+01    0.2738304    0.1980749 -51.64 0.0009142178    1.146    0.127
       133  -9.2257    185.9375     60.5979   5.0699033912e+01   3.1075239329e+01    0.4581279    0.1489502  58.74  0.001583102    2.959    0.662
       134  -8.4097     92.8096     59.3579   7.1651094365e+01   5.3030269375e+01    0.2493295    0.2212579 -69.44 0.0005126396    1.409    0.290
       135  -8.6590     89.5686     57.0548   7.1858657797e+01   5.4069917413e+01    0.2086189    0.1729089  36.42 0.0001216972    1.199    0.166
       136 -10.1010    175.4315     55.7790   5.1075294184e+01   3.4374145816e+01    0.7750391     0.421891 -28.87  0.002171474    2.021    0.505
       137 -10.0229    173.8888     44.8529   4.8220626048e+01   3.6325438294e+01    0.3305653    0.2894155   2.02 0.0009513743    1.405    0.288
       138  -9.0689    155.5055     56.4986   5.4889879996e+01   3.9176015780e+01    0.3008779    0.2398367 -17.42  0.001534703    1.445    0.308
       139  -7.7117    229.3013     58.7088   4.4316211338e+01   2.1313590858e+01    0.1389987   0.08947842 -64.46  0.000200957    1.567    0.362
       140 -10.7240     63.6349     56.3532   8.0693215456e+01   5.8766052381e+01    0.3645678    0.3059012  86.49 0.0006860283    1.879    0.468
       141  -7.9460      5.3403     58.3005   1.0584947347e+02   6.4527765183e+01     0.129437   0.06777529 -36.54 0.0005594798    1.669    0.401
       142  -9.6068    235.3032     56.8007   4.3199476100e+01   2.0295739044e+01    0.3052374    0.1914715 -63.16 0.0008653642    1.575    0.365
       143 -10.0676    191.8274     55.7486   4.8488448048e+01   3.0384881244e+01    0.4222427    0.2824858 -71.95  0.001257617    1.700    0.412
       144  -9.5680    185.4504     51.3373   4.8250583889e+01   3.2575155411e+01    0.4909901    0.3508688  84.00  0.001992621    1.473    0.321
       145  -8.5964    196.2165     53.0091   4.7131657644e+01   2.9733701112e+01    0.1961641    0.1500653 -63.21 0.0002164956    1.271    0.213
       146 -10.2724    192.7527     48.9936   4.6559619881e+01   3.1140738619e+01     0.386878    0.2821349 -67.59 0.0009212998    1.394    0.283
       147  -9.6306    197.5261     48.5130   4.5777448754e+01   3.0063633961e+01    0.4375069     0.249341 -83.25  0.001710276    2.319    0.569
       148  -8.3074    224.3289     56.5990   4.4402847415e+01   2.2715160564e+01    0.1723962    0.1232617  59.51 0.0006740099    1.519    0.342
       149 -10.1950    208.3063     55.0857   4.6025248076e+01   2.6578633292e+01     0.278604    0.2442772  69.51 0.0008130647    1.190    0.160
       150  -9.7681    204.8534     51.8561   4.5662780717e+01   2.7853183767e+01    0.2468781    0.2376571 -88.26 0.0004069862    1.136    0.120
       151  -9.4798    207.2230     48.1285   4.4419790858e+01   2.7826402299e+01    0.2490166    0.2158658 -44.74 0.0004226647    1.155    0.134
       152  -7.7089    166.0000     56.0063   5.2775734911e+01   3.6663535035e+01    0.2380824   0.08231315 -33.28 0.0008030304    2.947    0.661
       153  -8.5511    128.4889     54.5220   6.0101638053e+01   4.6016943217e+01    0.2838243    0.1608046  33.44  0.001151746    2.207    0.547
       154  -9.7075    124.9170     54.0430   6.0804866239e+01   4.6928819358e+01    0.2519755    0.2104287 -19.80 0.0004486057    1.270    0.212
       155 -10.1780    113.0913     54.2428   6.3911046925e+01   4.9598656158e+01     0.459596    0.4032121  10.91  0.001898631    1.182    0.154
       156  -9.5195    142.3171     54.0274   5.6814711367e+01   4.2781325848e+01     0.356819     0.217801  51.99 0.0006326591    1.571    0.363
       157 -10.2940      9.5601     52.4267   1.0239513328e+02   6.5496416116e+01    0.2818727    0.2697489  52.92 0.0007175376    1.404    0.288
       158  -8.2018     41.6727     53.1663   8.8371098357e+01   6.2403002277e+01    0.1958394   0.09638129 -38.92 0.0005842374    1.811    0.448
       159 -10.1146    244.4284     49.8967   4.0710329306e+01   1.9350817147e+01    0.3280279    0.3122022 -77.39  0.001276296    1.226    0.184
       160  -9.0446    149.3684     58.9363   5.6873620507e+01   4.0301738041e+01    0.2699655    0.1902482  64.66  0.001290223    1.443    0.307
       161  -7.5064    100.6351     52.6816   6.6862481392e+01   5.2555119951e+01    0.1523561    0.1061836  15.15 0.0007039866    1.777    0.437
       162  -8.7137     92.5716     47.9222   6.7541653188e+01   5.4981676339e+01    0.2901064    0.1956582 -51.08  0.001178281    1.828    0.453
       163  -9.3463     84.1895     51.1407   7.1439185262e+01   5.6110953813e+01    0.2850557    0.2543092  46.28 0.0007964742    1.235    0.190
       164  -9.3237     80.0009     50.0047   7.2420138874e+01   5.7085759857e+01    0.3545127    0.2670479   0.40  0.001340592    1.452    0.311
       165  -8.7931    228.1346     50.0035   4.2423370802e+01   2.2817069140e+01    0.3349622    0.1824558 -20.05  0.001442357    2.728    0.633
       166 -10.3677    120.2146     50.4787   6.0751570072e+01   4.8568093846e+01    0.2502779    0.2439867  -4.02 0.0003031488    1.046    0.044
       167  -8.7671    119.9971     46.0187   5.9254216349e+01   4.9279924942e+01    0.3026684     0.216547 -30.51  0.000757436    1.452    0.311
       168  -9.9423     72.8501     49.8373   7.4859613059e+01   5.8398612731e+01    0.5216558    0.3475901 -32.55  0.002000326    1.439    0.305
       169  -9.5383    222.0497     49.9762   4.3097661616e+01   2.4171473699e+01    0.2613112    0.2210583 -89.47  0.001132917    1.143    0.125
       170  -9.1777    220.9586     45.6960   4.2204487456e+01   2.5011241132e+01    0.2289891    0.2161771  77.88  0.001465236    1.206    0.171
       171  -9.7449    213.2696     48.0301   4.3655198157e+01   2.6438195939e+01    0.3061344    0.2933369  68.65  0.001738164    1.212    0.175
       172  -8.4490    159.7261     49.9388   5.2108614926e+01   3.9111994687e+01     0.193765     0.178476 -83.93 0.0002240429    1.066    0.062
       173  -8.2874     15.0489     49.9156   9.9130455997e+01   6.5624799222e+01    0.2337303    0.1432012  50.43  0.001225974    2.713    0.631
       174  -9.6710    237.4558     48.2633   4.1043954981e+01   2.1042223243e+01    0.2633607    0.2147648 -51.70  0.001129506    1.086    0.079
       175  -8.8372    237.6910     43.1655   3.9882661932e+01   2.1687046227e+01    0.2516429    0.1740723  87.18 0.0009268607    1.456    0.313
       176  -9.4833    233.7857     45.0819   4.0699878884e+01   2.2265591015e+01    0.2664807    0.2072684 -50.13 0.0006376934    1.127    0.113
       177  -9.0993    232.0692     41.5123   4.0064023805e+01   2.3118747027e+01    0.2776602    0.1748807 -71.39 0.0009426681    1.590    0.371
       178  -8.2416    168.5329     49.4859   5.0429146762e+01   3.6998559272e+01    0.1436806    0.1332966 -83.70 6.801818e-05    1.026    0.026
       179  -9.6511     41.2832     46.3830   8.6064296460e+01   6.3718018310e+01    0.4569733    0.3452015  71.15  0.002381157    2.656    0.624
       180  -8.4720    109.7110     46.9930   6.2247084339e+01   5.1472311432e+01    0.2910077    0.1615002  51.95  0.001153976    1.744    0.427
       181  -9.5954     87.7426     46.9454   6.8693153691e+01   5.6101223497e+01    0.2886732    0.1876198  37.27 0.0006947026    1.506    0.336
       182 -10.7661     31.8879     43.8987   8.9310469379e+01   6.5255029398e+01    0.5994691    0.4007816   7.00  0.002588789    1.585    0.369
       183  -8.8731     33.2886     34.1912   8.4840044698e+01   6.6805830109e+01    0.2853098    0.2460667  54.36  0.001854947    1.806    0.446
       184  -9.5612     39.6153     32.5798   8.1249677256e+01   6.6294324269e+01     0.315593    0.2218575  -8.67  0.001609135    1.358    0.264
       185  -8.9261     20.4134     47.1964   9.5769240563e+01   6.5734132457e+01    0.1965659    0.1623139  11.44 0.0005585853    1.329    0.248
       186 -10.2982    152.4110     34.0553   4.8545419596e+01   4.3054273494e+01    0.5461776    0.4747097  59.16  0.002055305    1.092    0.084
       187  -8.7156    164.6677     46.1445   5.0105782737e+01   3.8427245256e+01    0.2212345    0.1816245 -62.62 0.0007082997    1.246    0.197
       188  -9.5868    162.9056     42.1159   4.9208896192e+01   3.9415012449e+01    0.4332457    0.2268632  50.98 0.0004999638    1.886    0.470
       189  -9.7522    155.9897     44.0320   5.0992516117e+01   4.0868110985e+01    0.3293594    0.2951064 -59.08            0    1.134    0.118
       190  -9.2327    152.6813     41.3374   5.0761080231e+01   4.2050781127e+01    0.2795135    0.2264846 -63.16  0.001444865    1.316    0.240
       191 -10.1208    128.1709     41.4367   5.5747846318e+01   4.8003365936e+01    0.5469764    0.3042395  62.66  0.001859055    1.833    0.454
       192 -10.3220    140.5033     39.3496   5.2444945931e+01   4.5307189486e+01    0.7943674    0.2988931  51.89  0.003020677    2.416    0.586
       193  -9.4062    138.8842     43.8776   5.4255093146e+01   4.5090901694e+01     0.364839    0.2713647  17.65 0.0009975998    1.687    0.407
       194  -8.7662    135.3319     44.6737   5.5267654442e+01   4.5840426616e+01    0.3295546    0.1610414 -45.44 0.0007585417    2.278    0.561
       195  -9.4315      2.7788     43.6596   1.0304122483e+02   6.7664130441e+01    0.3814218     0.187731 -55.60  0.001662986    1.628    0.386
       196 -10.4615      4.2367     35.2289   9.9633264556e+01   6.9202686044e+01    0.6450898    0.2226327 -44.83  0.003217695    2.094    0.522
       197  -8.7015     72.0680    247.8660   1.1392804699e+02   1.4018239584e+01     0.191375    0.1269975  59.86 0.0005328729    1.260    0.207
       198  -9.5757    235.5837     35.8469   3.8456117784e+01   2.3103092012e+01    0.4480865    0.2832739  81.85  0.002516092    1.588    0.370
       199 -10.2539    250.2843     40.8615   3.8221421922e+01   1.9370909417e+01    0.3279406    0.3008579  28.20 0.0004769563    1.563    0.360
       200 -10.5676    247.8455     36.9256   3.7597876314e+01   2.0385191389e+01    0.3636112    0.3193437 -50.73  0.001793185    1.194    0.162
       201  -8.5276     55.1307     44.7959   7.9648004052e+01   6.2118575743e+01    0.1871512    0.1718505 -32.71 0.0008126003    1.242    0.195
       202  -7.6771    228.2749     44.3709   4.1104818280e+01   2.3563654456e+01    0.1205439    0.1033894  13.46 0.0004767308    1.682    0.406
       203  -9.7284     92.4577     35.3624   6.2735964335e+01   5.6840355202e+01    0.4433927    0.2663329  42.17   0.00189461    1.561    0.359
       204  -9.5538     96.6772     43.0561   6.4462503098e+01   5.4873682740e+01     0.437108    0.2802612  23.93  0.001394751    1.833    0.454
       205  -8.5282     64.5046    247.5087   1.1533683991e+02   1.5086845344e+01    0.1205647   0.09201341  62.16 -3.172004e-05    1.030    0.029
       206  -9.0413    147.0708     41.8776   5.1977781835e+01   4.3361579500e+01    0.4198003    0.2192003  49.06  0.001448605    1.864    0.464
       207  -8.0723     85.4437     42.4596   6.7701730970e+01   5.7244118030e+01     0.138171    0.1215715   9.42 0.0002115736    1.050    0.048
       208  -8.3765     55.2348     51.1815   8.2056130461e+01   6.0977472786e+01    0.1683853    0.1590164 -54.89 0.0008279821    1.344    0.256
       209  -9.0095     67.6709     41.9593   7.3660223968e+01   6.0585668367e+01    0.2817386    0.1798948  40.33 0.0008212064    1.588    0.370
       210 -10.2640     51.6990     37.6815   7.8172714181e+01   6.3806869230e+01    0.3039911    0.2288433 -29.23 0.0009579447    1.219    0.179
       211  -8.5612     55.9903     36.2198   7.5807196542e+01   6.3390603080e+01    0.2407424    0.1117326  44.56  0.001092498    2.437    0.590
       212  -9.7807     61.7532     38.4095   7.4449335441e+01   6.2132104009e+01    0.3925555    0.3600474 -80.39     0.002445    1.630    0.387
       213  -9.8613     69.1029     34.7112   7.0154104456e+01   6.1438743737e+01    0.4736226    0.2962676   4.50    0.0023019    2.055    0.513
       214  -9.7964     67.2342     28.8883   6.8345023861e+01   6.2586279125e+01    0.3365402    0.2789088  11.55  0.001258793    1.064    0.060
       215 -10.0200    224.2237     38.8041   4.0235217179e+01   2.5205494449e+01     0.492931    0.2822888 -23.48  0.002380763    2.201    0.546
       216  -8.3229    185.2364     41.4065   4.5575935453e+01   3.4006632314e+01    0.1907102    0.1257098  83.71 0.0005399589    1.591    0.372
       217  -9.0038    158.9831     58.3787   5.4783639241e+01   3.8029628637e+01     0.260374    0.2459175  58.12  0.001463289    1.064    0.060
       218  -8.7704     59.1503     33.4575   7.3377533353e+01   6.3310137274e+01    0.2322549    0.1640896  10.09 0.0006855057    1.445    0.308
       219  -9.7135     18.3864     39.9794   9.4227022889e+01   6.7278612433e+01    0.5470925    0.2150148  29.03  0.002668637    2.780    0.640
       220 -10.7468     21.6586     32.3078   8.9684280522e+01   6.8360604527e+01    0.4909578    0.4751057   8.34   0.00189529    1.434    0.303
       221  -8.7755     12.5876     35.7154   9.5550730654e+01   6.8534936306e+01    0.2833303     0.162629 -43.09  0.001114961    1.384    0.278
       222  -9.9790     13.6803     30.8165   9.3139722630e+01   6.9329410215e+01     0.330775    0.2087059   2.19  0.000934013    1.625    0.385
       223 -10.5888      8.5668     26.4677   9.4112785059e+01   7.0489786945e+01    0.3808202    0.2870787 -28.69  0.001273445    1.020    0.020
       224  -8.3896    106.5323     39.8919   6.0501120387e+01   5.3198341140e+01      0.19102    0.1358641 -27.92 0.0003648945    1.457    0.314
       225  -8.7505     90.7055     40.3957   6.5238333773e+01   5.6496698835e+01     0.361875    0.1713477  45.06  0.001581632    2.003    0.501
       226  -9.5316    119.6671     38.9251   5.6834203833e+01   5.0343858768e+01    0.2531657    0.1891689  54.08 0.0003909548    1.264    0.209
       227  -9.7975    112.3999     36.4599   5.7715716556e+01   5.2342840106e+01    0.6072909    0.3588049  54.97  0.002476624    1.605    0.377
       228  -9.7599    212.0377     31.8063   3.9843570914e+01   2.8869694362e+01    0.7320799    0.3438406 -87.67  0.002916128    2.849    0.649
       229 -10.0368    212.0618     37.5317   4.1230006817e+01   2.8133233192e+01    0.3946853    0.2139718  65.52  0.001134057    1.810    0.447
       230  -9.0964    192.9143     36.5059   4.3241668811e+01   3.2787158662e+01    0.2776997     0.204371  51.20 0.0007735232    1.488    0.328
       231 -10.6352    124.5502     35.2503   5.4415425326e+01   4.9675909460e+01     0.427489    0.2777451 -33.36   0.00214038    1.617    0.382
       232  -9.0295    165.8156     35.2037   4.6692126668e+01   3.9591939363e+01    0.2065196    0.1735283 -81.86 0.0005638024    1.179    0.151
       233  -9.1441    216.2086     38.3881   4.0982469147e+01   2.7069142041e+01    0.2721001    0.2402664 -70.43 0.0008923769    1.045    0.043
       234  -8.5331    139.1020     34.2203   5.1037988174e+01   4.6304475981e+01    0.2284166    0.1634111 -71.00  0.001128538    1.730    0.422
       235 -10.4969    134.0838     32.2817   5.1382002009e+01   4.7761453044e+01    0.2833406    0.2575282  87.69 0.0003155669    1.145    0.127
       236  -9.4045    130.6300     27.5695   5.0471453969e+01   4.9150676174e+01    0.4647846    0.1893202 -46.64  0.001747044    3.109    0.678
       237  -8.4691    103.0334     34.0675   5.9246194995e+01   5.4749326916e+01    0.2279104    0.1530759  21.14   0.00112305    1.725    0.420
       238  -7.9968    230.3207     32.2958   3.8149638910e+01   2.4697898428e+01    0.1975718    0.1209135 -35.18 0.0004825394    1.602    0.376
       239  -9.0029    230.5703     28.7891   3.7339721398e+01   2.5081676838e+01    0.3593962    0.1318777 -52.67  0.001511879    2.572    0.611
       240  -9.6698    239.9235     31.0303   3.7013011239e+01   2.2791133897e+01    0.1924831     0.152719 -75.55            0    1.099    0.090
       241 -10.3734    224.3548     27.5482   3.7625087671e+01   2.6604420490e+01    0.3768848     0.220981 -32.70  0.001196103    1.743    0.426
       242 -10.3387    217.6515     25.2703   3.7726737102e+01   2.8385730150e+01    0.5039494    0.2556732 -75.63  0.001678434    2.279    0.561
       243  -9.9129    167.9508     28.1321   4.4308111124e+01   3.9921327339e+01    0.7324432      0.21343  52.58  0.002546936    3.253    0.693
       244  -8.2201    194.6851    242.3266   8.9206569107e+01  -3.4373566101e+00    0.1117102   0.09445646  58.40 0.0002963273    1.670    0.401
       245  -9.0067    247.1969    240.5304   7.9490135083e+01  -1.0449738122e+01    0.2090009    0.1389368 -21.04  0.001394081    1.354    0.262
       246  -9.7175    172.2396    233.5790   9.2205889963e+01   1.3538338090e+00    0.3654721    0.2405372 -64.62   0.00188191    2.443    0.591
       247  -8.5683     15.4599     56.9664   1.0103279291e+02   6.4158317688e+01    0.1847078    0.1033603 -57.68 0.0005172101    1.557    0.358
       248  -9.8300     85.7448     28.5645   6.2018683420e+01   5.9104094928e+01    0.5891491    0.3078824  26.88  0.002561984    2.395    0.582
       249  -8.7454     10.7066    235.0382   1.2445367086e+02   2.3734061282e+01    0.1555643    0.1131966  75.21 0.0008052294    1.041    0.039
       250  -8.2283      4.9691    235.0195   1.2547102596e+02   2.4300287966e+01    0.1363329   0.09754948  64.70  0.001001564    1.090    0.083
       251  -8.2960    230.4756    236.5243   8.1714720804e+01  -7.7481258247e+00    0.1199142   0.09432915   5.53 -0.0001045278    1.004    0.004
       252  -7.9798    152.7557    234.0039   9.6181653703e+01   4.3957838207e+00    0.1555436    0.1107712 -48.26 0.0008914216    1.622    0.384
       253  -9.5958    238.5974    219.6128   7.7385481227e+01  -6.5748407327e+00    0.4424998    0.2373136 -40.73  0.002389786    2.041    0.510
       254  -9.9391    247.6335    217.3509   7.5431873493e+01  -7.5046300954e+00    0.3272556    0.1846181 -33.93  0.001884096    1.676    0.403
       255  -8.9764    232.9943    211.9953   7.7004611542e+01  -4.6901715243e+00    0.2930478    0.1384948 -23.87  0.001351096    2.377    0.579
       256  -7.9567    228.7077    203.3356   7.6175948828e+01  -2.7537814880e+00    0.1127237    0.1034466 -63.71 0.0005324628    1.640    0.390
       257  -9.1482    226.4509    217.3158   7.9130626718e+01  -4.5087149140e+00    0.2085405     0.178011  48.95 0.0001600663    1.637    0.389
       258  -8.5314     29.4962    198.5111   1.1838713750e+02   2.9498337466e+01    0.2466766    0.1054128 -75.84   0.00118701    2.084    0.520
       259  -7.9640    141.4864    189.5060   9.1447856043e+01   1.4841503888e+01     0.142717    0.1358553  43.90 0.0001791321    1.008    0.008
       260  -8.3766    237.4387    187.4945   7.1604073768e+01  -1.6388191856e+00    0.1302054    0.1094802 -12.53 0.0001490109    1.020    0.020
       261 -10.2555    175.8353     27.9359   4.3152596984e+01   3.8002176191e+01    0.3832164    0.2352723 -49.85  0.001922692    1.644    0.392
       262 -10.0896    123.6872     27.1096   5.1738705665e+01   5.0861476809e+01     0.311445    0.2283925 -30.59 0.0007084688    1.461    0.316
       263  -8.0694    104.5025     29.4924   5.7109964259e+01   5.4997679163e+01    0.1975729    0.1812905  27.06  0.001204916    1.023    0.022
       264  -9.1274    105.1792     25.9113   5.5563741122e+01   5.5269323783e+01    0.2104032    0.1928524 -40.75 0.0003870372    1.235    0.190
       265  -9.8660    103.5660     21.0992   5.4102337836e+01   5.6163660533e+01    0.3712713    0.3012125 -39.28  0.001188474    1.397    0.284
       266  -8.0579    245.6830    157.3394   6.4122473393e+01   1.9000713403e+00    0.1284671    0.1004231 -60.25   0.00070487    1.706    0.414
       267  -8.8107    224.3366    153.6835   6.6941261186e+01   6.2492531751e+00    0.1354028    0.1099422 -70.39 0.0007048104    1.698    0.411
       268  -8.5261    249.8393    151.0208   6.2146439705e+01   2.2455884307e+00     0.215395    0.1368842 -53.89  0.001076939    1.956    0.489
       269  -8.5063     17.3090    147.3377   1.1645924761e+02   4.2778332888e+01    0.1307248   0.08200307 -49.42 0.0003525504    1.682    0.406
       270  -9.8709      9.5471    141.4774   1.1790111820e+02   4.4816293050e+01    0.2577951    0.1989401 -14.12  0.001604902    1.799    0.444
       271  -8.9680    248.8091    134.8166   5.8870102397e+01   5.0989623556e+00    0.1887774     0.145688 -51.11  0.001078324    1.344    0.256
       272  -9.3821     13.5896    133.3246   1.1588221150e+02   4.6502600055e+01    0.2345787    0.1823045 -64.91 0.0006187937    1.133    0.117
       273  -8.8974     65.1463    131.8684   1.0054583581e+02   4.1422002019e+01    0.2136162    0.1829581  86.91 0.0003234395    1.197    0.165
       274  -9.2386     38.0095     26.2419   7.9187252511e+01   6.7488869012e+01    0.3139614    0.1531683 -33.75 0.0009078244    1.868    0.465
       275  -8.8422     29.8190     27.3102   8.3544330635e+01   6.8330278165e+01    0.2906069    0.1953497  16.66  0.001155636    1.458    0.314
       276  -9.2230    239.0418     20.2873   3.4774372191e+01   2.4285061033e+01    0.3210887    0.1746271  61.39   0.00113836    1.996    0.499
       277  -9.6585    234.2920     25.9902   3.6394567475e+01   2.4617530849e+01     0.245035    0.1951999 -70.56 0.0004052208    1.044    0.042
       278  -8.9914    238.8070     24.9073   3.5783415042e+01   2.3783261914e+01    0.1979891     0.186589 -76.39  0.000956005    1.257    0.204
       279  -8.9028    115.3603     27.4102   5.3684366314e+01   5.2778357331e+01    0.3045946    0.1671032  66.10  0.000868107    1.951    0.488
       280  -9.8741     62.8032     25.9379   6.8682084645e+01   6.3756599687e+01    0.2986146     0.204895  12.25  0.001258119    1.492    0.330
       281  -8.5667     25.7714    128.5824   1.1174042481e+02   4.6676879573e+01    0.1679735    0.1165174  45.65 0.0007021505    1.605    0.377
       282  -9.5206    249.7742     23.9492   3.4724566850e+01   2.1616177867e+01    0.3699322    0.1356742 -42.16  0.001770579    2.144    0.534
       283  -9.5187    246.1575     23.2137   3.4845068437e+01   2.2447735265e+01    0.2468771    0.1657773 -74.57 0.0007837945    1.321    0.243
       284  -9.2122      2.0000    126.9757   1.1844220442e+02   4.8837403635e+01    0.2437939    0.1086336 -74.11  0.001204535    1.759    0.431
       285  -8.5183    225.6847    124.3026   6.0161906992e+01   1.1227890589e+01    0.1407093    0.1066506 -66.43 0.0007022388    1.618    0.382
       286  -8.0229     17.1876    124.3923   1.1370639491e+02   4.8418001005e+01    0.1556242    0.1136116  46.54 0.0002757577    1.549    0.354
       287  -9.7207     69.2923    122.8561   9.7465555861e+01   4.3086638141e+01    0.2223731    0.2195766 -46.41  0.000306755    1.099    0.090
       288 -10.1173    244.1528    117.2375   5.5725862962e+01   8.8870760507e+00    0.3641605    0.1583926 -25.16 0.0009171211    3.419    0.708
       289  -8.9780     22.5772     23.4807   8.5448449613e+01   6.9730257012e+01    0.2415925    0.1621827 -49.68  0.001201671    1.791    0.442
       290  -8.4944    236.1729    117.1521   5.6886220270e+01   1.0422595307e+01    0.1856569     0.149077 -56.80 0.0002916926    1.283    0.221
       291  -8.1984     96.2064     23.2262   5.6837099405e+01   5.7547150841e+01      0.17174    0.1557763 -67.01  0.001050631    1.383    0.277
       292  -9.5611     12.1446    115.1552   1.1397073132e+02   5.1040966757e+01    0.2198318    0.1914837 -67.58 0.0005126454    1.089    0.081
       293 -10.0594     15.4843    112.0498   1.1247124237e+02   5.1559318963e+01     0.263151    0.2003225 -82.26 0.0006396708    1.208    0.172
       294  -8.4004    113.7733     22.4121   5.2200725890e+01   5.3703169616e+01    0.1901756    0.1085208  47.86 0.0004153862    1.573    0.364
       295  -9.4097    232.1546     20.6844   3.5408761787e+01   2.5713635475e+01    0.2215482    0.1584955 -45.56 0.0003409299    1.275    0.216
       296 -10.0554     25.3479    112.2911   1.0935064012e+02   5.0727588142e+01     0.377496    0.2306921 -21.57  0.001887545    2.227    0.551
       297  -9.7559      6.6258    112.5532   1.1533121871e+02   5.2031004174e+01    0.2463413    0.1714778 -65.11  0.001505221    1.139    0.122
       298 -10.3512    246.9778    103.1682   5.2217691107e+01   1.0687565131e+01    0.3072912    0.2053755 -25.29  0.001565408    1.586    0.369
       299  -9.3551     19.1148    105.2374   1.1020675942e+02   5.2940640963e+01    0.2295519     0.137997 -56.49 0.0003701361    1.354    0.261
       300  -7.9831    180.3725    105.7107   6.3824754449e+01   2.4477230092e+01     0.158746    0.1196033 -80.58 0.0007021797    1.720    0.419
       301  -9.1870    119.9437    102.9555   7.7395543436e+01   3.8719461773e+01     0.252548    0.2278627  66.24  0.001289397    1.197    0.164
       302  -8.3525      2.1580     20.2929   9.5143142436e+01   7.2001670357e+01    0.1963645   0.08974513   6.77 0.0009773856    2.485    0.598
       303  -9.6894    170.3877     17.6733   4.0979462190e+01   4.0480822749e+01    0.4761813    0.1918115  57.71  0.002037383    2.219    0.549
       304  -8.6936     25.8778    103.3216   1.0759953155e+02   5.2862387112e+01    0.1759811    0.1579266 -48.58 0.0006930938    1.116    0.104
       305  -9.5956     10.0113    101.5024   1.1263497352e+02   5.4468986208e+01    0.2545154    0.1049141  29.59  0.001207145    2.767    0.639
       306  -9.3060      3.4844     99.9125   1.1457277799e+02   5.5233362446e+01    0.3146611    0.1600011 -83.44  0.001415608    1.972    0.493
       307  -8.5872    244.6573     98.6800   5.1530086261e+01   1.1870250292e+01    0.1315308    0.1041585   2.19 0.0007049806    1.722    0.419
       308  -7.9772    130.7845     98.0369   7.3090234089e+01   3.7428143737e+01    0.2047622    0.1246399 -43.72 0.0005215869    1.609    0.378
       309  -9.3266    249.9176     97.3127   5.0539777880e+01   1.1076532540e+01    0.1800546    0.1678299 -48.62  0.001085989    1.113    0.102
       310  -8.9687     72.5352     95.4646   8.9817201781e+01   4.9191525655e+01     0.263499    0.2281615 -46.27  0.000686012    1.061    0.057
       311  -8.9707    164.8833     94.6174   6.4049223732e+01   3.0241592986e+01    0.2751485    0.2149084 -39.05 0.0006133437    1.256    0.204
       312  -9.3743    210.3449     91.0449   5.4718644134e+01   2.0344650311e+01    0.2571838    0.2171805 -82.27 0.0005002329    1.273    0.215
       313  -9.6289    242.4139     91.2756   5.0165680023e+01   1.3516518306e+01    0.2633874    0.1200559 -33.67 0.0009563625    2.064    0.516
       314  -8.0760    174.6334     92.7300   6.1521132810e+01   2.8295013988e+01    0.1538731    0.1197737  20.89 0.0006997022    1.662    0.398
       315  -9.6503     19.9634     91.2171   1.0735349002e+02   5.6216806568e+01      0.30342    0.2488898 -39.34  0.001111221    1.176    0.150
       316 -11.3253    189.2027     88.1072   5.7528407415e+01   2.5705221134e+01    0.3554777    0.2761354 -79.08  0.001741671    1.492    0.330
       317  -8.0144    136.4566     90.4304   6.9430978359e+01   3.7712141035e+01    0.1528611     0.149807 -70.53 6.230871e-06    1.031    0.030
       318  -8.9754     55.6209     89.1408   9.3964972592e+01   5.3054842629e+01    0.3902727    0.2357422  66.12  0.001553568    3.160    0.684
       319  -8.6236     38.8381     89.4716   1.0011109769e+02   5.4939243307e+01    0.3744391    0.1851562 -32.07   0.00139186    2.511    0.602
       320  -9.1054    248.4691     88.5111   4.8781456824e+01   1.2763080954e+01    0.2390187    0.1200494 -27.03  0.000804187    2.336    0.572
       321  -8.8338     27.7611     88.8132   1.0401435946e+02   5.6146999618e+01    0.2366943    0.1757186  42.66  0.001379559    1.625    0.385
       322  -8.4230     78.6968     15.4779   5.8596673927e+01   6.2026214806e+01    0.1743249    0.1032257  39.54 0.0009234909    1.502    0.334
       323  -8.3250      1.5206     13.9361   9.2752922296e+01   7.3092518587e+01    0.1632364   0.08840787 -44.07 0.0007872292    1.551    0.355
       324  -8.6422      1.6145     88.2381   1.1340833441e+02   5.8064864532e+01    0.3495355      0.10642 -73.75  0.001340899    3.152    0.683
       325  -9.6464    243.1607     86.0144   4.8887179380e+01   1.4210973490e+01    0.2578608    0.1619804 -42.70  0.001237901    1.348    0.258
       326  -8.5455     33.9794     85.9948   1.0107069733e+02   5.6230590347e+01     0.160485    0.1372115 -47.25 0.0009864062    1.017    0.016
       327 -10.3582    199.0975     76.7485   5.2888284531e+01   2.5344378830e+01    0.4725927    0.2950355  48.77  0.001276805    1.757    0.431
       328 -11.3656    195.7206     82.1540   5.4841505431e+01   2.5220409526e+01    0.3399175     0.295406  74.60 0.0002372128    1.190    0.160
       329 -10.5363    188.9256     82.0659   5.5979145172e+01   2.6833824761e+01    0.2955244    0.2527213  55.81 0.0003692867    1.222    0.182
       330  -8.1115    149.8589     10.6215   4.1665530652e+01   4.6210739520e+01    0.1865627    0.1139084  83.22 0.0007508167    1.665    0.400
       331  -8.7937    235.9135     82.9846   4.9124195732e+01   1.6173077514e+01    0.2982193    0.1678094 -37.84   0.00144247    1.570    0.363
       332  -8.1701    230.2918     84.4111   5.0198571717e+01   1.7120020180e+01    0.2925218    0.1337952  58.50  0.001254649    2.409    0.585
       333  -9.7587     11.4994     82.7865   1.0879944606e+02   5.8760158682e+01     0.350882    0.2652021 -22.53  0.002229718    1.430    0.301
       334  -7.9128    154.5219     83.4905   6.3144150391e+01   3.4816696674e+01    0.1513333    0.1494938 -59.45 3.838331e-05    1.019    0.019
       335  -8.3856    135.5203     83.0623   6.7468909671e+01   3.9375729832e+01     0.229761    0.1493563 -41.64 0.0006310496    1.522    0.343
       336  -8.9581     87.1081     82.0231   8.1059876756e+01   4.9717540191e+01    0.3856016    0.2864883 -79.07  0.001374678    2.020    0.505
       337  -9.0917     64.0395     82.5247   8.9107401507e+01   5.3381457418e+01    0.2767379    0.2164532 -80.78 0.0008553866    1.724    0.420
       338  -7.6115     69.3255     82.3095   8.7173240332e+01   5.2636968657e+01    0.1473452    0.1052255 -17.59 0.0007038611    1.655    0.396
       339  -8.5591     20.6963     81.6013   1.0506540803e+02   5.8388676156e+01    0.2119501    0.1245523   7.31 0.0009134607    2.123    0.529
       340  -8.9822    174.3429     79.1409   5.7841689698e+01   3.0831525783e+01    0.2450801    0.2356583 -63.14 0.0005459878    1.017    0.016
