#   1 NUMBER                 Running object number                                     
#   2 MAG_AUTO               Kron-like elliptical aperture magnitude                    [mag]
#   3 X_IMAGE                Object position along x                                    [pixel]
#   4 Y_IMAGE                Object position along y                                    [pixel]
#   5 X_WORLD                Barycenter position along world x axis                     [deg]
#   6 Y_WORLD                Barycenter position along world y axis                     [deg]
#   7 A_WORLD                Profile RMS along major axis (world units)                 [deg]
#   8 B_WORLD                Profile RMS along minor axis (world units)                 [deg]
#   9 THETA_WORLD            Position angle (CCW/world-x)                               [deg]
#  10 FWHM_WORLD             FWHM assuming a gaussian core                              [deg]
#  11 ELONGATION             A_IMAGE/B_IMAGE                                           
#  12 ELLIPTICITY            1 - B_IMAGE/A_IMAGE                                       
         1 -15.2711      5.0029    138.3824   1.3890478380e+02   4.5815959268e+01     10.28151     1.487835 -72.25   0.02558255    7.408    0.865
         2 -13.4535    201.2932     30.3533   6.2886314092e+01   3.1706664728e+01     1.082678    0.8781304 -54.69  0.005320222    1.233    0.189
         3 -13.5427    219.9774     12.2674   5.6977673227e+01   2.9628381017e+01    0.8563734    0.7119898  71.58  0.002800536    1.281    0.219
         4 -12.5756      2.5222      4.8804   1.0783927071e+02   7.1873794158e+01    0.5279849    0.3296024 -48.32  0.003559165    2.345    0.574
         5 -11.3210     81.2859    249.2684   1.3416119795e+02   1.1730105813e+01    0.2776599    0.1640551  38.93  0.001526218    1.639    0.390
         6 -13.1072    242.5931    247.8855   1.0224463733e+02  -1.3386390316e+01    0.9966033    0.6066649  19.63   0.00595578    1.521    0.342
         7 -14.0240     29.8827    222.5355   1.4164580491e+02   2.4114510076e+01     0.846194    0.5722869  68.09   0.00258915    1.237    0.191
         8 -11.6508     62.7436    245.6628   1.3736657536e+02   1.5096731602e+01    0.3896018    0.2067046  63.57  0.001581872    1.774    0.436
         9 -13.2603    100.4668    247.2445   1.3017353646e+02   9.2053984154e+00    0.7207871    0.5634276  35.28  0.004402405    1.369    0.270
        10 -10.5463     54.9836    240.3279   1.3835919386e+02   1.7234797980e+01    0.1713637    0.1334811  63.17 0.0004367595    1.090    0.083
        11 -12.6711    146.5741    249.0532   1.2110385391e+02   1.3462030961e+00    0.6703184    0.2800777  41.90   0.00297455    2.042    0.510
        12 -13.0636      9.9364    207.1499   1.4429784228e+02   2.9578451241e+01    0.8679407    0.7025944 -59.70  0.004337687    1.501    0.334
        13 -13.0291     24.8924    228.7565   1.4307619766e+02   2.3349519250e+01    0.3279752    0.2862583 -85.63 0.0007632839    1.300    0.231
        14 -13.0312    112.1972    231.3911   1.2579324298e+02   1.0486555619e+01     1.317734    0.1594026  39.82  0.003217628    6.525    0.847
        15 -12.0480     85.6488    225.7932   1.3068312701e+02   1.5913418419e+01    0.6294932    0.1631769  49.00  0.002065607    3.848    0.740
        16 -11.2263     59.3157    214.6683   1.3495810535e+02   2.2180061554e+01    0.3540557    0.2062733  53.05  0.001873987    1.579    0.367
        17 -11.1118     56.9966    212.0000   1.3515831359e+02   2.3093276730e+01    0.3257345     0.166064  42.46  0.001586455    1.872    0.466
        18  -8.7679    152.5344    213.0558   1.1425515525e+02   7.1980648171e+00    0.1939146    0.1414734 -50.39  0.000299125    1.466    0.318
        19 -13.0893    120.6887    249.3455   1.2637498125e+02   5.5671066909e+00     1.268347     0.235108  42.76  0.003948021    4.239    0.764
        20 -11.7135     54.0081    196.1546   1.3401303851e+02   2.7143855868e+01    0.2860089    0.2319583 -65.56 0.0005153092    1.245    0.197
        21 -11.9278     61.0792    187.8794   1.3136300571e+02   2.8173221662e+01     0.270712    0.2352789 -68.73 0.0004234216    1.163    0.140
        22 -11.7567      6.1419    185.7741   1.4337415440e+02   3.4719345890e+01     0.502714    0.2524706  79.55  0.002237874    1.950    0.487
        23 -14.8361      9.3619    244.4443   1.4686694559e+02   2.1816136514e+01     2.953485     2.007464  45.42   0.02097331    1.530    0.346
        24 -10.3661     89.2123    166.8695   1.2120656562e+02   2.9127374610e+01    0.3616892    0.2420968  69.30  0.001030084    1.801    0.445
        25 -10.7019     72.5038    175.2624   1.2681416792e+02   2.9632373015e+01    0.2470811    0.2282363 -72.14 0.0002967823    1.108    0.097
        26 -10.2021     94.3643    151.1917   1.1689912987e+02   3.2138563780e+01    0.3373974    0.2653296 -53.03 0.0008120954    1.219    0.180
        27 -12.0362     82.6273    150.0272   1.1983377478e+02   3.4337683083e+01    0.3176776     0.248266 -48.76 0.0009309115    1.260    0.207
        28  -9.1878     97.7208    147.0559   1.1515307210e+02   3.2579034113e+01    0.2105745    0.1832953 -56.51  0.000285681    1.096    0.087
        29 -11.5520     68.3890    143.1935   1.2244032814e+02   3.8135786830e+01    0.5915014     0.387953 -87.47  0.001986119    1.925    0.481
        30 -10.9871     64.9648    141.9828   1.2316655961e+02   3.8905677590e+01    0.4095036    0.2494585 -64.82  0.001164618    1.530    0.346
        31 -13.0684     58.5226    173.2247   1.2996711067e+02   3.2064959041e+01     0.553225    0.2770356 -46.64  0.001611464    2.295    0.564
        32  -9.7531    107.4789    136.7062   1.1025391036e+02   3.3339708058e+01    0.4099431    0.2752072 -14.52   0.00126129    2.506    0.601
        33 -10.3759     94.1381    133.7603   1.1328244930e+02   3.6431210295e+01     0.253622    0.2150636 -48.45 0.0003538225    1.131    0.116
        34  -9.0218    105.1676    123.3305   1.0775509682e+02   3.6936779437e+01    0.1957011    0.1820561  45.32 0.0003825363    1.117    0.105
        35 -11.7681     80.2013    167.0686   1.2355000794e+02   3.0499109500e+01    0.5910136    0.5305911 -28.24  0.001942747    1.344    0.256
        36  -9.5579    160.4848     78.4657   8.1818882230e+01   3.4242877784e+01    0.1482466    0.1405182  82.77  4.37008e-06    1.020    0.020
        37 -13.2853     41.1614    211.4244   1.3841048526e+02   2.5238318938e+01     1.252794    0.9071197 -67.67  0.007728078    1.353    0.261
        38 -12.7517    172.9391    249.0294   1.1578353799e+02  -3.0192344643e+00    0.8007098    0.2277854  38.75  0.002945038    3.063    0.674
