#   1 NUMBER                 Running object number                                     
#   2 MAG_AUTO               Kron-like elliptical aperture magnitude                    [mag]
#   3 X_IMAGE                Object position along x                                    [pixel]
#   4 Y_IMAGE                Object position along y                                    [pixel]
#   5 X_WORLD                Barycenter position along world x axis                     [deg]
#   6 Y_WORLD                Barycenter position along world y axis                     [deg]
#   7 A_WORLD                Profile RMS along major axis (world units)                 [deg]
#   8 B_WORLD                Profile RMS along minor axis (world units)                 [deg]
#   9 THETA_WORLD            Position angle (CCW/world-x)                               [deg]
#  10 FWHM_WORLD             FWHM assuming a gaussian core                              [deg]
#  11 ELONGATION             A_IMAGE/B_IMAGE                                           
#  12 ELLIPTICITY            1 - B_IMAGE/A_IMAGE                                       
         1 -16.7383    136.7801     27.6900   5.2284601950e+01   4.7948299273e+01     7.131423     4.171153 -35.95    0.0316465    1.682    0.405
         2 -11.4335    175.8616     52.8696   5.3968130685e+01   3.4365362526e+01    0.5700553     0.217395 -36.24  0.002087594    2.364    0.577
         3 -18.1618    230.0185     74.3514   5.2198320124e+01   1.9047335816e+01     8.812269     4.665393 -28.76   0.04260272    1.669    0.401
         4 -11.2264    204.5862      9.9107   3.7824887162e+01   3.2544609932e+01    0.1641633    0.1090106  16.58 0.0007950533    2.168    0.539
         5 -12.0276    181.8279    207.4511   8.7903092996e+01   7.9656204392e+00    0.4697874    0.2057054  19.58  0.001841899    3.702    0.730
         6 -13.8541    192.9355    195.2116   8.3924420548e+01   8.0219346504e+00    0.9020112    0.5518314 -62.95  0.003728484    4.847    0.794
         7 -12.9354    204.5740    199.2285   8.2481438122e+01   5.7910127152e+00     0.320679    0.1960767 -28.51  0.001947616    1.677    0.404
         8  -9.6222    148.2869    193.6593   9.2461518649e+01   1.5087074126e+01    0.1205424   0.09522401  64.20 0.0007019509    1.640    0.390
         9 -13.9257    162.2325     79.6460   6.4537826451e+01   3.3343387722e+01    0.5683743    0.4598128 -26.24  0.002062235    1.260    0.206
        10 -11.0729    202.1817    248.4253   8.9968732434e+01   3.5666964247e-01    0.1641368     0.127048  -3.81 0.0002669668    1.273    0.215
        11 -14.9617     17.3805    175.3039   1.2100847016e+02   3.5853927870e+01     2.918522     1.184133  70.82    0.0140219    2.363    0.577
        12 -13.4450     54.1198    154.0230   1.0988264915e+02   3.6897491903e+01    0.3975554    0.3671784 -30.71  0.001097192    1.363    0.266
        13 -15.6574     65.3759    147.0600   1.0591430928e+02   3.7118636098e+01     1.817323     1.359636  -2.40  0.004134355    1.938    0.484
        14 -13.7465    189.1670    148.2628   7.6000757613e+01   1.5719544792e+01    0.7926571    0.3849924 -25.31  0.003040239    2.573    0.611
        15 -12.4459    143.2459    104.3519   7.5717965079e+01   3.2976712704e+01     0.782849    0.4352235  24.85  0.002210175    3.000    0.667
        16 -12.0022    133.2693    143.7731   8.7254316271e+01   2.6889101833e+01     1.337893    0.3445752 -54.44  0.003407457    6.052    0.835
        17 -10.9275    137.5003     89.4728   7.3046646825e+01   3.7240724718e+01    0.2845984    0.2164469 -52.43 0.0006444234    1.366    0.268
        18 -12.6153    135.3845    124.2593   8.2556813794e+01   3.0519170729e+01     1.751592    0.2780726 -49.17  0.003625677    7.958    0.874
        19 -12.1676    137.4378     94.0782   7.4369513675e+01   3.6328058808e+01    0.5084588     0.326205  58.32  0.001025091    1.747    0.428
        20 -13.1935    134.6203    108.1685   7.8854570060e+01   3.4037239179e+01     1.860053    0.3134332 -47.42  0.004024556    6.771    0.852
        21 -12.2373    132.1542     98.6506   7.6980655339e+01   3.6549968940e+01    0.6613564    0.3023278 -48.82  0.002104339    2.282    0.562
        22 -12.3608    172.3821    149.5556   7.9616817606e+01   1.8550762833e+01    0.3015701    0.2476704  54.67  0.001690279    1.411    0.291
        23 -11.2155    149.0310    148.8645   8.4554131415e+01   2.2976666876e+01    0.3676095    0.1745151  39.84  0.001543041    1.998    0.499
        24 -11.4172    143.7497    147.2008   8.5439528159e+01   2.4271618320e+01    0.5649737    0.2777221 -56.99  0.002227137    2.696    0.629
        25 -14.9092     28.7451    167.2312   1.1773871129e+02   3.6591040538e+01     1.059977     0.819521  50.46  0.004085402    1.145    0.127
        26 -13.9528    160.6623    128.4240   7.7568841780e+01   2.4630741125e+01     1.012795    0.7893257 -86.92  0.004902291    1.920    0.479
        27 -13.9069    159.7985    116.7035   7.4997417213e+01   2.7027653490e+01     1.519955    0.9409617 -77.71  0.004906105    4.294    0.767
        28 -13.8866    167.8941    114.0618   7.2595603546e+01   2.5823069285e+01     1.230991    0.7850354 -53.20  0.002588512    1.835    0.455
        29  -9.9071    150.2807    131.3274   8.0571400863e+01   2.6135960532e+01    0.1457811    0.1127991  -3.00 0.0005150956    1.599    0.375
        30  -9.7664     98.5202    129.4439   9.3559112569e+01   3.6248800286e+01    0.1440981    0.1379014  64.00 0.0001457663    1.012    0.012
        31 -12.3500    112.6279    104.2062   8.3796652870e+01   3.9421882060e+01     0.997138    0.8657848 -32.97  0.005165618    1.228    0.186
        32 -12.9600    123.2939    102.9946   8.0498418091e+01   3.7512186776e+01     0.586157    0.4625655  89.07  0.002159251    1.631    0.387
        33 -10.5245    178.1748    110.1196   6.9511482420e+01   2.4363832067e+01    0.2189371    0.1882343  -0.12 0.0004839537    1.221    0.181
        34 -11.9341    166.3693    101.9931   6.9854532959e+01   2.8367420268e+01    0.5247884    0.3555556 -40.66  0.001018154    1.445    0.308
        35 -13.1032    150.9692     90.5960   7.0140735164e+01   3.3956050314e+01    0.5141279    0.4258904  45.48  0.001657888    1.225    0.184
        36 -13.4444    154.3031     99.6526   7.1872657193e+01   3.1473413511e+01    0.8482882    0.6201035  49.38  0.004079931    1.391    0.281
        37 -13.4663    165.9671     92.3147   6.7346761285e+01   3.0217120350e+01    0.7512487    0.6213761  21.10  0.001968696    1.356    0.263
        38 -12.2880    172.2036     88.6025   6.5064418685e+01   2.9455406458e+01    0.2759566    0.2469155 -34.87 0.0003377482    1.076    0.070
        39 -11.5054    113.4756     95.0981   8.1134921300e+01   4.1277484622e+01    0.2853724    0.2583216  33.78 0.0003701552    1.144    0.126
        40 -12.8136    122.2882     91.2549   7.7561661498e+01   4.0244807982e+01    0.7060782    0.4163307  28.44  0.002250667    2.311    0.567
        41 -12.6628    185.4152    171.2177   8.1193660471e+01   1.2716402442e+01    0.3401325    0.2075959 -46.65  0.001771098    1.963    0.491
        42 -13.6648    124.9349    108.3746   8.1440097762e+01   3.6009608425e+01    0.9028705    0.8156144  31.45  0.003060762    1.137    0.120
        43  -9.5442    247.3132    174.2601   7.1145969028e+01   2.8770637790e+00    0.1157296    0.0726081   6.22 0.0002397186    1.534    0.348
        44 -10.2224    205.2843    223.6641   8.6094478068e+01   2.6977886183e+00   0.09464873    0.0842308  39.89 0.0003277046    1.624    0.384
        45 -12.4841    191.6937     46.2633   4.9645665324e+01   3.1412110689e+01    0.3127383    0.2184942 -43.99 0.0007351823    1.332    0.249
        46 -10.2943    191.8888     41.1036   4.8111382750e+01   3.2047250559e+01    0.2029239    0.1779288 -23.01 0.0004050637    1.166    0.143
        47 -11.2691    190.3855     35.9003   4.6767558291e+01   3.3079769858e+01    0.3636284    0.2102675 -59.58 0.0009563444    1.922    0.480
        48 -10.2560    182.1504     41.4085   4.9513400803e+01   3.4405714463e+01    0.1794219    0.1719526 -72.34  0.001030654    1.039    0.038
        49 -14.2217    182.2560     82.7791   6.1563681136e+01   2.8144346727e+01      0.90806    0.6213239  25.76  0.003699023    1.873    0.466
        50 -11.2397     95.4999    221.0195   1.0688791927e+02   1.8052671791e+01    0.2374572    0.1233208  46.87  0.001060794    1.605    0.377
        51 -12.4149    166.8491     35.2277   4.9800834155e+01   3.9103671876e+01    0.5662112    0.2508147 -30.22  0.001566149    2.158    0.537
        52 -12.9191    199.6711    163.3701   7.7032659381e+01   1.1550496264e+01    0.7329268    0.4601516 -68.31  0.002396283    6.503    0.846
        53 -12.6217    204.5950     27.9469   4.2876919528e+01   3.0602290579e+01    0.3374954    0.2641403 -20.49  0.001890048    1.324    0.245
        54 -13.8621    192.3434    153.3176   7.6423780451e+01   1.4345855022e+01    0.5395239    0.4058332  -1.23  0.002506332    1.383    0.277
        55  -9.8483     81.4540     22.4550   6.4501817174e+01   6.2407446049e+01    0.1991728    0.1297186 -41.35 0.0001092553    1.599    0.375
        56 -10.8766     78.8743     19.3358   6.3831944731e+01   6.3439869356e+01    0.2513591    0.1958304 -37.29 0.0005314171    1.318    0.241
        57 -12.5680    202.8028    190.8114   8.1404568194e+01   7.1584868978e+00    0.3582621    0.2369746  25.72  0.002193988    1.315    0.239
