#   1 NUMBER                 Running object number                                     
#   2 MAG_AUTO               Kron-like elliptical aperture magnitude                    [mag]
#   3 X_IMAGE                Object position along x                                    [pixel]
#   4 Y_IMAGE                Object position along y                                    [pixel]
#   5 X_WORLD                Barycenter position along world x axis                     [deg]
#   6 Y_WORLD                Barycenter position along world y axis                     [deg]
#   7 A_WORLD                Profile RMS along major axis (world units)                 [deg]
#   8 B_WORLD                Profile RMS along minor axis (world units)                 [deg]
#   9 THETA_WORLD            Position angle (CCW/world-x)                               [deg]
#  10 FWHM_WORLD             FWHM assuming a gaussian core                              [deg]
#  11 ELONGATION             A_IMAGE/B_IMAGE                                           
#  12 ELLIPTICITY            1 - B_IMAGE/A_IMAGE                                       
         1 -10.4098    207.1255     27.8755   4.5183733034e+01   2.9743950585e+01    0.4845718    0.4041801 -25.34  0.001763488    1.333    0.250
         2  -9.0662    133.9916     14.1832   5.2158918064e+01   4.9918505074e+01    0.2809754    0.1983896 -18.97  0.000553187    1.553    0.356
         3  -8.2475    234.1639      2.3532   3.6303531775e+01   2.6154337040e+01    0.2524208   0.08920603  65.36  0.001094074    2.597    0.615
         4 -13.2322     63.1834    247.4434   1.2131058893e+02   1.6048961474e+01     3.581692    0.8943579  36.82  0.008941717    3.883    0.742
         5  -9.8769    249.2090    248.5576   8.7588518484e+01  -1.1762462081e+01     0.403091    0.2428352  -1.91  0.002588437    1.590    0.371
         6 -13.5329     10.3396    245.6958   1.3000633897e+02   2.2395945686e+01     1.763332     1.530697  85.49  0.005122534    1.465    0.317
         7  -9.4733     41.0507    225.6096   1.2371656143e+02   2.2760942906e+01    0.2508878    0.1270988  70.59  0.001149762    1.791    0.442
         8  -8.5245    226.5470    223.3594   8.7393373245e+01  -5.5525837299e+00    0.2020165    0.1718667  26.24 0.0002169841    1.250    0.200
         9  -8.6004     56.2929    223.5186   1.2074070287e+02   2.1315167091e+01    0.2610837   0.09483641 -71.27  0.001246866    2.766    0.638
        10  -9.8517     45.4309    219.7101   1.2248902992e+02   2.3386880963e+01    0.3501735    0.2645293  11.65  0.002188075    2.342    0.573
        11 -12.1386      2.4298    221.4192   1.3025376374e+02   2.7571227757e+01     2.350919    0.4278764 -71.50   0.01017231    4.198    0.762
        12  -9.9419    116.1570    232.0974   1.1002570231e+02   1.1159147053e+01    0.3358879    0.2246033  63.48 0.0009293765    1.502    0.334
        13  -8.1834     57.6308    212.2940   1.1954441896e+02   2.3359782849e+01    0.1318108   0.07072628  63.87 0.0007027602    1.723    0.420
        14  -8.0205     39.9783    209.9965   1.2279998257e+02   2.5958372870e+01    0.2023124     0.106164  67.20  0.001140918    1.712    0.416
        15  -9.3552     53.5299    232.0259   1.2190425300e+02   2.0047638092e+01    0.2417784    0.1794771  79.99  0.001339512    1.149    0.130
        16  -9.2506    224.7986    205.5326   8.4546574754e+01  -2.8433858663e+00    0.3125011    0.2753657 -83.82   0.00111499    2.011    0.503
        17 -10.4161     46.1026    204.3067   1.2114915597e+02   2.6410117286e+01    0.4031524    0.3348626  61.21   0.00186572    1.169    0.144
        18  -9.4165    213.2763    200.3452   8.5754211832e+01  -1.4359172876e-01    0.3651682    0.2134742  40.07 0.0004594528    1.602    0.376
        19  -9.2192    214.0542    195.6489   8.4722306449e+01   4.4114102507e-01     0.274821     0.225118   4.95 0.0003088843    1.107    0.097
        20  -9.3820    214.5853    191.0731   8.3743083256e+01   1.0605301928e+00    0.3369092    0.2152743  45.82  0.001351207    1.662    0.398
        21 -10.3467    244.3704    198.4763   7.9690777790e+01  -5.0008222712e+00    0.2368885     0.201582 -11.02 0.0001597522    1.180    0.153
        22  -6.9102    136.7121    199.6785   1.0139965396e+02   1.3720667611e+01    0.1302632    0.1068008  -0.31 0.0002245605    1.601    0.375
        23  -8.9481    239.0309    197.6385   8.0477119620e+01  -4.0379782684e+00     0.183624    0.1423519  17.69  0.000527724    1.122    0.108
        24  -8.0702     15.9132    198.1149   1.2660527608e+02   3.0922658254e+01    0.1840305    0.1127903  69.61 0.0006441184    1.310    0.237
        25  -8.1833    249.3784    196.1388   7.8371277421e+01  -5.4626895308e+00    0.1674448     0.107795 -37.32 0.0007081108    1.707    0.414
        26  -9.4611     54.6132    194.4005   1.1851239339e+02   2.7465867448e+01    0.3226382    0.2209142  78.68  0.001950953    1.306    0.235
        27  -9.1721     58.2550    192.9777   1.1759911672e+02   2.7313522964e+01    0.2619429    0.2024739  87.20  0.001667334    1.125    0.111
        28  -9.5053     56.5631    189.3318   1.1759100992e+02   2.8319117716e+01      0.46697    0.3524776  27.94  0.002843266    1.667    0.400
        29  -6.9097    238.7055    235.2806   8.7237852514e+01  -8.8358538661e+00   0.09950023   0.08790468  33.67  0.000183655    1.534    0.348
        30  -7.9910    223.9851    191.2820   8.2002651502e+01  -6.1055081069e-01    0.1905389    0.1542731  21.34 0.0005033282    1.105    0.095
        31  -7.6251     73.2282    188.8178   1.1388893758e+02   2.6218558497e+01     0.233723    0.1139092  70.05 0.0009520454    2.823    0.646
        32 -10.0522    182.2943    186.7324   8.9382555037e+01   7.7194873339e+00    0.2484195    0.2391377 -34.77 0.0005916731    1.177    0.150
        33  -8.9330    240.9229    186.3505   7.7946514290e+01  -2.7345233480e+00      0.23707    0.1681125 -19.11 0.0005645327    1.295    0.228
        34  -8.2200    134.6609    186.8634   9.9776295666e+01   1.6637807542e+01    0.2114821    0.1826993  31.74 0.0004885201    1.175    0.149
        35  -7.4803    129.6789    186.3819   1.0081764876e+02   1.7637639521e+01    0.1496128    0.1049956  75.37 0.0007020422    1.834    0.455
        36  -9.2500     67.3758    182.1772   1.1441291076e+02   2.8490112644e+01    0.2154589    0.1945666  60.52 0.0004062362    1.165    0.142
        37  -7.8610     22.1502    182.1859   1.2426243346e+02   3.3704132206e+01    0.1727922    0.1088131  70.48 0.0007735351    1.357    0.263
        38  -7.4941      5.2933    181.6328   1.2766037497e+02   3.5336042226e+01    0.1234282   0.06229759  70.00  0.000702793    1.717    0.417
        39  -8.5601     70.1307    177.5509   1.1322047021e+02   2.9154772607e+01    0.2528708    0.2377591  88.23 0.0007937739    1.170    0.145
        40  -7.7406     47.9882    177.3289   1.1823805292e+02   3.2026101638e+01     0.216102   0.05412159  50.88 0.0007051546    4.399    0.773
        41  -7.3886     41.1999    173.3745   1.1935900473e+02   3.3693569810e+01    0.1785405   0.09685888  48.19 0.0009539893    1.750    0.429
        42  -8.8675    203.0318    171.0324   8.1983346441e+01   6.5267844624e+00    0.2191797    0.1961082 -15.65 0.0003725616    1.093    0.085
        43  -8.1134     74.4528    172.1110   1.1150205516e+02   2.9791066465e+01    0.2182661    0.1903341  16.92 0.0006184796    1.494    0.331
        44 -11.2815      9.9350    207.0088   1.2823682708e+02   2.9679319489e+01    0.6187572    0.4878436  51.42  0.003920936    1.355    0.262
        45  -7.0792    188.6938    168.3120   8.4357627414e+01   9.8327060209e+00     0.138902    0.1186197  86.76 0.0004514259    1.618    0.382
        46  -8.7218     67.9771    166.8252   1.1233876177e+02   3.1909424077e+01    0.2053865    0.1697965 -82.60 0.0003465665    1.089    0.082
        47  -7.1426    112.5768    166.5038   1.0143823372e+02   2.4996212602e+01    0.1417315    0.1351079  76.88 7.122562e-05    1.035    0.033
        48  -7.9665    131.0314    163.5352   9.6429874521e+01   2.2268911932e+01    0.2110175    0.1959776 -64.29 7.238636e-05    1.109    0.098
        49  -8.4145     82.9136    162.3696   1.0804524103e+02   3.0813876985e+01    0.2355098    0.1796263 -85.30 0.0005807149    1.300    0.231
        50  -7.2075    135.8060    159.8935   9.4568791227e+01   2.2148918097e+01     0.191832    0.1164501 -48.45 0.0008340375    1.703    0.413
        51  -9.6381     71.1454    158.2794   1.1036122181e+02   3.3479554127e+01    0.4062383    0.2482206 -46.98  0.001319561    1.859    0.462
        52  -6.9794    230.9532    160.0000   7.4287653730e+01   3.0861259733e+00    0.2107888   0.07724609  44.59 0.0003598464    2.817    0.645
        53  -6.9539    222.2629    146.7142   7.2948521236e+01   6.9900320545e+00    0.1310984    0.1130527 -63.05 0.0002355046    1.489    0.329
        54  -8.7549     69.3094    145.0912   1.0880281228e+02   3.6885768154e+01    0.4399565    0.2420368  50.47  0.002040757    1.926    0.481
        55  -7.5496    160.9982    142.7334   8.4864678830e+01   2.0681546494e+01     0.217069    0.1915141  35.15  0.000435642    1.121    0.108
        56  -8.4158      8.0155    143.4813   1.2425645647e+02   4.3603661907e+01    0.2619415    0.1158953  25.61  0.001368194    2.757    0.637
        57  -8.4440     90.8680    140.8813   1.0229897620e+02   3.4680574476e+01    0.2132124    0.1986866 -73.35 0.0005176936    1.030    0.030
        58  -8.7374    149.0106    119.1972   8.2013168711e+01   2.8364220890e+01    0.2488886    0.2186503 -43.40 0.0003505369    1.134    0.118
        59  -9.6729    205.4739    116.6954   6.8975013782e+01   1.5946725832e+01    0.2676674    0.2497348   6.35  0.000261218    1.086    0.080
        60  -7.6111    111.9631    114.5303   9.0634665574e+01   3.7202746070e+01    0.2142762    0.1529603  39.11 0.0003488251    1.456    0.313
        61  -7.8838    210.6106    113.1504   6.7121601853e+01   1.5439552007e+01    0.2351401     0.179019  39.90 0.0005287772    1.385    0.278
        62  -7.7001      8.7592    107.6454   1.2027284498e+02   5.1896727103e+01    0.1465344    0.1059128  41.91 0.0006590484    1.643    0.391
        63  -7.9524     94.3820     94.8897   9.0656436632e+01   4.4992575725e+01    0.2207839    0.1971137  49.68 0.0004588607    1.215    0.177
        64  -7.2047    151.8541     93.1722   7.4193695729e+01   3.3171145158e+01    0.2095858    0.1812057  16.88 0.0002846121    1.279    0.218
        65  -8.2537      3.8014     83.4108   1.1843633465e+02   5.7764347651e+01    0.1451258    0.1050139 -23.55 0.0004821219    1.610    0.379
        66  -7.4974    127.6201     79.6961   7.6373303560e+01   4.1502693050e+01    0.2559913    0.1877219   5.95 0.0009360699    1.830    0.453
        67 -10.2773    110.1239     74.2874   7.9643737605e+01   4.6372183592e+01    0.2733946    0.2346955 -35.24 0.0003091516    1.131    0.116
        68  -7.3745    121.8511     72.6077   7.5708924890e+01   4.4180777520e+01    0.2028378    0.1472208  58.72  0.000464143    1.562    0.360
        69  -8.9241    206.3372     68.8251   5.6294741714e+01   2.4114053031e+01     0.363869    0.2641656 -24.36  0.001079141    1.483    0.326
        70  -7.4952    181.0297     59.3270   5.7944191269e+01   3.1982530101e+01    0.2048521    0.1843141  73.50 0.0003003908    1.109    0.098
        71  -7.1806    187.3126     45.6507   5.2878259190e+01   3.2418118601e+01     0.158452    0.1068804 -65.08 0.0007046115    1.720    0.419
        72 -10.2571    114.0222    246.9737   1.1206655753e+02   8.9722971470e+00    0.2195536    0.2025274  56.97 0.0003756288    1.207    0.172
        73  -7.4441    135.8789     26.7953   5.6296522948e+01   4.8059890107e+01    0.1811024    0.1635082 -64.25 0.0004097916    1.259    0.205
        74  -7.6789    174.7232     17.6178   4.6509735083e+01   3.9176508295e+01    0.1934165    0.1259003  78.87 0.0009362668    1.516    0.340
        75  -8.2470    166.5964     17.1703   4.7557284257e+01   4.1320149591e+01    0.2360474     0.177568  67.93 0.0003121815    1.213    0.176
        76 -11.2775     85.2371    231.6478   1.1595981209e+02   1.5882202626e+01    0.9528331    0.4729729 -87.08  0.003832894    2.853    0.650
