#   1 NUMBER                 Running object number                                     
#   2 MAG_AUTO               Kron-like elliptical aperture magnitude                    [mag]
#   3 X_IMAGE                Object position along x                                    [pixel]
#   4 Y_IMAGE                Object position along y                                    [pixel]
#   5 X_WORLD                Barycenter position along world x axis                     [deg]
#   6 Y_WORLD                Barycenter position along world y axis                     [deg]
#   7 A_WORLD                Profile RMS along major axis (world units)                 [deg]
#   8 B_WORLD                Profile RMS along minor axis (world units)                 [deg]
#   9 THETA_WORLD            Position angle (CCW/world-x)                               [deg]
#  10 FWHM_WORLD             FWHM assuming a gaussian core                              [deg]
#  11 ELONGATION             A_IMAGE/B_IMAGE                                           
#  12 ELLIPTICITY            1 - B_IMAGE/A_IMAGE                                       
         1 -14.8707    176.7544     27.7263   7.4153573870e+01   3.7977654963e+01     1.406247      1.00384  11.76  0.005057647    1.840    0.457
         2 -13.7636    180.2633     21.2848   7.1617900117e+01   3.7804037466e+01    0.6685187    0.6032258 -88.88   0.00130956    1.063    0.060
         3 -12.0142    189.9293     14.9838   6.8411014311e+01   3.5938583693e+01    0.2236005    0.2051094  87.62 0.0007235991    1.006    0.006
         4 -19.6173     46.1275    159.3374   1.3954643003e+02   3.7530714146e+01     18.59582     4.706102 -71.70   0.06672437    3.871    0.742
         5 -10.8190      2.1628    249.5447   1.5329861829e+02   2.4852996226e+01    0.1831622    0.1176247  77.91  0.001559334    1.153    0.133
         6 -11.3165    111.1752    202.8294   1.3081034295e+02   1.9233090591e+01    0.1591094    0.1473843  38.55 0.0005122701    1.319    0.242
         7 -12.7134    194.5352    195.9615   1.1328679370e+02   5.4235868503e+00     1.078954    0.7273309 -85.99  0.004451708    3.788    0.736
         8 -12.0234    180.8447    232.5002   1.2155376402e+02   2.5777687705e+00    0.1899869    0.1800098 -19.52   0.00103081    1.307    0.235
         9 -11.4107    111.3710    197.1955   1.3004963819e+02   2.0267467802e+01    0.3326402    0.2207419  18.78  0.001587526    2.679    0.627
        10 -11.0153    189.0128    225.6918   1.1910651629e+02   2.1189046411e+00    0.1746936    0.1323655  38.20 0.0005768318    1.059    0.056
        11 -11.3433    209.7017    188.5663   1.0911519389e+02   3.7149029937e+00    0.2646374    0.1126514  40.06  0.001138105    2.116    0.527
        12 -11.6419     91.9489    187.1454   1.3279058766e+02   2.5366168065e+01     0.311208    0.1738552  40.44  0.001022665    1.743    0.426
        13 -10.8994    201.7790    182.7951   1.0951975686e+02   6.0903867131e+00    0.2731596    0.2229025  47.61  0.001036024    1.221    0.181
        14 -12.1786     91.3376    180.2849   1.3204256637e+02   2.6871322686e+01    0.3893338    0.2338479 -49.81  0.001790524    2.019    0.505
        15 -12.1060     94.0081    175.0307   1.3075168811e+02   2.7552953452e+01    0.2972164    0.2460194 -43.25 0.0008467403    1.577    0.366
        16 -10.1538     99.4368    180.2782   1.3029016905e+02   2.5589660202e+01    0.1741098    0.1185729 -80.76 0.0009391256    1.547    0.353
        17 -11.3927    112.6029    170.0823   1.2587968771e+02   2.5499128552e+01     0.501806    0.3711661 -34.08  0.001384641    1.907    0.476
        18 -11.5346    138.0257    171.0360   1.2040937639e+02   2.0651665851e+01    0.3786051    0.2833185  82.84  0.001951553    1.601    0.375
        19 -11.7375    227.4495    170.4291   1.0236659749e+02   3.0678174982e+00    0.3658629    0.2227201 -52.55  0.001438822    2.419    0.587
        20 -11.3997    139.8044    217.5266   1.2710579950e+02   1.1829597571e+01    0.2259982    0.1582858 -85.51  0.001202339    1.907    0.475
        21 -12.2239     99.5322    166.4902   1.2827214931e+02   2.8479016031e+01    0.5908333    0.3774844  82.29  0.002882445    1.890    0.471
        22 -10.6915     99.1664    214.1215   1.3448183243e+02   1.9052388376e+01    0.2459281    0.1180964  59.06   0.00074104    2.017    0.504
        23  -7.0122     21.7000    214.5552   1.4870991134e+02   2.8957396659e+01    0.3853982    0.1590034  31.11  0.002023336    3.273    0.694
        24 -12.3939    103.6446    157.7273   1.2592611278e+02   2.9688730050e+01    0.6085437    0.3305601 -43.94  0.002500175    2.313    0.568
        25 -13.8891     11.5036    206.5093   1.5004587795e+02   3.1473407344e+01    0.6067951    0.3267615  45.18  0.004182626    1.689    0.408
        26 -10.1934      9.3834    214.2100   1.5078092686e+02   3.0245939626e+01    0.0799812   0.07486064  71.22 0.0006821767    1.597    0.374
        27 -12.1000    133.2776    145.3430   1.1663156980e+02   2.6885686591e+01    0.8058795    0.3711052 -56.18  0.003108374    2.419    0.587
        28 -10.2577    179.8034    147.7934   1.0678861693e+02   1.6608958501e+01    0.1991473    0.1759772  86.57 0.0005818688    1.322    0.244
        29 -12.1302    114.8580    211.8077   1.3118875471e+02   1.6986615351e+01    0.4023809    0.1813409  49.56  0.001863307    1.859    0.462
        30 -12.3173    101.0516    201.6793   1.3269704871e+02   2.1077858924e+01    0.3620424    0.2170058  57.99  0.002000619    1.480    0.324
        31 -11.6902    112.6104    141.6390   1.2086762090e+02   3.1652508292e+01    0.4503752     0.235991 -39.60  0.001799674    2.527    0.604
        32 -12.3454    101.8645    142.3922   1.2366548241e+02   3.3394531621e+01    0.2722349     0.240059  48.37  0.000501162    1.177    0.151
        33 -11.0390    118.1975    131.6121   1.1742923372e+02   3.2832126310e+01    0.2759316     0.236061 -35.62   0.00071153    1.338    0.253
        34 -11.9115    106.2248    129.3175   1.1999160027e+02   3.5575826840e+01    0.4901912    0.2854735 -51.54  0.002227493    1.690    0.408
        35 -12.9012    102.9656    208.1939   1.3308260957e+02   1.9550461634e+01    0.5150935    0.2860819  64.23  0.002691625    1.843    0.457
        36 -10.5530    121.5041    125.5184   1.1525609514e+02   3.3538829935e+01    0.1475606    0.1417137  88.44 5.612368e-05    1.020    0.020
        37 -11.7190    107.4113    206.7531   1.3203917515e+02   1.9111570552e+01    0.2057702     0.179113 -38.52 0.0008525879    1.631    0.387
        38 -10.2761     84.8356    121.2055   1.2399812125e+02   4.1043446865e+01    0.1834432    0.1619862 -36.73 0.0004216348    1.307    0.235
        39 -10.4404    112.6097    120.1806   1.1633624516e+02   3.6451345670e+01    0.2421203    0.1907941  57.08 0.0004176226    1.294    0.227
        40 -10.2824    167.9778    112.9778   1.0106948495e+02   2.6012915360e+01    0.3183282    0.1927738 -81.77 0.0009545616    4.096    0.756
        41 -10.6428    166.2904    209.9580   1.2096623886e+02   8.4129838028e+00    0.1726825    0.1565792  41.66 0.0004161549    1.088    0.081
        42 -10.6625    204.9440    110.2556   9.2838352327e+01   1.7762005035e+01    0.2969061    0.2062899  35.23  0.001355221    1.581    0.367
        43  -9.6945    123.6687    101.7307   1.0885195197e+02   3.8304955739e+01    0.1481902    0.1213878   5.86 0.0002642201    1.585    0.369
        44 -11.4427    121.3465    206.5665   1.2926241106e+02   1.6858882394e+01    0.3935409    0.1735794  64.35   0.00139851    4.011    0.751
        45 -12.1741    162.9701     55.9774   8.5642694548e+01   3.7650205595e+01    0.2378068    0.2320564  76.79 0.0004913561    1.015    0.014
        46 -13.8202    163.8225     43.5940   8.1483939603e+01   3.9296834414e+01     0.788376    0.4942597 -27.32  0.001119316    1.688    0.408
        47 -11.9503    161.7061    248.5262   1.2700969410e+02   3.5700026066e+00    0.2338742    0.1797861  45.24 0.0009753089    1.028    0.027
        48 -11.4914    196.1200    246.3466   1.2079096301e+02  -1.6771542431e+00    0.1779515    0.1452037   5.92 0.0005806944    1.352    0.260
