#   1 NUMBER                 Running object number                                     
#   2 MAG_AUTO               Kron-like elliptical aperture magnitude                    [mag]
#   3 X_IMAGE                Object position along x                                    [pixel]
#   4 Y_IMAGE                Object position along y                                    [pixel]
#   5 X_WORLD                Barycenter position along world x axis                     [deg]
#   6 Y_WORLD                Barycenter position along world y axis                     [deg]
#   7 A_WORLD                Profile RMS along major axis (world units)                 [deg]
#   8 B_WORLD                Profile RMS along minor axis (world units)                 [deg]
#   9 THETA_WORLD            Position angle (CCW/world-x)                               [deg]
#  10 FWHM_WORLD             FWHM assuming a gaussian core                              [deg]
#  11 ELONGATION             A_IMAGE/B_IMAGE                                           
#  12 ELLIPTICITY            1 - B_IMAGE/A_IMAGE                                       
         1 -14.1670      9.9950     91.7581   1.0850585841e+02   5.6406679077e+01     1.951445     1.223009 -65.25   0.01112297    1.347    0.258
         2 -14.8555      6.9098    129.0995   1.1477766591e+02   4.7620691849e+01     5.874827     1.546472 -79.20   0.01854028    4.423    0.774
         3 -14.1219     13.4113     64.6081   1.0153532869e+02   6.2270018958e+01     1.863044     1.213629 -55.65   0.01089597    1.321    0.243
         4 -12.9588      3.7141     34.1612   9.7595349062e+01   6.8932035121e+01     1.439391    0.4318966 -55.45  0.006509816    2.811    0.644
         5 -12.0230    109.5366     44.6220   5.8841425354e+01   5.1358724921e+01    0.6649854    0.3505892 -35.25  0.003026089    2.016    0.504
         6 -12.9419     74.2788     32.6519   6.5177716807e+01   6.0247022924e+01     1.273464     0.908635  58.17  0.006998651    1.729    0.422
         7 -12.1036     58.6057     31.2460   7.0433406327e+01   6.3184460479e+01    0.8697518    0.5803357  -8.16  0.004811944    1.647    0.393
         8 -12.4478     53.7415     24.6714   6.9642510637e+01   6.4887013301e+01    0.8873454    0.5282673  26.53  0.004884413    1.608    0.378
         9 -12.9536    232.0535     29.5627   3.5214272195e+01   2.5149833337e+01    0.7487299    0.5963189  61.11  0.004280945    1.485    0.327
        10 -12.1343     36.0472     23.7787   7.7066653787e+01   6.7579943097e+01    0.6522073    0.3739786  27.76  0.003746645    1.642    0.391
        11 -11.5530     28.6301     20.1327   7.9082891086e+01   6.9034946487e+01    0.3895429    0.2501566 -14.66  0.002039676    1.464    0.317
        12 -10.3989     31.3962     14.6092   7.5183749367e+01   6.9465830165e+01    0.3002307    0.1978059 -18.12  0.001533058    1.386    0.279
        13 -12.7472    191.7956     18.4681   3.6690800677e+01   3.5284225202e+01    0.8305553    0.6094739  65.36   0.00506386    1.317    0.241
        14 -10.8461     21.9509     16.3169   8.0815741234e+01   7.0351493118e+01    0.3829795    0.2071929 -36.79  0.002267548    1.710    0.415
        15 -11.2801    100.0060     16.2054   5.1178746449e+01   5.6951619555e+01     0.391899    0.2083955  34.16  0.001879097    2.034    0.508
        16 -10.9830     42.6018     14.0901   6.9674580260e+01   6.7976472449e+01    0.4490826    0.2877905 -15.21  0.002719121    1.537    0.349
        17 -11.7339     92.7849     11.7350   5.1313588071e+01   5.8954087219e+01    0.6209692    0.4071358  -4.77  0.003461396    1.826    0.452
        18 -12.1104    125.9926     11.3208   4.3940554825e+01   5.1523577623e+01    0.4230605    0.2459974  70.10  0.002189499    1.598    0.374
        19 -12.4085    109.2292      4.6333   4.4900126709e+01   5.5967357328e+01    0.5232886    0.4317682  36.71  0.003396288    1.180    0.153
        20 -10.9907    163.1411      6.1053   3.6851228127e+01   4.3237344287e+01    0.3271519    0.1619705  66.89  0.001653309    1.696    0.410
        21 -11.6683    134.7367      3.8229   4.0096678748e+01   5.0143069006e+01    0.4453839    0.3191828 -69.54   0.00248149    1.577    0.366
        22 -10.5638    150.0042      2.2671   3.7455834364e+01   4.6679942549e+01    0.1895675    0.1446999  73.29  0.001176068    1.100    0.091
        23 -11.4531     75.1728    201.4289   1.0522856815e+02   2.2564270406e+01     0.605214    0.4424506  -6.75   0.00266626    2.174    0.540
        24 -10.0982     63.3409    248.8320   1.1263080013e+02   1.4083962015e+01    0.2430904    0.2149685 -79.64  0.001720723    1.286    0.222
        25  -9.6370     15.2148    249.2043   1.2191006610e+02   1.9580898051e+01    0.2093201    0.0964888  66.90  0.001008867    1.880    0.468
        26 -10.4842    136.5253    201.4971   9.0617299513e+01   1.2817576582e+01    0.2491573    0.1853417  44.79  0.001292073    1.289    0.224
        27 -11.4540     14.8584    186.0872   1.1803272805e+02   3.3196502236e+01    0.4227072    0.2437278 -74.86  0.002250521    1.500    0.333
        28 -11.3923     51.7393    174.3334   1.0771932411e+02   3.2151331258e+01    0.2632221    0.2386244 -52.71  0.000423553    1.226    0.184
        29 -10.3854     64.4732    164.1739   1.0292333354e+02   3.3047231546e+01    0.2385261    0.2295206  78.75 0.0003701279    1.076    0.070
        30 -10.0379    134.5553    162.0897   8.3849467331e+01   2.1913652669e+01    0.3265823    0.2404831 -82.63  0.001454443    1.846    0.458
        31 -12.7178     49.8044    160.5379   1.0643211958e+02   3.5818614974e+01    0.5714362    0.3265664 -38.50  0.002004741    2.276    0.561
        32 -11.5282     73.2434    157.1965   9.9390954406e+01   3.3575744504e+01    0.5327753    0.4776182 -30.37  0.001906804    1.270    0.213
        33 -12.6499     67.8562    143.3028   9.8547084432e+01   3.7845661509e+01    0.7958886    0.5246055  74.65  0.002677774    1.974    0.493
        34 -12.2167     69.2259    134.7406   9.6545789888e+01   3.9811698925e+01    0.6601558    0.3860052  35.23  0.002983337    1.779    0.438
        35  -9.7462     89.8246    143.9268   9.2234112010e+01   3.4342515720e+01    0.2333816    0.2049157 -30.93 0.0008684645    1.246    0.197
        36 -11.7281     77.2219    142.1316   9.5562196825e+01   3.6780296796e+01    0.3298959    0.2771305 -55.46 0.0004849794    1.144    0.126
        37 -10.1824    105.2993    131.4147   8.5097699612e+01   3.4715039239e+01    0.3326751    0.2957111  -1.40  0.001250576    1.277    0.217
        38 -10.0079     90.6306    128.2711   8.8698946085e+01   3.8078112915e+01    0.2595542    0.2430197 -24.07 0.0003572095    1.123    0.110
        39 -12.4020     71.4324    126.3694   9.4187343818e+01   4.1587253296e+01    0.9001597     0.446225  33.61  0.003722393    2.109    0.526
        40  -9.1287    102.8984    120.0974   8.3139479174e+01   3.7864958096e+01    0.1985464    0.1774694  -6.21  0.001012361    1.244    0.196
        41 -12.5908     54.4871    113.4125   9.6971371630e+01   4.7090071360e+01     0.817669    0.4603392 -61.61  0.003151866    1.674    0.403
        42 -11.7270     72.4052    108.1024   8.9785609639e+01   4.5899548958e+01    0.4819989    0.3175816 -56.95  0.002283852    1.473    0.321
        43 -13.3097     65.7872    115.3865   9.3647086439e+01   4.5107075496e+01     1.024919    0.8991856  42.06  0.005467583    1.218    0.179
        44 -11.9702     66.6522    104.6907   9.0894471338e+01   4.7561460169e+01    0.7616364    0.5492567  -8.76  0.003668639    1.772    0.436
        45 -11.8337     59.7923    100.7546   9.2307483651e+01   4.9448638979e+01    0.4715467    0.3724656 -13.85  0.002506735    1.422    0.297
        46 -12.1985     53.2445     99.5522   9.4324643079e+01   5.0582331677e+01    0.6572474    0.3355472 -60.16   0.00287466    1.903    0.474
        47 -12.0871     52.8386     89.1438   9.1918006294e+01   5.3045058077e+01    0.6819915    0.3360999 -30.08  0.002646748    2.771    0.639
        48 -10.1930     30.8887     91.8470   1.0074211097e+02   5.4808264742e+01    0.2729533    0.2072807  12.26  0.001582539    1.469    0.319
        49 -11.7992     28.4859     83.8530   9.9888788414e+01   5.6864804606e+01    0.5603113    0.4654691   4.90  0.002351333    1.302    0.232
        50 -11.4297     63.8339     82.8761   8.6185379431e+01   5.2938969849e+01    0.4889925    0.3047732  33.21  0.002382271    1.664    0.399
        51 -12.1819     61.8298     77.8748   8.5483565819e+01   5.4303868319e+01    0.9832834    0.4585592 -42.46  0.004181073    2.049    0.512
        52 -11.2657     33.1049     74.6691   9.5809445565e+01   5.8481767905e+01    0.5184678     0.382422 -26.81  0.002072108    1.295    0.228
        53  -9.5995     37.1433     64.6588   9.1359683451e+01   6.0188699274e+01    0.2245221    0.1725629 -55.65  0.001320341    1.352    0.260
        54 -14.3344     81.0664    218.7973   1.0591462354e+02   1.7849069983e+01     2.252497     1.382269  37.21   0.01106099    1.506    0.336
        55 -12.0536     69.7419    240.3689   1.1058624394e+02   1.4913500620e+01     0.806632    0.4584297  54.90  0.003766584    1.569    0.363
        56 -10.9118    139.3513    249.0936   9.6977272337e+01   3.2480949024e+00    0.2290876    0.1592914  26.16  0.001332441    1.327    0.247
        57 -13.8091     22.6313    137.3636   1.1110911754e+02   4.4409163682e+01     1.109889    0.9290735  51.38  0.004237606    1.291    0.226
        58 -10.5900    132.2146    247.3781   9.8240358330e+01   4.6125369706e+00    0.1859059   0.09917049  42.61 0.0003897582    1.623    0.384
        59 -10.2803     37.8913     38.8846   8.2352454706e+01   6.4958499789e+01     0.306946    0.2269469  16.44  0.001907642    1.285    0.222
        60 -12.1178     23.0071     36.2291   8.8437650761e+01   6.7046674883e+01    0.7158678    0.3579246  28.23  0.003422298    2.062    0.515
        61 -10.7935     81.6633    246.0879   1.0865117047e+02   1.2179624351e+01    0.3686136    0.2059816  58.43  0.001955188    1.760    0.432
        62 -11.8784    150.9938    243.2998   9.3782231772e+01   2.4925365497e+00    0.3557417    0.2522388  -2.31  0.001964504    1.793    0.442
        63 -14.1299     41.6277    191.0455   1.1213297565e+02   2.9295828325e+01     1.589109    0.9667412 -72.70  0.008473298    1.519    0.341
        64 -12.5009      8.6882    218.1847   1.2150404060e+02   2.6550762821e+01     1.301575    0.4926423  76.47  0.005797352    2.861    0.651
        65 -13.8681      4.1672    191.9456   1.2087193718e+02   3.2765339509e+01     1.408391    0.5702883  89.61  0.006558464    2.344    0.573
        66 -10.8474     73.9210     21.8532   6.0951774958e+01   6.1699518823e+01    0.4432662    0.2776448  45.12  0.002155626    1.439    0.305
        67 -13.8765     29.6529    192.8746   1.1514460961e+02   3.0169054604e+01      1.72117    0.5453935 -72.23  0.006561578    2.827    0.646
        68 -12.8519     10.6916    207.8585   1.2047569286e+02   2.8612258069e+01    0.3473568    0.2999441 -74.59 0.0009642739    1.290    0.225
        69 -13.7627     18.0508    201.7859   1.1848432537e+02   2.9276962594e+01     0.844766    0.6543083 -69.04  0.003506624    1.325    0.245
        70 -11.2988    142.3400    229.4412   9.3647506084e+01   6.3092661388e+00    0.2527559    0.1864977  16.00  0.001393889    1.457    0.313
        71 -13.3836     63.7415    216.9004   1.0961684081e+02   2.0636850525e+01     1.236206    0.8279573 -87.89  0.006872321    1.530    0.346
        72 -14.1339     48.1695    214.4749   1.1285909619e+02   2.3139751716e+01     1.924887     1.215472 -73.09  0.009470749    1.537    0.350
        73 -10.5408     26.6934    225.6152   1.1831234093e+02   2.3161464188e+01    0.2755232    0.1785461  73.32 0.0009904649    1.324    0.245
        74 -10.0441    239.4895    221.0060   7.2956700492e+01  -6.7130426941e+00    0.1758893   0.08613463 -18.29 0.0008102712    2.530    0.605
        75 -12.1369    106.1292    212.5538   9.9374894820e+01   1.5447436225e+01    0.9899498    0.5680371  74.31  0.003991897    2.910    0.656
