#   1 NUMBER                 Running object number                                     
#   2 MAG_AUTO               Kron-like elliptical aperture magnitude                    [mag]
#   3 X_IMAGE                Object position along x                                    [pixel]
#   4 Y_IMAGE                Object position along y                                    [pixel]
#   5 X_WORLD                Barycenter position along world x axis                     [deg]
#   6 Y_WORLD                Barycenter position along world y axis                     [deg]
#   7 A_WORLD                Profile RMS along major axis (world units)                 [deg]
#   8 B_WORLD                Profile RMS along minor axis (world units)                 [deg]
#   9 THETA_WORLD            Position angle (CCW/world-x)                               [deg]
#  10 FWHM_WORLD             FWHM assuming a gaussian core                              [deg]
#  11 ELONGATION             A_IMAGE/B_IMAGE                                           
#  12 ELLIPTICITY            1 - B_IMAGE/A_IMAGE                                       
         1 -12.6946    246.3708     74.0412   7.4086553266e+01   1.3649312230e+01     1.992574    0.4232977 -34.02   0.00607231    3.917    0.745
         2 -13.0882    175.4994     31.2157   7.2680310581e+01   3.7308315782e+01      1.31131    0.9779227   1.16  0.005080361    1.683    0.406
         3 -11.7565    179.5666     24.7693   7.0088468911e+01   3.6984075104e+01    0.5468746    0.5016012   6.95  0.001489723    1.244    0.196
         4 -10.3183    194.2876      1.7089   6.1586718869e+01   3.5456030780e+01    0.5744132    0.1521421  69.68    0.0019796    3.109    0.678
         5 -11.7708    163.1344    224.8631   1.2154204988e+02   6.2703334385e+00    0.4233733     0.215264  35.31  0.002106623    1.736    0.424
         6 -19.4425     44.0826    139.9460   1.3644800999e+02   4.2085494817e+01     19.30087      2.67978 -67.98   0.04829324    7.168    0.861
         7 -11.3763    196.3304    196.2368   1.1033609121e+02   4.6849779172e+00    0.5460605    0.3904931  34.68  0.001783623    1.200    0.167
         8 -10.4543    140.3152    218.0195   1.2509223552e+02   1.1322258531e+01    0.3484615    0.2171605  83.20  0.001590714    2.939    0.660
         9  -9.8908    188.7664    187.2619   1.1019275544e+02   7.5438120408e+00    0.6011505    0.3394162 -63.42   0.00217909    4.137    0.758
        10  -9.2127     19.1080    213.8176   1.4825190417e+02   2.9088806934e+01    0.1384019   0.09731405  67.73 0.0002371845    1.054    0.051
        11 -10.2206    207.8933    185.2229   1.0601102506e+02   4.2112415557e+00    0.3174647    0.2141428 -11.02  0.001610693    1.755    0.430
        12  -9.6675     99.2032    180.6428   1.2864119960e+02   2.5412921440e+01    0.2183002    0.1746695  89.47 0.0008150842    1.263    0.208
        13 -10.2516     91.6834    177.6963   1.2994518464e+02   2.7237299005e+01    0.2630152    0.2255187 -54.69 0.0005872934    1.340    0.254
        14 -11.1044     94.1915    173.1236   1.2871005500e+02   2.7819004448e+01    0.4619282    0.2643546 -44.17  0.002155438    2.247    0.555
        15  -9.4617    108.2983    173.8554   1.2552605696e+02   2.5321824409e+01     0.221434    0.1661855  86.24 0.0008927337    1.487    0.328
        16  -9.3214    198.6964    177.7337   1.0635537052e+02   7.1700494520e+00    0.2498157    0.2314777 -17.96 0.0007988027    1.170    0.145
        17  -8.9195    145.3253    168.3042   1.1597407107e+02   1.9585290242e+01     0.144159    0.1138148   8.23 0.0007033129    1.643    0.391
        18  -9.8054     99.7914    163.2625   1.2585242273e+02   2.9047676679e+01    0.2236202     0.222297  67.02 0.0002879412    1.178    0.151
        19 -11.8918     88.5936    158.3737   1.2781005379e+02   3.1947597981e+01    0.5671498    0.4097107   8.57  0.001269465    2.225    0.550
        20 -10.3146    103.5033    156.3968   1.2378452030e+02   2.9932486121e+01    0.5303372    0.2692555 -50.61  0.001556976    2.066    0.516
        21  -9.0598    164.4853    157.4977   1.0946776653e+02   1.7794668817e+01    0.1499364    0.1387034  37.27 0.0002840554    1.001    0.001
        22  -9.7261    133.9125    144.7228   1.1395970723e+02   2.6769770773e+01    0.7253408   0.08929008 -49.75  0.001358322    9.546    0.895
        23  -8.7083     91.2583    147.9990   1.2541307293e+02   3.3865121657e+01    0.1893611    0.1718986  86.19 0.0002883705    1.029    0.028
        24  -8.6192      3.7469    146.4726   1.4704436623e+02   4.4180441881e+01    0.1247375    0.1087343 -19.71 0.0009306206    1.657    0.396
        25 -10.2078    112.5895    140.7396   1.1852201369e+02   3.1799600377e+01    0.4373849    0.2334676 -38.41  0.001735139    2.399    0.583
        26 -10.6483    102.1808    140.8953   1.2126427738e+02   3.3643050555e+01    0.2723251    0.2665583 -71.89 0.0004460717    1.090    0.083
        27  -9.6741     20.1987    136.0633   1.4213208211e+02   4.5233367365e+01    0.1913921    0.1552591  58.44 0.0003769337    1.272    0.214
        28 -10.0534    106.2897    128.6667   1.1765360374e+02   3.5686227903e+01    0.6088896    0.2333282 -47.21  0.002168853    2.670    0.625
        29  -9.3751    118.1487    131.1073   1.1502044959e+02   3.2894048353e+01    0.2291077    0.2077949 -11.44 0.0006122322    1.281    0.219
        30  -8.7837    125.3060    127.6624   1.1236076219e+02   3.2231115646e+01    0.1560239    0.1198157  85.15  0.000410789    1.675    0.403
        31 -11.0544    111.0537    208.8984   1.2985616280e+02   1.7875086305e+01    0.3885302    0.2854244 -18.84  0.002033353    2.498    0.600
        32 -13.1365    248.3894    104.5432   8.1065528116e+01   8.6810383669e+00     2.624311    0.4417517 -34.50  0.007087703    4.954    0.798
        33  -8.7806    182.0384    241.0067   1.2025088706e+02   7.7892433581e-01    0.1825643    0.1339258  59.18  0.001027344    1.688    0.408
        34 -10.1131     84.8187    121.5010   1.2210694883e+02   4.1003122004e+01    0.2527502    0.1936249 -58.57 0.0004759333    1.244    0.196
        35  -8.4459    112.5647    119.5573   1.1387434043e+02   3.6561938980e+01    0.1460202    0.1451792 -70.11 0.0002360952    1.032    0.031
        36  -9.5040    167.8662    113.2239   9.8266982040e+01   2.5760058794e+01      0.34328    0.2183216  60.66  0.001411424    1.792    0.442
        37 -10.8222     92.7385    207.3090   1.3344549947e+02   2.1068346430e+01    0.3983664    0.2648985 -44.51   0.00222044    2.112    0.527
        38  -8.9710    205.8355    110.1550   8.9573811587e+01   1.7278224850e+01    0.2119588    0.1772738  14.76 0.0004562645    1.308    0.236
        39 -10.9135     12.7901    205.9026   1.4896056568e+02   3.1204342436e+01    0.4322848    0.1944183  36.02  0.002611702    2.237    0.553
        40 -12.1561    162.7338     47.1743   7.9981879486e+01   3.8589858849e+01    0.7044875    0.5137581 -17.23   0.00205085    1.561    0.359
        41  -9.4417    171.2140    239.8038   1.2209236697e+02   2.7324276041e+00    0.1942387    0.1233099  69.29 0.0009558058    2.833    0.647
        42  -9.2309    176.9691    235.3174   1.2039184778e+02   2.3899167428e+00    0.1769307    0.1297927  36.81 0.0003968477    1.061    0.058
