#   1 NUMBER                 Running object number                                     
#   2 MAG_AUTO               Kron-like elliptical aperture magnitude                    [mag]
#   3 X_IMAGE                Object position along x                                    [pixel]
#   4 Y_IMAGE                Object position along y                                    [pixel]
#   5 X_WORLD                Barycenter position along world x axis                     [deg]
#   6 Y_WORLD                Barycenter position along world y axis                     [deg]
#   7 A_WORLD                Profile RMS along major axis (world units)                 [deg]
#   8 B_WORLD                Profile RMS along minor axis (world units)                 [deg]
#   9 THETA_WORLD            Position angle (CCW/world-x)                               [deg]
#  10 FWHM_WORLD             FWHM assuming a gaussian core                              [deg]
#  11 ELONGATION             A_IMAGE/B_IMAGE                                           
#  12 ELLIPTICITY            1 - B_IMAGE/A_IMAGE                                       
         1 -15.0699     11.0602    142.7205   1.4623700608e+02   4.3006725496e+01     9.602412     2.732041  83.53   0.03166453    4.949    0.798
         2 -13.6411    197.8829     26.4629   6.8454824290e+01   3.2305688108e+01     1.744565     1.337341   4.74  0.007507332    1.493    0.330
         3 -13.5246    212.6972      8.0030   6.1819360440e+01   3.0646240710e+01     0.942463    0.8598012  44.98  0.003669472    1.225    0.184
         4 -12.0296      3.2653      3.6614   1.2562839948e+02   7.6277545512e+01     0.679946    0.3724818 -40.50  0.003906076    1.430    0.301
         5  -9.0685    152.5029    213.0599   1.2061135665e+02   1.2206032917e+01    0.1434719    0.1178756 -35.52 0.0003343914    1.451    0.311
         6 -10.4362    249.1344    249.9152   1.0887285591e+02  -4.2078021537e+00    0.2078308    0.1015532  30.06  0.001435679    1.645    0.392
         7 -12.5294    151.3427    249.2073   1.2521948597e+02   7.5281037981e+00    0.8982028    0.1177888  36.37  0.003027192    5.135    0.805
         8 -11.0492     98.9433    249.4823   1.3484847032e+02   1.3877196277e+01    0.2867558    0.1596937  30.18  0.001889813    1.466    0.318
         9 -10.1628     46.9939    249.6992   1.4430102955e+02   1.9457771675e+01    0.1479237   0.09722124  42.18 0.0004947126    1.128    0.113
        10 -10.5520     29.4358    248.9126   1.4735561272e+02   2.1238811605e+01    0.2877156    0.2102857 -85.95  0.002442996    1.539    0.350
        11 -10.6531     34.1862    249.5287   1.4655091054e+02   2.0708354870e+01    0.3159013    0.1522925  46.78  0.001929067    1.452    0.311
        12 -11.6338     35.1571    243.8703   1.4614821128e+02   2.1486244669e+01    0.3596597    0.2630636  29.94  0.002797637    1.386    0.278
        13 -11.2149    199.0573    246.7306   1.1652563831e+02   1.8729876196e+00    0.2085005    0.1433011  21.34  0.001564656    1.053    0.050
        14 -11.3321    139.4778    245.9706   1.2703785602e+02   9.4216255775e+00    0.2535441    0.1790582  64.20  0.001696029    2.150    0.535
        15 -10.2680     80.7281    248.0091   1.3809271030e+02   1.6166828983e+01    0.2468332    0.1545424  78.62  0.001701233    2.043    0.510
        16 -10.3868     20.0927    243.5918   1.4879912432e+02   2.2890733577e+01    0.1615202     0.102434  63.42 0.0005535662    1.270    0.213
        17  -9.5204    111.6530    242.3167   1.3186627930e+02   1.3370685157e+01    0.1127565   0.06642458  52.21  0.000704818    1.724    0.420
        18 -10.9497     12.6952    240.6530   1.4999984233e+02   2.3983379172e+01    0.1702168    0.1550525 -25.67  0.001174058    1.720    0.419
        19  -9.8033     21.9158    237.7082   1.4827811006e+02   2.3661845325e+01    0.2188878   0.09976269 -58.43  0.001350546    3.013    0.668
        20 -11.9612    172.2492    248.1909   1.2136352853e+02   5.0319621498e+00    0.3684149    0.2146765  33.61  0.002502557    1.320    0.243
        21 -12.3928     10.1638    206.9366   1.4941195272e+02   2.9917469623e+01    0.6290733    0.3312141  25.11  0.003010935    1.974    0.493
        22 -12.9844     32.9984    234.3867   1.4613546749e+02   2.3195401988e+01    0.2384503    0.2233878  60.77 0.0007662221    1.314    0.239
        23 -11.7867     59.9001    200.1250   1.3868941017e+02   2.6463336921e+01    0.2253992    0.2151242 -76.11 0.0005076344    1.251    0.201
        24  -9.4682    194.3172    197.6323   1.1020296385e+02   8.3177337003e+00     0.323723    0.1480424 -51.90  0.001180995    5.642    0.823
        25 -12.0831     66.3960    191.5334   1.3652059541e+02   2.7363658681e+01    0.2288341    0.2273778  12.97 0.0004739872    1.223    0.182
        26 -10.4852     14.2180    196.7997   1.4821245295e+02   3.1474202498e+01    0.3290582     0.132604  45.38  0.001784461    1.882    0.469
        27 -11.7882     21.8637    126.4621   1.4196934911e+02   4.6006946988e+01     0.418642      0.22186  45.20  0.001096938    1.846    0.458
        28 -13.9402     37.8545    227.7191   1.4491926455e+02   2.3835900609e+01    0.6118709    0.4538093  52.39  0.002344087    1.018    0.018
        29 -10.9435     76.8216    178.4147   1.3277606394e+02   2.8698957908e+01    0.2121386    0.2009966  42.66  0.000307371    1.106    0.096
        30 -13.3095     63.3601    176.7385   1.3581399402e+02   3.0664383623e+01    0.4563562    0.2655163 -44.01  0.001787446    2.232    0.552
        31 -10.0175     98.1113    174.8867   1.2725539841e+02   2.6570616835e+01    0.2364111    0.1859887  60.38  0.000699885    1.323    0.244
        32 -12.0313     84.7839    168.9575   1.2970819268e+02   2.9599427349e+01    0.7015529    0.5746221  14.10  0.002633777    1.378    0.274
        33 -14.2879     91.0366    227.4737   1.3452374029e+02   1.8104950337e+01     5.599149          nan  36.37   0.01012513   16.688    0.940
        34 -10.3614     97.1610    153.1842   1.2430221133e+02   3.1168037980e+01     0.306043    0.2821349   2.07  0.000842669    1.179    0.152
        35  -9.6155    100.0649    148.9294   1.2284766107e+02   3.1638873762e+01    0.2027578    0.1935851  14.45 0.0004497516    1.079    0.073
        36 -12.1502     85.7354    152.2467   1.2714389990e+02   3.3018254168e+01    0.2846922    0.2455357 -34.80 0.0006724602    1.313    0.238
        37 -12.2347     67.4474    143.6359   1.3084478671e+02   3.7365685881e+01    0.6791298    0.4029945  56.65  0.003335469    1.834    0.455
        38 -10.5877     96.2507    135.2312   1.2145664646e+02   3.5220624893e+01    0.2446006     0.225765 -14.80 0.0004298278    1.172    0.146
        39 -12.8005     47.7441    216.5445   1.4237466070e+02   2.4774061266e+01    0.5966084     0.550757 -46.52  0.003769926    1.453    0.312
        40  -8.3239     79.9868    131.9919   1.2548022879e+02   3.8373812248e+01    0.1590097    0.1526548  56.24 0.0009543783    1.026    0.025
        41 -10.1468    109.2731    137.6798   1.1837862141e+02   3.2590028534e+01    0.4289815    0.2809067 -16.81  0.001429469    2.345    0.574
        42 -11.0314     30.9196    131.3605   1.3978053943e+02   4.4110374502e+01    0.2824588    0.2067844  55.25 0.0005382983    1.322    0.243
        43  -8.7179    115.4686    130.0048   1.1517221067e+02   3.3183499391e+01    0.2082918    0.1178337 -28.48 0.0006034063    2.532    0.605
        44  -8.9969    106.3927    124.1822   1.1642640983e+02   3.6018075935e+01    0.1814947    0.1716856 -56.97 0.0003293041    1.089    0.082
        45  -9.2715    168.0038    112.9991   9.8270642929e+01   2.6366753251e+01     0.222764    0.1870898 -78.36   0.00111901    1.712    0.416
        46 -10.1302    242.0109     93.4952   8.0566282222e+01   1.4571638407e+01    0.1822398     0.095941  28.07 0.0008103145    2.528    0.604
        47  -9.8714     54.5052    229.1935   1.4180958500e+02   2.1928363240e+01    0.2136426    0.1156678  52.25 0.0007833063    1.510    0.338
        48 -10.1938    157.9833     76.4931   9.0373219396e+01   3.4996197479e+01    0.2386808    0.2053257 -26.35 0.0005946656    1.123    0.110
        49 -10.2067    174.0615    222.7051   1.1777997570e+02   7.8944277288e+00    0.2703043    0.1918953  45.96  0.001655809    1.674    0.403
        50 -11.5227     11.0408     53.8858   1.3634179500e+02   6.4486372690e+01    0.2816759    0.1999462  35.85  0.001305353    1.667    0.400
        51 -11.0314    121.7557    249.8305   1.3067957737e+02   1.1107404063e+01     0.279567    0.1127666  33.74  0.001487597    1.840    0.457
        52 -10.3334      2.9862    247.9556   1.5183717978e+02   2.3640687029e+01    0.2201002    0.1230976  87.31  0.001729251    1.762    0.433
        53 -10.8852    237.9499    247.2443   1.1023052820e+02  -2.7457193081e+00    0.1874943    0.1279188 -23.48  0.001181133    1.716    0.417
