#   1 NUMBER                 Running object number                                     
#   2 MAG_AUTO               Kron-like elliptical aperture magnitude                    [mag]
#   3 X_IMAGE                Object position along x                                    [pixel]
#   4 Y_IMAGE                Object position along y                                    [pixel]
#   5 X_WORLD                Barycenter position along world x axis                     [deg]
#   6 Y_WORLD                Barycenter position along world y axis                     [deg]
#   7 A_WORLD                Profile RMS along major axis (world units)                 [deg]
#   8 B_WORLD                Profile RMS along minor axis (world units)                 [deg]
#   9 THETA_WORLD            Position angle (CCW/world-x)                               [deg]
#  10 FWHM_WORLD             FWHM assuming a gaussian core                              [deg]
#  11 ELONGATION             A_IMAGE/B_IMAGE                                           
#  12 ELLIPTICITY            1 - B_IMAGE/A_IMAGE                                       
         1 -14.3438    163.8891     46.3269   7.9485194819e+01   3.8406089802e+01     1.865643     1.155349  11.32  0.005702587    2.565    0.610
         2 -14.2112    176.7310     30.6902   7.2322636792e+01   3.7043948315e+01     1.064458    0.8559975 -21.37  0.003886353    1.379    0.275
         3 -13.4776    180.7772     23.8378   6.9631095570e+01   3.6767750781e+01    0.5645142    0.5453376  53.94  0.001328718    1.098    0.089
         4 -12.3443    189.6192     14.6617   6.5752353250e+01   3.5418942372e+01    0.2775968    0.2332014 -74.77 0.0009194192    1.166    0.142
         5 -10.7506     63.5458      7.4925   9.1235714382e+01   6.6167025215e+01     0.127002    0.1036656   9.02 4.882575e-05    1.010    0.010
         6 -11.2084    195.9981      1.4957   6.1352781127e+01   3.5032632527e+01    0.2176458    0.1196772  73.30 0.0008148192    1.602    0.376
         7 -10.7217    179.3259    218.3277   1.1740700596e+02   4.4209937190e+00    0.1320097   0.09099547  14.98 0.0007050093    1.699    0.412
         8  -9.4638    196.7435    250.6626   1.1893190839e+02  -2.8012362581e+00    0.1136575   0.07607249  14.74 0.0002617647    1.575    0.365
         9 -19.6601     48.3519    162.1458   1.3808893800e+02   3.6583110658e+01     18.75652     5.322018 -72.05   0.06844573    3.656    0.726
        10 -12.2708    212.3983    182.2829   1.0456958892e+02   3.8105994588e+00    0.3789698    0.2710609   7.83  0.001142949    1.515    0.340
        11 -11.6069    198.8203    178.3550   1.0645359425e+02   7.0444278774e+00    0.3326734    0.2899185 -57.72 0.0009423717    1.486    0.327
        12 -11.7152     98.9058    164.0060   1.2618724415e+02   2.9032139681e+01    0.3002352    0.2701444 -35.28  0.000453284    1.363    0.266
        13 -12.3724    115.0225    172.0845   1.2367074688e+02   2.4520874702e+01     0.683118     0.431586  71.72  0.003103476    2.072    0.517
        14 -13.6677    103.6666    171.6952   1.2627134701e+02   2.6569429775e+01     1.232787    0.4027619  49.21  0.004287881    3.157    0.683
        15 -12.3519     91.2017    177.8294   1.3007433150e+02   2.7284425642e+01    0.3800486    0.2390303 -45.52  0.001920517    1.995    0.499
        16 -12.3724     93.9222    173.0455   1.2876160830e+02   2.7878845557e+01    0.3241186     0.272401 -48.61 0.0008164126    1.397    0.284
        17 -10.5822    179.0000    174.0037   1.0966665127e+02   1.1733299909e+01    0.2233432   0.08319074 -42.12 0.0008047582    2.959    0.662
        18 -12.1622    126.6067    173.0334   1.2113719628e+02   2.2219707960e+01    0.3976726    0.2848178  54.30  0.002051535    1.323    0.244
        19 -11.2182    183.5382    215.5247   1.1614289997e+02   4.0919618824e+00    0.2462197    0.1048457  49.33  0.001039529    2.392    0.582
        20 -11.8888    137.6707    170.8982   1.1820921626e+02   2.0560957021e+01    0.3168309    0.2598257 -84.54 0.0009956844    1.433    0.302
        21 -11.4615     23.2660    166.4539   1.4423362419e+02   3.8254475306e+01    0.2734016    0.2015516 -61.50  0.001251385    1.459    0.314
        22 -11.2279    145.2601    168.5848   1.1604199602e+02   1.9542245598e+01     0.212831    0.1307772  34.45 0.0009553105    1.656    0.396
        23 -11.6375    120.3318    205.0750   1.2742587576e+02   1.7042917074e+01    0.2260534    0.1782266  22.29 0.0008699772    1.566    0.361
        24 -12.9328    105.2225    201.3345   1.3011649239e+02   2.0259979839e+01    0.4409459    0.2631778  44.11  0.002318992    1.448    0.310
        25 -12.8040    111.2235    197.3410   1.2830926626e+02   2.0049226955e+01    0.7086133    0.2612561  33.54  0.002565939    3.354    0.702
        26 -11.3842    102.6348    157.9627   1.2427051045e+02   2.9734819002e+01    0.2746743    0.2642016 -77.42 0.0005495424    1.115    0.103
        27 -12.0118    103.9789    153.9781   1.2323970457e+02   3.0387475515e+01    0.4356769    0.3141641  54.75  0.001601474    1.351    0.260
        28 -11.5807    164.7677    157.5184   1.0940884602e+02   1.7731206635e+01    0.2623512     0.213341 -40.49 0.0005955001    1.324    0.245
        29 -12.1596    117.7145    201.5182   1.2749338666e+02   1.8154558656e+01    0.3717267    0.1669199  42.80  0.001688613    1.899    0.473
        30 -11.8642    133.8907    145.3594   1.1409989513e+02   2.6637815898e+01    0.9143994    0.2434117 -53.59  0.002409936    4.991    0.800
        31 -11.2338    174.3444    149.1245   1.0546764530e+02   1.7297285573e+01    0.2768906    0.2004624  34.39 0.0007646315    1.359    0.264
        32 -10.8450     92.3230    148.6018   1.2524469896e+02   3.3555671772e+01    0.3857347    0.1808643  57.09  0.001466046    2.737    0.635
        33 -11.5775    144.3166    145.7653   1.1164955617e+02   2.4404322495e+01    0.3988286    0.2633792  82.31  0.001538925    2.649    0.622
        34 -12.1106    112.2247    140.6911   1.1860659239e+02   3.1878197373e+01     0.414138    0.3241611 -28.02  0.002064458    1.605    0.377
        35 -12.4847    101.7976    141.2275   1.2142913279e+02   3.3634620742e+01    0.2825357     0.263945  42.82 0.0004510036    1.120    0.107
        36 -11.9701     17.3738    136.1834   1.4285806011e+02   4.5434121462e+01    0.2093045    0.1919426  42.31 0.0005850994    1.331    0.249
        37 -11.4302    118.3259    130.7453   1.1489330815e+02   3.2940141445e+01    0.3193812    0.2640611 -28.36 0.0008032104    1.407    0.289
        38 -11.9052    106.2484    128.8936   1.1771399308e+02   3.5642290448e+01    0.5824707    0.2931554 -49.62  0.002400008    1.982    0.495
        39 -11.6302    160.3063    128.4649   1.0386135626e+02   2.4481661097e+01    0.3074104    0.2676296 -22.11  0.001548832    1.242    0.195
        40 -11.1174    123.8176    126.4360   1.1246594032e+02   3.2803226034e+01    0.4781553    0.2470555  62.02  0.001612296    3.087    0.676
        41 -11.9274     80.7535    124.6272   1.2389982782e+02   4.0908070432e+01    0.2899627    0.2709492  50.29 0.0009849346    1.121    0.108
        42 -10.9026     83.8524    120.9011   1.2225842300e+02   4.1294488450e+01    0.2297811     0.206026  42.48 0.0004137776    1.170    0.146
        43 -13.2871    197.0484    197.1427   1.1035899856e+02   4.4126775792e+00     0.729713    0.4939553  46.62  0.002686518    1.429    0.300
        44 -10.6162    112.5272    119.7969   1.1394127479e+02   3.6515493186e+01     0.255982    0.2066334  41.86 0.0003431235    1.243    0.195
        45 -11.5272    167.6983    113.3219   9.8330790198e+01   2.5780760836e+01    0.4499828    0.3254331  72.12  0.001666155    1.777    0.437
        46 -11.9320    189.1019    187.3098   1.1013377373e+02   7.4712759428e+00    0.5592372    0.3500364 -48.88  0.002175744    1.980    0.495
        47 -10.7161    205.4969    110.1854   8.9645424573e+01   1.7352496885e+01    0.2765164    0.2122792  49.13 0.0006528849    1.304    0.233
        48 -13.3012    112.5821    208.5897   1.2950112431e+02   1.7682302161e+01    0.5069753    0.3589723  36.00  0.002773361    1.406    0.289
        49 -10.7882    166.0308    208.6384   1.1851440799e+02   8.3119984413e+00    0.3067545     0.187002  52.33  0.001563382    1.629    0.386
        50 -11.3101    180.8954    194.7113   1.1315126569e+02   7.8272710237e+00    0.3985306    0.2804071 -79.09  0.001818567    2.773    0.639
        51 -10.5793    158.7764    194.5567   1.1770736212e+02   1.2040780605e+01    0.1959469    0.1160772  50.84 0.0007624312    1.610    0.379
        52 -11.8565    158.1669    246.6649   1.2540655622e+02   3.9289170673e+00    0.1795495    0.1589177  68.95 0.0007208895    1.355    0.262
        53 -11.0715    182.3334    243.0176   1.2047676486e+02   4.6701911928e-01    0.1706215    0.1386796  32.74  0.000988313    1.073    0.068
        54 -13.5439     11.6486    206.1229   1.4917866287e+02   3.1269636213e+01    0.5415539    0.2267017  33.92  0.003140105    2.515    0.602
        55  -9.7771    120.7628     24.6468   8.1266921899e+01   5.2215372070e+01    0.1927444    0.1303494  65.59 0.0003783592    1.579    0.366
        56 -11.2912    174.7838    228.5908   1.1983620349e+02   3.7091972457e+00    0.1857276    0.0985944  47.31  0.000793457    1.661    0.398
        57 -11.9678    207.8804    185.8861   1.0614153868e+02   4.1118766679e+00    0.3450569    0.2736375   8.98  0.001077516    1.236    0.191
