#   1 NUMBER                 Running object number                                     
#   2 MAG_AUTO               Kron-like elliptical aperture magnitude                    [mag]
#   3 X_IMAGE                Object position along x                                    [pixel]
#   4 Y_IMAGE                Object position along y                                    [pixel]
#   5 X_WORLD                Barycenter position along world x axis                     [deg]
#   6 Y_WORLD                Barycenter position along world y axis                     [deg]
#   7 A_WORLD                Profile RMS along major axis (world units)                 [deg]
#   8 B_WORLD                Profile RMS along minor axis (world units)                 [deg]
#   9 THETA_WORLD            Position angle (CCW/world-x)                               [deg]
#  10 FWHM_WORLD             FWHM assuming a gaussian core                              [deg]
#  11 ELONGATION             A_IMAGE/B_IMAGE                                           
#  12 ELLIPTICITY            1 - B_IMAGE/A_IMAGE                                       
         1 -11.5190    209.3146     34.5824   4.1456690440e+01   2.8706286645e+01    0.9076146    0.5921428 -50.99  0.004848431    1.427    0.299
         2 -11.2581    217.7108     27.8506   3.8926992709e+01   2.7595770608e+01    0.7010435    0.5040156  31.64  0.002179581    2.082    0.520
         3 -10.8771      1.9908     34.8683   1.0234206233e+02   6.8939140481e+01    0.9834765          nan -57.02  0.002658479    7.433    0.865
         4 -10.4511      1.9393      7.9418   9.1724026376e+01   7.3609571618e+01    0.9141684    0.1345376 -49.41  0.002845427    6.866    0.854
         5 -11.7601    228.0149     17.7355   3.5648882983e+01   2.6468318813e+01    0.7063481     0.576174 -68.52  0.002755504    1.022    0.021
         6  -8.8223     32.5103     11.5135   7.6615350543e+01   7.0000242202e+01     0.221386   0.09318105 -24.93  0.001040997    2.487    0.598
         7  -8.1970    124.9203      4.9680   4.4747008867e+01   5.2534288415e+01    0.1993848    0.1469083 -69.93 0.0005206947    1.662    0.398
         8  -8.9163    249.1178      1.7147   3.0751469978e+01   2.3732456230e+01    0.3227312    0.1444212  87.18  0.001678147    2.180    0.541
         9 -10.4514     30.4720    218.6567   1.2076777446e+02   2.4756381738e+01    0.4222019    0.2944536  68.98  0.001839387    1.150    0.130
        10 -12.4814     85.3682    230.1853   1.1069954442e+02   1.5376067700e+01     1.434206    0.9535943 -89.86  0.005958949    1.669    0.401
        11 -13.5027     68.3397    247.3541   1.1566438697e+02   1.4456616528e+01      3.41793    0.8604956  34.07  0.007908696    4.298    0.767
        12 -12.4119     31.9714    247.9623   1.2237333133e+02   1.8812480816e+01     1.394115    0.8210193  41.07  0.009151772    1.561    0.359
        13 -14.1502      5.5215    136.8631   1.1961157462e+02   4.5747842947e+01     7.463048     1.680247 -79.72   0.02189074    5.316    0.812
        14 -10.9640     44.2810    218.1138   1.1797002982e+02   2.3287489995e+01    0.5287265    0.2757604  64.61  0.002829298    1.804    0.446
        15 -10.5656     48.9919    218.2331   1.1702183623e+02   2.2692423447e+01    0.3525978    0.2092528  56.57  0.002039544    1.449    0.310
        16  -9.8419     53.6203    231.0770   1.1716379598e+02   1.9489435250e+01    0.2273849    0.1623865 -72.14 0.0007025152    1.454    0.312
        17 -12.8240      9.0771    207.4840   1.2423809137e+02   2.9277550188e+01    0.9192441     0.827772  48.08  0.004933058    1.398    0.285
        18 -13.5529      6.5568    241.2101   1.2643920706e+02   2.2758651667e+01     2.107972     1.138023 -83.26    0.0140746    1.623    0.384
        19  -9.8650     24.0293    202.3458   1.2089189577e+02   2.8922779157e+01    0.2247859    0.1522513 -75.01 0.0008858048    1.353    0.261
        20 -10.0500     20.2736    194.0822   1.2106434466e+02   3.1123913608e+01    0.2393252    0.1547946  66.29 0.0007290152    1.334    0.251
        21 -10.2434     59.9117    179.0769   1.1053369410e+02   3.0092454286e+01    0.4650607    0.3206824 -33.76  0.002348548    2.110    0.526
        22 -10.0664     65.2687    173.5171   1.0849048487e+02   3.0709368804e+01    0.3340003    0.2540855 -43.01 0.0008814602    1.571    0.363
        23  -8.3030    101.0000    170.9799   9.9080489700e+01   2.5877183563e+01    0.2416871   0.08157246 -57.31 0.0008059678    2.967    0.663
        24 -10.0161     31.6752    168.2737   1.1617132743e+02   3.5959824657e+01     0.414386     0.292519 -72.14  0.002372643    1.237    0.191
        25 -10.1689     75.2420    163.8643   1.0453245563e+02   3.1650091861e+01    0.3054456    0.2978772 -79.56 0.0005326717    1.128    0.114
        26 -11.1839     82.2943    157.7935   1.0167439439e+02   3.2082792451e+01    0.7736364    0.5725947 -46.34  0.002487859    1.435    0.303
        27 -11.6794     62.2056    159.9898   1.0736118141e+02   3.4414141503e+01    0.5203826    0.3155917 -45.75  0.001380224    1.855    0.461
        28  -8.6118     32.5616    156.3151   1.1462515618e+02   3.8761245426e+01    0.2575668     0.114382 -77.11  0.001131239    2.107    0.525
        29 -11.1304     73.5340    153.8387   1.0336091193e+02   3.4366841762e+01     1.090885    0.4865887  63.48  0.003172093    4.872    0.795
        30 -10.4443     70.4751    145.5015   1.0277340961e+02   3.6879681973e+01    0.4192074    0.3955196 -25.73  0.001317656    1.220    0.180
        31 -10.9859     67.6915    142.6805   1.0306152293e+02   3.7975072656e+01    0.5437721    0.4197292  36.73  0.001595762    1.395    0.283
        32  -8.2727    125.0491    154.2607   8.9734800370e+01   2.5480732064e+01    0.2075299     0.193406  53.04 0.0002223498    1.069    0.064
        33 -11.9554      3.3948    183.9363   1.2393607951e+02   3.4913513068e+01    0.9472268    0.4599998  87.91  0.005160891    1.762    0.433
        34  -9.0021     96.8050    143.1617   9.4961457237e+01   3.3321436010e+01    0.2911792     0.215032  38.81 0.0009796096    1.400    0.286
        35  -8.1427     99.8289    140.0043   9.3461238326e+01   3.3568228120e+01     0.349738    0.2316499 -12.79  0.001345881    2.672    0.626
        36 -10.5150     85.1362    141.5591   9.7906451265e+01   3.5652340640e+01    0.3410612    0.2925864 -54.42 0.0005737937    1.127    0.112
        37  -9.3937     75.5815    136.7688   9.9702287125e+01   3.8318282105e+01    0.2489863    0.2032877  40.86 0.0005473483    1.298    0.230
        38 -10.6684     59.1757    135.4116   1.0422823273e+02   4.0932945985e+01    0.5644689    0.2113758 -67.27  0.002009707    2.784    0.641
        39  -9.1100    107.5983    131.6700   8.9440578421e+01   3.4181412687e+01    0.4648966    0.2564728  43.05  0.001895414    1.858    0.462
        40  -9.0575     96.0428    127.8182   9.1853126605e+01   3.7211186444e+01    0.2801335     0.241956  -6.16 0.0005763011    1.370    0.270
        41  -7.5517    120.3367    120.3249   8.3136742766e+01   3.4376413993e+01    0.1627926    0.1255285  -7.46 0.0007051319    1.719    0.418
        42  -7.8486    106.0341    120.0327   8.7100140795e+01   3.7261582886e+01    0.1777817    0.1768077 -43.26 0.0003090465    1.031    0.030
        43  -9.0459     17.8912    130.3259   1.1545371688e+02   4.6437172104e+01    0.1708425    0.1543847 -78.54 0.0006672033    1.115    0.103
        44  -8.5581     33.0000    118.9448   1.0929701823e+02   4.7946308085e+01    0.2272818   0.06597969 -65.96 0.0007982224    2.913    0.657
        45  -7.4863    205.6783    110.7041   6.1146071662e+01   1.7396837860e+01    0.1478081    0.1166601   7.44 0.0003098084    1.617    0.382
        46 -12.0643     17.7815    218.4070   1.2321167599e+02   2.6146558110e+01     0.901014    0.4619104  61.48  0.002545186    1.630    0.386
        47  -7.3215     41.3324     92.2853   1.0126970883e+02   5.3583198672e+01    0.1399271   0.09155592 -31.40  0.000680575    1.619    0.382
        48  -7.6356     52.6719     90.6585   9.6825894806e+01   5.2675692386e+01     0.149713   0.09565552 -29.22 0.0007051376    1.740    0.425
        49 -11.7369     31.7418    206.7029   1.1962706774e+02   2.7157153333e+01    0.6838263    0.4393386 -42.14   0.00379526    2.417    0.586
        50 -13.5898     40.7061    195.5326   1.1676362628e+02   2.8625675964e+01     2.862558     1.193456  67.39   0.01159385    3.084    0.676
        51 -10.1538     13.4679     60.5728   1.0439136074e+02   6.3066143226e+01    0.2563243    0.1972074 -61.09 0.0008322705    1.248    0.199
        52  -8.6486     41.5719     59.2245   9.2061937721e+01   6.0844219215e+01    0.2396069    0.1595181  43.74  0.001279525    1.950    0.487
        53 -11.3707    201.9927     40.6297   4.3859525440e+01   2.9655398625e+01    0.7075961    0.5166318  74.48  0.002789432    1.324    0.245
        54 -11.9687    116.2614    240.5067   1.0555608145e+02   8.8088289839e+00    0.7215956    0.5360599  18.11  0.004247603    1.663    0.399
        55 -12.8827    115.2916    229.5652   1.0441813872e+02   1.0970305994e+01     1.804349    0.7290401  33.62  0.007570352    2.473    0.596
        56  -8.5335    135.2027     41.9466   5.5447117808e+01   4.5997385221e+01    0.2151932     0.190199 -69.80 0.0005393894    1.268    0.211
        57 -12.5425    133.0047    232.9983   1.0118125183e+02   7.5186237054e+00     1.297518    0.7194365  20.71  0.005766343    2.593    0.614
        58 -10.5843     45.0938    230.0637   1.1874667235e+02   2.0740498125e+01    0.3058576    0.2054902  52.82  0.001362468    1.238    0.192
        59 -11.3770    127.3657    229.8751   1.0193483369e+02   8.9910032827e+00    0.5390218    0.4533012 -31.38  0.003340896    1.468    0.319
        60  -8.8403    161.6549    227.6940   9.4497308154e+01   3.7709811320e+00    0.1338106   0.09558261   7.30 0.0005434358    1.693    0.409
        61  -9.8349     33.2576    226.2130   1.2075266231e+02   2.2894562713e+01    0.3375783    0.1525801 -78.86  0.001671669    2.088    0.521
