#   1 NUMBER                 Running object number                                     
#   2 MAG_AUTO               Kron-like elliptical aperture magnitude                    [mag]
#   3 X_IMAGE                Object position along x                                    [pixel]
#   4 Y_IMAGE                Object position along y                                    [pixel]
#   5 X_WORLD                Barycenter position along world x axis                     [deg]
#   6 Y_WORLD                Barycenter position along world y axis                     [deg]
#   7 A_WORLD                Profile RMS along major axis (world units)                 [deg]
#   8 B_WORLD                Profile RMS along minor axis (world units)                 [deg]
#   9 THETA_WORLD            Position angle (CCW/world-x)                               [deg]
#  10 FWHM_WORLD             FWHM assuming a gaussian core                              [deg]
#  11 ELONGATION             A_IMAGE/B_IMAGE                                           
#  12 ELLIPTICITY            1 - B_IMAGE/A_IMAGE                                       
         1 -13.0942     68.3151    144.3206   1.1085888472e+02   3.7274311113e+01     2.046419    0.9857043  66.77  0.004320791    3.280    0.695
         2 -10.2956     33.0000    104.4360   1.1407386625e+02   5.0810466184e+01    0.7283393   0.06069018 -65.69  0.001491809    9.768    0.898
         3 -12.2664    195.6511     35.6877   5.1618724369e+01   3.1661571706e+01     1.068274    0.9683904  44.07  0.004322797    1.200    0.167
         4 -12.4198    205.9533     24.0791   4.7013623719e+01   3.0485706953e+01    0.8768918    0.7614977  26.48  0.002296225    1.400    0.286
         5 -10.2587     40.3361      5.2612   7.9513991180e+01   6.9722060795e+01    0.2961766    0.1326711 -30.83  0.001373673    1.974    0.493
         6  -9.7536    229.4213      1.6534   3.8935654459e+01   2.7197933416e+01    0.5611672    0.1574949  72.64  0.002084665    3.253    0.693
         7 -10.5297     72.0403    178.3693   1.1468271129e+02   2.8971440106e+01    0.3821342    0.2482356 -47.13  0.002038666    1.979    0.495
         8 -14.9141     52.9571    201.1454   1.2101394597e+02   2.6666769442e+01     4.412711     3.524481 -72.81   0.02284297    1.350    0.259
         9 -12.0590     72.8331    159.0004   1.1194297371e+02   3.3219176786e+01    0.5580302    0.4647738 -44.90   0.00125649    1.472    0.321
        10 -16.6416      5.5945    238.9233   1.3157393402e+02   2.4749451715e+01     18.48965     0.865548 -77.66   0.04678417   13.877    0.928
        11 -10.5082     90.8824    156.4270   1.0721262238e+02   3.1097808024e+01    0.5453795     0.390548 -24.68  0.001913275    2.297    0.565
        12  -9.2868     36.4086    150.7488   1.1956246156e+02   3.9597978819e+01    0.1777562    0.0959885 -64.39  0.000949767    1.604    0.376
        13 -13.8155     10.3602    206.5491   1.2929544685e+02   3.0256458606e+01     0.818316    0.6994658 -59.70  0.004136229    1.719    0.418
        14 -14.6562     69.2296    248.5500   1.2186948900e+02   1.5760518020e+01     7.030993     1.986815  35.76   0.02716243    4.659    0.785
        15 -10.7891     44.6134    147.9062   1.1725490336e+02   3.9371681881e+01    0.3837519    0.2632326 -14.24  0.001948301    2.762    0.638
        16  -8.2983     87.8197    146.7680   1.0634176464e+02   3.3824983895e+01    0.1936139    0.1777138 -74.19 0.0003784769    1.089    0.081
        17 -10.3751     76.1597    173.1222   1.1310358424e+02   2.9546018461e+01    0.3485464    0.2721862 -42.62 0.0007151514    1.687    0.407
        18  -9.4200    104.4532    140.6834   1.0100753140e+02   3.2468146666e+01    0.5461104    0.3142157 -28.17  0.001940039    3.463    0.711
        19 -10.6901     91.7472    141.1358   1.0433679472e+02   3.4517180792e+01    0.2805147    0.2476642 -51.01 0.0003797772    1.209    0.173
        20  -9.9042     73.0829    205.3724   1.1745945985e+02   2.3156957057e+01     0.465916    0.2809629 -78.07  0.002696344    1.633    0.388
        21  -9.1717    112.7306    130.9610   9.6863180222e+01   3.3218903040e+01     0.315589    0.2191684  23.29 0.0008993932    1.923    0.480
        22  -8.3560    105.5939    130.7728   9.8680592804e+01   3.4575156288e+01    0.2686406    0.1847492 -64.05  0.001268967    1.467    0.318
        23  -9.4117     99.9657    127.4962   9.9468531593e+01   3.6342120948e+01    0.3693051     0.242569 -36.72   0.00131285    1.835    0.455
        24  -8.3786    125.6490    127.3422   9.2729921721e+01   3.1534508965e+01    0.1624455    0.1193245  85.35 0.0007042668    1.805    0.446
        25  -9.5206    117.6967    126.1560   9.4499263251e+01   3.3378352284e+01    0.3135505     0.134172 -56.87  0.001090924    2.571    0.611
        26 -10.8747     42.6321    126.6253   1.1486031354e+02   4.4602847055e+01    0.4021047    0.1946684  35.28  0.001553955    2.291    0.563
        27  -8.4812    163.9589    169.7787   9.2834837897e+01   1.4705670687e+01    0.2445345    0.1832032 -64.67 0.0005578946    1.626    0.385
        28 -11.3464     84.2423    163.4194   1.0988773446e+02   3.0533133430e+01    0.9870201     0.407292  56.99  0.000677535    3.102    0.678
        29  -8.6496    193.6317    166.2292   8.5940664775e+01   9.3934412786e+00    0.2625937    0.1915551  41.61  0.001022562    1.311    0.237
        30  -9.0851    119.8214    111.0163   9.0268627854e+01   3.6409597085e+01    0.2608702    0.1810357 -78.52  0.001089885    2.015    0.504
        31  -8.0260    205.5073    110.0578   7.0492230612e+01   1.7095615363e+01    0.2301493    0.1458706 -36.13  0.001007224    1.514    0.340
        32  -8.4985    108.8141    119.7940   9.5372500367e+01   3.6541540509e+01    0.2119364    0.2003804 -27.89 0.0004239849    1.160    0.138
        33  -9.6122    165.2090    219.0329   1.0101890276e+02   5.7504909615e+00     0.313157    0.2021095  75.60  0.001458741    2.835    0.647
        34  -8.5604     86.4415     99.3070   9.6731790601e+01   4.5242730420e+01    0.2833293    0.2099592  62.12  0.001403398    1.625    0.385
        35  -7.9877    130.3327     96.3166   8.3510271412e+01   3.7430155893e+01    0.1594457    0.1250717   1.42 0.0003850713    1.689    0.408
        36  -9.6307     41.7763     92.0203   1.0900589274e+02   5.2874718680e+01    0.1990562    0.1944137  22.38 0.0006055399    1.228    0.186
        37  -8.3616     96.7752    200.5415   1.1214475044e+02   2.0629625339e+01    0.2902819    0.1568208 -45.16  0.001162068    2.624    0.619
        38  -9.0060    193.4413    195.6449   9.1688960511e+01   4.4428190227e+00    0.2588343    0.1666101 -54.61   0.00114673    2.114    0.527
        39  -8.8018     61.5509     69.0047   9.6463249579e+01   5.5733862141e+01    0.2448386    0.1856383  51.98   0.00134787    1.661    0.398
        40  -8.6771    168.0309    112.7691   7.8878581386e+01   2.5365486255e+01    0.3494073    0.2155894 -50.30  0.001379424    1.710    0.415
        41  -9.4864    153.7698     56.5850   6.5514231058e+01   3.9428118451e+01    0.3513075    0.2657073 -87.04 0.0009446933    1.692    0.409
        42  -9.0401    156.3018     50.7224   6.3065527253e+01   3.9719171821e+01     0.301699    0.2311484 -69.95 0.0009814713    1.577    0.366
        43 -11.5893    186.0987     43.0976   5.5230123968e+01   3.3127210206e+01    0.7322686    0.5419362 -13.71  0.002769046    1.595    0.373
        44  -8.8273    193.6774    191.0829   9.0809433706e+01   5.1370991005e+00    0.3756636      0.21988  38.09  0.001854936    1.555    0.357
        45 -11.8390     58.4835    130.6567   1.1123229797e+02   4.1810387849e+01     1.291768    0.3800635 -70.10  0.003857347    4.510    0.778
        46  -8.8794     33.0000     43.9579   9.9478201728e+01   6.4153501999e+01     0.209845   0.05904708 -52.64 0.0008060441    2.967    0.663
        47  -8.2826     99.6898    180.5985   1.0887804511e+02   2.4299761432e+01    0.1870311    0.1126986  52.20 0.0005764865    1.544    0.352
        48  -9.6894     72.3236    230.1871   1.1989049637e+02   1.8536714205e+01    0.2372077    0.1543452  58.45 0.0008037557    1.201    0.167
