#   1 NUMBER                 Running object number                                     
#   2 MAG_AUTO               Kron-like elliptical aperture magnitude                    [mag]
#   3 X_IMAGE                Object position along x                                    [pixel]
#   4 Y_IMAGE                Object position along y                                    [pixel]
#   5 X_WORLD                Barycenter position along world x axis                     [deg]
#   6 Y_WORLD                Barycenter position along world y axis                     [deg]
#   7 A_WORLD                Profile RMS along major axis (world units)                 [deg]
#   8 B_WORLD                Profile RMS along minor axis (world units)                 [deg]
#   9 THETA_WORLD            Position angle (CCW/world-x)                               [deg]
#  10 FWHM_WORLD             FWHM assuming a gaussian core                              [deg]
#  11 ELONGATION             A_IMAGE/B_IMAGE                                           
#  12 ELLIPTICITY            1 - B_IMAGE/A_IMAGE                                       
         1 -12.8230     37.7427     50.9528   9.8852325513e+01   6.3061887715e+01    0.7048163    0.6049614 -36.59  0.003040576    1.286    0.222
         2 -11.2671     78.8285     31.1502   7.5049430262e+01   6.0934756835e+01    0.6233218    0.3570251 -24.63  0.002532643    2.239    0.553
         3 -11.9262     61.1081     24.9914   7.9145474015e+01   6.5308322772e+01     0.780894    0.4063017 -54.63  0.003432368    2.185    0.542
         4 -11.2913     64.2599     14.5255   7.2576092796e+01   6.6600519151e+01    0.6561615    0.3742019  20.08  0.002659338    3.037    0.671
         5 -11.0491     70.4110     14.7893   7.0272519036e+01   6.5389546381e+01    0.5014877    0.2757806 -21.11  0.001759334    2.217    0.549
         6 -11.6040     75.9505     16.1796   6.8933176738e+01   6.4065021451e+01    0.3800228    0.3269467  19.40  0.001188586    1.226    0.185
         7 -12.2628     80.1787      7.5188   6.2817858607e+01   6.4448803058e+01    0.7746155    0.4612551  25.00  0.001693639    2.185    0.542
         8 -11.9687     73.9861      7.1721   6.4758736198e+01   6.5813551856e+01    0.3096592    0.2366096 -31.08 0.0003033356    1.228    0.186
         9 -12.2953    131.6577     21.2233   5.5945121934e+01   5.0062383269e+01    0.7933947    0.4581593  64.31  0.003374994    1.749    0.428
        10 -11.4249    112.4981     24.4231   6.1734945760e+01   5.4537699236e+01    0.4604873     0.332698   0.08  0.002141286    1.691    0.409
        11 -12.3676     84.6397     20.1925   6.7926612587e+01   6.1618797997e+01    0.7475932    0.5192945 -64.12  0.001007268    1.960    0.490
        12 -11.6421    120.2830     21.4001   5.8514712031e+01   5.3006143501e+01     0.333611    0.2606791 -14.26 0.0002574265    1.340    0.254
        13 -11.8315     19.6449     17.2113   9.6640158835e+01   7.2275553917e+01    0.4881453    0.3432548 -77.83  0.002591441    1.615    0.381
        14 -11.5555      4.6568     18.5956   1.0622902544e+02   7.3065231021e+01    0.4429623    0.2793273  40.76  0.002755646    1.951    0.487
        15 -10.6522     30.8342     13.4266   8.8373178850e+01   7.1889236514e+01    0.2960679    0.1573102 -44.36 0.0003697189    1.595    0.373
        16 -10.2886    157.7390     12.7546   4.7967211318e+01   4.3927776983e+01    0.4614556    0.1888473 -51.47  0.001503697    3.087    0.676
        17 -10.3653     55.1190     13.1552   7.5780950478e+01   6.8447103769e+01    0.3480061    0.1681813 -39.85  0.001118726    1.856    0.461
        18  -9.6800     58.8167     10.2191   7.2501534798e+01   6.8293722252e+01    0.2829745    0.1891021  42.59 0.0009362645    1.622    0.384
        19 -10.4915    138.5442     12.1155   5.0817107861e+01   4.9303999895e+01    0.3236612    0.2207835 -52.69  0.001043002    1.603    0.376
        20 -10.1812    118.4466     12.5213   5.4973133624e+01   5.4621437774e+01    0.2978233    0.2214019 -40.20 0.0007692017    1.364    0.267
        21 -11.2559    114.9923      8.8367   5.4026719949e+01   5.5950792711e+01    0.4806144    0.2637186  58.89 0.0007820245    1.763    0.433
        22 -10.3588    115.6622      5.3222   5.2216247244e+01   5.6169548781e+01    0.2869494    0.2307791 -43.22  0.001482759    1.294    0.227
        23 -10.3547    100.2566     12.5347   5.9426002194e+01   5.9175767258e+01    0.2763401    0.2194104  -3.93 0.0007778946    1.328    0.247
        24 -10.7618    133.0689     10.9394   5.1311725415e+01   5.0923986280e+01     0.372299     0.205837  -1.86  0.001168117    2.351    0.575
        25  -9.8151     50.5106     11.4369   7.6974875178e+01   6.9504089823e+01    0.2746009    0.1789177  -4.86  0.001314363    2.280    0.561
        26  -9.9009      5.4744     11.4671   1.0332043172e+02   7.4561018673e+01    0.2123141   0.09525905 -50.01 0.0006204602    1.751    0.429
        27 -10.1121      6.4852      8.1294   1.0133115002e+02   7.5204367255e+01    0.1885811    0.1549962 -88.41 0.0004227698    1.395    0.283
        28 -10.9350    184.8035     10.6337   4.3718487275e+01   3.6614340581e+01    0.4111206    0.2500684 -79.45  0.001191957    1.912    0.477
        29 -10.3581     39.0716     10.1035   8.2036700608e+01   7.1461822238e+01    0.3421615    0.2351467 -84.98  0.000890259    3.116    0.679
        30 -11.5257     22.5716      6.9257   8.9989724317e+01   7.4079327900e+01    0.5315417    0.3601499 -71.92  0.003014729    1.930    0.482
        31 -10.8276     16.9703      3.1617   9.1654136320e+01   7.5372476910e+01    0.4046263    0.1903768 -54.03  0.001504873    1.779    0.438
        32 -11.3060     11.6200      2.6895   9.5167760345e+01   7.5941237105e+01    0.3176534    0.2023194 -29.33  0.001284901    1.612    0.380
        33 -12.8802     31.9711      2.0852   8.1325616350e+01   7.3857956924e+01    0.2738257    0.2241994  16.07  0.000593919    1.352    0.260
        34 -10.8087     27.0329      3.3007   8.5104025322e+01   7.4263401884e+01    0.2283209    0.1943306  -6.15 0.0007841379    1.238    0.192
        35  -9.8781    107.7139      9.2806   5.5922384420e+01   5.7751825361e+01    0.2585215    0.1671095 -26.40 0.0009270833    1.509    0.337
        36  -9.3695    165.6946      9.6700   4.5695542566e+01   4.2023598205e+01    0.1603774    0.1083857  33.43 0.0002316659    1.656    0.396
        37 -11.4929    148.9274      6.3466   4.6757087419e+01   4.7041123847e+01    0.5887001    0.3641279  68.36  0.002622842    1.576    0.366
        38  -9.9510    127.0515      8.3134   5.1298377398e+01   5.2834152424e+01    0.2050138    0.1904401  65.31  0.000372402    1.078    0.072
        39 -10.4108     91.6568      7.2676   5.9133181232e+01   6.1893049932e+01    0.2268225      0.20385  53.03 0.0003196397    1.155    0.134
        40 -10.1147     93.3328      4.3305   5.7100213556e+01   6.1857202417e+01    0.2467709    0.1930105   3.74 0.0005674678    1.335    0.251
        41  -9.7731     60.0527      5.7399   6.9357042329e+01   6.8767466049e+01    0.1847495    0.1727926  -1.29  0.001167423    1.075    0.070
        42 -11.0415    243.7196      4.2558   3.6781350580e+01   2.1987502738e+01       0.4283    0.1750619 -55.05  0.001729095    2.608    0.617
        43 -10.7624    237.8537      1.9219   3.6520403456e+01   2.3582721520e+01    0.2607288    0.1772522  71.14 0.0008476569    1.565    0.361
        44 -10.7257    228.6362      4.8480   3.7964755695e+01   2.5584765583e+01    0.2223725    0.1835414  61.19 0.0007816534    1.303    0.233
        45  -9.8843    131.7080      5.2221   4.9071879654e+01   5.1902008006e+01    0.2816771    0.1945054 -77.77  0.001274285    1.737    0.424
        46 -11.6205    167.8379      2.1874   4.2655962083e+01   4.2130326770e+01    0.2969002    0.2488196 -77.09  0.000268901    1.215    0.177
        47  -9.3576    136.0323      3.4660   4.7570877383e+01   5.0894068490e+01    0.2176882    0.1445014  69.33 0.0004156746    1.487    0.328
        48  -8.7386      4.6627      3.3175   1.0056145796e+02   7.6323972960e+01    0.1090164    0.0840655  78.13 0.0004082113    1.702    0.412
        49  -9.6196     72.9355      2.2969   6.2298619738e+01   6.6690560062e+01    0.1898928    0.1639464  37.75 0.0004786177    1.180    0.153
        50  -9.2145    155.5130      1.4234   4.3879572527e+01   4.5661152299e+01    0.1491458    0.1410059  52.80 8.421925e-05    1.053    0.050
        51  -8.7341    107.6378      1.2958   5.1982764911e+01   5.8663667894e+01    0.1510826    0.1070738 -61.30 0.0007031908    1.710    0.415
        52 -10.6334     21.3490    212.2848   1.2033183220e+02   3.1478194339e+01    0.3013089   0.09909819  50.92  0.001874167    1.917    0.478
        53 -10.8269    250.3500    246.1071   8.6256814778e+01  -2.4709678784e+00    0.2570085    0.1454432 -10.26   0.00204036    1.946    0.486
        54 -12.3728    226.2513    246.0219   8.9571801957e+01   6.1692691928e-01    0.4791455    0.2737059  20.84  0.003645535    1.510    0.338
        55 -12.1614     29.1449    248.7518   1.2028486938e+02   2.5351030773e+01    0.4780966    0.1782071  62.99  0.003325331    2.011    0.503
        56 -10.3470      5.4086    235.2384   1.2361473986e+02   2.9494054421e+01    0.2247225    0.1522374  56.96  0.001716595    1.130    0.115
        57 -12.0065     18.5260    238.3066   1.2162630907e+02   2.7839957445e+01    0.6271367    0.1793257  36.53  0.003724264    2.708    0.631
        58 -12.5033     20.1994    248.6254   1.2165149195e+02   2.6243335346e+01    0.6406598    0.1262506  41.85  0.003297652    2.580    0.612
        59 -12.8699      6.9898    244.5773   1.2356712984e+02   2.8030545455e+01    0.7117201    0.3896001  42.30  0.005666272    1.448    0.309
        60 -10.1594    208.9770    212.0724   8.7760286178e+01   5.9102414322e+00    0.1660689    0.1191603  30.23 0.0004550043    1.025    0.025
        61  -9.0870     76.3319    212.3158   1.1054136102e+02   2.5298892115e+01   0.09079568   0.07911442  22.55 0.0007046564    1.685    0.406
        62  -9.6575      2.2974    212.3376   1.2361494507e+02   3.3225507268e+01    0.1364972   0.08516258  52.70 0.0005611973    1.156    0.135
        63 -12.3378      4.7549    207.3675   1.2307124746e+02   3.3802464318e+01    0.5563449    0.1853112  77.41  0.003292227    2.609    0.617
        64  -9.9764     10.8547    208.1777   1.2202970436e+02   3.3124843458e+01    0.1174119   0.09820018  71.59 0.0004997258    1.358    0.263
        65 -11.3340     19.0838    202.9646   1.2039511632e+02   3.3202506698e+01    0.3047237    0.1996365  69.04  0.001713281    1.130    0.115
        66 -10.3605    175.3886    202.6791   9.1916103377e+01   1.2102118298e+01    0.1983832    0.1395519  44.10 0.0005401233    1.158    0.136
        67  -9.1831     67.7098    203.7135   1.1149518109e+02   2.7726256515e+01   0.08760692   0.07972313  33.66 0.0002256036    1.537    0.349
        68  -9.5114    223.5914    201.7911   8.4040297348e+01   4.6803053068e+00    0.1234162    0.1000646 -32.46 0.0006004359    1.688    0.407
        69  -9.5044    173.7871    219.7795   9.4363710197e+01   1.0407415005e+01    0.1782071   0.06471574  48.77 0.0008767261    2.481    0.597
        70 -10.7984      9.5315    216.9173   1.2250404520e+02   3.1864101221e+01    0.2605156    0.1138474  53.29  0.001071147    1.461    0.316
        71  -9.6636     34.4844    201.2300   1.1751036339e+02   3.1942538003e+01    0.1392566    0.1147855  54.70 0.0008351434    1.302    0.232
        72  -9.3413    227.1680    196.8432   8.2749250194e+01   4.5975442034e+00    0.1584919    0.1005352  21.33 0.0009171926    1.362    0.266
        73  -9.0660    188.3079    209.6771   9.0713923023e+01   9.2959058041e+00    0.1014953   0.07776004  59.35 0.0003029694    1.646    0.392
        74 -10.1151    215.4691    194.9012   8.4252584133e+01   6.5958559105e+00    0.1417505    0.1045112 -16.48 0.0003885392    1.517    0.341
        75 -10.0996      1.9015    188.7284   1.2309087418e+02   3.7155153233e+01    0.2331014   0.08304587  72.93   0.00137359    2.252    0.556
        76  -9.6384    211.3017    188.5445   8.3926220874e+01   7.9108417837e+00    0.1912691      0.12288   3.85  0.001174181    1.824    0.452
        77  -9.5443     61.7884    185.0574   1.1123606170e+02   3.1585880379e+01    0.1338781   0.08091781 -80.47 0.0008678206    1.710    0.415
        78 -10.8883     16.5729    183.7714   1.2012141105e+02   3.6718215760e+01    0.2441935    0.1417487  72.93  0.001111186    1.323    0.244
        79 -10.0430     15.3146    180.6834   1.2024180769e+02   3.7384571249e+01    0.1738598    0.1078043  38.11  0.001091212    1.575    0.365
        80  -9.9742    167.1978    183.5833   9.0648280449e+01   1.5834325114e+01    0.1746244   0.09325442  36.55 0.0008222116    1.638    0.389
        81  -9.7341    142.6460    183.6736   9.5181190841e+01   1.9928879570e+01    0.1185138   0.08638749  18.80 0.0007046667    1.769    0.435
        82  -9.3083     58.6629    182.2890   1.1164871954e+02   3.2456874637e+01    0.1197605   0.06187856  61.01  0.000702081    1.636    0.389
        83  -9.5666      2.0081    180.3031   1.2283040094e+02   3.8620273574e+01     0.142791   0.09409177  58.24  0.000498368    1.107    0.097
        84 -10.4110    244.0649    178.4689   7.7260743724e+01   3.6936218986e+00      0.21292    0.1304472   1.91 0.0008996124    1.649    0.394
        85 -10.9187    224.1439    178.5021   8.0268842226e+01   6.8668953971e+00    0.2129564    0.1780904  31.57 0.0004251483    1.187    0.157
        86  -9.5044     70.0655    177.8670   1.0894865546e+02   3.1805301367e+01    0.1462403    0.1369119  -0.26 0.0006572124    1.655    0.396
        87  -9.9486     46.6328    177.3654   1.1373848915e+02   3.4761047768e+01    0.2347786    0.1293332  52.63   0.00150991    1.394    0.283
        88  -9.1537     36.4624    178.4609   1.1589057662e+02   3.5684098691e+01     0.109029   0.08026579  64.94  0.000244478    1.018    0.018
        89  -9.8773    200.2157    176.5814   8.3810355852e+01   1.1079254565e+01    0.1706173   0.09136798  35.54 0.0005167442    1.594    0.373
        90 -11.0801     18.1489    173.0430   1.1933986917e+02   3.8509063473e+01    0.3689029    0.1609221  60.39  0.002078003    1.745    0.427
        91  -9.4491     75.4009    170.7952   1.0715840113e+02   3.2372909374e+01    0.1450289    0.1022398 -59.05 0.0009323152    1.713    0.416
        92 -11.0035     12.8141    170.4418   1.2031948893e+02   3.9477365689e+01    0.2862135     0.118606  79.99  0.001659784    2.102    0.524
        93 -11.1586     50.6810    165.1732   1.1195625108e+02   3.6560836441e+01    0.3344921    0.2138367 -55.80  0.002107128    2.020    0.505
        94 -11.6263     44.5107    162.4719   1.1308864954e+02   3.7789972614e+01    0.3380896    0.2575349  48.49  0.002423959    1.251    0.201
        95 -12.2505     37.0140    159.0509   1.1448807765e+02   3.9277194252e+01    0.5305963    0.1796282 -74.24 0.0006231191    2.777    0.640
        96  -9.5306    210.0000    165.7817   8.0337189661e+01   1.0644489482e+01    0.1641564   0.08470583  43.96 0.0007300925    1.663    0.399
        97  -9.5886     67.1863    165.1801   1.0836476608e+02   3.4508786931e+01    0.1733654      0.10816  62.42 0.0009045404    1.369    0.270
        98  -9.4167    200.2531    162.6280   8.1406801378e+01   1.2748944374e+01    0.1673737   0.09808286  38.04 0.0004635369    1.455    0.313
        99 -11.2710     22.4617    156.5846   1.1756248778e+02   4.1228041801e+01    0.4372194    0.3146175  59.83   0.00322166    1.114    0.102
       100 -10.0418    247.4711    158.4765   7.3216721906e+01   5.0396832709e+00    0.1163993   0.09457498  15.31 5.461567e-05    1.059    0.056
       101  -9.1806    147.6790    156.3373   9.0055398281e+01   2.3260718894e+01    0.1291241   0.09521207  74.54 0.0007050198    1.711    0.415
       102  -9.2311    197.9953    154.3302   8.0279592252e+01   1.4204633407e+01    0.1995875    0.1013654  64.36 0.0007052117    4.377    0.772
       103 -10.2870     11.8095    153.2350   1.1975526069e+02   4.2848162455e+01    0.2572121    0.1321896  29.48  0.001589706    2.160    0.537
       104 -10.3400    177.9443    151.3749   8.3322527358e+01   1.8369189867e+01    0.2450012    0.2144931  70.79 0.0009019691    1.372    0.271
       105  -9.3987     27.2746    147.3203   1.1587390253e+02   4.2604885410e+01   0.09930106   0.08006792 -60.72 0.0002966828    1.573    0.364
       106 -10.1427    207.0303    146.1278   7.7166811439e+01   1.3558297528e+01     0.195417    0.1676484  29.80 0.0007723599    1.048    0.046
       107  -9.7223     30.9158    144.6913   1.1482481826e+02   4.2776135555e+01    0.1595479    0.1193638  66.01 0.0004006441    1.065    0.061
       108 -11.6085     11.8332    145.4766   1.1935890191e+02   4.4386093467e+01     0.283472    0.1678415  76.71  0.001896867    1.325    0.245
       109 -10.3469     21.3970    135.9470   1.1648919413e+02   4.5494731478e+01    0.2273153    0.1720756  69.48  0.001107879    1.049    0.047
       110 -11.7006     20.6229    142.1607   1.1709696555e+02   4.4283952176e+01    0.4556598    0.1611246  63.63  0.001293501    2.676    0.626
       111 -10.4892      2.8365    143.9052   1.2136597462e+02   4.5427776166e+01    0.1572635    0.1260895 -84.43  0.001229791    1.299    0.230
       112 -11.0887      2.7664    137.4054   1.2109802226e+02   4.6744057723e+01    0.3358736    0.1341879 -77.20  0.001032634    2.135    0.532
       113 -10.2262      5.4663    133.2560   1.2024593654e+02   4.7389627974e+01    0.2346265    0.1251081  78.21 0.0008282057    1.494    0.331
       114 -10.9410     55.2380    134.5983   1.0790665367e+02   4.2141878953e+01    0.5030498    0.2715106  85.86  0.002597613    2.006    0.501
       115  -9.1335    143.6842    137.3176   8.7475304265e+01   2.7184136713e+01    0.1348377    0.1017614  78.48 0.0007038456    1.651    0.394
       116 -10.9742      9.2121    136.7503   1.1951654706e+02   4.6375543223e+01    0.1825382    0.1570115  74.14 0.0002513944    1.212    0.175
       117  -9.3612    138.0320    135.4712   8.8336076865e+01   2.8594506932e+01    0.1892353    0.1117971  26.40 0.0008091337    2.474    0.596
       118 -10.0406    106.9818    133.1900   9.4970440595e+01   3.4707617416e+01    0.2146153    0.1933053 -76.70  0.001319245    1.154    0.133
       119  -9.6208     79.5054    132.9861   1.0161757013e+02   3.9172582731e+01    0.1766786    0.1187875 -67.83 0.0009975177    1.489    0.328
       120 -11.4617     37.4632    130.4140   1.1198108903e+02   4.5076155582e+01      0.37902    0.2430812 -81.37  0.001540882    1.380    0.276
       121 -10.3375     33.2050    125.8432   1.1264766125e+02   4.6497882097e+01    0.1811433    0.1422693  64.65 0.0003093851    1.111    0.100
       122  -8.9604    227.3181    131.7300   7.0955571343e+01   1.1464521837e+01    0.1115624    0.1026446 -79.70 0.0002822214    1.560    0.359
       123 -10.2367     74.0781    129.5022   1.0247424638e+02   4.0692553804e+01    0.2333072    0.1999786 -84.12  0.000818294    1.127    0.113
       124 -11.3785      2.2506    124.7730   1.2061918130e+02   4.9394959152e+01    0.3988672    0.1531914 -77.79 0.0008749129    2.147    0.534
       125 -10.2966     14.2947    125.9539   1.1759148012e+02   4.8216292589e+01     0.221446    0.1468854  85.20  0.001057248    1.201    0.167
       126 -11.2802     10.5860    122.5740   1.1833295374e+02   4.9235482732e+01    0.2736782    0.1922366  67.55  0.001444406    1.148    0.129
       127  -9.4730     82.0104    125.2668   9.9803274778e+01   4.0405870509e+01    0.1769232     0.152271  71.25 0.0005260029    1.019    0.018
       128  -9.9808    219.9593    124.3092   7.0522395471e+01   1.3784580197e+01    0.1834469     0.155796  26.99 0.0005253002    1.065    0.061
       129  -9.9183     21.3426    121.1550   1.1537729641e+02   4.8640275812e+01    0.1679293    0.1577439  29.14 0.0005286613    1.435    0.303
       130  -9.5197     32.7416    118.9799   1.1209337788e+02   4.8035021262e+01    0.1676896    0.1264052 -89.38 0.0004062845    1.112    0.101
       131 -11.4059     17.6271    115.4888   1.1592130650e+02   5.0193441919e+01    0.4410985    0.2475603  46.78  0.002644869    1.642    0.391
       132  -8.7304     43.9713    119.0000   1.0902641215e+02   4.6833060028e+01    0.1803086   0.06606436  32.95 0.0007887115    2.848    0.649
       133  -9.5957    220.4348    116.9714   6.8822103573e+01   1.4602277360e+01    0.1931781    0.1234064 -26.80  0.000540217    1.552    0.356
       134  -9.1987    201.4043    117.4904   7.2073622777e+01   1.8464743006e+01    0.1341739    0.1236061  15.90 0.0001312284    1.026    0.026
       135 -10.5134     85.9956    116.6970   9.7314168715e+01   4.1596618925e+01    0.2169867    0.1776058 -72.19 0.0004813506    1.190    0.160
       136 -10.3418     51.1053    116.4190   1.0673797960e+02   4.6567281442e+01    0.2800339    0.1499068 -65.93            0    1.730    0.422
       137  -9.5855    166.1436    115.6084   7.8231139555e+01   2.6281203813e+01     0.187304    0.1774547 -79.60 0.0006646407    1.174    0.148
       138  -9.1785    214.1800    115.5919   6.9507959210e+01   1.6057134852e+01     0.188238    0.1128822  38.78 0.0006008362    1.598    0.374
       139  -9.7253     35.1558    114.1970   1.1091291861e+02   4.8842739385e+01    0.2456166    0.1337025  87.90  0.001315397    1.752    0.429
       140 -12.0203     35.5796    108.4624   1.1012625174e+02   5.0076529737e+01    0.4099927     0.215469  74.37  0.001369549    1.995    0.499
       141 -10.5937    249.0343    112.4592   6.3626516740e+01   9.5222559255e+00    0.2019622    0.1531953 -14.24 0.0007020893    1.192    0.161
       142 -13.1131     54.7703    109.8543   1.0477904843e+02   4.7571395152e+01    0.3054042    0.2482436  84.16 0.0008863749    1.063    0.059
       143 -11.3369     22.7519    107.0079   1.1370054071e+02   5.1626072746e+01    0.3034053    0.1900437  47.84 0.0007095879    1.528    0.345
       144 -12.3440     15.8883    109.1786   1.1588315927e+02   5.1723368354e+01    0.4859135    0.3348966  50.57 0.0008319177    1.381    0.276
       145 -11.6960     15.1243    103.6732   1.1562485236e+02   5.3006881543e+01    0.5090334     0.158439  39.70  0.002200641    2.800    0.643
       146 -12.6162      2.7091     99.8725   1.1901046341e+02   5.4741455252e+01    0.5218722    0.2142528  87.32   0.00106893    2.089    0.521
       147 -12.0027      2.5137    106.0752   1.1948070023e+02   5.3389265273e+01    0.3217771    0.1938197  84.04 0.0003779749    1.308    0.235
       148 -10.5489      6.4316    105.5164   1.1831574748e+02   5.3245035849e+01    0.2049842    0.1425166  87.47 0.0006876572    1.123    0.109
       149 -10.7840     62.8242    106.8831   1.0199940720e+02   4.7180571795e+01      0.27461     0.217211  46.69 0.0008291829    1.293    0.227
       150 -11.1037    243.6837    104.7742   6.2624108223e+01   1.1400224765e+01    0.2650225    0.1571809  -1.79 0.0007677778    1.892    0.472
       151  -9.8710    223.3184    104.0374   6.5388556229e+01   1.5625629868e+01    0.1891668    0.1596641 -15.98 0.0004451697    1.133    0.117
       152 -10.0577     93.1956    104.1385   9.2936655912e+01   4.3082906384e+01    0.1909643    0.1846464 -48.50 0.0004571574    1.212    0.175
       153 -10.2659     36.5459    101.9207   1.0901553924e+02   5.1450934443e+01    0.2893936    0.1508493  41.66  0.001406924    1.890    0.471
       154  -9.6750    119.7706    101.4199   8.5353022990e+01   3.8657118517e+01    0.2018736    0.1324792  36.88 0.0009432823    1.682    0.406
       155 -11.2304     66.9035     98.2624   9.9266980645e+01   4.8542534912e+01    0.3079204     0.174637 -69.65 0.0007481831    1.720    0.419
       156 -11.2703     62.1339     98.7913   1.0079318050e+02   4.9090284392e+01    0.4615993    0.4082882  29.16   0.00289656    1.387    0.279
       157  -9.9701    145.1959     99.8786   7.8922381196e+01   3.3577794512e+01    0.3069978    0.1676904 -60.81  0.001165014    2.717    0.632
       158 -10.8282     93.4940     94.5225   9.0725316799e+01   4.5096465777e+01    0.3789396    0.1927049 -41.00  0.001256847    2.466    0.594
       159 -10.4852     94.3276     91.3547   8.9740100628e+01   4.5628711280e+01    0.4968703    0.3009517  17.19  0.001809094    3.742    0.733
       160 -11.3501     20.3895     97.5362   1.1342945599e+02   5.3958870694e+01     0.422983     0.219455 -89.14  0.001679898    1.718    0.418
       161  -9.9640     40.8182     97.0524   1.0702581506e+02   5.2104201017e+01     0.232737     0.153033 -57.77  0.001080649    1.517    0.341
       162  -9.1622    103.5093     96.9728   8.8532596595e+01   4.2741045503e+01    0.1861519     0.121943 -28.62  0.000631477    2.331    0.571
       163 -10.0803     57.2993     95.9401   1.0174590155e+02   5.0382447706e+01    0.3430979    0.1437046 -56.17  0.001517111    2.237    0.553
       164  -9.9189     13.7900     96.8014   1.1539445831e+02   5.4651201735e+01     0.166949    0.1113472  71.36 0.0007061893    1.308    0.235
       165  -9.7218    249.9711     95.5130   5.9645484043e+01   1.1191687637e+01    0.1783335     0.124955  50.53 0.0004248931    1.517    0.341
       166  -9.7767     31.4816     92.5622   1.0932744256e+02   5.4093310740e+01    0.2612359    0.1039051 -71.72  0.001205292    2.149    0.535
       167 -11.7541    158.0678     89.9875   7.3532491141e+01   3.2418887520e+01    0.4977267     0.249265 -39.07  0.002031389    2.035    0.509
       168 -11.1005     25.6198     91.5260   1.1107359713e+02   5.4876132155e+01    0.2684829    0.2410373 -62.18  0.001072154    1.275    0.216
       169 -10.8582     22.9086     87.2602   1.1141325805e+02   5.6091550600e+01    0.2602433    0.1627628 -76.70 0.0005319259    1.327    0.246
       170 -11.5712     10.5409     90.9111   1.1585532209e+02   5.6220216740e+01    0.2890333    0.2078979  34.92  0.001941427    1.576    0.365
       171  -9.1143     21.3008     91.3467   1.1244355129e+02   5.5290758125e+01     0.120185   0.07898644 -51.77 0.0003933883    1.685    0.406
       172 -10.9544     46.5545     84.2659   1.0304708317e+02   5.4392542652e+01    0.5773631    0.3815938 -83.92  0.003193546    1.459    0.314
       173  -9.1459    139.2845     87.7040   7.7091766666e+01   3.7137720891e+01    0.1457968    0.1152989 -82.27   0.00069631    1.544    0.352
       174 -10.8480      4.6958     85.6702   1.1727180077e+02   5.7796448207e+01     0.430011    0.1690709 -75.38  0.002193769    1.993    0.498
       175 -10.2474     16.1085     73.9125   1.1200103237e+02   5.9713777085e+01    0.3114843    0.1349566 -72.07 0.0006011947    1.849    0.459
       176 -12.3905     17.7271     66.2692   1.1026527099e+02   6.1363383815e+01    0.7380671    0.4596139 -54.22  0.001510966    1.537    0.349
       177 -12.2528     21.0414     77.5801   1.1074178088e+02   5.8480677755e+01    0.4781782    0.2933788 -59.89            0    1.491    0.329
       178 -10.6197      3.4362     78.0723   1.1699906051e+02   5.9598811919e+01    0.2934377    0.1829037 -88.36  0.001272785    1.280    0.219
       179 -11.4427      7.5105     73.8589   1.1511439696e+02   6.0315142844e+01     0.375866    0.2537064  22.10  0.001909693    1.850    0.459
       180 -10.9562     14.1599     83.5117   1.1388858569e+02   5.7646259503e+01    0.3583928     0.204646  85.73   0.00162106    1.558    0.358
       181 -10.9986     12.6745     78.0309   1.1375896496e+02   5.9012018384e+01     0.272741    0.1775586 -76.42 0.0008931744    1.242    0.195
       182 -11.3495    167.4733     84.3245   7.0050027217e+01   3.1153810340e+01    0.4935278    0.3499887  69.69  0.002306375    1.629    0.386
       183 -10.2075     87.9355     83.3523   8.9628461870e+01   4.8501936038e+01    0.2241397     0.176721 -69.57 0.0002927798    1.248    0.199
       184 -10.1256     29.9076     82.5869   1.0839515314e+02   5.6542475534e+01    0.3284578    0.1429743 -64.54  0.001606027    1.912    0.477
       185 -10.8288     67.2887     84.6741   9.6348235338e+01   5.1553015588e+01    0.2632828    0.2094963 -33.99  0.001265842    1.592    0.372
       186  -9.6961    117.9159     83.3370   8.1185225818e+01   4.2663999038e+01     0.203306    0.1940328  56.70  0.001143618    1.066    0.062
       187  -9.2155    146.5089     81.5344   7.3710522464e+01   3.6601640527e+01     0.149502    0.1429479  88.17 9.037231e-05    1.063    0.060
       188 -10.0142     70.9556     79.3820   9.3935147187e+01   5.2192980751e+01    0.2158438    0.1574161  66.43 0.0007997886    1.494    0.331
       189  -9.0903    208.2873     78.6968   6.1312712049e+01   2.2252737172e+01    0.1408761    0.1088349 -58.82  0.000185477    1.563    0.360
       190 -11.6048     59.2875     75.9964   9.7006928332e+01   5.4666806981e+01    0.4839084    0.3157616  77.18   0.00240687    1.902    0.474
       191 -11.4248     62.4401     71.7968   9.4904231742e+01   5.5176018465e+01    0.3469953    0.2303735 -46.56  0.001606641    1.548    0.354
       192  -9.6404    108.0497     76.7011   8.1978944847e+01   4.6063872244e+01    0.2015485    0.1875422  61.88 0.0003165924    1.076    0.071
       193 -10.3921     93.0189     77.4564   8.6541821433e+01   4.8852465102e+01    0.2109567    0.1392892  44.92 0.0005285155    1.564    0.361
       194  -9.3654    121.6447     76.2805   7.8195694178e+01   4.3253753553e+01    0.1520115    0.1155149  89.64 0.0007014096    1.659    0.397
       195 -10.2041     74.7559     76.1751   9.1898821879e+01   5.2310139428e+01    0.2729069    0.2065283  45.87  0.001489498    1.387    0.279
       196 -12.1149     44.6394     75.2042   1.0192969535e+02   5.6709487527e+01    0.2512444    0.2050972  50.47 0.0002533687    1.305    0.234
       197  -9.5172     33.0900     75.6963   1.0614095337e+02   5.7833701464e+01    0.1604178    0.1486008 -87.30 0.0004901882    1.137    0.121
       198  -9.7017    145.4815     73.9885   7.1734102033e+01   3.8186894245e+01    0.2317296    0.1487179 -37.31 0.0007174483    1.577    0.366
       199 -12.1378    102.6941     72.4660   8.2260567439e+01   4.8023345560e+01    0.4683547    0.2770992 -43.59 0.0005819116    1.693    0.409
       200  -9.6479    194.6239     72.7636   6.1862016371e+01   2.6334918469e+01     0.198599    0.1308144 -38.14 0.0003610652    1.509    0.337
       201 -10.9813     77.7306     72.0307   8.9825970393e+01   5.2738120861e+01    0.4528966    0.2070929  47.03  0.001282291    2.312    0.568
       202 -10.4558    150.4323     72.1572   7.0084633834e+01   3.7312211593e+01    0.2688152    0.2073259  55.80 0.0002117991    1.285    0.222
       203 -10.3165    128.9593     71.8147   7.4991908585e+01   4.2463899617e+01    0.2333561    0.2079824 -46.80 0.0002229017    1.120    0.107
       204 -10.2979     31.1638     66.2501   1.0508312275e+02   6.0215162827e+01    0.3733732    0.3001446 -82.14   0.00113698    1.081    0.075
       205 -10.2879     27.8382     68.1262   1.0671041678e+02   6.0090254175e+01    0.2529771    0.1488279  30.92  0.001122887    1.953    0.488
       206 -10.2766     38.0361     71.7337   1.0360170919e+02   5.8247026067e+01    0.2086871    0.2050426  -9.35 0.0003733556    1.269    0.212
       207 -10.4379     35.9797     68.5103   1.0371135651e+02   5.9210225621e+01    0.2824276     0.241058  59.27  0.001748634    1.242    0.195
       208 -10.8247      6.6584     67.7306   1.1470995257e+02   6.1776733405e+01    0.3723598    0.1658069 -48.09  0.001791082    2.447    0.591
       209 -12.2633      4.0455     64.9335   1.1537332192e+02   6.2572236546e+01    0.4066675    0.2583927 -80.76 0.0004110123    1.241    0.194
       210  -9.1416    116.3122     71.3446   7.8121918423e+01   4.5388117225e+01    0.1492457    0.1198021   2.75 0.0007046385    1.707    0.414
       211  -9.4704    167.7306     70.0284   6.5879235561e+01   3.3398958004e+01    0.1976832    0.1927181   8.82 0.0003266179    1.033    0.032
       212 -11.3783    140.1651     68.7441   7.1345982081e+01   4.0391300528e+01    0.3342328    0.2734613 -60.91 0.0003172014    1.320    0.242
       213 -12.2381     94.2428     68.4661   8.3571188964e+01   5.0523696252e+01    0.3878389    0.2477897 -45.39 0.0002871677    1.534    0.348
       214 -11.0052     50.6892     68.2063   9.8192365093e+01   5.7587750722e+01    0.3973949    0.2083013 -50.48  0.001431304    1.826    0.452
       215 -10.2504     51.1206     63.1258   9.6763474621e+01   5.8693261932e+01    0.3203872    0.1999897 -43.18  0.001642974    1.729    0.422
       216 -10.8840     68.6877     67.2883   9.1549893669e+01   5.5250623255e+01    0.3193055    0.2000576 -51.20  0.001017586    1.493    0.330
       217  -9.4961    146.2676     68.3810   6.9845231873e+01   3.8978152121e+01    0.1547858    0.1194286   8.08 0.0006989602    1.690    0.408
       218 -11.5936     64.7304     59.9510   9.0841371037e+01   5.7488760771e+01     0.571332    0.3592658  22.46  0.001551223    2.291    0.564
       219 -11.5023     56.3118     65.8894   9.5562658938e+01   5.7375697413e+01    0.4404622    0.1833851 -46.16  0.001787873    2.565    0.610
       220 -11.4092     57.4672     59.5625   9.3408824829e+01   5.8642103051e+01     0.397283    0.3382038 -73.83  0.001244418    1.102    0.092
       221 -11.5436     77.2953     62.8060   8.7295873187e+01   5.4824782403e+01    0.5379625    0.3062961 -60.62  0.002439663    1.816    0.449
       222  -9.2374    150.4763     64.5176   6.7710897540e+01   3.8600358985e+01    0.1499728     0.149012  75.93 1.483841e-05    1.002    0.002
       223  -9.3449     41.5245     64.4233   1.0072017244e+02   5.9556130456e+01    0.1289968    0.1106828 -80.78 0.0002227422    1.052    0.050
       224 -10.8601     86.0509     46.4186   7.8752954877e+01   5.6618427187e+01    0.7192512    0.4528367  -3.23  0.002507455    3.893    0.743
       225 -10.9285     78.4916     47.4823   8.1746640384e+01   5.7836090247e+01     0.545688    0.2112874 -51.91   0.00182739    2.654    0.623
       226 -12.0289     86.7174     56.6197   8.2163823211e+01   5.4430064881e+01    0.9098244    0.4538227 -29.08  0.002830229    3.615    0.723
       227 -11.8267     87.0948     52.2887   8.0544680882e+01   5.5242803795e+01    0.7498252    0.3054041 -45.35 0.0003289804    2.323    0.569
       228 -10.1043     10.9286     62.3791   1.1233378273e+02   6.2743814531e+01    0.1868989     0.135261  89.06 0.0004490737    1.195    0.163
       229 -11.4547    201.3666     61.8757   5.7696139826e+01   2.6166274508e+01    0.2653982    0.2380513  57.05 0.0003228332    1.148    0.129
       230  -9.5783    155.2380     62.1634   6.5957552397e+01   3.7797204996e+01     0.271606     0.161734  20.58 0.0009601925    2.875    0.652
       231 -10.9418     45.0161     49.9742   9.5522433220e+01   6.2435785155e+01     0.474658    0.1854789 -57.36  0.002027619    2.178    0.541
       232 -11.2682     29.6465     60.8422   1.0457141485e+02   6.1613490051e+01    0.5828681    0.2712457  15.48  0.002574869    3.397    0.706
       233  -9.5807    156.6554    245.7104   9.9917843380e+01   1.0105617771e+01    0.0995058   0.06157554  26.99 0.0003855206    1.654    0.395
       234 -10.1172     43.9461     57.0528   9.7947150458e+01   6.0965452526e+01    0.2468088    0.1744363 -37.28 0.0003490024    1.625    0.385
       235 -11.3831    103.1141     58.9896   7.7867275728e+01   5.0659920512e+01    0.4860126     0.358151 -11.13  0.001312246    1.959    0.490
       236 -10.4210    100.5155     55.5544   7.7464137737e+01   5.1883145437e+01    0.3252663    0.2320027  54.95  0.001410005    1.472    0.321
       237 -10.7154      5.4121     58.6293   1.1402432360e+02   6.3945891956e+01    0.3467151    0.1316189 -72.73   0.00139968    2.016    0.504
       238 -11.1875      5.4520     51.6570   1.1299124006e+02   6.5548909767e+01    0.3133263     0.213345 -65.71 0.0007459662    1.210    0.173
       239 -10.8106     12.4404     51.3340   1.0988784340e+02   6.5196527374e+01    0.2652586    0.1780197 -89.89 0.0006220451    1.377    0.274
       240 -10.9649     11.1457     44.7529   1.0920727955e+02   6.6794845441e+01     0.432372    0.1986765 -56.09  0.001710872    1.790    0.441
       241  -9.8910      4.1580     47.3215   1.1287754663e+02   6.6615249728e+01    0.2134492    0.1300848 -38.20  0.001274047    1.874    0.466
       242 -11.1708      7.0429     41.0630   1.1041208723e+02   6.7889174755e+01    0.2966045    0.1262049 -67.42 0.0005386551    1.782    0.439
       243 -10.8190    147.0423     56.9856   6.6008690809e+01   4.0712940684e+01    0.2441601    0.2187109 -53.50  0.000297482    1.139    0.122
       244  -9.5822    143.7559     53.5770   6.5577775427e+01   4.2103290375e+01    0.2501914    0.1778554 -80.90 0.0006753057    1.898    0.473
       245 -10.3239    129.7754     55.9609   6.9641685618e+01   4.5161336241e+01    0.3174001    0.1972621 -37.11 0.0005103411    1.595    0.373
       246 -12.4435    128.7256     50.3482   6.7932799395e+01   4.6390783872e+01    0.5385919    0.3974433   6.15  0.001184158    1.855    0.461
       247 -10.2304     61.3019     54.0321   9.0298881053e+01   5.9310444809e+01    0.2299836    0.2038744  52.06 0.0007277536    1.230    0.187
       248 -11.8604     75.3445     56.0338   8.5822696610e+01   5.6613192832e+01    0.2405901     0.221525 -61.59 0.0002733888    1.004    0.004
       249 -10.1139    109.1605     52.1926   7.3750735649e+01   5.0652526934e+01    0.2180984    0.1995851   1.84 0.0004564215    1.226    0.184
       250 -10.9715     69.9747     50.1647   8.5773400581e+01   5.8769345560e+01     0.467253    0.3131752  86.54   0.00167751    2.410    0.585
       251 -11.0344    104.0959     49.2903   7.4156313763e+01   5.2316758847e+01    0.4583423    0.3063168 -38.07  0.002156063    1.469    0.319
       252  -9.7425    186.6781     50.0608   5.6414192808e+01   3.1481229689e+01    0.2100321    0.1847365 -26.57 0.0003433749    1.116    0.104
       253  -9.6339     53.6795     50.1247   9.2031934937e+01   6.1268828880e+01    0.1885102    0.1553241 -55.74 0.0005198652    1.079    0.073
       254  -9.6812    166.7984     49.1936   5.9490726228e+01   3.6813808096e+01    0.2102194    0.1706979  35.12 0.0004264381    1.310    0.236
       255 -11.3592    152.3846     47.9321   6.1821350637e+01   4.0779754698e+01      0.65036    0.3314085  44.47  0.002335163    2.103    0.525
       256 -10.9677     95.1143     48.4244   7.6562711434e+01   5.4399140433e+01    0.3651999    0.2756742 -50.24  0.001470477    1.291    0.226
       257 -10.7398     89.8567     40.4733   7.5184151636e+01   5.6997959316e+01    0.7076285    0.3164787 -57.87   0.00222276    3.884    0.743
       258  -9.2072    220.4088     48.4899   5.1274900129e+01   2.3142265274e+01    0.1424408    0.1314502 -21.61 0.0002933224    1.017    0.017
       259 -11.0166    120.1463     47.2911   6.8981045010e+01   4.8994495891e+01    0.2967589    0.2339329 -42.42 0.0009326797    1.246    0.197
       260 -10.6913    115.7364     48.3855   7.0549429116e+01   4.9844285539e+01    0.5675917    0.3388299 -88.91  0.001864179    3.740    0.733
       261  -9.2269     25.6520     48.2993   1.0340588369e+02   6.4869357858e+01    0.1255727   0.08641966  72.15 0.0007036807    1.684    0.406
       262  -9.5982     62.4424     47.4996   8.7699014590e+01   6.0550349720e+01     0.136777    0.1219187 -48.64 0.0002878195    1.056    0.053
       263  -9.8494    164.0000     45.9014   5.8900228030e+01   3.8027436231e+01    0.2534487   0.08684677 -28.55 0.0007973879    2.908    0.656
       264 -10.1995    142.6326     45.6894   6.3067964058e+01   4.3655598614e+01    0.3133229    0.2397331 -64.60 0.0007788914    1.506    0.336
       265  -9.0370     54.3351     46.2507   9.0498025477e+01   6.2024350056e+01    0.1265247    0.1003463 -20.71 0.0002706055    1.561    0.359
       266  -9.6024     51.2595     44.9391   9.1323117190e+01   6.2737792412e+01    0.1858204    0.1513861 -52.07  0.000362726    1.093    0.085
       267 -10.0357    125.0125     41.5184   6.5584399954e+01   4.8783938287e+01    0.3747757    0.2379865   5.21   0.00141283    2.665    0.625
       268 -10.1620    121.6733     41.3506   6.6351498466e+01   4.9633554382e+01     0.322747    0.1948266 -58.15  0.001301546    2.114    0.527
       269 -11.7877    110.9248     42.0988   6.9481302800e+01   5.2073948932e+01    0.2699184    0.2588003  54.92 0.0002853255    1.068    0.064
       270 -10.2153    164.9782     42.2759   5.7493588778e+01   3.8281348567e+01    0.2204496    0.1921766  61.02 0.0003732804    1.149    0.129
       271 -11.2161     97.3225     41.0586   7.3045476474e+01   5.5314938594e+01    0.4565729    0.3608032  12.02  0.001531218    1.610    0.379
       272 -10.5756    101.7896     36.8337   6.9987782118e+01   5.5081334124e+01     0.248182    0.2239329  71.88 0.0008869935    1.195    0.163
       273 -10.8782    104.9852     34.1013   6.7926589873e+01   5.4817200216e+01    0.2658853    0.2596847 -27.63 0.0003195522    1.008    0.008
       274 -11.8664     81.8268     36.2222   7.6162076495e+01   5.9409186736e+01    0.6421185    0.3790197 -45.16  0.002020898    1.601    0.375
       275 -12.2151     74.4541    238.6429   1.1260630617e+02   2.1747346264e+01    0.4465864    0.2939013  57.64  0.003667544    1.110    0.099
       276 -10.3344     61.8801     38.2517   8.4511822215e+01   6.2575458006e+01    0.4053299    0.1630603 -51.19  0.001626077    2.316    0.568
       277 -11.0310     66.3165     41.5263   8.4020833578e+01   6.1179634996e+01    0.3541143    0.2625576  -1.61  0.001552956    1.983    0.496
       278 -10.2832     23.6330     41.2983   1.0253505022e+02   6.6641405533e+01    0.2305188    0.1704857  75.50  0.001001227    1.545    0.353
       279 -12.8627     25.6659     36.2403   1.0011036225e+02   6.7596681972e+01    0.5537418    0.4307059  51.27  0.003524782    1.510    0.338
       280 -11.3177     20.5263     37.8903   1.0310567153e+02   6.7674111948e+01    0.2751987    0.1902589 -57.57 0.0008491653    1.198    0.166
       281 -10.9673     69.7093     37.4240   8.1098655536e+01   6.1429020316e+01    0.6787377    0.3083744 -30.12  0.002285977    3.726    0.732
       282  -9.1063     60.3302     33.6914   8.3307738850e+01   6.3748312766e+01    0.1716417    0.1308673  30.71 0.0004829217    1.508    0.337
       283 -10.5948     51.9255     40.9215   8.9643828801e+01   6.3512784658e+01    0.2848437    0.2047804  87.82 0.0008481389    1.927    0.481
       284 -10.3917     55.9956     40.0561   8.7616266111e+01   6.3109120654e+01    0.4035948    0.1960996 -49.53  0.001840236    1.821    0.451
       285  -9.8305     57.3688     34.7384   8.4975764562e+01   6.4003597533e+01    0.3242321    0.2290007  75.23  0.001108821    2.155    0.536
       286 -10.2561     55.9705     31.2856   8.4145122826e+01   6.4917723121e+01    0.2476203    0.1758382 -37.96  0.001203718    1.336    0.252
       287 -10.1325     47.7058     58.1687   9.6761165150e+01   6.0253751209e+01    0.2573255    0.1908601  82.82  0.001437955    1.535    0.349
       288  -9.3904    226.2879     40.3308   4.8289700809e+01   2.2638332243e+01    0.1448595    0.1034124  22.10 0.0003069693    1.620    0.383
       289 -11.0784    183.0577     38.5867   5.3310852421e+01   3.3936707011e+01     0.400538    0.2163133 -42.12  0.001000988    1.844    0.458
       290 -10.0790     42.9622     37.6256   9.2394268829e+01   6.5411338773e+01    0.3482427    0.2010187 -81.30  0.001476626    2.902    0.655
       291  -9.6808     15.3570     34.7108   1.0482927868e+02   6.8791641733e+01     0.248938    0.1011911  39.66   0.00118788    2.855    0.650
       292 -11.0270      9.9427     34.9285   1.0764614780e+02   6.9110287260e+01    0.3667588    0.2403305  63.07  0.001786824    1.811    0.448
       293 -10.2179      7.4491     30.7171   1.0793249127e+02   7.0212110735e+01    0.2473151    0.1691729 -74.74  0.001200827    1.227    0.185
       294  -9.4673    155.2123     35.8316   5.6999625772e+01   4.1792700550e+01    0.2175915    0.1760101  27.43 0.0005374749    1.364    0.267
       295  -9.5254    127.4480     36.4436   6.3038512522e+01   4.8982809677e+01    0.2511325    0.1474292 -31.47 9.409752e-05    1.686    0.407
       296 -10.1943    125.6650     33.1089   6.2139787766e+01   4.9946153549e+01    0.2519264    0.2063527  74.80 0.0005566856    1.321    0.243
       297 -11.8102     98.2189     31.6106   6.8855815928e+01   5.6776199549e+01    0.6754853    0.4401947   3.32  0.002714753    2.515    0.602
       298 -11.2636    101.1664     28.4353   6.6598031808e+01   5.6628294405e+01    0.2967103    0.2559959 -46.81 0.0004129434    1.167    0.143
       299  -9.3698      3.6188     36.7162   1.1123934521e+02   6.9065980176e+01    0.1221368   0.06984901 -44.82  0.000701124    1.728    0.421
       300  -9.6413    110.6436     34.3821   6.6466556002e+01   5.3443368334e+01     0.336423    0.1595972 -46.02  0.001071218    2.236    0.553
       301  -9.5528    206.1360     33.8521   4.8710416451e+01   2.8419625570e+01    0.1946188      0.16552  23.23 0.0002614991    1.270    0.213
       302  -9.9692    193.0479     32.8036   5.0035299465e+01   3.1978403063e+01    0.2699752    0.1487029  39.36  0.001083753    2.103    0.525
       303 -10.8825    139.2949     31.0874   5.8331669108e+01   4.6703991116e+01    0.3944187    0.2693714  -3.53 0.0006706858    1.819    0.450
       304 -11.4125    177.5715     30.7731   5.1527033719e+01   3.6387761079e+01    0.5235149    0.2929395 -34.44  0.002207352    1.702    0.412
       305 -11.2187    168.2066     30.6927   5.2934856868e+01   3.8948126155e+01    0.3730386    0.2100223   0.33 0.0009595196    2.571    0.611
       306  -9.3234     16.4742     26.6096   1.0187388024e+02   7.0513160907e+01    0.1592312    0.1030461 -74.13 0.0001098591    1.458    0.314
       307 -10.4931     10.1946     25.3010   1.0496969671e+02   7.1251403275e+01    0.2559403    0.2140489 -19.40 0.0006954401    1.399    0.285
       308 -10.6012     17.6770     31.4170   1.0270835162e+02   6.9354259274e+01    0.3819618    0.1980285  38.15  0.002062582    2.257    0.557
       309 -10.3920     12.9731     28.4893   1.0435912932e+02   7.0355338551e+01    0.2681609    0.1428913  24.77  0.001497555    2.256    0.557
       310 -10.4195    154.0646     29.5963   5.4927040067e+01   4.2941203201e+01    0.3860055     0.251843 -56.15  0.001662934    1.747    0.428
       311 -10.6381     49.5759     30.1146   8.6483408297e+01   6.6105277982e+01    0.4181412    0.2084688 -42.87  0.001628378    1.849    0.459
       312  -9.4305     43.4735     31.5441   8.9879998799e+01   6.6641816054e+01    0.1312554    0.1120079 -44.14 0.0002240726    1.064    0.060
       313 -10.3836    223.4802     30.4688   4.5778805568e+01   2.4390927952e+01    0.2442399    0.1371052 -89.75 0.0008289851    2.301    0.565
       314 -10.1445    109.6927    243.2487   1.0717549363e+02   1.6721561455e+01    0.2142123    0.1144727  58.71 0.0009942254    1.709    0.415
       315 -10.0560    179.3266    243.6731   9.6209376285e+01   7.1727975122e+00   0.09607467   0.06455472  55.36 0.0007050063    1.699    0.411
       316 -11.2042     37.6671    242.6827   1.1874369441e+02   2.5314996636e+01    0.1900901    0.1068599  43.80  0.001523072    1.347    0.258
       317 -11.0453     35.4021    239.8055   1.1899592442e+02   2.5950683108e+01    0.2465515    0.1756001 -69.67  0.002165155    1.953    0.488
       318 -10.2952     88.8528    241.2260   1.1041446955e+02   1.9641271130e+01     0.143426    0.1255549 -19.88  0.001217856    2.079    0.519
       319 -10.3134    156.5180    241.5103   9.9526247399e+01   1.0563915614e+01     0.104106   0.07182348  40.92 0.0002944485    1.009    0.008
       320 -10.8840    214.5672     26.9337   4.5670938281e+01   2.7008469081e+01    0.3675066    0.2361871 -27.41 0.0009606051    1.443    0.307
       321  -9.6275    248.9647     27.6560   4.2648899671e+01   1.8622735734e+01    0.2140272   0.09268419 -73.37  0.000704424    4.337    0.769
       322 -10.0817    130.3176     27.2889   5.8729325496e+01   4.9597090763e+01    0.2764124    0.2033455  11.78  0.001235609    1.661    0.398
       323  -9.4060     50.3279    240.3041   1.1662095028e+02   2.4292388823e+01   0.07928012   0.06807099  35.37 0.0003481807    1.649    0.393
       324 -11.5587    237.3404     25.2730   4.2998514245e+01   2.1555029240e+01    0.3136862    0.2283289 -36.19 0.0005011438    1.237    0.192
       325 -10.2540    195.6091    238.5857   9.3168799377e+01   5.3779292169e+00    0.2185214    0.1224242  29.62  0.001520179    1.448    0.309
       326 -10.1987    107.1851     21.3942   6.1766433543e+01   5.6277823973e+01    0.2216518    0.1457469  56.23 0.0003540874    1.539    0.350
       327 -10.2554    107.7848     17.8557   5.9982989546e+01   5.6629421931e+01    0.3262884      0.25479   6.10  0.001021624    1.442    0.307
       328  -9.9380     72.6317    250.0860   1.1355219322e+02   2.0454686265e+01    0.1465691    0.1112284  34.00  0.001258341    1.595    0.373
       329 -10.5540    197.2250     24.9304   4.6996821945e+01   3.1757996661e+01    0.2291983    0.2096151  83.75 0.0002994565    1.120    0.107
       330  -9.0108    190.6629     25.2956   4.7916798084e+01   3.3478301979e+01    0.1597824    0.1066258 -59.37 0.0007029801    1.651    0.394
       331  -9.5530     20.7586     28.5808   1.0019693498e+02   6.9729645190e+01    0.2140865    0.1293839 -48.69 0.0005663233    1.429    0.300
       332  -9.4368    135.3663    237.3212   1.0250961028e+02   1.3972579314e+01    0.1006298   0.06754815  24.47 0.0007038453    1.788    0.441
       333 -10.5556     96.4861     23.6545   6.5824299786e+01   5.8458355157e+01    0.3409763     0.247418  83.94  0.001079641    1.879    0.468
       334 -11.5387     70.7249     26.0074   7.5736558366e+01   6.3413472829e+01    0.3653443    0.2690613  36.78 0.0003042874    1.492    0.330
       335  -9.1612     35.0489     22.7835   9.0423681630e+01   6.9509420239e+01    0.2963359     0.158951  20.75  0.001238389    2.608    0.617
       336 -10.8697     29.1527     20.9490   9.2784119740e+01   7.0556422576e+01    0.3014688    0.1994463 -34.98  0.000808007    1.522    0.343
       337 -10.4030     24.9935     19.4713   9.4475823426e+01   7.1295630192e+01    0.2387523    0.2116591   2.99 0.0009050163    1.312    0.238
       338 -11.5192     29.9466    233.6155   1.1964862129e+02   2.7390361127e+01    0.3396712     0.184296  70.67  0.002454663    1.476    0.323
       339 -10.1827    184.8242     21.4242   4.7371314412e+01   3.5491183276e+01    0.2865361    0.1500329  77.50  0.001131343    2.102    0.524
       340 -10.1796     66.3605     21.1482   7.5127761484e+01   6.5083822768e+01    0.3067529     0.192796  44.92 0.0009304974    1.730    0.422
       341 -10.5265     44.5653     20.1494   8.4392030490e+01   6.8800336733e+01    0.2957468    0.2398457  63.71  0.001305654    1.613    0.380
       342 -10.2798    159.9071    235.8841   9.8415226283e+01   1.0686409340e+01    0.1617058    0.1091423  31.52 0.0006845839    1.297    0.229
       343  -8.9988    151.2569     18.6888   5.1273916051e+01   4.5062818218e+01    0.1551475    0.1100441 -54.63 0.0002215344    1.525    0.344
       344 -10.0235    213.8053     17.3697   4.2878070983e+01   2.8183435456e+01    0.3033282    0.1077627  62.66   0.00111282    2.668    0.625
       345 -10.1527     35.2395     15.2187   8.6812518531e+01   7.1002776041e+01    0.2766086    0.1890703  -7.12 0.0006830867    2.011    0.503
       346 -11.9465    236.5703    246.7947   8.8223030275e+01  -7.7579583439e-01    0.3290989    0.1673156  27.42  0.002429034    1.449    0.310
       347 -10.9753     26.6490     14.0148   9.1080078402e+01   7.2243782397e+01    0.1891542     0.160375 -22.75 0.0003610065    1.215    0.177
       348 -10.7022     10.2178     15.6009   1.0177349704e+02   7.3366931867e+01    0.2124525    0.1521451 -47.18  0.000597261    1.196    0.164
       349 -10.7233    249.0134     15.2817   3.9368811400e+01   1.9779134315e+01    0.1815632    0.1671303 -51.56  0.000434973    1.083    0.076
       350  -9.8247     50.3154     15.4568   7.9246336822e+01   6.8824187236e+01    0.2972408    0.1297097  44.47  0.001308216    2.612    0.617
       351  -9.1777    233.3433     14.7002   4.0394514119e+01   2.3534574297e+01    0.1498302   0.09040919 -53.86 0.0004516717    1.674    0.403
       352 -10.0728    177.6623    234.9309   9.5508456709e+01   8.2575615214e+00     0.184905    0.1099932  28.80 0.0008823372    1.500    0.333
       353  -9.2642    115.5251    244.5259   1.0633513721e+02   1.5801734519e+01    0.1017836   0.06988154  46.21 0.0003616585    1.042    0.040
       354 -10.2003    167.2059    233.8019   9.7031567859e+01   9.8670738828e+00    0.1376725   0.09809877  27.32 0.0008135134    1.320    0.242
       355  -9.0351      1.3152     14.2317   1.0700012618e+02   7.4195701339e+01    0.1115153   0.06953763 -41.68 0.0002724621    1.497    0.332
       356 -10.2960    168.8192     13.4058   4.6653296131e+01   4.0770098585e+01    0.2155493    0.1304705  56.19  0.000397075    1.609    0.378
       357  -9.2582     62.4972    233.5017   1.1428655199e+02   2.3869576827e+01    0.1017576   0.06660832  55.28 0.0008105269    1.028    0.027
       358  -9.9463     80.0345    231.7647   1.1124739668e+02   2.2007926614e+01    0.1624448   0.09242202  54.87 0.0006706599    1.273    0.214
       359  -9.7087     12.9785    231.2920   1.2231880482e+02   2.9376656813e+01    0.1313458   0.08337089  55.40  0.001139427    1.068    0.064
       360  -8.9520     58.3040    230.2838   1.1481256517e+02   2.4811459633e+01   0.08192776   0.06979547  37.48 0.0001974797    1.558    0.358
       361 -10.7155      5.1376    226.8242   1.2347389875e+02   3.0752262822e+01    0.3591613   0.08969972  61.58  0.002097914    2.640    0.621
       362  -8.8807     90.2699     13.2614   6.2658972725e+01   6.1414027437e+01    0.1371632     0.105018  18.48 0.0002140698    1.461    0.315
       363 -10.0904    190.5910    226.9861   9.2560021451e+01   7.1811500038e+00    0.2211503     0.101962 -41.23  0.001361051    3.039    0.671
       364 -11.1263    153.7073    233.6223   9.9175159361e+01   1.1815161676e+01    0.1717219    0.1440539  21.18 0.0007152439    1.367    0.268
       365 -10.0039    248.7466    227.7876   8.4090676348e+01  -1.0087088356e+00    0.1596659    0.0925186  14.11 0.0009961792    1.517    0.341
       366 -10.2690     85.9073    233.0946   1.1035114107e+02   2.1092189697e+01    0.1640722   0.09755472  55.93 0.0007083997    1.253    0.202
       367  -9.8392    130.0797    226.6610   1.0237710694e+02   1.6003005099e+01     0.230528   0.09868153  53.04  0.001291312    2.128    0.530
       368 -11.1253    120.1641    226.7665   1.0406204332e+02   1.7383364903e+01    0.1643151    0.1071258  54.01 0.0006475234    1.235    0.190
       369  -9.4145    144.3089    226.6608   9.9995915214e+01   1.3965628309e+01    0.1050017   0.06712665  60.34 0.0007043788    1.686    0.407
       370 -10.1855     88.0162    227.0162   1.0956411137e+02   2.1661545421e+01    0.1636341    0.1151237  53.51  0.001286058    1.017    0.016
       371 -10.2631     66.4776    226.2619   1.1319908214e+02   2.4436266933e+01    0.2264746   0.09894907  44.25 0.0008597049    1.599    0.375
       372 -10.2213     25.7715    225.4694   1.2004650177e+02   2.9009201594e+01    0.1569132    0.1385323 -64.94  0.001446082    1.837    0.456
       373  -9.7731     24.1168    232.3126   1.2055030744e+02   2.8161052110e+01    0.1469922     0.109595  57.97 0.0005412784    1.212    0.175
       374 -10.5098    123.4755    222.0887   1.0306016878e+02   1.7525395418e+01    0.1562451    0.1318121 -82.06  0.001275993    1.509    0.337
       375 -10.6089     13.3615    222.0247   1.2200341413e+02   3.0725614390e+01    0.1616201    0.1225291  59.67 0.0009070602    1.228    0.186
       376 -10.3103    141.2864    221.3791   9.9951588580e+01   1.5046391130e+01    0.2167384    0.1455565  25.38  0.001479889    1.707    0.414
       377  -9.2367     41.7480    220.9608   1.1715760235e+02   2.8034979959e+01    0.1098514   0.07163819  88.37 0.0007599764    1.523    0.343
       378 -10.4517     21.9768    220.4622   1.2050975596e+02   3.0142372773e+01    0.1422259   0.09387702  67.04 0.0004289421    1.127    0.113
       379  -9.1736     77.6114    219.5485   1.1083247197e+02   2.4054017031e+01    0.1638933   0.07687057 -51.94 0.0009461274    3.417    0.707
       380  -9.3893    250.4951    219.4475   8.2693657414e+01  -6.3234899261e-01    0.1037444   0.06992038  23.35  6.55171e-05    1.024    0.023
       381 -11.1714    235.6333    214.8219   8.4148914835e+01   1.7800702265e+00      0.37113    0.1878616  -9.34  0.002276302    2.509    0.601
       382 -11.3544    240.8966    212.3070   8.3029333444e+01   1.2419144091e+00    0.3245846    0.2051587  23.15  0.002399033    1.204    0.170
       383  -9.7675     37.9665    217.3486   1.1764486837e+02   2.8993311316e+01    0.1436008   0.09213031  49.86  0.000723447    1.172    0.147
       384 -10.7775     24.6319    216.8437   1.1992903071e+02   3.0439921800e+01    0.2827578   0.04726402  44.56  0.001464556    2.807    0.644
       385 -10.5809     30.8721    215.8831   1.1881360912e+02   2.9960843868e+01     0.264391     0.119068  36.75  0.001740923    1.950    0.487
       386 -10.0139    193.3913    216.0190   9.0735525513e+01   7.8602155067e+00    0.2995117    0.1029708  33.05  0.001362563    3.023    0.669
       387  -8.9933    201.6604    215.6870   8.9389175765e+01   6.6545622452e+00    0.1119043   0.06546249  22.46 0.0007046595    1.697    0.411
       388  -9.2573    136.9703    216.0000   1.0011842814e+02   1.6360360974e+01    0.1845457   0.04735584  41.99 0.0007931127    2.878    0.653
       389  -9.1761     80.6738    223.3402   1.1056490731e+02   2.3116680174e+01    0.1113757   0.05579695  60.46 0.0007051412    1.731    0.422
