#   1 NUMBER                 Running object number                                     
#   2 MAG_AUTO               Kron-like elliptical aperture magnitude                    [mag]
#   3 X_IMAGE                Object position along x                                    [pixel]
#   4 Y_IMAGE                Object position along y                                    [pixel]
#   5 X_WORLD                Barycenter position along world x axis                     [deg]
#   6 Y_WORLD                Barycenter position along world y axis                     [deg]
#   7 A_WORLD                Profile RMS along major axis (world units)                 [deg]
#   8 B_WORLD                Profile RMS along minor axis (world units)                 [deg]
#   9 THETA_WORLD            Position angle (CCW/world-x)                               [deg]
#  10 FWHM_WORLD             FWHM assuming a gaussian core                              [deg]
#  11 ELONGATION             A_IMAGE/B_IMAGE                                           
#  12 ELLIPTICITY            1 - B_IMAGE/A_IMAGE                                       
         1 -11.3899     75.0094     21.2081   8.7258882672e+01   6.0600537398e+01    0.5096902    0.2588428  27.97  0.002544258    2.079    0.519
         2 -11.5350     92.2736      9.0314   7.7742979086e+01   5.8600757423e+01      0.35054    0.3009219  15.19  0.001514795    1.129    0.115
         3 -11.0012     90.1875     16.0805   8.0884117736e+01   5.8345090036e+01    0.3035372    0.1963087   0.93 0.0004329741    1.760    0.432
         4 -10.6713     87.6396     11.8756   8.0017795061e+01   5.9242080510e+01    0.2845263    0.2655459  12.02  0.001178396    1.192    0.161
         5 -11.5479     40.3731     18.7031   9.8615270944e+01   6.6135055684e+01     0.449134    0.3368062  13.81  0.003184123    1.148    0.129
         6 -10.9223     22.3601      9.1973   1.0221735881e+02   6.9388314554e+01    0.3622126    0.1851422  11.99  0.002136813    2.055    0.513
         7 -11.7687     30.3701      7.3921   9.7928295035e+01   6.8702462371e+01    0.3366751    0.2548673  11.76  0.001304343    1.143    0.125
         8 -12.4541     40.1852      8.6087   9.4424379633e+01   6.7334355403e+01    0.5242247    0.2991355 -26.08  0.001246414    1.659    0.397
         9 -10.7532    100.1168     18.6978   7.9222855194e+01   5.6112397705e+01    0.3404178    0.2324773 -55.79  0.001837736    2.216    0.549
        10 -11.3813    156.0160     13.7940   6.6528893455e+01   4.4121269712e+01    0.4070853    0.2492164  37.23  0.002114062    1.909    0.476
        11 -10.0519     68.9061     13.6136   8.6229238542e+01   6.2461506687e+01    0.1885489    0.1674092  39.52 0.0007515401    1.323    0.244
        12 -10.3275    119.2860     12.1077   7.2586632542e+01   5.2687839130e+01    0.2310872    0.1620893  61.11 0.0002749769    1.285    0.222
        13 -10.3956    148.4749      9.5226   6.6510952357e+01   4.6295698550e+01     0.246221    0.1572275  48.60  0.000957526    1.449    0.310
        14 -10.9823    151.2601      6.7959   6.5312759432e+01   4.5893942760e+01    0.2808817    0.2260282 -32.43 0.0009279598    1.456    0.313
        15 -12.4476     56.0526      6.0053   8.7397319916e+01   6.5305027233e+01    0.5468313    0.4089916   2.80   0.00275341    1.162    0.139
        16  -9.9965     50.0228      2.0146   8.7816592472e+01   6.6602951373e+01    0.2165013    0.1413892  40.74 0.0007242531    1.479    0.324
        17 -11.6052     10.7614      6.9002   1.0658194001e+02   7.0793282903e+01    0.4729076    0.3812754  29.25  0.003730886    1.792    0.442
        18 -10.0890     10.4531      1.5173   1.0433549017e+02   7.1475335701e+01    0.1266623   0.08623277  23.64 0.0006889948    1.555    0.357
        19 -10.0683      2.5627      2.7077   1.0875633670e+02   7.2001537491e+01    0.1907524    0.1151706   3.77  0.001102342    1.425    0.298
        20 -11.2319      4.2965      9.8669   1.1095850383e+02   7.0939036522e+01    0.1998891    0.1415928  -3.74 0.0002620437    1.161    0.139
        21 -10.9547      2.5124      6.4655   1.1040828021e+02   7.1524542397e+01    0.1917782    0.1382275  -9.69 0.0006031817    1.077    0.071
        22 -11.9054     80.3947      1.9145   7.8202384761e+01   6.1478968104e+01    0.3458837    0.1692909  51.08  0.001258424    1.741    0.426
        23 -11.5587     70.0342      6.3495   8.2964155144e+01   6.2966591393e+01    0.8091384    0.2038465  45.63  0.003354324    3.102    0.678
        24 -10.4650    210.1890      7.4723   5.8319023432e+01   3.2067895064e+01    0.1920053    0.1351965 -51.19 0.0009227969    1.404    0.288
        25 -10.0314    140.4763      8.4666   6.7509329666e+01   4.8243583030e+01    0.1286257    0.1064685  57.22  0.000808901    1.042    0.040
        26  -9.0584    124.4801      8.5008   7.0393302923e+01   5.1862660331e+01    0.1287643    0.1040556  47.34 8.722572e-05    1.074    0.069
        27 -11.4575    194.0980      4.8879   5.9380191526e+01   3.6035379220e+01    0.3034128    0.2688828 -26.39  0.002064261    1.455    0.313
        28 -10.7739    120.6766      4.2890   6.9782138466e+01   5.3057419959e+01     0.288747    0.1572479  48.09 0.0002602401    1.535    0.348
        29  -9.8415    235.5767      4.2715   5.5432257730e+01   2.6792314211e+01     0.141725    0.1148302 -29.88 0.0009223564    1.666    0.400
        30 -10.8769    160.2798      2.7139   6.2909773764e+01   4.4148352720e+01    0.2938709    0.2149872 -74.98  0.001772495    1.457    0.314
        31  -9.8897    137.0000      3.9851   6.6766809639e+01   4.9425762282e+01    0.1795079    0.0727737 -23.10 0.0008040931    2.954    0.661
        32 -11.2697    130.2661      3.4701   6.7762857135e+01   5.0992398858e+01    0.2471285    0.2002631  60.38 0.0009905294    1.042    0.041
        33 -10.2374     16.5583      3.4825   1.0233116703e+02   7.0660266755e+01    0.1772503    0.1215696 -14.44 5.333324e-05    1.136    0.120
        34 -10.6343     19.5627      2.5210   1.0050907931e+02   7.0461528574e+01    0.2061112       0.1394   0.74 0.0007080792    1.144    0.126
        35 -10.9614    172.4610      2.9434   6.1393580786e+01   4.1275435279e+01    0.2575241    0.1520431  81.99 0.0004473466    1.563    0.360
        36  -9.5220    100.2698      1.7905   7.3204203292e+01   5.7593741483e+01    0.1664958    0.1465227 -43.45 0.0006799659    1.444    0.307
        37  -9.1803    204.2877      1.3156   5.7551397786e+01   3.4045691372e+01    0.1142619   0.08553463  50.40 0.0002469292    1.588    0.370
        38  -9.3402     67.4801      1.4793   8.1770885478e+01   6.3831643610e+01    0.1179785   0.08992446  24.51 0.0008096665    1.040    0.038
        39 -11.6543     35.1782     12.8120   9.8262755741e+01   6.7497119311e+01    0.3185056    0.2450135 -16.22  0.001292947    1.209    0.173
        40 -10.9929     12.3796    130.1014   1.3723989236e+02   4.7103168886e+01    0.3830061    0.2038033  64.94  0.001298801    2.530    0.605
        41 -12.8083     20.1300    246.7713   1.4634374220e+02   2.0541966695e+01    0.5336236    0.4472679 -44.60   0.00388002    2.063    0.515
        42 -12.2430      5.3417    240.8333   1.4843755115e+02   2.3287218990e+01    0.4452517    0.1997002  54.12  0.002718553    1.797    0.443
        43  -9.3409      1.6724    132.6856   1.4035816630e+02   4.7250516588e+01    0.1226847   0.07076818 -48.37  0.000704386    1.671    0.402
        44  -9.1899     35.3166    130.3694   1.3103266919e+02   4.5065066271e+01    0.1398404    0.0835586 -41.27 0.0001468007    1.784    0.440
        45 -10.0645    247.3345    128.6698   8.0156142759e+01   5.2634401927e+00    0.1429025    0.1021604 -69.17 0.0006663185    1.727    0.421
        46 -11.7064     23.3088    120.9878   1.3288505515e+02   4.8355032706e+01    0.5678515    0.2932753 -89.50 0.0009242825    2.785    0.641
        47 -10.5186      3.4927    118.8110   1.3811444503e+02   5.0286061488e+01     0.175399    0.1717926 -34.55 0.0006620946    1.284    0.221
        48 -10.1960      5.5037    113.4490   1.3679635871e+02   5.1368701875e+01    0.1413559     0.110905  39.79  5.56957e-05    1.578    0.366
        49 -10.8367     65.5866    111.1379   1.1839408042e+02   4.6044837802e+01    0.3892114    0.1633719 -53.27  0.001581413    2.097    0.523
        50  -9.8843    249.1961    111.6155   7.6229163911e+01   7.9541527467e+00    0.1782678    0.1291873  43.99 0.0009463502    1.655    0.396
        51 -11.4208     57.9657    108.1805   1.2005467966e+02   4.7720645832e+01    0.3532371    0.2358583 -15.24  0.001540977    2.043    0.510
        52 -11.3065      4.0377    108.9528   1.3655304341e+02   5.2463590359e+01     0.318453    0.1764042  23.71  0.001870962    2.246    0.555
        53  -9.8343     79.1524    107.0315   1.1329805315e+02   4.5001736498e+01    0.2195428    0.1828536 -27.17   0.00049691    1.243    0.195
        54  -9.5022     34.4604    107.5334   1.2717726030e+02   5.0455081644e+01    0.1293158    0.1086076 -56.25 0.0001379499    1.019    0.018
        55  -9.6818    113.5243    102.5179   1.0210087586e+02   3.9866775200e+01    0.1496642     0.145216 -24.60 0.0001547804    1.020    0.019
        56 -11.0510     57.2840    101.5360   1.1873228231e+02   4.9304451240e+01    0.2960758     0.247022  44.30  0.001224437    1.384    0.277
        57 -11.7379     18.5895     95.2886   1.2976470165e+02   5.4515469930e+01    0.4078848    0.2551681  89.30  0.001819969    2.271    0.560
        58  -9.3271    129.5017     97.4950   9.6428263307e+01   3.7587058209e+01     0.149923    0.1495473 -52.37 0.0008106708    1.005    0.005
        59  -9.3393    101.5301     96.5564   1.0387967597e+02   4.3456207539e+01    0.1460377     0.139209 -19.48 8.643111e-05    1.023    0.022
        60 -10.7358     78.9433     94.9923   1.1026054690e+02   4.7680864107e+01    0.2102642    0.1904764 -30.95 0.0003177886    1.027    0.026
        61  -9.4085     43.6502     93.6834   1.2126861506e+02   5.2614709016e+01    0.1386083   0.08694287 -28.96  0.000364148    1.731    0.422
        62 -11.1464     27.1990     91.0816   1.2609902692e+02   5.4748259284e+01    0.4585156    0.3480499  54.08  0.002824316    1.743    0.426
        63  -9.8925     25.3195     84.9734   1.2538137914e+02   5.6207659118e+01     0.186971    0.1640807 -48.73 0.0005262106    1.101    0.092
        64 -10.6866     58.7025     91.2816   1.1574642118e+02   5.1364667592e+01    0.2970852    0.1898297 -36.35 0.0005367871    1.501    0.334
        65 -10.7524      1.8411     89.9423   1.3414101175e+02   5.6733282421e+01    0.2522916    0.1268282 -65.78  0.001076173    1.607    0.378
        66 -11.3850     11.1351     87.8080   1.3072776380e+02   5.6640693812e+01    0.5690376    0.2086697 -62.02  0.002690505    2.168    0.539
        67 -10.1935     17.5904     88.4992   1.2873370730e+02   5.6053894249e+01    0.3725192    0.2011827 -21.99   0.00154627    2.307    0.567
        68  -9.5826    118.6444     90.3286   9.7307479923e+01   4.1348690364e+01     0.154104    0.1202781 -89.26 0.0007045306    1.779    0.438
        69 -11.7045     76.4242     89.3227   1.0951147053e+02   4.9271381957e+01    0.2659312    0.2373331 -32.83 0.0003734306    1.027    0.027
        70 -11.1764     98.7276     89.3710   1.0268635567e+02   4.5467535636e+01    0.2633696    0.1895254  28.04  0.001291506    1.505    0.336
        71  -9.4357     43.9829     89.4944   1.2015772936e+02   5.3481965034e+01    0.1791606    0.1269039  27.80  0.001026835    1.594    0.373
        72  -9.4987    124.1785     86.8001   9.4813523761e+01   4.0874327394e+01     0.207206    0.1775271   5.40  0.000876927    1.324    0.244
        73  -9.2986     40.3414     87.1376   1.2080415482e+02   5.4365715926e+01    0.1675064    0.1090607 -65.61            0    1.662    0.398
        74 -10.4102     54.5307     84.6724   1.1539969422e+02   5.3282378873e+01    0.2903483    0.1921858 -53.45 0.0008929638    1.429    0.300
        75 -10.7753     77.6269     83.3465   1.0744738833e+02   5.0309199971e+01    0.2697738     0.208241  33.80 0.0005388196    1.359    0.264
        76  -9.4083    129.2579     83.6439   9.2580412001e+01   4.0376548878e+01      0.19363    0.1360203  39.31 0.0002152006    1.450    0.310
        77  -9.8586    100.5762     82.7815   1.0023153860e+02   4.6435758156e+01    0.2015987     0.135143 -52.87 0.0009461343    1.642    0.391
        78 -10.2993      4.1050     82.6455   1.3205841487e+02   5.8148957048e+01     0.241526    0.1731678 -63.80  0.001623512    1.210    0.174
        79 -10.0045      2.8524     78.6360   1.3169763576e+02   5.9048853830e+01    0.1843428    0.1196912 -45.48  0.000931934    1.212    0.175
        80 -11.6354     63.9625     80.3339   1.1105022171e+02   5.2936695992e+01    0.4243447    0.3683908 -47.95  0.002323686    1.174    0.148
        81 -11.8221     56.3091     75.4289   1.1224403108e+02   5.4931329619e+01    0.4782919    0.2813657  23.41  0.001400768    1.894    0.472
        82  -9.8571    250.2493     81.0208   6.9586482024e+01   1.2982148337e+01    0.1782178    0.1020574 -42.24 0.0006019436    1.563    0.360
        83 -10.2479     89.2475     80.2996   1.0290819789e+02   4.8981720984e+01    0.2711713    0.1896043 -52.96 0.0008510943    1.560    0.359
        84  -9.5289    124.3993     79.1551   9.2531406202e+01   4.2277474753e+01    0.2006592    0.1366685 -52.38 0.0003900439    1.636    0.389
        85 -10.3522    176.7573     77.2118   8.0154932179e+01   3.0413369370e+01    0.3315212    0.2381097  47.33   0.00159903    1.437    0.304
        86  -9.5383     74.9672     75.7202   1.0607147131e+02   5.2229227745e+01    0.1775716    0.1621186   3.32 0.0002118458    1.075    0.070
        87 -11.0752     35.9873     72.0052   1.1843953866e+02   5.7904375962e+01    0.4091755     0.265275 -52.92 0.0009767981    1.417    0.294
        88  -9.5729     32.3406     72.7511   1.1994699759e+02   5.8104983351e+01    0.1838764    0.1350219 -45.44 0.0004167326    1.146    0.128
        89 -10.7576      4.3731     73.9243   1.3020721875e+02   5.9928475627e+01    0.3750112       0.1825  21.99  0.002150517    2.447    0.591
        90  -9.2613    224.0485     74.2375   7.1595383799e+01   1.9755597815e+01     0.168803    0.1133034  63.69 0.0003633018    1.512    0.339
        91  -9.5370    136.4942     74.4908   8.8112015214e+01   4.0432572153e+01    0.1464183    0.1420576  48.11  0.000810593    1.005    0.005
        92 -10.5867    105.8530     71.4472   9.5280511108e+01   4.7534284325e+01     0.256769    0.2130871 -11.18 0.0006142753    1.276    0.217
        93  -9.6254     92.4108     72.2266   9.9492882803e+01   4.9946360141e+01    0.1878074    0.1299742 -50.14 0.0006054427    1.587    0.370
        94 -10.4840     15.3110     75.8371   1.2677563279e+02   5.8858665945e+01    0.1748041    0.1591153  24.53 0.0007974415    1.373    0.272
        95  -9.7169     45.8547     68.6477   1.1395608632e+02   5.7512826102e+01    0.2374071    0.1786415  82.52  0.001244336    2.523    0.604
        96  -9.7383     10.0444     69.5251   1.2720858237e+02   6.0477052098e+01    0.1544856     0.110508   6.68  0.001034153    1.598    0.374
        97 -10.4102    114.2866     66.7354   9.1473581557e+01   4.6638354943e+01    0.2367653    0.2088234  78.60 0.0003099443    1.368    0.269
        98 -11.1331     34.3287     64.9181   1.1707855269e+02   5.9442374077e+01    0.7519937    0.3179921 -26.84  0.000614545    3.476    0.712
        99 -11.2528     39.4438     62.5092   1.1448552537e+02   5.9376647140e+01    0.6418537    0.2491078 -32.47  0.002589211    3.097    0.677
       100 -10.4780    131.6912     64.5242   8.6322316803e+01   4.3219730970e+01    0.3779261     0.281188  53.45  0.001925599    1.303    0.232
       101 -10.2925     15.2984     64.0083   1.2392813374e+02   6.1210213062e+01    0.2894483    0.2163595  19.09  0.001984899    1.556    0.357
       102 -10.2335     72.7381     63.4394   1.0300285859e+02   5.4848449357e+01    0.2338303    0.1531893 -49.48 0.0007140145    1.685    0.407
       103 -10.6809     62.6781     61.8958   1.0593480079e+02   5.6618151751e+01    0.2954519    0.2081013 -32.99  0.001280884    1.294    0.227
       104 -10.2487     60.4909     58.0519   1.0545926200e+02   5.7601313348e+01     0.244524    0.2103625 -33.74 0.0007960513    1.179    0.152
       105 -11.0621      3.8301     61.4167   1.2759550262e+02   6.2430986929e+01     0.388829    0.2367139  58.72  0.001641289    3.272    0.694
       106 -11.0385      9.7379     60.2000   1.2505768292e+02   6.2313118914e+01    0.3077061     0.167924 -35.62 0.0002700585    1.529    0.346
       107  -9.7433    100.9972     61.9630   9.3696640781e+01   5.0128326139e+01     0.212053     0.175663 -82.42  0.001056833    1.740    0.425
       108 -10.2552     25.4722     57.9042   1.1840241133e+02   6.1570896896e+01    0.3642665    0.1765914 -49.37  0.001079863    1.734    0.423
       109 -11.3520      4.4391     52.3994   1.2509425721e+02   6.4095438736e+01    0.5888501    0.1829617 -33.50  0.001732713    3.310    0.698
       110 -11.7813     14.8293     45.9918   1.1908534658e+02   6.4563401520e+01     0.706386    0.4111928   1.43  0.003937113    1.865    0.464
       111 -12.8022     20.4982     56.8318   1.2001341664e+02   6.2180266328e+01    0.3992462    0.2472614 -56.75   0.00241366    1.623    0.384
       112 -10.7005     20.2525     51.2606   1.1848852492e+02   6.3213493015e+01    0.3176161    0.1626749 -33.77 0.0008272908    1.674    0.403
       113 -10.7631     54.8923     58.0526   1.0745220018e+02   5.8357420606e+01    0.5480154    0.3085113 -54.91  0.002687844    2.267    0.559
       114  -9.3831     67.0253     60.5484   1.0400157044e+02   5.6226255146e+01    0.1826252    0.1229119  31.21 0.0003927917    1.507    0.337
       115 -10.6652     83.6122     56.9576   9.7340337229e+01   5.4162465447e+01    0.2135785    0.2034614 -65.39 0.0006117094    1.346    0.257
       116 -12.0149     88.0364     53.8768   9.4926119964e+01   5.3875867467e+01     0.449479    0.2898496  37.37  0.001174288    1.497    0.332
       117  -9.3122     67.6748     56.7554   1.0253559337e+02   5.6781887119e+01    0.1289428    0.1157395  -4.17 0.0003144221    1.065    0.061
       118 -12.2857     66.0426     52.6180   1.0171023616e+02   5.7716213484e+01     0.489105    0.2207188  32.82   0.00131659    2.289    0.563
       119  -9.4426    164.9520     54.3060   7.6223209299e+01   3.6976812090e+01    0.2859763    0.1274782  65.28  0.001085018    2.404    0.584
       120 -10.0139     34.4309     53.5018   1.1362545076e+02   6.1530100926e+01    0.2717041    0.1383647 -22.58  0.001138079    2.302    0.566
       121 -10.2716    105.8796     52.9253   8.9379714575e+01   5.0598095640e+01    0.2372924    0.1899651  42.62 0.0007126775    1.191    0.160
       122  -9.4845    169.7634     52.6182   7.4879654165e+01   3.6059682656e+01    0.1852524    0.1282689  71.55 0.0002037213    1.434    0.303
       123 -10.2839    225.1061     55.3015   6.7185672900e+01   2.2500773412e+01    0.3423986    0.2730186 -13.42  0.001882894    1.835    0.455
       124  -9.9772     76.0318     49.4591   9.7253286120e+01   5.6646182386e+01    0.3189153     0.204017   1.20  0.001099282    1.999    0.500
       125  -9.9030     78.7756     45.7345   9.5064164863e+01   5.6752174683e+01    0.2237263    0.1600527  25.26 0.0007278695    1.339    0.253
       126  -9.7573     38.0792     49.1076   1.1080237628e+02   6.1910641498e+01    0.1818812    0.1306811 -17.85 0.0004876887    1.235    0.190
       127  -9.0463    212.0010     48.8034   6.7399879298e+01   2.6473655059e+01    0.1714802   0.09903858  67.41            0    1.643    0.391
       128 -10.5326    102.8043     47.5151   8.8445689027e+01   5.2021336530e+01    0.3433469    0.1636327  33.71 0.0008880348    2.416    0.586
       129 -10.4341     99.8381     56.1594   9.2151376377e+01   5.1297628418e+01     0.187458    0.1816698 -24.51 0.0003869303    1.149    0.130
       130 -11.6697    114.4805     53.9710   8.7395701686e+01   4.8655937591e+01    0.3410757    0.2668894  36.43 0.0008940869    1.215    0.177
       131  -9.5755     53.6452     48.2064   1.0462204661e+02   6.0185907095e+01    0.1753271   0.09996101 -31.09 0.0004026906    1.632    0.387
       132  -9.5355     51.2985     57.6768   1.0863121361e+02   5.8883932883e+01    0.1802297    0.1479461  11.10 0.0004962707    1.200    0.167
       133  -9.4515     65.0204     46.2371   9.9862955568e+01   5.8886616089e+01    0.1709406    0.1425396  16.95  0.000309854    1.129    0.114
       134 -10.3264     30.8636     45.5431   1.1245743371e+02   6.3258471665e+01    0.2180455    0.1699952 -33.82 0.0005504468    1.155    0.134
       135 -10.8002     25.9208     43.9924   1.1393224585e+02   6.3988604106e+01    0.2794246    0.2448705 -44.53  0.001424363    1.389    0.280
       136  -9.0418     30.4793     30.5270   1.0732282190e+02   6.5671181083e+01    0.1167345   0.08884428 -12.77 5.189952e-05    1.028    0.027
       137 -10.5018     22.7310     38.5935   1.1343649592e+02   6.5168802772e+01     0.198564    0.1825627 -11.20 0.0008086634    1.339    0.253
       138 -11.2883     26.5132     35.3705   1.1074077508e+02   6.5332984181e+01    0.4310023     0.193526 -34.01  0.001857445    1.931    0.482
       139  -9.5094     91.2011     44.7553   9.0858947769e+01   5.4670042916e+01    0.1790882    0.1397818   9.68 0.0004766982    1.291    0.225
       140 -10.4537     69.9094     41.8401   9.6619699322e+01   5.8790177196e+01    0.2656636    0.2078365 -18.60  0.001342568    1.190    0.160
       141  -9.7141      2.7577     42.3767   1.2300374327e+02   6.5990322002e+01    0.2336879    0.1169561  -5.18  0.001354541    2.284    0.562
       142  -9.4216      5.7616     39.3687   1.2084051967e+02   6.6327282251e+01     0.152249   0.09328727 -29.77            0    1.292    0.226
       143  -9.8961    181.4729     40.7916   6.9798397714e+01   3.4875972768e+01    0.2679994    0.1825967  75.87 0.0006495386    1.407    0.289
       144 -11.0455    139.0965     40.3761   7.7326377066e+01   4.5075497339e+01    0.2989869    0.2232224  73.18  0.001594856    1.426    0.299
       145 -10.2475     36.2045     41.1154   1.0882405058e+02   6.3431663204e+01    0.2386129    0.1572209  -5.75  0.001239488    1.506    0.336
       146  -9.4067    159.5810     40.4875   7.3372584672e+01   4.0207929051e+01    0.1370828    0.1251332  71.71 4.876402e-05    1.015    0.014
       147 -10.1517    133.9873     40.0000   7.8301816440e+01   4.6303715341e+01    0.6912969    0.1987202  61.25  0.002088456    4.184    0.761
       148  -9.3758    131.3216     37.6640   7.8160530582e+01   4.7212313367e+01    0.3099511    0.2108196  60.77  0.001302932    1.403    0.287
       149 -11.2243    134.0880     34.0886   7.6459955774e+01   4.7024288669e+01    0.2126103    0.1838601  35.39 0.0003061782    1.141    0.124
       150  -9.3505     43.1533     40.6258   1.0592378570e+02   6.2715520234e+01    0.1553249   0.09989107  13.20 0.0004856712    1.567    0.362
       151  -9.8876     12.7222     38.1018   1.1748319060e+02   6.6063868475e+01    0.3395653    0.1587227 -59.26  0.001687737    2.963    0.662
       152 -12.1705    121.7008     36.7300   8.0044054467e+01   4.9486770256e+01    0.4710056    0.4410405  43.37  0.002676879    1.054    0.051
       153  -9.4513    101.5305     39.4697   8.6079894309e+01   5.3393307538e+01    0.1348114    0.1157727  22.94 5.601745e-05    1.064    0.060
       154  -9.1387    236.6850     37.7187   6.2065423654e+01   2.2436022192e+01    0.1141812   0.09740967  47.63 0.0002743371    1.575    0.365
       155 -10.0152     70.6345     35.1425   9.3937676257e+01   5.9616497951e+01    0.3579647    0.1763275 -12.71  0.001434172    3.401    0.706
       156 -10.2509      1.8402     35.8503   1.2143918733e+02   6.7160991534e+01     0.222161    0.1382686 -35.14  0.001281871    1.191    0.160
       157 -10.5238      2.9092     32.1510   1.1979970567e+02   6.7709033370e+01    0.2117721    0.1718283 -63.49  0.001576779    1.744    0.427
       158  -9.4177     99.1576     35.6600   8.5422272822e+01   5.4363435726e+01    0.1898424     0.102157  39.31            0    1.732    0.422
       159  -9.6917     54.5523     34.5090   9.9364623272e+01   6.2144709738e+01    0.2189549    0.1058186  30.24 0.0007448073    2.053    0.513
       160 -10.3095     50.4083     33.8662   1.0066945470e+02   6.2804046878e+01    0.1954827    0.1729928  14.53 0.0004973575    1.256    0.204
       161 -10.2801    145.0311     32.9763   7.3922859381e+01   4.4616549605e+01    0.1952971     0.173948  59.02  0.001180606    1.003    0.003
       162 -10.3846    126.9344     30.8443   7.6979610857e+01   4.9036305945e+01    0.2700802    0.1861977  31.59  0.001029697    1.538    0.350
       163 -11.0137     20.3766     31.4562   1.1193542499e+02   6.6508405280e+01      0.42382    0.2119763  -1.26  0.002211766    2.579    0.612
       164 -10.0082    205.1478     30.6815   6.4070466184e+01   3.0535904634e+01    0.2204354    0.1479855 -87.91  0.001052935    1.439    0.305
       165  -9.4437    166.4336     31.0728   6.9608545436e+01   3.9744747392e+01    0.1813694    0.1337525 -33.63 0.0003360005    1.518    0.341
       166 -11.6811     43.8554     29.0250   1.0134536467e+02   6.4337726206e+01    0.4595583     0.295042 -17.80  0.002030598    1.423    0.297
       167 -10.0089    150.0088     29.5179   7.1983754810e+01   4.3852802110e+01    0.3265426    0.1288384  67.83  0.001231068    2.751    0.636
       168 -10.5864     69.6916     28.0965   9.1613477619e+01   6.0687846114e+01    0.3443758    0.2304698 -22.03  0.002064595    1.466    0.318
       169 -11.8378     76.6909     25.4967   8.8361712580e+01   5.9814192576e+01     0.306037    0.2264124  31.61 0.0005163166    1.186    0.157
       170 -10.5855     78.3132     21.6860   8.6415566753e+01   5.9964688157e+01    0.2063206    0.1935648   3.38 0.0006177262    1.233    0.189
       171  -9.2294    229.5926    247.8268   1.0666927434e+02  -1.1675367699e+01     0.147109    0.1118862 -39.65 0.0008888055    1.584    0.369
       172 -10.3969      7.1615     27.9199   1.1648289309e+02   6.8105298978e+01     0.222625    0.1644049  27.00  0.001642625    1.724    0.420
       173  -9.9736    140.6686     27.0121   7.2986523854e+01   4.6331950979e+01    0.2787313    0.1517203  60.17  0.001178833    1.620    0.383
       174 -10.1086    154.7443     25.8378   7.0100867384e+01   4.3151604761e+01    0.3731567    0.1641102  74.82  0.001426539    2.876    0.652
       175 -10.2821    113.9798     25.3070   7.8111629319e+01   5.2514460114e+01    0.2276724    0.1902319 -34.14 0.0008780487    1.359    0.264
       176 -10.1619    100.9163     25.5703   8.1434119767e+01   5.5216670940e+01    0.2166259    0.1728355 -44.52 0.0008786381    1.543    0.352
       177  -8.3979     17.5360     26.0116   1.1117581056e+02   6.7581863041e+01    0.2119478    0.1225627  37.72  0.001082394    2.414    0.586
       178  -9.5464    218.7032     25.3664   6.1332021609e+01   2.8066293623e+01    0.1392048   0.08075947 -67.30 9.700104e-05    1.723    0.420
       179 -10.2510     59.1139     24.3778   9.3819041566e+01   6.2822069302e+01    0.2240572    0.1449211  -9.44  0.000935137    1.545    0.353
       180  -9.3144     94.0482     23.9345   8.2687681622e+01   5.6768192579e+01    0.1475554    0.1268654  27.14 0.0004051898    1.012    0.012
       181  -9.6530     89.2001     22.8309   8.3635311736e+01   5.7827615113e+01    0.2777306    0.1447362 -29.15  0.001432912    2.038    0.509
       182  -9.4348    224.7500    246.9512   1.0741778463e+02  -1.0839279883e+01    0.1478302   0.09826927 -30.38 0.0006595422    1.560    0.359
       183 -11.5924      3.1575    248.8416   1.4922327507e+02   2.1965534992e+01    0.4050591    0.2590356  62.11  0.002983246    1.225    0.183
       184  -9.2621    136.3364    245.6869   1.2449955318e+02   3.8850410245e+00    0.1351169   0.09081752  65.94 0.0005092702    1.689    0.408
       185 -10.4862      2.0718     22.3036   1.1681713654e+02   6.9314301997e+01    0.2247959     0.119539 -42.76  0.000888311    1.529    0.346
       186 -11.3602     13.2399     20.6277   1.1105396686e+02   6.8733534846e+01    0.2316377    0.1858488 -31.18 0.0008264894    1.333    0.250
       187 -10.6274     19.9851     16.6911   1.0644244755e+02   6.8673143728e+01    0.1776486    0.1374296   1.57 0.0003699893    1.157    0.136
       188 -10.6513     13.7662     15.9485   1.0896474525e+02   6.9344063750e+01    0.3582562      0.14906  25.33  0.002063298    2.406    0.584
       189 -10.1303     85.3119     20.9191   8.4042135984e+01   5.8770552022e+01    0.2568685    0.1269077  35.53 0.0008220123    1.905    0.475
       190  -9.7143    217.4057    245.0000   1.0846587958e+02  -9.4500136842e+00    0.2739217   0.06225383  39.05 0.0009351712    3.938    0.746
       191  -9.2733     74.4414    243.6142   1.3638328609e+02   1.4157569344e+01    0.1238051   0.09800988  66.39 9.117473e-05    1.023    0.023
       192 -12.3881      9.3954    245.2075   1.4802208450e+02   2.2014554380e+01    0.4365549    0.2054639  34.52  0.002535956    2.567    0.610
       193  -9.6611    202.5177    240.4646   1.1055693491e+02  -6.4169150702e+00    0.2019171     0.115808 -27.89  0.001016387    2.053    0.513
       194 -10.8631     31.0206     20.5135   1.0319942146e+02   6.7017233441e+01    0.2165738    0.1335663 -28.63 0.0005409286    1.414    0.293
       195  -9.0710     22.8663     21.3699   1.0704751267e+02   6.7755337880e+01    0.1413172   0.08458789   6.27            0    1.615    0.381
       196  -9.6036    175.4872     20.5350   6.5466406358e+01   3.8788990828e+01    0.1323966    0.1127633  79.13 0.0001381296    1.007    0.007
       197  -9.7750    132.1494     20.1902   7.2561783877e+01   4.9027536666e+01    0.2076587    0.1564309  39.87   0.00109881    1.272    0.214
       198  -9.3491     61.0886    241.0000   1.3864872567e+02   1.6570515186e+01    0.1903044   0.06095275  39.26 0.0007968933    2.904    0.656
       199 -10.0146    199.8324     17.1748   6.1575825252e+01   3.3396586251e+01    0.1949856    0.1490372 -78.06 0.0005208137    1.183    0.154
       200 -10.3442     26.3356     16.3429   1.0349807644e+02   6.8074036008e+01     0.211015    0.1693325   4.48 0.0007397854    1.191    0.160
       201  -9.3201     49.4164     16.2505   9.4093409409e+01   6.5213879712e+01    0.1481328   0.09977758 -34.19 0.0009433001    1.662    0.398
       202 -12.5001     25.8391    235.8866   1.4464054663e+02   2.2053348775e+01    0.3758774    0.3434816  82.46  0.002282352    1.414    0.293
       203 -10.4980    190.3447     13.8941   6.1908912006e+01   3.5983270225e+01    0.2199539     0.152711  86.07 0.0005733487    1.285    0.222
       204 -13.4739     10.1067    230.2066   1.4700410087e+02   2.4916194023e+01    0.7654105    0.4239008  81.27   0.00483937    1.447    0.309
       205 -10.7858     62.4461     14.0311   8.8527314176e+01   6.3485370103e+01    0.1738438    0.1546847  29.58 0.0005479723    1.299    0.230
       206 -11.9306      4.1595    232.4967   1.4815651863e+02   2.5057252270e+01    0.3880349    0.1942728  77.73 0.0003576115    1.637    0.389
       207 -10.1585     58.4286     19.2305   9.2018574395e+01   6.3541642004e+01    0.2310617   0.09704625 -38.33 0.0009761294    2.718    0.632
       208  -9.2711     54.2940    236.3310   1.3949958273e+02   1.8437748275e+01    0.1062568   0.09268571 -52.15 0.0004661039    1.633    0.388
       209  -9.7828    249.1944    234.1260   1.0076207745e+02  -1.2591308929e+01    0.1827939      0.13568   1.06 0.0004695627    1.183    0.155
       210  -9.6332    140.2747    227.3953   1.2108646384e+02   6.6349664313e+00    0.2036597    0.1127348  49.92  0.000946948    1.691    0.409
       211  -9.4509    110.1840    226.5892   1.2727861606e+02   1.2003195726e+01    0.1817135    0.1220668  33.67 0.0005486778    1.612    0.380
       212 -10.1982     33.2135    225.0208   1.4248235513e+02   2.3439946607e+01    0.2757837    0.1256194  48.46  0.001482673    1.925    0.481
       213 -12.0677      7.7276    217.7382   1.4661514946e+02   2.7728556613e+01    0.3541898     0.234058 -88.96  0.002063288    1.158    0.137
       214 -10.6267      4.5908    212.7324   1.4684768200e+02   2.9085180256e+01    0.1999261     0.122531  68.94  0.001218675    1.342    0.255
       215  -9.7248    246.4912    216.5237   9.8061125198e+01  -9.6448039067e+00    0.1283004    0.1046841  -3.05 0.0002191802    1.052    0.049
       216 -10.8985     16.0291    211.9856   1.4468280492e+02   2.8113610710e+01    0.1847316    0.1422841  85.28 0.0008611753    1.058    0.055
       217  -9.4758    209.5309    211.5179   1.0408128091e+02  -2.8449442107e+00    0.1349259    0.1221458   8.85 0.0002146666    1.013    0.013
       218  -9.8317     20.7627    209.7705   1.4361271134e+02   2.8098193892e+01    0.1684146     0.105727  73.80 0.0004203763    1.345    0.257
       219  -9.7085    246.7443    207.0367   9.6238184561e+01  -8.2197544798e+00    0.1864204    0.1442585 -24.37  0.001015132    1.165    0.141
       220  -9.6635    197.2401    203.9996   1.0513102471e+02   6.8894226697e-01    0.1775701    0.1163543 -41.23 0.0005430056    1.573    0.364
       221 -11.3330      9.3749    203.4513   1.4530292910e+02   3.0617984596e+01    0.2301437    0.1687122  86.76  0.000780179    1.016    0.016
       222  -9.5740    180.8081    199.3333   1.0766073829e+02   4.6476420809e+00    0.3111227    0.1219002  48.11  0.001109646    2.720    0.632
       223 -10.2416      6.8182    191.7909   1.4490643705e+02   3.3413908607e+01    0.2828282    0.1221675  68.24  0.001374602    2.461    0.594
       224  -9.6329     15.4259    185.0072   1.4258030036e+02   3.4139697190e+01    0.1845831    0.0959003 -78.95 0.0009264983    1.568    0.362
       225  -9.3484      1.1876    183.0793   1.4534753255e+02   3.5835366703e+01    0.1578649   0.06969303 -75.26 0.0005136069    1.746    0.427
       226 -10.8372      4.7763    167.3994   1.4325177139e+02   3.9078406346e+01    0.2755818    0.1797351  67.81  0.001565274    1.489    0.329
       227  -9.6330     14.3263    164.3319   1.4081694250e+02   3.8987813078e+01    0.1230485   0.07850838 -49.80 0.0007051185    1.710    0.415
       228  -8.8568     41.6857    158.3235   1.3356586278e+02   3.7702289172e+01    0.1370164    0.0898902  75.51 0.0007041462    1.662    0.398
       229  -8.9952    247.4866    155.5218   8.5808759725e+01   3.9297249595e-01    0.1378459    0.1212021 -28.90 7.483573e-05    1.026    0.026
       230 -10.1284      2.1785    153.4027   1.4249071300e+02   4.2475659864e+01    0.1505141   0.09909539  49.70 0.0009469828    1.678    0.404
       231 -10.1616     23.9812    150.7106   1.3695314674e+02   4.1318533092e+01     0.167183    0.1484218 -87.88 0.0004011816    1.122    0.108
       232 -10.1090     21.8907    143.3219   1.3652419874e+02   4.3249389850e+01    0.2316331    0.1466587 -80.14  0.000960579    1.400    0.286
       233 -10.3703      2.9821    138.5068   1.4070433165e+02   4.5833111759e+01    0.2557527    0.1195263  23.23  0.001363138    2.734    0.634
