#   1 NUMBER                 Running object number                                     
#   2 MAG_AUTO               Kron-like elliptical aperture magnitude                    [mag]
#   3 X_IMAGE                Object position along x                                    [pixel]
#   4 Y_IMAGE                Object position along y                                    [pixel]
#   5 X_WORLD                Barycenter position along world x axis                     [deg]
#   6 Y_WORLD                Barycenter position along world y axis                     [deg]
#   7 A_WORLD                Profile RMS along major axis (world units)                 [deg]
#   8 B_WORLD                Profile RMS along minor axis (world units)                 [deg]
#   9 THETA_WORLD            Position angle (CCW/world-x)                               [deg]
#  10 FWHM_WORLD             FWHM assuming a gaussian core                              [deg]
#  11 ELONGATION             A_IMAGE/B_IMAGE                                           
#  12 ELLIPTICITY            1 - B_IMAGE/A_IMAGE                                       
         1 -12.0630     14.2462     39.4426   1.0455445721e+02   6.6747544701e+01    0.5429749    0.2357982 -57.13  0.001941251    1.944    0.485
         2 -11.1648    142.5144     31.6731   5.7567372279e+01   4.5893654617e+01    0.3818571    0.2783108 -20.72 0.0009379222    1.477    0.323
         3 -12.0913    107.7049     28.8467   6.4722000398e+01   5.4533447266e+01    0.4276764    0.3044224 -23.63  0.002239713    1.424    0.298
         4 -10.1866     14.3014     19.8707   9.7455562693e+01   7.0356919941e+01    0.5318625    0.2098025 -30.33  0.002551994    2.554    0.608
         5 -12.1313      2.0597     24.6802   1.0554765919e+02   7.0298478844e+01    0.3842697    0.1498364 -57.49  0.001268436    2.153    0.536
         6 -12.0970      5.8507     16.2380   1.0040343608e+02   7.1585907054e+01    0.3725607    0.2752092 -49.88  0.001452973    1.361    0.265
         7 -12.4257    116.9336     22.1889   5.9749885361e+01   5.3253117200e+01    0.3047704    0.2454617 -18.66  0.000606697    1.285    0.222
         8 -11.0051    116.8349     15.0990   5.7002342510e+01   5.4057799623e+01    0.5384449    0.2467512  52.65  0.002361786    1.904    0.475
         9 -11.2912    182.1997     18.8628   4.6842416388e+01   3.7227683602e+01    0.3267183    0.2640186  -8.88  0.001244144    1.475    0.322
        10 -11.7348    166.2520     17.9202   4.8811816624e+01   4.1442044095e+01     0.407093     0.271061  40.28 0.0004761986    1.623    0.384
        11 -11.8410    173.1629     12.9951   4.6303636715e+01   4.0179758539e+01    0.3628341    0.2890329  85.05  0.001728988    1.201    0.167
        12 -11.3201    176.0559     10.5058   4.5172549282e+01   3.9688515623e+01    0.2489989    0.2403347  61.44 0.0006836409    1.108    0.098
        13 -10.6476     65.5376     14.6326   7.1889093513e+01   6.4677210106e+01    0.3709424    0.3428131  23.61  0.002506558    1.277    0.217
        14  -9.8381     70.2869     11.9417   6.8895285688e+01   6.4163898960e+01    0.2192214    0.1469816  38.60 0.0005196948    1.398    0.285
        15 -11.3463    133.1371     12.8505   5.2728599104e+01   5.0359670982e+01    0.2812491    0.2525985 -29.38 0.0003538052    1.214    0.176
        16  -9.6178     22.8864     13.7375   9.0329502470e+01   7.0609561681e+01    0.2919993    0.1062857 -49.10  0.001286344    3.154    0.683
        17 -11.0491    209.5145     13.3082   4.2122184681e+01   3.0932596871e+01    0.3009881    0.2171825 -34.85  0.001306968    1.413    0.293
        18 -10.6203    139.6919     13.6861   5.1799977778e+01   4.8649056792e+01    0.3758405    0.1841174  47.61  0.001517706    1.886    0.470
        19  -9.1799     26.3896     13.2441   8.8320845714e+01   7.0329138232e+01    0.2354849   0.08992071 -38.54  0.001160144    2.185    0.542
        20 -10.8914    148.5189     12.3681   4.9803923799e+01   4.6556570179e+01    0.4745617    0.1754355  50.79  0.001834366    2.403    0.584
        21 -10.2627    218.8741     11.7029   4.0801476007e+01   2.8821665634e+01    0.2244419    0.1986978 -87.69  0.000680293    1.069    0.064
        22  -9.9229     97.6690     11.0376   6.0067803230e+01   5.8801952762e+01    0.2903723    0.1394806 -35.30  0.001188452    2.270    0.560
        23 -10.0510     75.5978     11.6733   6.6951993262e+01   6.3214436741e+01    0.2172428    0.1414413  33.65  0.001210142    1.400    0.286
        24 -10.6548     14.3050     11.3186   9.3696582330e+01   7.1773969804e+01    0.2265061    0.1405133 -19.13 0.0005212118    1.395    0.283
        25 -10.0815     14.0051      8.2344   9.2391469458e+01   7.2283151765e+01    0.2471645    0.1773684   6.77   0.00119396    1.364    0.267
        26  -9.3339     37.7852      9.7900   8.1077850563e+01   6.9492466187e+01    0.1425481    0.1262754 -10.92 0.0004875905    1.303    0.233
        27 -10.4356      5.4199      9.4076   9.7713379144e+01   7.2762597264e+01    0.2238719    0.1853216  -0.55  0.001746199    1.322    0.244
        28 -10.2777    185.4610      8.7979   4.3518826932e+01   3.7452963082e+01    0.2381368     0.173462  75.07 0.0003068197    1.248    0.199
        29 -10.7368    164.7444      8.2345   4.5988584527e+01   4.2813237207e+01    0.2916131    0.2233767 -68.57 0.0007934439    1.394    0.283
        30 -10.8409    145.9586      8.2640   4.8828101178e+01   4.7596917568e+01    0.2402479    0.1752123  18.06  0.001264446    1.592    0.372
        31 -11.8738     87.1103      6.0322   6.0776154319e+01   6.1527738141e+01    0.2585856    0.2511415  49.89  0.001732541    1.270    0.213
        32 -10.3200     88.7176      1.5415   5.8283365404e+01   6.1604578691e+01    0.3942769    0.1351451  50.51  0.001669251    2.387    0.581
        33 -10.6074    194.9370      8.2797   4.2308943411e+01   3.5102475201e+01     0.192202    0.1618053  83.44 0.0003762879    1.069    0.065
        34 -10.3745    128.1435      8.1375   5.1953646632e+01   5.2032531740e+01    0.2046169    0.1661249  40.40 0.0002700503    1.138    0.121
        35 -11.7534    115.6886      1.9289   5.2050408255e+01   5.5553908905e+01    0.6439814    0.1825449  58.94 0.0002965942    2.795    0.642
        36 -11.1570    103.9130      7.7916   5.7092406640e+01   5.7744106379e+01    0.5786188    0.2801948  20.79  0.001954939    2.895    0.655
        37 -11.8038    108.5363      7.3593   5.5809783207e+01   5.6738810343e+01     0.553902    0.2400558  47.82  0.002043454    1.976    0.494
        38 -11.6120    208.5777      4.0912   3.9835454626e+01   3.2128363442e+01    0.4851583    0.2948469 -60.62  0.002514498    1.607    0.378
        39 -10.4855     73.9587      8.1709   6.5841794616e+01   6.3906600258e+01     0.242136    0.1458582  28.65   0.00111161    1.573    0.364
        40 -10.0387     62.2304      6.5527   6.9174148852e+01   6.6195381263e+01    0.2341881    0.2057146 -54.59   0.00117843    1.743    0.426
        41 -10.2522     24.7326      6.8716   8.5994668546e+01   7.1444911840e+01    0.2124778    0.1620333 -44.53 0.0009748998    1.703    0.413
        42 -10.1848     20.5132      5.9332   8.7722842830e+01   7.2019216046e+01    0.2478808    0.1384827 -28.84   0.00112387    1.450    0.310
        43 -10.2502     18.5052      2.4738   8.6990125091e+01   7.2713210945e+01    0.1784569    0.1545947 -38.75 0.0007077878    1.627    0.385
        44 -11.6445    195.0878      3.5675   4.1009694740e+01   3.5530595914e+01    0.5627519     0.234824  61.24  0.002449734    2.134    0.531
        45 -10.9481    170.9820      5.9920   4.4466238507e+01   4.1426450091e+01    0.2082184    0.1847457  80.80 0.0003603443    1.022    0.021
        46 -10.8772    134.2109      5.6126   4.9900448579e+01   5.0770773536e+01    0.2425218    0.1998814 -16.79  0.001410809    1.330    0.248
        47 -11.0531    131.3978      1.9975   4.9083741772e+01   5.1770778268e+01    0.3399466    0.2717205  78.92   0.00140066    1.286    0.222
        48 -10.6435     49.2642      7.7539   7.4928583341e+01   6.8149762952e+01    0.4579344    0.1770586  29.34  0.001936321    3.116    0.679
        49 -11.0636     38.6553      3.9358   7.7616531259e+01   7.0139063827e+01    0.3848091    0.2945849 -41.73    0.0019348    1.783    0.439
        50 -10.1486    184.8053      4.1812   4.2279388579e+01   3.8068808902e+01    0.1791447     0.146682  48.66  0.000322092    1.298    0.230
        51 -11.3621    160.6144      2.7498   4.4826074426e+01   4.4369918718e+01    0.3948292    0.2852233  69.29  0.001126797    1.232    0.188
        52 -10.0607     30.9741      3.3720   8.0989301948e+01   7.1202677591e+01    0.1885991    0.1380441 -33.56 0.0005613668    1.471    0.320
        53  -9.8926    248.8561      2.9019   3.6346305519e+01   2.2844773693e+01    0.1709912    0.1585379 -87.16  0.000316388    1.229    0.186
        54 -11.3546     74.4732      1.9927   6.2695985788e+01   6.4428263786e+01     0.328784    0.2013373  49.76  0.001062762    1.570    0.363
        55 -10.5552     49.2284      2.5065   7.2202149900e+01   6.8770701046e+01    0.3134924     0.161021  25.75  0.001392297    1.977    0.494
        56 -10.1379    218.1568      2.0485   3.8478162655e+01   3.0007194348e+01    0.2225331    0.1696856  87.31 0.0005314998    1.172    0.147
        57 -10.3951    180.7881      1.9845   4.2102332525e+01   3.9293568616e+01    0.2545946    0.1777962  72.03  0.001383477    1.275    0.216
        58  -9.7577     81.5480      2.0061   6.0531795753e+01   6.3035916242e+01    0.2017603    0.1542025  41.72  0.001235994    1.186    0.157
        59 -10.7770     11.1830      1.5029   9.0568531523e+01   7.3537050489e+01    0.1823763    0.1181948  33.34 0.0003910951    2.037    0.509
        60  -9.9033    167.0964      1.4471   4.3573980455e+01   4.2830416519e+01    0.2103872    0.1191165  69.55 0.0006942166    1.559    0.359
        61 -10.0038    148.2428      1.4009   4.6143257048e+01   4.7624073961e+01     0.248009    0.1123852  64.08 0.0006655909    1.880    0.468
        62 -10.6541    142.0109      3.8786   4.7959569385e+01   4.8980911975e+01    0.2752188     0.192129   8.64  0.001440138    1.709    0.415
        63  -9.4875     39.0585    218.0005   1.2384715161e+02   2.4825764002e+01     0.152238    0.1273615 -57.93  0.000764577    1.669    0.401
        64 -11.1622    187.0094    250.3342   9.9739893056e+01  -2.5479461316e+00      0.17364    0.1304294  33.44  0.001177172    1.038    0.037
        65 -11.4643    127.3041    248.1498   1.1032152083e+02   7.1370462593e+00    0.3194633    0.2765137 -68.63   0.00133736    1.413    0.292
        66 -10.9298    115.8356    249.3183   1.1252795001e+02   8.7060936185e+00    0.3020193    0.1965875  60.62  0.001257077    1.411    0.291
        67 -10.2324    111.9364    246.4830   1.1294454436e+02   9.7503451919e+00    0.1806789    0.1586619  82.78 0.0004034448    1.237    0.191
        68 -10.7307     38.9031    249.2737   1.2585025990e+02   1.9105196780e+01    0.2104794    0.1485369 -85.69 0.0009116515    1.378    0.275
        69 -10.1660     30.9550    250.3841   1.2719428684e+02   1.9820601766e+01    0.1585128   0.09389649  61.91  0.001142456    1.202    0.168
        70 -10.3103     26.3350    249.7861   1.2789983274e+02   2.0434344707e+01    0.1819498   0.09603082  56.19 0.0007348917    1.367    0.269
        71  -9.2247     16.3243    250.6785   1.2951028490e+02   2.1350619874e+01     0.124466    0.0834984  44.20  0.000332554    1.544    0.352
        72 -11.4715     11.1194    250.3383   1.3029697655e+02   2.1943589910e+01    0.3744337    0.1852623  57.15  0.001191261    1.421    0.296
        73  -9.5719    136.8877    217.0674   1.0463791830e+02   1.0767020562e+01    0.2512202    0.1629987  19.91  0.001239527    2.194    0.544
        74 -10.2871     72.9275    216.1049   1.1727592011e+02   2.0905893925e+01    0.1892373    0.1597711  52.98 0.0003282533    1.219    0.180
        75 -10.0859     58.2292    215.8678   1.2009222187e+02   2.2908989839e+01    0.1750235    0.1250475  69.51 0.0004141998    1.127    0.113
        76  -8.9053     68.5179    215.0025   1.1803042707e+02   2.1724538514e+01     0.158155    0.1073586 -77.40 0.0003608816    1.441    0.306
        77 -10.4552    111.6870    213.3780   1.0923968073e+02   1.5620859600e+01    0.2211488    0.2043116  52.70 0.0005510594    1.162    0.139
        78 -11.5864      8.4890    210.2797   1.2887800156e+02   2.9542530862e+01     0.309611    0.1626035 -72.54  0.002004834    1.750    0.429
        79 -11.2049    126.4594    210.2037   1.0580379182e+02   1.3782396012e+01    0.5090079     0.356308  -8.59   0.00239164    2.852    0.649
        80  -9.8357    117.8823    211.6246   1.0775249485e+02   1.4944484724e+01    0.1868731    0.1784122 -74.40 0.0004642826    1.217    0.178
        81  -9.0558    226.4095    211.5150   8.6451289744e+01  -3.6674767358e+00    0.1249233    0.1037888  11.66 5.180604e-05    1.029    0.028
        82 -10.4721    144.7328    208.7284   1.0184109844e+02   1.0908339402e+01    0.2952166     0.159878 -63.75  0.001338893    2.572    0.611
        83  -8.9351     47.6029    210.7149   1.2169854352e+02   2.5257460049e+01    0.1012532   0.09152362 -33.32 0.0001029902    1.773    0.436
        84 -10.1331     39.1817    209.7735   1.2322915544e+02   2.6439107012e+01    0.2141085    0.1721599 -27.07   0.00138482    2.304    0.566
        85 -10.8540     17.9554    207.6001   1.2703007955e+02   2.9153624764e+01    0.2750254    0.1463598  64.97  0.000954381    1.517    0.341
        86 -11.2227     23.2421    208.4079   1.2611113323e+02   2.8454254321e+01    0.3144563     0.171106  46.97  0.001982162    1.626    0.385
        87  -9.3402    155.5263    209.4671   9.9754800069e+01   8.8776869170e+00    0.1333075    0.1158896  40.89 7.255578e-05    1.008    0.008
        88 -11.1849     66.6958    207.5529   1.1768056844e+02   2.3459771575e+01    0.3176763    0.2379496  55.66 0.0008032162    1.165    0.142
        89 -10.6781     59.2185    208.2404   1.1922920648e+02   2.4305265188e+01     0.359935    0.1680954  63.31  0.001311483    2.152    0.535
        90  -9.4401     79.9706    209.0000   1.1516115217e+02   2.1323237362e+01    0.2011855   0.06304742  38.62 0.0008017316    2.938    0.660
        91 -10.8496     35.3363    204.0461   1.2353529685e+02   2.8034820453e+01    0.2692122     0.171941 -77.92  0.001211126    1.406    0.289
        92 -10.9194     32.9399    199.0008   1.2362048842e+02   2.9338149798e+01    0.3143023      0.20999  52.68 0.0009392906    1.342    0.255
        93  -9.5198      1.3906    204.2409   1.2982825767e+02   3.1379757356e+01    0.1468281   0.07481457  84.32 0.0003773996    1.527    0.345
        94  -9.1597    142.2948    203.3251   1.0152129832e+02   1.2327445424e+01    0.1283799    0.1044292   3.20 0.0002594617    1.622    0.384
        95  -8.9119     96.7118    208.6974   1.1172096198e+02   1.8891249432e+01    0.1110308    0.1019156 -10.68 0.0003227798    1.563    0.360
        96 -10.5183    121.5699    199.9414   1.0537513856e+02   1.6584793512e+01    0.3412878    0.2339503 -81.13  0.001176132    1.801    0.445
        97  -9.9869    170.2247    199.9793   9.5212151738e+01   7.8914576620e+00    0.1868677    0.1725975  63.28 0.0003134642    1.205    0.170
        98 -10.7028     96.8203    200.0912   1.1064367744e+02   2.0605465217e+01    0.3768705    0.1696561  41.34    0.0012414    2.014    0.503
        99  -9.6499     88.5117    200.2910   1.1241912965e+02   2.1838897834e+01    0.3319049    0.1168192  33.50  0.001228995    3.486    0.713
       100 -10.1940     40.3909    198.7577   1.2213493089e+02   2.8554682476e+01    0.4691781    0.1486877  60.49  0.001781055    3.893    0.743
       101 -10.8863      5.8909    199.9720   1.2879787877e+02   3.1830893025e+01    0.1638632    0.1197078  74.86 0.0003634354    1.052    0.049
       102  -9.9556     62.2246    198.3382   1.1767982659e+02   2.5956276595e+01    0.1790123    0.1473894 -78.62 0.0003570992    1.224    0.183
       103 -10.6654     12.7613    197.2932   1.2737187282e+02   3.1741587907e+01    0.2538145     0.151628 -68.04  0.001658338    1.653    0.395
       104 -10.5764     82.5642    195.2646   1.1307734426e+02   2.3771604972e+01    0.2266221    0.1900037  71.25 0.0002736325    1.004    0.004
       105 -10.3262     95.5051    194.5515   1.1021402231e+02   2.1956607408e+01    0.2197162    0.2003028  55.80  0.001400727    1.156    0.135
       106 -10.0213     63.7274    193.1496   1.1683457954e+02   2.6856478007e+01    0.2409955    0.2017758 -35.59 0.0007482599    1.777    0.437
       107  -9.1794     44.5926    194.1653   1.2090025679e+02   2.9032506111e+01    0.1468246   0.09833281 -68.67 0.0001701479    1.463    0.316
       108 -11.2131    108.5378    194.4579   1.0738697846e+02   1.9879229495e+01    0.4833373    0.2412836 -70.44  0.001830184    2.545    0.607
       109  -9.9963    100.1318    192.3305   1.0891674100e+02   2.1688932963e+01    0.1984519    0.1680966 -63.55  0.000399938    1.274    0.215
       110  -8.9984     52.5058    192.9996   1.1916614868e+02   2.8326452088e+01    0.1603794   0.08758956 -50.42 0.0008086711    2.406    0.584
       111 -10.5751     58.9582    190.7229   1.1758857625e+02   2.8000139721e+01    0.2935804    0.1593971 -67.26  0.001118641    1.742    0.426
       112  -9.5134     37.8380    192.2003   1.2210447679e+02   3.0224667979e+01    0.1437236    0.1261033 -79.44 0.0003965709    1.298    0.230
       113 -11.1970     91.3246    188.8032   1.1036934546e+02   2.3823306362e+01    0.3200499    0.2420355  79.48  0.000759193    1.287    0.223
       114  -9.8739     79.7489    188.4764   1.1286332713e+02   2.5632092289e+01    0.2553888    0.1087993  43.66  0.001009951    2.128    0.530
       115 -10.7468    105.3107    185.8442   1.0686148662e+02   2.2216770863e+01    0.2802265    0.2280075  70.12 0.0005695064    1.158    0.136
       116  -9.2232     86.0239    186.4999   1.1123518330e+02   2.5129133070e+01      0.19809    0.1204811  42.59   0.00102509    1.567    0.362
       117 -10.5718     15.6551    182.9192   1.2587378880e+02   3.4479048406e+01    0.2216685    0.1610168  89.25 0.0006329541    1.078    0.072
       118  -9.2847    108.1182    181.1434   1.0552676484e+02   2.2754889875e+01    0.1889031    0.1485664  75.79 0.0004098156    1.287    0.223
       119 -10.1127     55.1848    180.6010   1.1733496382e+02   3.0691089233e+01    0.2453286    0.1595778  80.09 0.0008847178    1.448    0.310
       120  -9.2969    131.5041    179.4653   9.9972646778e+01   1.8982102041e+01    0.1434368     0.128291  64.16 5.793353e-05    1.066    0.062
       121  -9.0009    120.7713    178.9520   1.0230911216e+02   2.1030812212e+01    0.1677803    0.1153724 -56.29  0.000352165    1.524    0.344
       122 -12.0468     31.8957    176.6457   1.2200214500e+02   3.4241765423e+01    0.3421195    0.2232355 -52.68 0.0008289464    1.847    0.459
       123  -9.9531     92.1135    177.2930   1.0860162875e+02   2.6209400841e+01    0.2140907    0.1724203 -60.46 0.0002086334    1.295    0.228
       124 -10.4089     46.6490    177.2299   1.1885463000e+02   3.2475804506e+01    0.2745878    0.1531686  54.52 0.0009071271    1.674    0.403
       125  -9.3211      3.8098    178.2816   1.2793847391e+02   3.6508807442e+01    0.1929392   0.07275307  66.59 0.0009279397    2.604    0.616
       126 -12.0554     78.9254    174.0065   1.1117727015e+02   2.8948243861e+01    0.2728413    0.2245407  72.18 0.0003297949    1.092    0.084
       127 -10.7735     76.5127    170.5686   1.1126783326e+02   3.0078067506e+01    0.2278163    0.2030526  85.49  8.68474e-05    1.054    0.051
       128  -9.1628     24.1664    176.3530   1.2362195278e+02   3.5088922628e+01    0.1482485   0.09069324  52.70 -0.000275831    1.518    0.341
       129  -9.4128    107.6484    175.7206   1.0478745080e+02   2.4012930621e+01    0.2270682    0.1008082  50.53 0.0007721028    2.273    0.560
       130  -9.4814     17.4404    174.7729   1.2491144135e+02   3.6074557489e+01    0.1596874    0.0869045 -67.76 0.0009321677    1.634    0.388
       131 -10.1509     44.2602    169.5880   1.1858865376e+02   3.4471143023e+01    0.2766722     0.195493   4.04  0.001493581    2.517    0.603
       132 -10.4917     46.7381    166.1930   1.1765121008e+02   3.4959536815e+01    0.2866867    0.2135005  47.33 0.0008159697    1.377    0.274
       133  -8.9187    121.5181    169.5181   1.0052679215e+02   2.2929903715e+01    0.1436311    0.1326405  69.27 0.0001252565    1.011    0.011
       134  -9.9874     53.5293    166.4900   1.1611197601e+02   3.4081447289e+01    0.2617065    0.1197119  36.54  0.001237408    2.270    0.559
       135  -9.7500      2.7071    165.8426   1.2735824184e+02   3.9279236046e+01    0.2211736   0.06767589 -70.16 0.0007221795    2.480    0.597
       136  -9.5121    185.9450    164.7717   8.5235430902e+01   1.1245289007e+01    0.1986269    0.1818202  26.66 0.0003326142    1.037    0.035
       137 -10.3407     24.5578    162.7671   1.2235942780e+02   3.8078660176e+01    0.1854554    0.1520452  58.24 0.0003465794    1.259    0.206
       138  -8.8548    126.6639    162.2755   9.7994334164e+01   2.3565294865e+01    0.1494546    0.1097015  72.38 0.0002390784    1.607    0.378
       139  -9.4155     75.4730    161.9631   1.1029625759e+02   3.2207722794e+01    0.2001431    0.1233696 -66.07 0.0004705783    1.519    0.342
       140  -9.7039    140.1152    160.8190   9.4549859546e+01   2.1292317486e+01    0.2167638    0.1906982  65.50 0.0004515269    1.153    0.133
       141 -11.2635     37.2703    159.0374   1.1906401756e+02   3.7655220998e+01    0.5121532    0.2154275  49.05  0.001886061    2.358    0.576
       142 -10.6944     30.0714    154.2393   1.2024837765e+02   3.9496571783e+01     0.379924    0.2273986  58.73   0.00203817    1.650    0.394
       143  -8.8572     94.4990    159.5645   1.0528112806e+02   2.9846748124e+01    0.1404623    0.1281314  82.60 2.166498e-05    1.012    0.012
       144  -9.4406    113.9699    158.2675   1.0029356028e+02   2.6801096073e+01    0.1945885    0.1742906  52.50 0.0001982172    1.097    0.089
       145  -9.2177     66.0262    157.8029   1.1199923032e+02   3.4493706593e+01    0.1694534    0.1019995  38.73 0.0005015568    1.741    0.426
       146  -9.1862     72.4944    154.3679   1.0989697010e+02   3.4410135263e+01    0.1333277     0.119684  85.09 0.0001316955    1.043    0.041
       147  -9.5317    113.0845    153.5114   9.9618534927e+01   2.8043825854e+01    0.2148947    0.1405986  43.47 0.0006087304    1.512    0.338
       148  -9.5959     45.8939    151.4895   1.1610499715e+02   3.8470401428e+01    0.1880796    0.1443173 -79.96 0.0003251248    1.102    0.093
       149 -11.4741      5.6808    147.7159   1.2534812491e+02   4.3082242713e+01    0.2450494    0.1582128  68.99            0    1.422    0.297
       150 -10.1763      1.8823    139.8609   1.2558426416e+02   4.5130270697e+01    0.1820361    0.1243583  82.69  0.000745632    1.225    0.183
       151  -9.4476     27.9595    147.5590   1.2004108129e+02   4.1249052365e+01    0.1553994    0.1218569  35.13 0.0003447775    1.525    0.344
       152 -10.9681     14.1082    142.8430   1.2292013600e+02   4.3546147106e+01    0.3360558    0.2400274 -48.52  0.001886362    1.625    0.385
       153  -9.3539     24.5541    144.4866   1.2054118669e+02   4.2278427493e+01    0.1249861   0.09845243 -85.10  3.06455e-05    1.007    0.007
       154  -9.7686     34.9706    137.4309   1.1707800379e+02   4.2953066983e+01    0.2794001    0.1352294 -88.54 0.0008865513    2.363    0.577
       155 -10.3559    236.0401    137.3025   6.9589763254e+01   5.9848497005e+00    0.1932448    0.1806843  13.33 0.0006298439    1.106    0.096
       156 -10.2576     40.4674    132.4625   1.1495635069e+02   4.3578181589e+01    0.3218074    0.1784103  40.35   0.00138188    1.947    0.486
       157 -10.0359     42.2825    129.7519   1.1407278984e+02   4.4036615544e+01    0.2655139    0.2055205 -14.26  0.001529156    1.849    0.459
       158 -12.1956     28.2916    131.8383   1.1811291877e+02   4.4911484533e+01    0.2885555    0.2316093  72.74  0.001869324    1.229    0.186
       159  -9.8753      7.9392    133.0754   1.2349089581e+02   4.6261004532e+01    0.1886068    0.1132983 -53.21 0.0007188424    1.678    0.404
       160  -8.7660     76.2682    132.6815   1.0525710156e+02   3.9047979421e+01    0.1414222    0.1028595  82.93 0.0004437119    1.558    0.358
       161  -9.0937     61.9611    130.9843   1.0887664598e+02   4.1430139454e+01    0.1633797    0.1394076 -73.49 0.0009568147    1.027    0.026
       162 -10.1612     17.8873    130.3011   1.2065645319e+02   4.6157952188e+01    0.3345252    0.1223111 -69.44  0.001471142    2.103    0.525
       163  -9.2242     12.7948    131.1669   1.2206686463e+02   4.6348904142e+01    0.1538473     0.114834 -61.70 0.0002220723    1.263    0.208
       164 -10.2756     33.8134    129.5063   1.1633345129e+02   4.4949647470e+01    0.2386624     0.166132 -59.59 0.0006828696    1.291    0.225
       165  -8.9974     77.5704    129.0000   1.0419983897e+02   3.9742690933e+01    0.2997652   0.08148201  35.25 0.0009419651    3.993    0.750
       166  -9.3438     91.8181    126.2298   9.9686556134e+01   3.8165034379e+01    0.1943262    0.1664466 -32.42 0.0003926195    1.323    0.244
       167  -9.2581      3.3497    130.7136   1.2441494444e+02   4.7117449561e+01    0.1201541   0.07190868  68.97 0.0007021821    1.659    0.397
       168  -9.4898     30.0355    125.4665   1.1680695106e+02   4.6264447229e+01    0.1525327    0.1271521  33.15 1.821001e-05    1.453    0.312
       169  -9.5582     69.2679    123.0697   1.0538440915e+02   4.2364094735e+01    0.1928229    0.1638323 -67.10 0.0003014723    1.051    0.048
       170 -10.7259      6.8145    122.3243   1.2268412707e+02   4.8820816821e+01    0.3445402     0.171431  70.10  0.001753546    2.309    0.567
       171  -9.7154      2.4989    122.9754   1.2388489835e+02   4.8947861952e+01    0.1726588   0.09142756 -77.27 -0.000614506    1.449    0.310
       172 -10.8734    237.5040    121.2019   6.5626701696e+01   8.3640174788e+00    0.2607428    0.2075123  46.27  0.001414024    1.371    0.271
       173  -9.1835     30.7242    121.3679   1.1604269060e+02   4.7176786548e+01    0.1318807   0.08496323  79.56 0.0007006626    1.678    0.404
       174 -11.3569     19.5895    110.6444   1.1769401824e+02   5.0644058350e+01    0.5183077    0.2029677 -57.72  0.002473263    1.995    0.499
       175 -10.7878     15.8630    115.4014   1.1940176034e+02   4.9804691197e+01    0.4576838    0.2309863 -87.46  0.002289802    2.004    0.501
       176 -10.0031     24.6144    117.1734   1.1716912918e+02   4.8704105229e+01    0.2900352    0.1326155 -50.78  0.001264196    2.047    0.511
       177  -9.7874     21.9591    120.7228   1.1839316791e+02   4.8083113364e+01    0.2170469    0.1349427 -65.38 0.0003360731    1.296    0.228
       178 -10.2715     19.9955    118.0000   1.1858141001e+02   4.8881431905e+01    0.2204295    0.1768388  32.81  0.001355179    1.524    0.344
       179  -9.5664     93.2003    118.8823   9.7684223616e+01   3.9681580338e+01    0.2023364    0.1697528 -32.50 0.0005115025    1.321    0.243
       180  -9.0081     97.9536    118.7523   9.6313716508e+01   3.8891941900e+01    0.1728956    0.1283782  38.75 0.0002856568    1.434    0.303
       181 -10.9064     55.2951    117.8576   1.0842734973e+02   4.5430813943e+01    0.2218035    0.2152271  58.80 0.0003618934    1.177    0.150
       182  -9.1338    123.4673    120.9970   8.9896544423e+01   3.3529894705e+01    0.2167467    0.1491212 -51.03 8.748358e-05    1.427    0.299
       183  -9.8123     49.5939    117.3199   1.0999293154e+02   4.6226136286e+01    0.2036304    0.1412594  83.72  0.001067169    1.634    0.388
       184  -9.1270     30.3032    117.3042   1.1556892012e+02   4.8181925907e+01    0.1276358   0.08307883 -45.76 0.0003315266    1.596    0.373
       185 -10.4452     10.3089    117.1000   1.2115548542e+02   4.9799209763e+01    0.1810205    0.1567794 -45.81  0.001153605    1.339    0.253
       186  -9.5875    108.8421    114.6618   9.2292407535e+01   3.7859317655e+01    0.2034654    0.1881395  57.20 0.0005356897    1.121    0.108
       187 -10.9149     61.2479    113.1264   1.0576015918e+02   4.5829109310e+01    0.3311212    0.1948966 -48.38  0.001032304    1.604    0.377
       188  -9.5313     34.0068    114.4844   1.1406658647e+02   4.8514625632e+01    0.1655369    0.1283399  33.23 0.0003824078    1.531    0.347
       189 -11.4222      4.0353    109.6768   1.2203196330e+02   5.1918062278e+01    0.4968354    0.2024178 -74.36  0.002482223    1.907    0.476
       190  -9.6296      8.4879    106.9701   1.2042650506e+02   5.2272165383e+01    0.1876767   0.09572577 -74.34 0.0007137033    1.552    0.356
       191 -10.2608     31.4284    111.1717   1.1429688848e+02   4.9539458142e+01    0.1659243    0.1457399 -59.01  0.001088399    1.135    0.119
       192  -9.6299     93.1223    108.4931   9.5251861834e+01   4.2143762767e+01    0.2280047    0.1843212 -53.12 0.0005713655    1.156    0.135
       193 -10.8967     36.1359    105.7449   1.1196649915e+02   5.0394401329e+01    0.5631085    0.2882915 -71.29  0.001753659    1.785    0.440
       194  -8.8320     85.0405    108.0000   9.7517283055e+01   4.3607556048e+01    0.2277627   0.08433055  37.10 0.0008003455    2.928    0.658
       195 -11.2675     47.3520    102.9031   1.0795408359e+02   4.9924616968e+01    0.4809614    0.2090541 -64.04  0.002082543    2.047    0.511
       196 -11.3805     41.8363     98.7813   1.0887364511e+02   5.1482687303e+01     0.268351    0.2447446  21.56 0.0003249713    1.310    0.236
       197  -8.8205     62.6890    104.7030   1.0355389430e+02   4.7655641435e+01    0.1389446   0.09977414 -32.25 0.0004864897    1.597    0.374
       198 -10.0780     29.2867    103.3730   1.1366050093e+02   5.1574786509e+01    0.2389472    0.1424019 -64.40 0.0005592835    1.351    0.260
       199 -11.5471    174.9399    102.9299   7.2710290169e+01   2.5807074251e+01    0.2356767    0.2302713 -30.50   0.00123856    1.011    0.010
       200  -9.8400    141.9082    100.8225   7.9814305249e+01   3.3996730135e+01    0.2225166    0.2069198  -4.55 0.0003209253    1.150    0.130
       201 -10.4604      8.8779     99.2439   1.1927778465e+02   5.4036047361e+01    0.2469973    0.1754888  75.86 0.0007212476    1.518    0.341
       202 -10.7760      3.8648     97.9764   1.2062634405e+02   5.4620146798e+01    0.3894554    0.1798939 -64.36 0.0009182849    1.588    0.370
       203  -9.4434    106.5094     97.4744   8.8461166935e+01   4.2221961427e+01    0.1516314    0.1438843 -35.38 5.696002e-05    1.034    0.033
       204  -9.1115     58.2208     96.0219   1.0301079873e+02   5.0275224619e+01    0.1854097    0.0998204 -57.12 0.0005402057    1.614    0.380
       205  -9.7448     54.5102     94.4866   1.0386027106e+02   5.1088659345e+01    0.3092875    0.1139302 -56.36  0.001227412    2.270    0.559
       206  -9.5801     23.0919     95.5408   1.1426424992e+02   5.3916244593e+01    0.1504865    0.1255959  25.86 0.0003127556    1.480    0.324
       207 -10.8862     46.1116     93.9984   1.0649526002e+02   5.2158261159e+01    0.2502514    0.1942964  33.49 0.0002890022    1.497    0.332
       208 -10.1353     30.9421     93.7981   1.1141445337e+02   5.3679624030e+01    0.2254509    0.1656512  57.46  0.001331985    1.645    0.392
       209 -11.2063     21.2442     87.6769   1.1346359005e+02   5.5876254436e+01    0.2162791    0.1736242 -67.19 0.0002683766    1.064    0.060
       210 -11.0516     27.1704     88.0502   1.1155088297e+02   5.5330763933e+01    0.4435963    0.2552235 -54.88  0.001433927    1.390    0.281
       211  -9.8051     30.8728     84.1579   1.0950013585e+02   5.5915107728e+01    0.2002082     0.166249 -20.41  0.000507796    1.360    0.265
       212 -10.2510      1.6565     92.9682   1.2063188694e+02   5.5883254387e+01    0.2097135    0.1313322 -85.50 0.0006423408    1.453    0.312
       213 -10.5636    105.1704     90.8893   8.6991732233e+01   4.3935837820e+01    0.3132413     0.234662  35.41  0.001518593    1.424    0.298
       214  -9.3102     17.4720     91.4540   1.1537418916e+02   5.5275645245e+01    0.1247485   0.09851246 -63.93 0.0002101574    1.005    0.005
       215 -10.4376      7.1154     89.5892   1.1842053810e+02   5.6357516356e+01    0.2722116    0.1632287 -67.04 0.0006122662    1.269    0.212
       216 -10.0360     88.0027     88.2790   9.1465823946e+01   4.7645549660e+01    0.2572314    0.1959344 -47.91  0.000493007    1.219    0.180
       217 -10.9368    123.6422     86.6737   8.0495455326e+01   4.1029877296e+01    0.3229767    0.2727368 -50.68 0.0005492519    1.195    0.163
       218  -9.8665     70.3034     87.3199   9.6894274566e+01   5.0654685959e+01    0.1444008    0.1020575 -26.29 0.0007027803    1.629    0.386
       219  -9.5190     63.8655     86.8609   9.8905381296e+01   5.1658540886e+01    0.2099252     0.171731 -29.31 0.0004922025    1.255    0.203
       220 -10.1582     11.0191     85.5374   1.1649548929e+02   5.7052211824e+01    0.2762434    0.1487392 -84.11   0.00143747    1.977    0.494
       221 -10.0939      2.4773     86.4864   1.1945215182e+02   5.7313058496e+01    0.2188134    0.1471108 -69.66  0.001413757    1.141    0.124
       222 -10.4109    155.0762     85.0129   7.2061192515e+01   3.4088967338e+01    0.2282777     0.226069 -40.57 0.0003863914    1.004    0.004
       223  -9.3475    130.0034     85.5746   7.8452423874e+01   3.9850790996e+01    0.2251366    0.1524397  47.12 0.0003598714    1.504    0.335
       224 -11.6205     50.6881     82.8725   1.0235619902e+02   5.4214247872e+01    0.3772175    0.2721833   8.79 0.0008280553    1.727    0.421
       225 -10.6688     44.6225     80.0178   1.0375703253e+02   5.5533565015e+01    0.2634571    0.1944357  31.38 0.0004799608    1.575    0.365
       226 -10.2905     73.0644     80.5988   9.4112473019e+01   5.1748480968e+01    0.4055199    0.1684948 -40.98   0.00155152    2.418    0.586
       227  -8.9965     35.6403     82.3277   1.0744945100e+02   5.5905669265e+01    0.1282977   0.09449428  76.08 -9.018179e-05    1.788    0.441
       228 -10.0259     20.0410     81.3554   1.1267022775e+02   5.7408669457e+01    0.2109914    0.1537434  89.08 0.0008051516    1.553    0.356
       229  -9.6876     57.1281     81.1817   9.9696503396e+01   5.3819979589e+01      0.19062    0.1779228  80.57 0.0002766602    1.255    0.203
       230 -11.0991     52.6338     75.6571   9.9783484590e+01   5.5601842421e+01    0.3528205    0.2917917 -23.17  0.000543309    1.240    0.193
       231  -9.3432      2.5231     80.5114   1.1851941027e+02   5.8657547825e+01    0.1675199    0.1004944  37.09 0.0009119086    2.091    0.522
       232  -8.7250    152.3165     77.2958   7.0379342280e+01   3.6219427420e+01    0.1586584    0.1229288  16.05 0.0002551149    1.606    0.377
       233  -9.3019     29.0145     77.0145   1.0859126302e+02   5.7694770595e+01    0.2159433    0.1418493  83.91   0.00111745    2.183    0.542
       234  -9.2729     29.4530     73.4859   1.0761844180e+02   5.8447531072e+01    0.2051183   0.08916886 -52.16 0.0002341237    1.782    0.439
       235  -9.7914     83.1915     75.0042   8.9074067887e+01   5.1340551359e+01    0.3517241     0.173666 -28.26  0.001244415    3.053    0.672
       236 -10.5657     63.7515     75.7503   9.5893033797e+01   5.4152393860e+01    0.3808315    0.2306362  40.73  0.001298835    1.883    0.469
       237 -10.6431     18.7957     73.8510   1.1158445475e+02   5.9186259541e+01    0.3720815    0.2314776 -44.56  0.001851939    1.389    0.280
       238  -9.2007    174.9358     75.2090   6.4873757954e+01   3.0976362213e+01    0.1978843    0.1252358  57.94            0    1.609    0.379
       239  -9.8411     69.1720     73.7207   9.3413015423e+01   5.3821856881e+01    0.2274517    0.1746393 -54.96 0.0006070634    1.282    0.220
       240  -9.2823    169.1596     72.1975   6.5154736885e+01   3.2955298501e+01    0.2108378    0.1792519 -76.26  0.000237404    1.316    0.240
       241  -9.1848    137.9300     72.0351   7.2198382874e+01   4.0659048321e+01    0.1785185    0.1764092   5.42 0.0003970104    1.009    0.009
       242 -10.8543     88.8620     71.3493   8.6064802423e+01   5.1117603998e+01     0.387276    0.2256261 -56.90 0.0009612413    2.057    0.514
       243 -11.5587     79.7760     69.8549   8.8585778329e+01   5.2984085260e+01    0.2364684    0.2170613 -21.65 0.0002742041    1.031    0.030
       244 -11.8011     52.7668     69.4356   9.7979742950e+01   5.6942565492e+01    0.2410404    0.2163284 -37.56 0.0003456918    1.054    0.051
       245 -11.0308     44.5501     69.2689   1.0095983086e+02   5.7922617727e+01    0.3537944    0.2082496 -17.15  0.001239184    2.373    0.579
       246 -12.0197      1.5995     63.4588   1.1584392467e+02   6.2465971380e+01    0.6862783    0.1183913 -65.45   0.00247929    3.790    0.736
       247 -11.9034      6.0155     59.0520   1.1322600026e+02   6.3197758709e+01    0.4631197    0.3680452  61.62  0.001702213    1.682    0.406
       248  -9.6894    106.1525     66.8772   7.9199048622e+01   4.8688282438e+01    0.2145921    0.2059334 -85.01 0.0006682771    1.198    0.165
       249  -9.8876     57.0230     66.7139   9.5609420165e+01   5.6989136222e+01    0.2773771    0.2081215 -82.83  0.001282878    1.982    0.496
       250 -10.3277     16.7176     60.4151   1.0931952180e+02   6.2268966062e+01    0.3077571    0.1987082  79.00   0.00162994    2.523    0.604
       251 -10.7352     21.8602     63.5536   1.0807886938e+02   6.1229944861e+01    0.4855376    0.2002482 -60.54  0.001656535    1.984    0.496
       252 -12.2079     24.0500     57.5801   1.0566489947e+02   6.2338648718e+01    0.3944129    0.2791716 -46.56 0.0007884041    1.116    0.104
       253 -10.6944     29.1623     53.0212   1.0228036964e+02   6.2863014476e+01    0.4880164     0.222543  34.70  0.002140857    2.638    0.621
       254  -8.9264    144.2709     66.3141   6.8823603381e+01   4.0171142794e+01    0.1532085    0.1202366  11.16 0.0003062284    1.554    0.357
       255  -9.4337    199.9379     71.5137   5.9224745932e+01   2.5342124346e+01    0.2101597    0.1485811  59.57 0.0003445975    1.447    0.309
       256  -9.5956     75.2838     66.0524   8.8886436218e+01   5.4491534581e+01    0.1932731    0.1643532 -37.00 0.0001604481    1.070    0.066
       257  -9.0470     17.6644     66.7792   1.1045306357e+02   6.0826770973e+01    0.1173029   0.07516455 -34.08 0.0003840839    1.522    0.343
       258  -9.6182     64.0083     69.3036   9.3881015400e+01   5.5502330770e+01    0.1831051    0.1706137  -3.56 0.0004260371    1.126    0.112
       259 -10.9166     32.0510     64.6652   1.0442726669e+02   6.0155273505e+01    0.2852723    0.2182081  16.84   0.00126678    1.529    0.346
       260  -9.4052     14.3346     65.4136   1.1141076304e+02   6.1343663501e+01    0.1882248    0.1169917   3.90  0.001111063    2.029    0.507
       261  -8.9407    135.4978     64.5233   7.0373668689e+01   4.2597556464e+01    0.1516646    0.1481874  10.63 1.716995e-05    1.002    0.002
       262  -9.4065    203.5000     63.2487   5.6371897491e+01   2.5783363010e+01    0.3140262    0.1301885  75.08  0.000879768    4.532    0.779
       263 -10.9214     71.0514     60.5322   8.8530966454e+01   5.6265032851e+01    0.4876766    0.2599837  39.09  0.002260767    2.043    0.511
       264  -8.8953     98.6500     60.7054   7.9370793580e+01   5.1362553659e+01    0.1507791    0.1107535   5.32   0.00070321    1.678    0.404
       265 -10.1728     31.5900     58.7528   1.0297477620e+02   6.1455848859e+01    0.2205018    0.1780369 -89.38  0.001139081    1.682    0.406
       266  -9.1020    238.4477     58.4639   5.0282946845e+01   1.8158042184e+01    0.1393114    0.1238114 -53.65 5.051834e-05    1.006    0.006
       267  -9.1805     85.6280     57.5288   8.2448695120e+01   5.4408886002e+01    0.1419922    0.1249923 -20.70 0.0001286876    1.043    0.041
       268 -10.6121     38.6408     56.9173   9.9625508738e+01   6.1160937661e+01    0.2468932    0.2045514  76.73 0.0009134103    1.763    0.433
       269 -11.6192     42.0882     51.9389   9.6656894165e+01   6.1807123948e+01    0.3665014     0.225289 -32.23 0.0006542309    1.511    0.338
       270  -9.1820    249.8501     56.1951   4.8411638240e+01   1.5945386228e+01    0.1702581    0.1529494 -16.71  0.000381838    1.283    0.221
       271  -9.8849    118.6553     55.1444   7.1574651734e+01   4.8122907833e+01    0.2802672    0.1954279  -2.29 0.0006362108    1.877    0.467
       272 -10.3149    122.8320     51.9411   6.9328408641e+01   4.7706757666e+01    0.3774704    0.2024952  45.44  0.001377607    1.830    0.454
       273 -10.8115     93.0753     54.6045   7.8961084160e+01   5.3563722002e+01     0.313957    0.2068972 -29.51 0.0003057652    1.500    0.333
       274 -10.8923     94.2337     49.6882   7.6784158991e+01   5.4203082271e+01    0.4297164    0.2474072  32.62  0.001319201    1.901    0.474
       275  -9.7544     52.5002     54.4651   9.3375769360e+01   6.0076051640e+01    0.2303217    0.1195989 -58.30   0.00102291    2.312    0.567
       276 -10.1215    151.1895     53.2273   6.3009926689e+01   4.0640182898e+01    0.2403991    0.2075668  -8.71 0.0004912631    1.261    0.207
       277  -9.2090    191.6644     53.6596   5.5571958769e+01   3.0235009424e+01    0.1552453    0.1142026  25.88 0.0007051013    1.757    0.431
       278  -9.4000    176.9271     53.5600   5.8051360972e+01   3.4023860093e+01    0.2348264    0.1422998  57.37  0.001020822    1.605    0.377
       279  -9.8933     75.4687     52.9002   8.4276126989e+01   5.7023833959e+01    0.1997773    0.1780921  -1.09 0.0007760678    1.076    0.071
       280 -11.4266     17.1537     47.0222   1.0556374709e+02   6.5035317654e+01    0.4688126    0.2291526 -40.29  0.002562444    1.685    0.406
       281  -9.5358     23.9054     46.7007   1.0256066199e+02   6.4589254823e+01    0.3963476    0.1530054  27.72   0.00190024    2.943    0.660
       282 -11.9057      7.3587     49.6440   1.1045961330e+02   6.5108164687e+01    0.4713799    0.3638273 -12.84  0.003334953    1.421    0.296
       283 -11.1086    165.5926    248.2748   1.0333729254e+02   1.0928340407e+00    0.2947308    0.2255827  78.58  0.001859631    1.930    0.482
       284 -10.0757     60.9030     51.9440   8.9271631574e+01   5.9441637509e+01    0.1973344    0.1768298 -24.27 0.0005271793    1.068    0.063
       285 -10.5326     65.6971     49.2594   8.6492108213e+01   5.9244991545e+01    0.3064938    0.1968406 -27.74  0.001063582    1.517    0.341
       286 -10.2102     67.6408     44.5310   8.3983390803e+01   5.9801228016e+01    0.2635055    0.2129582  -0.73 0.0008320289    1.211    0.174
       287 -10.0415     47.0848     47.3085   9.3042150314e+01   6.2138747795e+01    0.3095775    0.1609137 -29.54  0.001169976    2.040    0.510
       288 -10.0897     31.7441     47.8200   9.9578305431e+01   6.3680000591e+01    0.1841881    0.1457455 -15.48 0.0007785042    1.239    0.193
       289 -11.9427     12.4985     43.7550   1.0664046347e+02   6.6006431670e+01    0.2634295    0.1629355 -48.97 0.0003112019    1.226    0.184
       290  -9.8596    114.5466     46.8169   6.9709790262e+01   5.0410533893e+01    0.2478888    0.1420549 -28.48 0.0003741193    1.804    0.446
       291  -9.7452     38.9294     46.8086   9.6223742874e+01   6.3159644474e+01    0.2056166    0.1738366  46.87  0.001315949    1.595    0.373
       292  -9.1478    165.2215     45.9963   5.7864366065e+01   3.8159009403e+01    0.1884221    0.1228332 -31.09 0.0003673288    1.578    0.366
       293 -11.6275     62.0406     44.2695   8.5999887196e+01   6.0700031370e+01    0.3623325    0.2220824 -39.90  0.001478032    1.480    0.324
       294  -9.7138    123.2580     45.3965   6.6882995156e+01   4.8644584046e+01    0.2779555    0.1314437  48.93 0.0007384858    2.020    0.505
       295  -9.0077    192.4966     44.5650   5.2836881214e+01   3.1342619373e+01    0.1454299    0.1372951 -85.37  5.28918e-05    1.010    0.010
       296 -11.9564    103.5704     39.1604   6.9929042220e+01   5.3986275001e+01    0.4342228    0.2495171 -26.17 0.0004962862    1.796    0.443
       297  -9.8294    199.9873     43.1005   5.1325052819e+01   2.9641747486e+01     0.211773    0.2028054 -74.93 0.0004172814    1.041    0.040
       298  -9.2132     53.0198     42.7024   8.8945902022e+01   6.2248083987e+01    0.1713095    0.1454073 -14.30 0.0002942284    1.054    0.051
       299  -9.7825     33.1424     43.2581   9.7449750591e+01   6.4439182745e+01    0.1929447    0.1655805  43.03  0.001036216    1.565    0.361
       300 -10.1301     30.9739     38.9625   9.6878347004e+01   6.5468523027e+01    0.3349894     0.140546 -53.75  0.001083318    2.294    0.564
       301  -9.6770     36.6728     41.3278   9.5246368349e+01   6.4448536636e+01    0.2086418    0.1164913  31.44  0.001130045    2.038    0.509
       302  -8.9618     39.6546     39.7503   9.3385588025e+01   6.4420667318e+01    0.1849545    0.1482186 -14.34 0.0003059216    1.142    0.125
       303 -10.2867     21.5483     40.4148   1.0157760607e+02   6.6019477716e+01    0.3427274    0.1688441  10.24  0.001769397    2.568    0.611
       304  -9.3192    152.0254     40.0569   5.8492313726e+01   4.2377012621e+01    0.1756598    0.1639839 -25.37 0.0004216185    1.115    0.103
       305  -9.2626    128.4947     40.4634   6.3803959597e+01   4.8141239514e+01    0.1480999     0.135506  26.44 0.0001235955    1.055    0.053
       306 -11.1500      5.0283     38.3507   1.0842662364e+02   6.7521494621e+01    0.3982069    0.3448741  64.84  0.002768621    1.667    0.400
       307 -10.3379      4.4600     32.3504   1.0688412536e+02   6.8722311247e+01    0.2613124    0.1406958 -29.52 0.0009342005    1.682    0.406
       308 -10.0575     85.9923     36.9889   7.4523864274e+01   5.7862861092e+01    0.2025095    0.1767348   0.34  0.001193605    1.035    0.033
       309 -12.1146    136.0157     35.9395   6.0449079958e+01   4.6947385647e+01    0.3714702    0.2708211  48.46 0.0003213379    1.296    0.228
       310 -10.5235    128.6553     35.0468   6.1805841234e+01   4.8858324374e+01    0.2840331    0.2372454  73.46 0.0004788677    1.332    0.249
       311  -9.9948    118.0469     38.5250   6.5705987497e+01   5.0870347347e+01    0.3248028    0.1460894  61.06  0.001201965    2.660    0.624
       312  -8.9412     97.2896     38.6922   7.1617358760e+01   5.5370046030e+01    0.1311359    0.1120374 -66.78 0.0002376733    1.576    0.366
       313 -10.0649    156.1194     36.8480   5.6634899329e+01   4.1769782551e+01    0.2217055    0.1927831 -75.70 0.0003979752    1.248    0.198
       314 -10.1704    208.2558     35.6290   4.8172755425e+01   2.8568176792e+01    0.3021637    0.1955837  27.82  0.001342207    2.313    0.568
       315 -12.3206    194.3291     35.0099   4.9848699559e+01   3.2166202449e+01    0.3787996    0.2578945  65.32 0.0003554806    1.413    0.292
       316  -9.1965     55.5484     29.4720   8.2552127260e+01   6.4155378895e+01      0.18792    0.1076786 -26.70 0.0006502966    1.648    0.393
       317 -10.3335     60.9772     32.5248   8.1689006907e+01   6.2858833733e+01    0.2620291     0.169312 -32.01 0.0004210776    1.398    0.285
       318  -9.8930     58.2941     35.2703   8.3890840738e+01   6.2809806367e+01    0.1990717    0.1576194 -10.87 0.0001665667    1.135    0.119
       319 -10.6555     55.0331     33.0610   8.4284135129e+01   6.3647318899e+01    0.2140291    0.1822358 -29.31 0.0003131682    1.175    0.149
       320 -10.1443     77.5127     33.5945   7.6012351167e+01   5.9947733767e+01    0.3187491    0.2349415  89.96  0.001437406    3.070    0.674
       321  -8.9043     47.6720     34.2452   8.7819625073e+01   6.4443481073e+01    0.1054421    0.1012358  69.34 0.0001809108    1.539    0.350
       322  -9.9979     40.5684     35.1091   9.1208865465e+01   6.5158661875e+01    0.2281321    0.1905233 -51.30  0.001238344    1.428    0.300
       323 -11.6582     20.4953    241.9347   1.2844761088e+02   2.2430406131e+01    0.4186019    0.1261207  56.86  0.002204559    2.501    0.600
       324  -9.8417    233.0698     31.9882   4.4410466086e+01   2.3030883117e+01    0.2010705    0.1753868 -67.11 0.0003346058    1.008    0.008
       325 -10.2887     22.7431    238.1996   1.2789547081e+02   2.2856518113e+01    0.1845955    0.1385059  68.36 0.0004795312    1.126    0.112
       326 -10.3869    109.1840     21.1623   6.1264353456e+01   5.5151128930e+01    0.4007562    0.2308909   1.08  0.001685603    2.341    0.573
       327 -10.6819    105.0351     20.9442   6.2256851604e+01   5.6104390754e+01    0.2299388    0.1932411  58.03 0.0003517898    1.266    0.210
       328  -9.7900     35.5808     32.0064   9.2179311485e+01   6.6265407016e+01    0.2431856     0.164595  33.36   0.00147486    1.745    0.427
       329 -10.1204     32.4176     28.1961   9.2071753969e+01   6.7266682940e+01    0.2544006     0.215814 -12.31  0.001777468    1.127    0.113
       330 -10.2499    206.0786     31.0678   4.7216594758e+01   2.9698398128e+01    0.2107172    0.1894625 -73.86 0.0003420667    1.021    0.020
       331 -10.5290    158.8716     29.9851   5.3885108129e+01   4.1947208986e+01    0.2461534    0.2225749  84.40 0.0003643569    1.110    0.099
       332 -10.2771     25.1723     30.7981   9.6481314140e+01   6.7516344115e+01    0.2557289    0.1745046  16.72  0.001233245    1.598    0.374
       333  -9.8123     82.4880     39.0128   7.6512121416e+01   5.8199733057e+01     0.195734    0.1737469   9.72 0.0004332851    1.056    0.053
       334 -11.1768    221.4396     29.2793   4.4966733431e+01   2.6140031506e+01    0.3331911    0.2370453 -42.96 0.0009267331    1.314    0.239
       335 -10.3776     71.8478     29.0140   7.6087640326e+01   6.1631650997e+01    0.2262872     0.183324  24.32 0.0008779326    1.184    0.155
       336 -10.1726     19.1705     29.0697   9.8670338874e+01   6.8343963486e+01    0.1747018    0.1349289 -34.15 0.0004680025    1.043    0.041
       337 -10.0540    211.9766     28.0896   4.5719370001e+01   2.8602481563e+01    0.2055734    0.1856189 -72.32 0.0004165588    1.013    0.013
       338 -10.0988    181.8603     27.6749   4.9490438445e+01   3.6291727603e+01    0.2434097    0.2013635 -11.21  0.001270779    1.406    0.289
       339  -9.7428    199.4585     51.9673   5.3874385461e+01   2.8509990972e+01    0.2117488     0.190121  73.89  0.000293061    1.104    0.094
       340  -9.6623     99.8014     26.6814   6.6048581343e+01   5.6534789783e+01     0.231869    0.1781289  58.32 0.0007976863    1.439    0.305
       341 -11.2924     48.3859     26.2447   8.4127768220e+01   6.5670956003e+01    0.2830181    0.2789957  -9.47   0.00198829    1.445    0.308
       342 -10.8630    165.6467     26.1358   5.1500171928e+01   4.0667506905e+01     0.345273    0.2045434  74.18  0.001300461    1.745    0.427
       343  -9.3987     66.5489     32.9513   7.9727024494e+01   6.1915298007e+01    0.1952958    0.1173089 -33.27 0.0004861152    1.537    0.349
       344  -9.7583     37.9637     26.2138   8.8699114911e+01   6.6986899873e+01    0.2073778    0.1225237  -5.40  0.001084745    2.048    0.512
       345 -10.2890     19.0394    247.0000   1.2892037165e+02   2.1698175006e+01    0.2220258    0.0794661  49.40  0.001230521    1.982    0.495
       346 -11.1044     15.9396    243.9823   1.2927155546e+02   2.2547071176e+01    0.2447477    0.1168482  63.50   0.00135656    1.539    0.350
       347 -10.4300      7.6578     21.7471   1.0162151892e+02   7.0501134042e+01    0.3120454    0.1418478  17.91  0.001768309    2.492    0.599
       348 -10.8509      4.7234    246.3506   1.3111635381e+02   2.3263525874e+01    0.1729597    0.1286911  73.46 0.0003896674    1.180    0.153
       349 -11.4725     18.4899     23.6784   9.6897229093e+01   6.9360205572e+01    0.2570483    0.1633359 -42.65 0.0007351521    1.288    0.223
       350  -9.9170    210.9849    245.5045   9.4777460321e+01  -5.6245033997e+00    0.1649307    0.1361208  11.07 0.0004783068    1.130    0.115
       351  -9.8828    148.6981    246.0222   1.0614929594e+02   4.1028403427e+00    0.1629039    0.1343461  46.75 0.0004225747    1.062    0.058
       352  -9.7699     61.3443     23.8528   7.7761792648e+01   6.4127893187e+01    0.2621608    0.1695976  -2.32 0.0007495396    1.706    0.414
       353 -10.8782    229.7270     22.6752   4.2474360799e+01   2.4969551659e+01    0.2850159    0.1677691  47.89  0.001124587    2.081    0.519
       354 -10.2878    169.8188     23.1923   4.9918965689e+01   3.9933442703e+01    0.1940559    0.1590959  36.32 0.0003425536    1.323    0.244
       355 -10.6251    153.7327     22.9647   5.2476173349e+01   4.4100663220e+01     0.252376    0.2056743  48.28 0.0002984475    1.175    0.149
       356 -10.0329    124.7564     23.1541   5.8300255689e+01   5.1291078649e+01    0.2265572    0.1916001 -85.29 0.0005258507    1.435    0.303
       357 -10.6291     26.6454     21.7939   9.2098232481e+01   6.8939744301e+01    0.3110799    0.1790922 -15.74 0.0007867555    1.830    0.454
       358 -10.7385    132.8484     21.7417   5.6027710199e+01   4.9488251586e+01    0.3256673    0.2094527 -77.22  0.001408404    2.398    0.583
       359  -9.1899     66.4692     22.5565   7.5217274398e+01   6.3474186516e+01    0.1297442    0.1095162   0.21  0.000150685    1.010    0.010
       360 -10.4201     36.3363     21.2096   8.7237443588e+01   6.7986801735e+01    0.2156016    0.1680248  -1.52 0.0005500503    1.156    0.135
       361  -9.0886     66.2933    246.3056   1.2105035800e+02   1.6235655576e+01   0.08959347   0.08754207  42.72 0.0002976175    1.579    0.367
       362 -10.5989    176.8523     21.1448   4.8255972583e+01   3.8349965668e+01    0.1966155    0.1586068  42.59 0.0004350854    1.322    0.243
       363  -9.6484     41.0061     21.5120   8.5242467247e+01   6.7373167998e+01    0.1641484    0.1122571  25.82 0.0003508125    1.509    0.337
       364  -9.8422    190.0397     20.2423   4.6223545867e+01   3.5062259848e+01    0.2090562    0.1794097  51.65 0.0003673203    1.225    0.183
       365 -10.1792    192.8963     17.0635   4.4973832626e+01   3.4689673034e+01     0.203811     0.182835 -88.74 0.0003804899    1.009    0.009
       366 -11.5132    201.8863    244.4175   9.6231920426e+01  -4.0997157772e+00    0.2454892    0.1832121  20.21 0.0002953869    1.157    0.136
       367 -11.3625     75.9976    240.8872   1.1891696291e+02   1.5882378548e+01    0.3674996    0.1861581  60.90 0.0006188039    1.754    0.430
       368 -10.7569     33.7502    239.3076   1.2613159981e+02   2.1447207262e+01    0.2320718    0.1830598  47.59  0.001249917    1.428    0.300
       369 -10.4174    198.9874     18.1961   4.4568738293e+01   3.3020055841e+01     0.235584    0.2041586 -37.28  0.001066794    1.215    0.177
       370  -9.8149     60.4377     17.8243   7.5339414379e+01   6.5114469669e+01    0.3609236    0.1139684  36.11  0.001368578    3.454    0.711
       371 -10.1976     45.9915     17.4393   8.1132372230e+01   6.7328129630e+01    0.2604582    0.2055942  60.01  0.001546681    2.263    0.558
       372 -10.0764    230.1168     15.9518   4.0811138808e+01   2.5666088998e+01    0.2049945    0.1474726 -63.22 0.0002590037    1.255    0.203
       373 -10.7140     31.9223    244.0633   1.2670089410e+02   2.0809057275e+01    0.1803647    0.1413627  48.44            0    1.424    0.298
       374  -9.1529     62.8236    242.8618   1.2139700053e+02   1.7286675150e+01    0.1540729   0.09635698  66.85 0.0003901212    1.300    0.231
       375  -9.8917     91.6949    242.1242   1.1619827930e+02   1.3465481221e+01    0.1994251    0.1239053  54.30 0.0005242385    1.273    0.214
       376  -9.9071    134.2063    240.8020   1.0820695631e+02   7.2131593308e+00    0.1530714     0.130635  25.74 0.0004664393    1.322    0.243
       377 -10.7996    109.8378    239.9293   1.1265152550e+02   1.1152825938e+01    0.3332973    0.1938746  74.09  0.001409282    2.210    0.547
       378 -10.8987    218.8953     18.9057   4.2606702306e+01   2.8006128226e+01    0.3008206    0.1389572 -56.12  0.001276891    2.275    0.560
       379  -9.7334     55.1762    240.9780   1.2258925760e+02   1.8593293245e+01    0.1734802    0.1061548  70.94 0.0005723667    1.358    0.264
       380  -9.9192    102.9612     14.2206   6.0023906462e+01   5.7313595798e+01    0.1864795    0.1597273  29.34            0    1.034    0.033
       381 -10.0170     88.9559     13.6655   6.3664886442e+01   6.0362362256e+01    0.1826602    0.1478534  38.22 0.0002529566    1.144    0.126
       382 -10.5500    246.5740    239.6903   8.7734864616e+01  -1.0133279943e+01    0.2008795   0.09896859 -24.29  0.001142222    2.122    0.529
       383  -9.5063    154.9158     13.4787   4.9134502474e+01   4.4817041682e+01    0.2072177    0.1283613  67.81 0.0004641854    1.493    0.330
       384  -9.4204    191.3210    240.6840   9.7590569262e+01  -1.9604585274e+00    0.1130997    0.0882767  58.90 0.0004759057    1.660    0.398
       385  -9.6959     51.5206     13.0373   7.6635407981e+01   6.7139446189e+01    0.1865028    0.1069065 -29.86  0.001033787    1.601    0.375
       386 -10.1648    137.9815    239.6833   1.0736552375e+02   6.7886809590e+00    0.1828172    0.1613604  21.22 0.0004932071    1.313    0.238
       387 -11.2759    143.8245    237.7443   1.0602576455e+02   6.1543751292e+00    0.4552576    0.1746853  43.51  0.002105344    2.095    0.523
       388  -9.4845    119.5208    240.5486   1.1091827062e+02   9.5620157703e+00    0.1213435   0.09646099  51.39 8.858097e-05    1.017    0.016
       389  -9.4345     32.5255     12.4456   8.4908067312e+01   6.9765620908e+01    0.1182587    0.0932776 -13.22 8.690343e-05    1.044    0.042
       390 -10.4195     73.1630    244.1459   1.1968523139e+02   1.5697938603e+01    0.2027136    0.1399976 -88.86 0.0008109164    1.430    0.301
       391  -9.7976    168.0556    237.8738   1.0148753999e+02   2.1864833729e+00    0.1841613    0.1476737  53.10 0.0006693986    1.278    0.217
       392 -10.7916    100.9719    236.4649   1.1394272525e+02   1.3082799558e+01    0.1726256    0.1567622 -81.46 0.0006064179    1.298    0.229
       393  -9.2530     96.1857    238.3969   1.1502300925e+02   1.3456016740e+01    0.1744179   0.08494042  50.35  0.000697917    1.655    0.396
       394  -9.4390     84.0985    238.0056   1.1720437434e+02   1.5265195686e+01    0.1965745    0.1069994  62.78 0.0007955058    1.700    0.412
       395  -9.5487     62.9855    237.6338   1.2097512180e+02   1.8194664530e+01    0.1529789    0.1099817  58.99  0.001067972    1.081    0.075
       396  -9.0844     45.2174    237.3181   1.2406177939e+02   2.0470168452e+01    0.3354364   0.09403788  54.54  0.001526663    2.948    0.661
       397 -11.1017      4.9991    237.5307   1.3072148407e+02   2.4781335371e+01    0.2238304     0.121589  70.27 0.0006089914    1.316    0.240
       398 -10.3872      3.6170    233.1899   1.3076155459e+02   2.5692244957e+01    0.2341401    0.1449982 -64.39  0.001690875    2.013    0.503
       399 -11.9382     12.7077    234.8031   1.2936796334e+02   2.4509667399e+01    0.4788494    0.2208787  74.70  0.002518941    1.758    0.431
       400 -10.6299     16.2626    232.6303   1.2868214297e+02   2.4543177786e+01     0.343407    0.1292218  53.52  0.002021516    1.966    0.491
       401  -9.6422    133.1335    234.6486   1.0766658014e+02   8.3809865421e+00    0.1840717    0.1554729  84.65  0.001233257    1.335    0.251
       402 -10.0744    230.7137    232.8583   8.9331315384e+01  -7.0652020968e+00    0.1970119    0.1291607  21.93 0.0003823747    1.273    0.215
       403  -9.1623    173.3247    233.3390   9.9857112465e+01   1.9883532393e+00    0.1254428   0.08828939  12.14 0.0007051247    1.724    0.420
       404  -8.9836    156.7236    233.3603   1.0300451368e+02   4.7297365875e+00    0.1198493   0.08973549  68.93 0.0007007993    1.661    0.398
       405 -10.5032    146.1890    231.8067   1.0480875708e+02   6.7152936257e+00    0.2507095    0.1375175  43.32 0.0007217743    1.494    0.331
       406 -11.2919     29.2744    230.6987   1.2639159600e+02   2.3515649970e+01    0.2013286    0.1419082  77.55 0.0003820302    1.088    0.081
       407 -11.6256     46.7862    230.0539   1.2329676181e+02   2.1614797115e+01    0.3178609    0.1754054  66.57  0.000834041    1.508    0.337
       408 -10.1451    175.4240    227.1727   9.8551049763e+01   2.5591425617e+00    0.2891905    0.2066991 -73.56   0.00156724    2.387    0.581
       409 -10.3875     73.3988    226.2487   1.1812748545e+02   1.8896486003e+01    0.3293278    0.1544991  59.57  0.001397249    1.987    0.497
       410 -10.7195      2.4172    225.3947   1.3062623011e+02   2.7231401754e+01    0.2527967    0.1886857 -71.81  0.001594843    1.601    0.375
       411  -9.7550    164.8155    225.7853   1.0038134726e+02   4.5616926178e+00    0.1842037    0.1515283  28.00 0.0004796618    1.139    0.122
       412  -9.3807    206.4190    224.9180   9.2381409302e+01  -2.2555394350e+00    0.1487876    0.1104443 -66.24 0.0008047808    2.526    0.604
       413  -9.5218    108.8199    225.1205   1.1122007557e+02   1.3897757343e+01    0.1518123    0.1436834  27.50 0.0005620064    1.340    0.254
       414 -10.2704    125.2248    223.9146   1.0786212724e+02   1.1493813446e+01    0.2100734    0.1806161  38.62 0.0005264148    1.182    0.154
       415 -10.1153      8.8281    223.9845   1.2950017767e+02   2.6884203606e+01    0.1685174   0.09714226  69.72 0.0005496137    1.271    0.213
       416  -9.7037     38.7955    223.2831   1.2425844797e+02   2.3836794177e+01    0.1325971    0.1177902  80.83 0.0005635715    1.336    0.251
       417  -9.4008     14.5036    227.5256   1.2872182461e+02   2.5662345557e+01    0.1082612   0.07507221  72.18 0.0008101222    1.004    0.004
       418  -8.7346    144.2972    221.6920   1.0380555076e+02   8.7088044614e+00    0.1265242   0.09094547  66.36 0.0003244077    1.592    0.372
       419  -9.2333    110.1413    220.8158   1.1045831227e+02   1.4476371476e+01    0.1525324     0.140139  37.60 0.0004320821    1.268    0.211
       420  -9.8213     88.5213    221.5323   1.1478108646e+02   1.7639851181e+01    0.1245861   0.09873253  63.77 0.0003966385    1.022    0.021
       421  -9.7592     84.0453    220.6436   1.1555974937e+02   1.8459518830e+01    0.1644828    0.1269032  56.16 0.0009169294    1.091    0.083
       422  -9.4533     54.4406    221.0244   1.2123171319e+02   2.2384583536e+01    0.1613156   0.09977351 -77.77 0.0004236242    1.547    0.353
       423  -9.9538    228.5831    219.9979   8.7547535030e+01  -5.1360321295e+00    0.2031072    0.1529643  41.01 0.0002892292    1.435    0.303
       424  -8.6006    183.2995    219.6815   9.5883046666e+01   2.3623412548e+00    0.1200843   0.09745383  66.26 0.0007021406    1.618    0.382
       425 -10.4609     14.9444    217.0120   1.2810169108e+02   2.7608343799e+01    0.2900558    0.1209478 -64.90  0.001644136    2.464    0.594
       426 -11.4920     90.3107    216.7337   1.1392247150e+02   1.8291459278e+01    0.5014823    0.1999006  46.86  0.001544711    2.099    0.524
       427  -9.5741     47.1639    217.9702   1.2234845770e+02   2.3874355834e+01    0.1480552    0.1395742 -39.73 0.0006419612    1.677    0.404
