#   1 NUMBER                 Running object number                                     
#   2 MAG_AUTO               Kron-like elliptical aperture magnitude                    [mag]
#   3 X_IMAGE                Object position along x                                    [pixel]
#   4 Y_IMAGE                Object position along y                                    [pixel]
#   5 X_WORLD                Barycenter position along world x axis                     [deg]
#   6 Y_WORLD                Barycenter position along world y axis                     [deg]
#   7 A_WORLD                Profile RMS along major axis (world units)                 [deg]
#   8 B_WORLD                Profile RMS along minor axis (world units)                 [deg]
#   9 THETA_WORLD            Position angle (CCW/world-x)                               [deg]
#  10 FWHM_WORLD             FWHM assuming a gaussian core                              [deg]
#  11 ELONGATION             A_IMAGE/B_IMAGE                                           
#  12 ELLIPTICITY            1 - B_IMAGE/A_IMAGE                                       
         1 -10.5617     73.2002     57.2797   4.6234277865e+01   5.7354995786e+01     0.821009    0.2535878 -40.92   0.00267473    3.384    0.705
         2  -9.4659    111.5157     33.5477   2.6224118566e+01   5.2204978640e+01    0.2569678    0.1072909 -42.82  0.001036718    2.491    0.599
         3 -10.9329     40.9443     13.8998   3.9441239496e+01   7.0625619735e+01    0.2357943    0.1876781  28.70 0.0002881944    1.114    0.102
         4  -9.6841     97.4205     13.2740   2.1346538189e+01   5.7846903684e+01    0.2341302    0.1348366 -13.99  0.001137803    2.189    0.543
         5  -8.7398     67.3938      1.2342   2.2639116469e+01   6.6065611242e+01    0.1384738   0.07559958  45.37 0.0006908525    1.652    0.395
         6 -10.8633     90.3303    235.3772   7.8451107063e+01   1.3597785908e+01    0.2602957     0.202517  -7.22  0.001577751    1.374    0.272
         7 -10.1821     52.6803    249.7066   8.8493766968e+01   1.4911487847e+01    0.2708072    0.1704152  21.57  0.001049203    1.413    0.293
         8 -10.1190     20.7996    249.8415   9.5673704405e+01   1.7872215595e+01     0.174811    0.1076246  49.48  0.001079113    1.352    0.260
         9 -10.0895     13.6747    250.4129   9.7263739396e+01   1.8369004380e+01    0.2327784   0.08034557  29.65  0.001133315    2.156    0.536
        10 -10.1494      3.9113    249.3421   9.9344254333e+01   1.9369543229e+01    0.1915701    0.1276229  58.82 0.0006866629    1.285    0.222
        11 -11.2220     88.2364    227.5469   7.8095734910e+01   1.5377109849e+01    0.4255118    0.1289846  29.91  0.001646228    2.656    0.623
        12 -10.2433    231.0393    234.0546   4.9869415791e+01  -1.7292840360e+00    0.1712496       0.1219 -11.16 0.0009824525    1.039    0.038
        13  -9.9037    237.2921    229.9823   4.8275364425e+01  -1.7771846709e+00     0.159874    0.1046428 -20.01  0.000862113    1.125    0.111
        14 -10.9743    162.3419    225.3594   6.1029802967e+01   6.7800798672e+00    0.3635994    0.2410957   1.30  0.002129693    1.428    0.300
        15 -11.0375     95.6368    217.9579   7.5158107518e+01   1.6425486156e+01    0.4059578    0.2742859 -73.30  0.001933047    1.937    0.484
        16  -9.8616     99.8898    217.1475   7.4009601538e+01   1.6061656083e+01    0.2487257    0.2237354 -24.65  0.001154863    1.166    0.142
        17 -11.0906    126.2663    220.7943   6.8223908255e+01   1.2021538938e+01     0.277835    0.2308014  42.42 0.0007720579    1.374    0.272
        18 -10.4275    114.8223    221.0703   7.0928170454e+01   1.3408828342e+01     0.246509    0.1672039 -27.80  0.001187871    1.610    0.379
        19 -11.4158     98.5967    225.3153   7.5336775719e+01   1.4581977618e+01    0.3987749    0.2590783  28.85  0.001678381    1.332    0.249
        20  -9.1616    149.0000    219.9858   6.3034459880e+01   9.3157657450e+00     0.191986   0.06991355 -48.36 0.0007958264    2.897    0.655
        21 -10.0056     74.5469    219.0281   8.0547251442e+01   1.8740382428e+01    0.2749009    0.1535524  40.43  0.001361776    1.629    0.386
        22  -9.2939    143.5930    216.7808   6.3732941805e+01   1.0566058596e+01    0.1628706      0.12565 -54.90 0.0009497092    1.624    0.384
        23 -10.1427    170.4076    215.2610   5.7829674933e+01   7.4820461250e+00    0.2416054    0.1884082  -0.88 0.0009244358    1.075    0.069
        24  -9.6471    108.8697    222.1718   7.2484640166e+01   1.3938268836e+01    0.1838624    0.1427315  -7.23 0.0005928086    1.319    0.242
        25  -8.9056    131.3367    214.3080   6.6124216205e+01   1.2596228255e+01    0.1387666   0.09227917  -9.68 0.0006169265    1.678    0.404
        26 -10.5071     76.7359    211.6610   7.9174258716e+01   2.0068620803e+01    0.2856236    0.1898791 -54.64  0.001348582    1.626    0.385
        27 -10.3505    124.0249    205.9722   6.6587834548e+01   1.5181147971e+01    0.1927631    0.1716285   8.27            0    1.027    0.026
        28 -10.7311    162.4769    193.8208   5.5908676642e+01   1.2251044885e+01    0.2792507    0.2153068  49.70  0.001100217    1.772    0.436
        29 -11.5530    166.8144    197.7596   5.5680566384e+01   1.0954326238e+01    0.2935671    0.2194968 -29.94  0.001741625    1.228    0.186
        30 -10.2121    212.2379    202.2306   4.7905706049e+01   4.5951429644e+00    0.1774368   0.08601249 -47.05 0.0008851373    2.463    0.594
        31 -11.1447    249.2488    195.1671   4.0984128485e+01   1.6488053747e+00    0.3879883    0.1627406 -44.24  0.002035946    2.595    0.615
        32 -12.1368    177.6318    197.0471   5.3368449100e+01   9.6510558845e+00    0.4476532    0.3983462  31.64  0.002932601    1.403    0.287
        33 -11.7677    172.9025    195.6077   5.4064821784e+01   1.0523128445e+01    0.3491752     0.255818 -25.70  0.001489367    1.218    0.179
        34  -9.1948    144.3916    197.7939   6.0543837159e+01   1.4002041101e+01    0.1946355    0.1132615 -34.93 0.0009466999    1.724    0.420
        35 -10.7880    125.9126    197.1212   6.4753346502e+01   1.6709158546e+01    0.3274266    0.2071062   5.01  0.001356622    1.866    0.464
        36 -10.0456    112.8224    195.6852   6.7753475325e+01   1.8836183402e+01    0.4688732    0.2379507 -52.35  0.001891546    2.055    0.513
        37  -9.5097    105.0783    197.9048   7.0055421602e+01   1.9426870149e+01     0.226947    0.1574835 -17.99  0.001118197    1.693    0.409
        38  -9.6708     66.3436    194.4857   7.9936956792e+01   2.5223868405e+01    0.3185522    0.1746446  64.20  0.001304214    2.537    0.606
        39  -9.4108     14.6569    192.7161   9.4162837706e+01   3.0891652671e+01    0.1291914   0.09589615 -34.03 0.0007015931    1.639    0.390
        40 -10.5844    172.6462    190.5758   5.3235214370e+01   1.1444657260e+01    0.2509494     0.153273 -43.49  0.001327483    1.617    0.381
        41 -11.2538     98.1128    188.1108   7.0395178187e+01   2.2555531416e+01    0.4166849    0.2658784  44.05 0.0008388322    1.622    0.383
        42 -11.3327     94.6247    182.6929   7.0495974451e+01   2.4287273566e+01    0.4649225    0.3818267 -70.24  0.002047004    1.384    0.278
        43 -10.7273    204.6844    188.2430   4.6794977305e+01   7.6512652095e+00    0.2397133    0.1894861  62.94  0.001394051    2.465    0.594
        44  -9.6648    138.6178    188.8243   6.0347194533e+01   1.6581355928e+01    0.1877313    0.1319669 -58.34 0.0009503364    1.732    0.422
        45  -9.3210    128.9903    188.1966   6.2531630442e+01   1.8107749764e+01     0.189778    0.1608187 -79.46 0.0007346739    1.606    0.378
        46 -10.5362     11.6549    187.3159   9.4661631816e+01   3.2452121616e+01     0.220048    0.2177667  -0.12 0.0006201684    1.153    0.133
        47 -10.1062    109.5281    184.5623   6.6817994836e+01   2.1725081190e+01    0.3252284    0.2415763  32.48  0.001688178    1.287    0.223
        48  -9.9818    228.6471    184.6835   4.2245517868e+01   5.3282455005e+00    0.1228523   0.07370865 -10.92 0.0002322993    1.739    0.425
        49 -11.1270    174.7355    183.2306   5.1493103948e+01   1.2465698540e+01    0.3813865    0.1881675 -55.17  0.001571656    3.020    0.669
        50  -9.4732    120.2137    184.2471   6.4026627274e+01   2.0229082928e+01    0.2122413    0.1182294 -63.94 0.0007962234    2.424    0.587
        51  -9.8137     43.9457    180.7581   8.4778088293e+01   3.1134197305e+01    0.4172522    0.1747822 -80.98  0.001522846    2.986    0.665
        52  -9.8704     20.2438    180.8303   9.1759149015e+01   3.3378659270e+01    0.3335972    0.1773328 -82.99  0.001278689    1.899    0.473
        53 -10.6939    148.5047    174.9987   5.5566231678e+01   1.7881587399e+01      0.30904    0.2081702  -2.69  0.001486518    1.804    0.446
        54  -9.8964    138.8363    179.8649   5.8706397197e+01   1.8366663506e+01    0.2658361    0.2011255  88.52  0.001255482    2.326    0.570
        55 -10.7831     10.2927    180.2977   9.4610719619e+01   3.4305971527e+01    0.1981831    0.1635894  82.85 0.0003813414    1.133    0.118
        56 -10.3995     13.7967    179.0331   9.3510095493e+01   3.4357080914e+01    0.3467765    0.2184232 -53.60  0.001433349    1.687    0.407
        57 -11.4076      3.3463    177.8985   9.6471863235e+01   3.5407253985e+01    0.4171577    0.2854511   2.86  0.002247751    1.717    0.418
        58  -9.1233     21.6478    190.3135   9.2061675203e+01   3.0895657955e+01    0.1499168   0.08314359  53.65 0.0006042718    1.729    0.422
        59 -10.0909     77.2999    175.4480   7.4265779336e+01   2.8416624287e+01    0.2407047    0.1766481  81.87 0.0006783673    1.726    0.421
        60  -8.9940     24.4654    174.5214   8.9992562771e+01   3.4623269454e+01    0.1405218    0.1238875  62.00 0.0008084252    1.065    0.061
        61 -10.5444    177.3718    169.6217   4.8414919806e+01   1.4540836505e+01    0.4153802    0.2407077 -46.55  0.002073982    1.732    0.422
        62  -9.3077    134.9763    171.3083   5.8041725203e+01   2.0740893552e+01    0.2006986    0.1817179  12.47  0.001031933    1.068    0.063
        63 -10.8927    206.5541    168.7763   4.2929164400e+01   1.0547084672e+01    0.3040165     0.104974 -41.89    0.0012879    2.533    0.605
        64 -10.9557    121.7211    168.1592   6.0754133183e+01   2.3517503339e+01    0.5943488    0.3111395 -57.18  0.002235338    2.171    0.539
        65 -10.3738    139.4003    164.9911   5.5759145684e+01   2.1365131688e+01    0.3336883    0.2592507 -85.33   0.00147291    2.028    0.507
        66  -9.4467     19.3098    166.6837   9.0897544561e+01   3.7096649372e+01    0.1498726   0.09191383  57.24 0.0002534157    1.635    0.388
        67  -9.9630    150.5746    163.6879   5.2907442538e+01   1.9830594617e+01    0.4340279    0.2329672 -21.65  0.001655217    2.828    0.646
        68  -9.9028     98.4055    165.2635   6.6513428106e+01   2.7835837531e+01    0.2050969     0.145955 -70.32 0.0008972143    1.682    0.405
        69  -9.6377     80.0093    163.9967   7.1653231179e+01   3.0874308059e+01    0.2664878    0.1642353  83.98  0.001018694    2.657    0.624
        70 -12.3297    249.3590    153.2446   3.3746505010e+01   7.4589779186e+00    0.5437096    0.1780576 -41.15    0.0025862    2.438    0.590
        71 -10.2275    146.7954    159.3769   5.2902823339e+01   2.1323957432e+01    0.2130851    0.2121314  69.29 0.0004501861    1.196    0.164
        72 -10.2450    142.4966    158.4987   5.3725458322e+01   2.2216981268e+01    0.2692868     0.137668  39.39  0.001062381    2.018    0.505
        73 -10.2752     92.6639    159.2722   6.7074481756e+01   3.0163300107e+01    0.4078229    0.2396272 -60.59  0.001746606    1.818    0.450
        74 -12.3897    206.6375    155.0688   4.0295026513e+01   1.2785592365e+01     0.497192    0.3728381  82.75  0.002579989    2.856    0.650
        75 -10.3474    197.4642    157.5115   4.2324320762e+01   1.3705183818e+01     0.232156    0.1082155 -48.55 0.0009922183    2.321    0.569
        76 -11.0762    188.7150    156.6955   4.3722747253e+01   1.5151806537e+01     0.485659    0.1937087 -46.76  0.002001034    2.520    0.603
        77 -11.7485    189.4734    149.5318   4.2141055932e+01   1.6297332451e+01    0.4358562    0.2617851 -48.86  0.001758254    1.721    0.419
        78 -10.0606    168.1012    157.2773   4.7835697237e+01   1.8266859749e+01    0.2547644    0.1811467 -66.97  0.001226565    2.153    0.536
        79  -9.9628    105.1118    157.0235   6.3080519447e+01   2.8736814284e+01    0.2916445    0.2210819 -63.51  0.000688738    1.465    0.318
        80  -9.3531    157.5316    155.5884   4.9723094543e+01   2.0316150989e+01     0.250363    0.1299156 -54.33  0.001029015    2.323    0.569
        81 -10.0347     49.8471    155.0585   7.9747632626e+01   3.7137272715e+01    0.4136284    0.2141069  56.48   0.00159348    2.397    0.583
        82 -10.1465     81.9448    154.3295   6.9383582319e+01   3.3015933619e+01    0.2757969    0.2126278  75.80 0.0008639153    1.620    0.383
        83 -10.7679     68.2711    153.8468   7.3583200675e+01   3.5102772544e+01     0.457241    0.2873323  62.44  0.001595656    2.054    0.513
        84 -10.5449    133.3968    152.8577   5.4758036656e+01   2.4949839855e+01    0.4611697    0.3241464  77.57   0.00192525    2.610    0.617
        85  -9.2414     55.3390    169.6647   8.0015684672e+01   3.2674119480e+01    0.1591674    0.1022382  58.80 0.0007051427    1.752    0.429
        86  -8.8963    100.2960    153.6681   6.3793454988e+01   3.0316243087e+01    0.1514199    0.1192084  72.11 0.0003013407    1.640    0.390
        87  -9.8741    183.3037    151.0978   4.3591807438e+01   1.6987458903e+01    0.3105274    0.2220585 -78.37  0.001431278    2.808    0.644
        88  -9.0547    162.4036    150.2143   4.7560135191e+01   2.0561670001e+01    0.2006051    0.1259546 -52.54 0.0007187768    1.744    0.427
        89  -9.1236     98.3340    150.6448   6.3764532884e+01   3.1364360514e+01    0.1589568    0.1188471  70.57 0.0007043756    1.794    0.443
        90 -10.5892    200.0698    147.9847   3.9984995158e+01   1.4936575525e+01    0.2509297    0.1942401 -49.65  0.001505072    1.395    0.283
        91 -10.0032     39.5214    147.2629   8.2118537060e+01   4.0381315396e+01    0.4565561    0.1951952  55.93  0.001523202    3.225    0.690
        92  -9.3571    133.6651    147.6393   5.3586730230e+01   2.6033329306e+01    0.1588842    0.1115329 -12.53 0.0007038577    1.812    0.448
        93 -10.8597     56.5407    145.7830   7.6089062319e+01   3.8778506918e+01    0.6369358    0.2812567  53.80  0.002098368    3.203    0.688
        94 -11.1823    148.9721    143.0481   4.8959111704e+01   2.4307212762e+01    0.8275402    0.3476269 -50.34  0.003100586    2.517    0.603
        95 -10.5327    106.6426    143.4524   5.9878478236e+01   3.1696640834e+01    0.7089446    0.3499339 -64.73  0.002448993    2.929    0.659
        96  -9.4710     78.3116    146.6652   6.9097321256e+01   3.5504219306e+01    0.1585435    0.1170226  67.14 0.0007044602    1.682    0.405
        97  -9.5380    177.8258    160.7156   4.6581276548e+01   1.6095656002e+01    0.2405953    0.1748051 -64.25  0.001226762    2.031    0.508
        98  -9.8617    165.8913    143.7917   4.5468870320e+01   2.1215319949e+01    0.2610601    0.1823893 -66.33  0.001230838    2.086    0.521
        99 -10.4649    124.7662    142.1086   5.4641843638e+01   2.8821771149e+01    0.5525408      0.31601 -67.36   0.00203253    2.836    0.647
       100 -10.2385     88.1346    143.4298   6.5380047847e+01   3.4791280917e+01     0.409563    0.2445688  81.26   0.00132347    3.692    0.729
       101 -10.0226    182.4753    141.5097   4.1751205152e+01   1.8852361608e+01    0.2749028    0.2015468 -76.06  0.001177318    2.310    0.567
       102 -10.5897     69.1183    139.6773   7.0766890690e+01   3.8668314502e+01    0.4591275    0.2528032  86.19  0.001430174    3.838    0.739
       103 -11.5688    249.6911    137.8390   3.0909156758e+01   9.6109136200e+00    0.4662162    0.1057483 -40.96  0.001842988    3.382    0.704
       104 -10.7357    188.1801    134.8468   3.9308015700e+01   1.9096893490e+01    0.3961949    0.1869742 -45.10   0.00122589    1.953    0.488
       105  -9.9232    186.8024    128.6979   3.8224136811e+01   2.0413504733e+01    0.3605986    0.1611018 -47.45  0.001392604    2.198    0.545
       106 -10.9209    188.5993    123.7177   3.6826270490e+01   2.0976542414e+01    0.3385378    0.1900697 -43.28  0.001672372    1.578    0.366
       107  -9.8919    172.5816    137.8328   4.2840792947e+01   2.1197733601e+01    0.3274073    0.2214424 -67.63  0.001503576    2.314    0.568
       108 -10.1129     23.5300    138.3171   8.6585049447e+01   4.4355916168e+01    0.4040934    0.1839264  65.66  0.001413012    3.072    0.674
       109  -9.6763    162.7536    135.7149   4.4349310055e+01   2.3323006814e+01    0.2922932     0.182317 -50.11  0.001172757    1.632    0.387
       110  -9.7579     39.3165    135.6873   8.0504289036e+01   4.3539989291e+01    0.1567172    0.1074062  60.47 0.0003841273    1.642    0.391
       111  -9.9066    179.9007    133.3114   4.0467112167e+01   2.0771578972e+01    0.3149742    0.1788367 -52.91  0.001448108    1.985    0.496
       112  -9.7887    112.3267    132.6577   5.5870476567e+01   3.3217973037e+01    0.2818466    0.2029602  82.55  0.001177274    2.211    0.548
       113 -11.0095    111.5839    128.6030   5.5132701493e+01   3.4291334241e+01    0.5529339    0.3709241  -3.81  0.002211115    2.336    0.572
       114 -10.7654    117.0460    122.8785   5.2235352738e+01   3.4565652252e+01    0.7480558    0.3722733 -55.03  0.002830848    2.236    0.553
       115 -11.1351     83.5312    131.3523   6.4296085156e+01   3.8569514793e+01    0.5108817    0.3424819 -82.00  0.001602112    2.120    0.528
       116  -9.6946    142.7060    130.9382   4.7670084208e+01   2.7946053755e+01    0.3475558    0.1727301 -50.93  0.001119795    2.099    0.524
       117 -10.7026    131.7905    129.8223   5.0046683642e+01   3.0231862274e+01    0.6490396     0.293195 -53.70  0.002363792    2.514    0.602
       118 -10.4916     39.8578    131.1352   7.9586006569e+01   4.4718510194e+01    0.2323747     0.199371  64.31 0.0009179652    1.228    0.186
       119 -11.1086    197.9314    136.9578   3.8088271477e+01   1.7143215531e+01    0.3159579    0.2108991 -48.51  0.001738485    1.490    0.329
       120 -10.1858    192.6405    129.7586   3.7453343458e+01   1.9241799563e+01     0.243468     0.150775 -45.66 0.0009454138    1.488    0.328
       121 -10.1638    168.9530    129.0398   4.1603708995e+01   2.3488173412e+01    0.3401974    0.2314632 -55.98  0.001421558    1.657    0.396
       122 -10.3788    152.8683    128.2642   4.4754855710e+01   2.6591266928e+01    0.4932643    0.1952955 -49.22  0.001647584    2.636    0.621
       123 -11.6003     98.5816    125.1938   5.8139642473e+01   3.7477123154e+01     1.062797    0.4521641 -55.53  0.003703633    2.525    0.604
       124 -10.2086     73.1079    128.9282   6.7245372639e+01   4.0856889099e+01    0.3370654    0.2193454  67.97  0.001344992    2.222    0.550
       125  -9.8750     12.6443    128.8387   8.9496116531e+01   4.7797560573e+01    0.3187521     0.144527  71.50  0.001146448    2.933    0.659
       126 -11.0280     59.5325    123.8978   7.0983069896e+01   4.4186451876e+01    0.6854032    0.3784477  79.72     0.002126    3.907    0.744
       127 -10.0951    180.1321    124.0361   3.8376630753e+01   2.2406195006e+01     0.387834    0.1977406 -47.17   0.00175177    1.878    0.467
       128 -10.5879    181.1617    119.1816   3.7101192893e+01   2.3088000527e+01    0.2495921    0.1741579 -31.01 0.0009586082    1.360    0.264
       129 -11.1635     43.9866    122.4164   7.6516038438e+01   4.6608509250e+01    0.7228718    0.3920245  78.83  0.002489424    3.162    0.684
       130  -9.4924    105.1541    123.7851   5.5832644052e+01   3.6604404261e+01    0.2073886    0.1774966 -12.27 0.0004776795    1.286    0.223
       131 -11.0982     28.9468    122.3844   8.2349473567e+01   4.8228619299e+01    0.6248878    0.3037285  68.47  0.002134574    3.258    0.693
       132  -9.8737    172.9358    120.3006   3.8849501846e+01   2.4385381877e+01    0.3205571    0.1762431 -47.87  0.001469223    1.758    0.431
       133 -10.0319    158.4321    120.2529   4.1692136965e+01   2.7113190627e+01    0.3658658    0.2297178 -49.91  0.001529725    1.589    0.371
       134 -10.9034    141.5661    117.6248   4.4747658494e+01   3.0906356261e+01    0.7240207    0.2776393 -51.00   0.00244615    2.944    0.660
       135  -9.3926    194.6490    120.3382   3.5086110211e+01   2.0514550017e+01    0.1335377   0.09767734 -66.86 0.0007044954    1.794    0.442
       136 -10.0624     71.0229    119.9693   6.5991614474e+01   4.3485519713e+01    0.2540162    0.1885801  69.77 0.0009948282    1.729    0.422
       137 -10.2731    130.4063    117.4979   4.7401263413e+01   3.3136300164e+01    0.4665124    0.2478993 -60.36   0.00171068    2.646    0.622
       138 -10.1554      2.9104    116.7250   9.1978293941e+01   5.1706721577e+01    0.4041325    0.1695354  76.89  0.001434086    3.104    0.678
       139 -11.3142    185.9013    114.8291   3.5302002017e+01   2.2996008591e+01    0.3340986    0.1969404 -45.53  0.001671269    1.540    0.351
       140  -9.9149    193.0201    113.8487   3.3918794811e+01   2.1894487456e+01    0.2501091    0.1714721 -39.97  0.001072301    1.256    0.204
       141 -11.0837     79.1567    112.3680   6.1317163827e+01   4.4050530982e+01    0.5666414     0.371762  85.20  0.002116153    2.703    0.630
       142 -10.9649     92.3857    110.5918   5.6440539271e+01   4.2094860770e+01    0.8926366    0.3467595 -55.51  0.002901222    2.904    0.656
       143 -11.3847     17.5404    103.8052   8.4109082097e+01   5.4275298917e+01    0.5861567    0.2568023 -46.71  0.002335073    2.157    0.536
       144 -10.9080     14.3430    111.0289   8.6582817751e+01   5.2552011896e+01     0.380004    0.2060795  68.41  0.001550921    2.354    0.575
       145  -9.9399    174.8700    110.4543   3.6205307302e+01   2.5801949497e+01    0.3363505    0.1771082 -42.83     0.001543    1.705    0.413
       146  -9.8330    159.2286    110.5704   3.9198033970e+01   2.8802979802e+01    0.2898881    0.1825885 -42.18  0.001283533    1.466    0.318
       147 -11.2470     66.2014    109.9004   6.5364023687e+01   4.6817452672e+01    0.4301076      0.28894 -85.78  0.001756963    2.166    0.538
       148  -9.6970     22.2805    110.1758   8.3110806221e+01   5.2161654597e+01    0.2938679    0.1597438  80.74  0.001138874    2.505    0.601
       149 -11.3711    108.6015    112.3219   5.1943891276e+01   3.8579721875e+01    0.7955797    0.3239416 -54.23  0.002647887    2.828    0.646
       150  -9.9468    133.2379    108.3660   4.4373989807e+01   3.4468782650e+01    0.3683127    0.2348772 -55.38  0.001632514    1.713    0.416
       151 -10.0199    189.4514    106.4890   3.2829947138e+01   2.3772431442e+01    0.2939784     0.115988 -38.79  0.001217751    2.209    0.547
       152 -10.4133    121.9160    111.1276   4.7953984317e+01   3.6190221640e+01    0.5251733    0.2179345 -47.81  0.001882121    2.392    0.582
       153 -11.3222     45.6222    101.8967   7.1586505359e+01   5.1860500909e+01    0.8289771    0.4276697  66.00  0.002510925    4.253    0.765
       154 -10.4937    150.0330    100.3504   3.8510080272e+01   3.2579824472e+01    0.6718733    0.1891219 -44.23  0.002116073    3.369    0.703
       155 -10.1761    139.3420    102.8095   4.1485424911e+01   3.4324540431e+01    0.4624761    0.2189659 -44.11  0.001843796    2.020    0.505
       156 -11.0339     22.9902    101.5457   8.1311977055e+01   5.4431886990e+01    0.7820182    0.3631497  64.95  0.002506786    3.933    0.746
       157  -9.8343    166.6500    101.9953   3.5664616937e+01   2.8905508589e+01    0.3319115    0.1222485 -39.55  0.001239583    2.491    0.599
       158  -9.6321      6.5088    102.5213   8.8780298100e+01   5.5367236827e+01    0.1398563    0.1292146 -69.98 7.192986e-05    1.035    0.034
       159 -10.1997    175.5732    100.7091   3.3764670247e+01   2.7375613022e+01     0.272343    0.1243865 -35.31  0.001138189    2.110    0.526
       160  -9.5253    159.5404     99.5227   3.6390108206e+01   3.0780871795e+01    0.3063766    0.1304128 -40.32  0.001209678    2.174    0.540
       161 -10.7764    108.6788     98.2474   4.8099384122e+01   4.1661022612e+01    0.6034529     0.424356  84.36  0.002161791    2.289    0.563
       162 -10.0141    107.4960     92.4947   4.6785975103e+01   4.3126283171e+01    0.2634541    0.2044688 -33.93  0.001121938    1.342    0.255
       163 -10.1927     81.7526     99.0238   5.6870881066e+01   4.6803531040e+01    0.4371577     0.221148 -64.18  0.001493809    2.875    0.652
       164 -10.6176     94.9092     95.0517   5.1344657347e+01   4.5166224917e+01    0.6950119    0.2506505 -45.29  0.002303473    2.765    0.638
       165 -11.2860     63.6022     95.4735   6.2612545276e+01   5.0834890367e+01    0.5313693     0.341208 -81.93   0.00188406    2.506    0.601
       166 -10.5886     44.1653     92.4601   6.9904190720e+01   5.4479378135e+01    0.4135893    0.2355763 -26.36  0.001515833    2.325    0.570
       167 -10.3878    128.5085     99.9664   4.3295623310e+01   3.7155759361e+01    0.5238467     0.257066 -41.28  0.002083048    1.998    0.500
       168  -9.7138    177.0000     92.0113   3.1420559001e+01   2.8570650123e+01    0.2321999   0.07040418 -38.21 0.0008057312    2.965    0.663
       169  -9.9124    138.6998     90.5458   3.8328079009e+01   3.6812592021e+01    0.4832606    0.1738171 -45.91  0.001671046    2.764    0.638
       170 -10.7757    124.5119     89.3285   4.1311470689e+01   4.0119086796e+01    0.6397183     0.273299 -48.27  0.002340203    2.439    0.590
       171 -10.4708      4.6788     90.8649   8.7955767499e+01   5.8592973224e+01    0.3080972    0.1488007  72.02  0.001160239    2.971    0.663
       172  -9.2729    158.0000     89.9601   3.4231023304e+01   3.2804317094e+01    0.2396193   0.07562228 -38.98 0.0008050716    2.961    0.662
       173 -10.9851     86.5297     86.2338   5.1453924845e+01   4.8780361027e+01    0.4573126    0.3256648 -80.85  0.001668672    2.152    0.535
       174  -9.5533    183.6239     95.7892   3.1266140140e+01   2.6649108448e+01    0.1993569    0.1090212 -46.06 0.0009493618    1.655    0.396
       175 -10.8021     48.5826     84.0405   6.5657776935e+01   5.5957375283e+01    0.5294668    0.3260349  70.96  0.001947167    3.077    0.675
       176  -9.5325    116.5442     83.4670   4.1620375716e+01   4.2997301560e+01    0.2550982    0.1429075 -30.36 0.0006811565    2.153    0.536
       177 -10.9030    104.4905     81.9212   4.4467385987e+01   4.5931024063e+01    0.6613443    0.3130377 -52.26  0.002446323    2.443    0.591
       178 -10.1380    140.5856     81.4701   3.5390894250e+01   3.8053060955e+01    0.4078587    0.1351943 -39.03  0.001388606    2.914    0.657
       179  -9.2462    158.5943     81.1971   3.1818170124e+01   3.4180768691e+01     0.200641    0.1299269 -28.10 0.0009546328    1.704    0.413
       180 -10.0086     74.4931     79.9972   5.3768173979e+01   5.2494949952e+01    0.3404605    0.1494218 -54.66  0.001192696    2.672    0.626
       181 -10.5858     24.3593     79.5197   7.5959372491e+01   6.0061636630e+01    0.5148932    0.2561828 -76.65  0.001978654    2.645    0.622
       182 -10.6282     34.7441     87.1662   7.2827222628e+01   5.7001693094e+01    0.9126679    0.2697906 -60.44  0.002950366    3.148    0.682
       183  -8.8799    167.5033     76.4877   2.9063422265e+01   3.3054509033e+01    0.1356132     0.124302 -53.53 0.0001064926    1.022    0.022
       184 -10.3411    128.0214     73.3655   3.5769824254e+01   4.2291489968e+01    0.6665235    0.2062584 -39.03  0.002190917    3.167    0.684
       185 -10.3659     49.6123     76.8517   6.3029383908e+01   5.7517246967e+01    0.2935769    0.1990405  -2.26  0.001177061    1.920    0.479
       186  -9.9549    140.4037     74.1341   3.3337498305e+01   3.9365004406e+01     0.352063     0.108547 -45.40  0.001140493    3.285    0.696
       187 -10.1380     10.0290     74.2082   8.2210981008e+01   6.2604749319e+01    0.2264103     0.184882 -56.86 0.0003011818    1.126    0.112
       188 -11.3424     82.3553     71.9198   4.8235542244e+01   5.2632054422e+01    0.5306275    0.2714652 -58.61  0.001896597    2.828    0.646
       189  -9.6087    150.3772     78.2983   3.2551453289e+01   3.6448395345e+01    0.2813658    0.1329734 -33.77  0.001138331    2.204    0.546
       190 -10.5072     27.0220     71.4984   7.2452620483e+01   6.1774991137e+01    0.3586396    0.1929603 -10.96  0.001393292    2.660    0.624
       191 -10.3638     20.7681     93.0500   8.0708941930e+01   5.6888903265e+01    0.4861484    0.1622077 -38.94  0.001520714    3.627    0.724
       192 -10.1623     94.8284     69.7392   4.3401896836e+01   5.0405722157e+01    0.4954228    0.2028829 -50.51   0.00169902    2.940    0.660
       193 -10.8596     51.4122     69.1672   5.9687985696e+01   5.8984547077e+01    0.5132389    0.2706312 -66.89  0.001841033    3.123    0.680
       194  -9.1338    163.0000     69.9797   2.8082183751e+01   3.5044069100e+01    0.2282877   0.07290839 -36.08 0.0008034608    2.950    0.661
       195 -10.6662     17.8089     62.5077   7.4915205622e+01   6.4869909833e+01    0.4504348    0.1194785 -49.27  0.001544903    3.063    0.674
       196  -9.3217    146.6358     67.8060   3.0313018266e+01   3.9005635929e+01    0.2046687    0.1190345 -46.58 0.0009328244    1.663    0.399
       197  -9.8264    121.5756     64.4958   3.4500414860e+01   4.5283505762e+01    0.4088353    0.1395258 -37.07   0.00140547    2.964    0.663
       198  -9.9919     37.1712     63.4964   6.4641450215e+01   6.2399073919e+01    0.2550816    0.1760371 -81.86 0.0009829764    2.269    0.559
       199  -9.6288    109.8395     63.0227   3.6889802861e+01   4.8239880954e+01    0.2460297    0.1608527 -63.37 0.0008847328    1.977    0.494
       200 -10.1035     99.9983     57.9311   3.7787791405e+01   5.1362239241e+01    0.5682055    0.1773451 -40.91  0.001883276    3.230    0.690
       201  -9.6539    161.6495    249.3041   6.4554476083e+01   3.0938875120e+00    0.1085763   0.08441483  39.49 0.0007040881    1.702    0.412
       202 -11.6089      7.0905     55.0631   7.9232052699e+01   6.7508108741e+01    0.6402208    0.1457949 -62.78  0.002123548    3.628    0.724
       203  -9.4073    130.5860     56.2174   2.9942206833e+01   4.4505576741e+01    0.1970476    0.1376968 -22.68  0.000961005    1.700    0.412
       204  -9.7654    138.5782     64.6437   3.0926002366e+01   4.1340909173e+01    0.4358164    0.1314296 -36.70  0.001461165    3.217    0.689
       205 -10.5144     62.7301     52.2397   4.8360486257e+01   6.0396679587e+01    0.6944071     0.155861 -39.91  0.001891097    5.015    0.801
       206 -11.7851     45.3775     49.4139   5.5091196977e+01   6.4109053704e+01    0.4475575    0.2544418 -36.08 0.0007480274    1.851    0.460
       207 -10.1927     91.9019     48.6998   3.6725407621e+01   5.4723666064e+01    0.5478075    0.1732498 -42.02  0.001844925    3.314    0.698
       208  -9.9073     30.8767     51.0735   6.3499375448e+01   6.5974298346e+01    0.2145222    0.1665763  86.70  0.001054843    2.022    0.505
       209  -9.9861    113.1213     42.9834   2.9231481160e+01   5.0574614567e+01    0.5438005    0.2646188 -16.69  0.001930817    3.616    0.723
       210  -9.8875     81.8535     46.3572   3.8915061923e+01   5.7371247208e+01    0.1965003     0.182071 -54.46  0.000664351    1.174    0.148
       211  -9.0630     23.4917     46.5203   6.6067126749e+01   6.7880029244e+01    0.1375409    0.1213352 -12.66  0.000810275    1.007    0.007
       212  -9.8700     16.4059     44.2143   6.9654362281e+01   6.9165240202e+01    0.1823061    0.1295066 -68.06 0.0009549782    1.730    0.422
       213  -9.5303    105.3963     51.6332   3.4114579405e+01   5.1131671603e+01    0.2875544    0.1057377 -48.01 0.0009553906    3.345    0.701
       214 -11.0412      4.9494     40.8696   7.6254502821e+01   7.0909155432e+01    0.4048336    0.2198251 -77.57  0.001802193    2.665    0.625
       215  -9.5122     24.6836     58.3483   6.9666674875e+01   6.5136212580e+01    0.1379545    0.1081848  63.67 0.0007047822    1.727    0.421
       216  -9.4888     83.9652     39.9988   3.5677656281e+01   5.7865298845e+01    0.2314197    0.1631939  24.32  0.001125533    1.729    0.422
       217 -10.3780     53.0000     50.0289   5.1698275163e+01   6.2653314960e+01    0.5354187     0.173595 -37.97  0.001735569    3.640    0.725
       218  -9.7321     95.3172     36.8370   3.1209923656e+01   5.5662973906e+01    0.2820588    0.1107447 -39.91  0.001092539    2.647    0.622
       219  -9.7247     26.4004     36.2336   5.9830904734e+01   6.9574595568e+01    0.1793184    0.1286847 -56.22 0.0009532556    1.683    0.406
       220  -9.7655     29.4275    243.2671   9.3405398960e+01   1.8394223353e+01    0.1580535     0.102554  73.61  0.000914606    1.628    0.386
       221 -10.0934    105.8931     38.8378   2.9376053011e+01   5.2872401047e+01    0.3541886    0.1706467 -21.92  0.001396007    2.806    0.644
       222  -9.1703    101.0000     27.9791   2.6399970206e+01   5.5422704161e+01     0.210794   0.07856948 -28.68 0.0008009465    2.932    0.659
       223  -9.4089     44.3416     25.2430   4.4151813941e+01   6.8438185181e+01    0.1932578    0.1525961   1.31 0.0004614639    1.332    0.249
       224  -8.7855    118.6715     24.6772   2.1729907797e+01   5.1508871001e+01    0.1376196   0.09538349  37.98 0.0007049092    1.693    0.409
       225  -9.4797    123.4205     40.7320   2.6345747996e+01   4.8412819867e+01    0.1826323    0.1360673 -14.90 0.0009457595    1.664    0.399
       226 -10.1985     12.7629     20.9551   6.1489862607e+01   7.4159259088e+01    0.2387652    0.1696921  26.58 0.0007803464    1.350    0.259
       227 -10.3714    167.3937    242.1865   6.2442550098e+01   3.5453523909e+00    0.1428238    0.1103317 -44.57 0.0007133462    1.636    0.389
       228  -9.5443     16.6080    237.7932   9.6071843450e+01   2.0627354003e+01    0.1626519   0.09851791  74.24 0.0005493002    1.675    0.403
