#   1 NUMBER                 Running object number                                     
#   2 MAG_AUTO               Kron-like elliptical aperture magnitude                    [mag]
#   3 X_IMAGE                Object position along x                                    [pixel]
#   4 Y_IMAGE                Object position along y                                    [pixel]
#   5 X_WORLD                Barycenter position along world x axis                     [deg]
#   6 Y_WORLD                Barycenter position along world y axis                     [deg]
#   7 A_WORLD                Profile RMS along major axis (world units)                 [deg]
#   8 B_WORLD                Profile RMS along minor axis (world units)                 [deg]
#   9 THETA_WORLD            Position angle (CCW/world-x)                               [deg]
#  10 FWHM_WORLD             FWHM assuming a gaussian core                              [deg]
#  11 ELONGATION             A_IMAGE/B_IMAGE                                           
#  12 ELLIPTICITY            1 - B_IMAGE/A_IMAGE                                       
         1 -14.4876      3.5117     41.7698   1.3050306242e+02   6.7384326387e+01     2.084907    0.4951794 -65.74  0.007565082    4.343    0.770
         2 -15.6234      4.2329     84.2757   1.3870811894e+02   5.8279190070e+01     2.057485    0.5330622 -69.86  0.008454675    2.928    0.658
         3 -13.9036    176.6835     31.9854   7.1634253596e+01   3.7274098974e+01     1.155277    0.8620575  18.05  0.004332482    1.737    0.424
         4 -13.2082    225.9741     14.2870   6.0904517863e+01   2.6823534517e+01    0.9758098    0.5019589 -66.76  0.003552262    2.079    0.519
         5 -11.2712    248.7812      4.8657   5.6916856303e+01   2.2552539138e+01    0.4480914    0.1276344 -51.83  0.001723727    3.181    0.686
         6 -11.6009    195.4845      1.7012   6.0533000978e+01   3.5689427566e+01    0.5399475    0.1582513  72.18  0.001945606    2.989    0.665
         7 -10.4649    201.7366    198.7031   1.0844468797e+02   3.1112518691e+00    0.3123211    0.2027872  -4.84  0.001532151    2.104    0.525
         8 -15.2174    246.7908    160.6677   9.2831351007e+01   7.2976763659e-01     2.164747    0.8841816 -31.60  0.009204229    2.353    0.575
         9 -16.9139    233.9265    232.3003   1.0835861838e+02  -6.7126848425e+00      2.57558      1.90669  -6.82    0.0150493    1.307    0.235
        10 -14.9685    249.1256    188.5685   9.8024322562e+01  -3.6010130773e+00     1.900844    0.4112076 -35.41  0.006442278    4.473    0.776
        11 -15.3686    185.9142    247.3177   1.1907672466e+02  -1.1013556769e+00     1.630719    0.5957524  43.92  0.007682217    2.245    0.555
        12 -15.2431    158.8777    244.0998   1.2356742705e+02   3.6801612533e+00     1.277096    0.9780074 -72.26  0.006808775    1.850    0.459
        13 -15.0771    171.8556    239.1098   1.2051193276e+02   2.2766164682e+00     1.085173    0.8507736 -48.60  0.004352817    1.633    0.388
        14 -16.8203     89.2736    210.4716   1.3304384139e+02   2.0597105922e+01     3.845625      1.74607  73.57   0.01382434    4.306    0.768
        15 -16.8141    128.1467    233.4744   1.2802229364e+02   1.0317871620e+01     2.652129      1.49827 -59.31    0.0148501    2.168    0.539
        16 -19.5092     39.4991    155.4187   1.3792444358e+02   3.9042920163e+01     19.37787     1.381068 -68.53   0.04365728    9.159    0.891
        17  -9.9512    210.1828    198.2832   1.0677313702e+02   1.6663910208e+00    0.2165406    0.1439882  22.49  0.001073919    1.503    0.335
        18 -10.8277    195.8581    194.7517   1.0886169631e+02   4.7989451583e+00      0.40276    0.2530486  32.10  0.002071726    1.492    0.330
        19 -11.2040    108.3023    178.5238   1.2474912391e+02   2.4092004959e+01    0.5819094    0.2871874  62.50  0.002264925    2.763    0.638
        20 -17.3329     90.9948    244.7502   1.3610385720e+02   1.4124126443e+01     2.908362     1.035816  43.08   0.01435525    2.166    0.538
        21 -11.3115     93.0130    174.0366   1.2760080350e+02   2.7597641685e+01    0.6667851    0.2773501 -42.42  0.002254585    4.299    0.767
        22 -12.5675    223.6107    156.3884   9.5944119381e+01   5.7256186581e+00    0.6173059    0.4144726  41.29   0.00234578    1.476    0.323
        23 -12.3327    202.7336    162.3685   1.0115359818e+02   8.8718999622e+00    0.8581086    0.5892111 -27.29  0.004275132    1.544    0.352
        24 -14.5676    213.6008    149.6006   9.6309249736e+01   8.8580854468e+00     1.964852     1.242758   8.40  0.008232409    2.422    0.587
        25 -11.6727    114.7784    171.3728   1.2210957720e+02   2.4496715601e+01    0.4249637    0.2268555 -68.09  0.001798543    2.302    0.566
        26 -10.6068     99.3514    162.9260   1.2437322875e+02   2.9029871372e+01     0.229769     0.197227  43.43  0.000423248    1.208    0.173
        27 -10.3474      1.5109    161.0578   1.4714204981e+02   4.1241002461e+01     0.169821   0.08720085 -82.79  0.000613892    1.519    0.342
        28 -12.5012     88.8179    157.6505   1.2609096125e+02   3.1948203255e+01    0.3412347    0.2702872 -33.18  0.001084075    1.685    0.407
        29 -12.3369    104.1001    154.6975   1.2179867674e+02   3.0075805067e+01     1.306194     0.682945 -36.54  0.004846199    3.100    0.677
        30 -13.8035    106.1345    129.3684   1.1627504232e+02   3.5533684370e+01    0.8619195    0.5111427 -54.50  0.003841223    1.653    0.395
        31 -13.3297    102.4417    139.9681   1.1945046805e+02   3.3745742067e+01    0.5692711    0.5326021 -42.66   0.00123665    1.191    0.160
        32 -13.4786    116.4932    148.8039   1.1760985329e+02   2.9167434856e+01    0.6455526    0.5854917 -62.23  0.001808753    1.120    0.107
        33 -13.9438    111.9860    143.0057   1.1759403243e+02   3.1320412759e+01    0.6982554    0.6839146 -50.71  0.004024558    1.128    0.113
        34 -10.5494    163.6608    155.5461   1.0786002949e+02   1.8238756849e+01    0.2644507    0.1405294 -45.59  0.001092277    1.979    0.495
        35 -11.7781      2.3902    153.0424   1.4639488998e+02   4.2922585726e+01     0.276018    0.1884501 -62.23  0.001504134    1.481    0.325
        36 -13.5613    134.0508    144.8696   1.1247632749e+02   2.6614470371e+01     1.196649    0.3387795 -53.81  0.003337286    4.332    0.769
        37  -9.9896     93.6771    149.2932   1.2345819591e+02   3.3084733393e+01    0.1469518    0.1028768  73.38 0.0004060467    1.614    0.381
        38 -12.1986     69.0245    143.8391   1.2891343723e+02   3.8112738095e+01    0.6531326    0.3529478  69.52  0.002746488    2.551    0.608
        39  -9.9033     79.2478    144.5492   1.2635853479e+02   3.6468652594e+01    0.1763176    0.1375454  23.48 0.0007945245    1.609    0.378
        40 -11.9862    233.3148    135.0068   8.9514407386e+01   7.2780978161e+00    0.3177199    0.2100899  46.90    0.0015664    1.587    0.370
        41 -11.9998    223.9797    131.1561   9.0241601159e+01   9.8358791406e+00    0.4773757    0.3294614  60.68  0.001789505    1.735    0.424
        42 -12.5465    222.6953    125.1937   8.9074193606e+01   1.1115389394e+01    0.7356893    0.5044941 -26.53  0.002454234    1.465    0.317
        43 -13.7203    234.7479    126.5540   8.7344000293e+01   8.3616348359e+00    0.7762328    0.6772896  71.91   0.00254533    1.393    0.282
        44 -14.4726    240.0524    111.8621   8.3078107331e+01   9.6373600360e+00     1.362074     1.015687 -16.29  0.004263082    1.425    0.298
        45 -16.5564     20.4906    144.0239   1.4135389156e+02   4.3499709273e+01     2.563333     1.426429  70.18   0.01418349    1.808    0.447
        46 -13.0175    118.3198    130.1879   1.1323247950e+02   3.3032024997e+01    0.4466642    0.3816347  15.89  0.001459359    1.420    0.296
        47 -12.6104    135.3006    122.9514   1.0717072159e+02   3.1163120777e+01    0.6649946    0.2132472 -46.57   0.00206459    3.138    0.681
        48  -9.9892     83.9938    120.9884   1.2060436473e+02   4.1294616163e+01    0.1722234    0.1610864 -79.52 0.0004189832    1.017    0.017
        49  -9.4113     64.8860    229.7592   1.3959760378e+02   2.0382014470e+01    0.1738926    0.1000562  70.44 0.0006980441    1.579    0.367
        50 -10.5363     73.3883    219.3860   1.3709715529e+02   2.1170922440e+01    0.2253616    0.1478131  61.78 0.0008329778    1.255    0.203
        51 -14.5249     12.5294    114.2837   1.4019318808e+02   5.0954898206e+01     1.315158    0.5263745  36.44  0.006641917    2.703    0.630
        52 -14.4930      6.2500    102.6565   1.4059283201e+02   5.4020665001e+01    0.6512896    0.6098505 -73.41  0.003764138    1.209    0.173
        53 -11.9195    112.9963    119.2729   1.1212321150e+02   3.6553211223e+01    0.3051412    0.2508057 -27.84  0.001137452    1.419    0.295
        54 -13.0186    101.4119    117.8822   1.1498758985e+02   3.9052338944e+01    0.6130391     0.366905  42.74  0.002742022    1.714    0.416
        55  -9.6554    168.8158    113.6236   9.6834019527e+01   2.5540369011e+01    0.2215912    0.1473969  61.62 0.0006976054    1.688    0.408
        56 -13.1843    125.4143    127.4599   1.1076849146e+02   3.2229427341e+01    0.6605217     0.396139  72.74  0.002373957    2.884    0.653
        57 -10.4343    205.0887    110.4654   8.8654198880e+01   1.7607738406e+01    0.2344719    0.1477523  50.66  0.001037619    1.619    0.382
        58 -11.3443    107.0006    106.5189   1.1063026207e+02   4.0602178961e+01    0.3421965    0.1488704  41.83 0.0009032345    2.371    0.578
        59 -10.0223    134.3282    103.3262   1.0235583396e+02   3.5614984555e+01    0.1593263    0.1255284   2.88  0.000705033    1.701    0.412
        60 -13.3623    242.1582     78.4290   7.4801273424e+01   1.4425814825e+01    0.7261274    0.4649836 -28.99  0.002262388    1.534    0.348
        61 -12.8449    249.2203     62.1356   7.0038029206e+01   1.5262825137e+01    0.9959984    0.3253211 -27.94  0.003360145    3.546    0.718
        62  -9.7806     13.5842     59.7907   1.3067130908e+02   6.3101004558e+01    0.1582809   0.09882628 -71.78   0.00034001    1.564    0.361
        63 -11.4480     18.6279     53.8306   1.2712645500e+02   6.4014413808e+01    0.2520631    0.1817006 -63.08   0.00106778    1.291    0.225
        64 -12.6826    163.2900     47.0160   7.8609610107e+01   3.8747599793e+01    0.4999279    0.3985938 -17.94  0.001240392    1.404    0.288
        65 -13.6192      2.7751    214.2908   1.4978919362e+02   3.0276236958e+01    0.4993326    0.1908153 -89.05  0.002493725    2.218    0.549
        66 -12.5244    180.4949     25.1806   6.9021854891e+01   3.7100366811e+01    0.5286966    0.4480742  46.16  0.001467548    1.246    0.197
        67 -12.5679     65.5175    211.8487   1.3794405197e+02   2.3705986777e+01    0.2875638    0.1710676  54.47 0.0006230074    1.388    0.279
        68  -9.7424     11.8041    205.7420   1.4776109758e+02   3.1084256554e+01    0.1463751    0.1190088  45.98 0.0006397723    1.457    0.314
