#   1 NUMBER                 Running object number                                     
#   2 MAG_AUTO               Kron-like elliptical aperture magnitude                    [mag]
#   3 X_IMAGE                Object position along x                                    [pixel]
#   4 Y_IMAGE                Object position along y                                    [pixel]
#   5 X_WORLD                Barycenter position along world x axis                     [deg]
#   6 Y_WORLD                Barycenter position along world y axis                     [deg]
#   7 A_WORLD                Profile RMS along major axis (world units)                 [deg]
#   8 B_WORLD                Profile RMS along minor axis (world units)                 [deg]
#   9 THETA_WORLD            Position angle (CCW/world-x)                               [deg]
#  10 FWHM_WORLD             FWHM assuming a gaussian core                              [deg]
#  11 ELONGATION             A_IMAGE/B_IMAGE                                           
#  12 ELLIPTICITY            1 - B_IMAGE/A_IMAGE                                       
         1 -12.8538    110.9284    100.4231   7.3694490952e+01   4.0964594697e+01    0.9311327     0.586475  65.51  0.003585062    2.453    0.592
         2 -13.6671     22.6005     53.0021   9.2432562785e+01   6.4313605821e+01      1.22601    0.9671451 -87.20  0.007129702    2.088    0.521
         3 -11.7379      2.0160     28.6907   9.4747263098e+01   7.0412081890e+01    0.4323435    0.1401518 -47.69  0.002101852    2.304    0.566
         4 -12.8657    216.0065     11.6383   3.0695718677e+01   3.0694179963e+01    0.2861883    0.2725733  38.79 0.0007028115    1.483    0.326
         5 -12.2345    199.6217     10.4957   3.1840396733e+01   3.4370834019e+01    0.3966247     0.156128 -52.71  0.001840908    2.464    0.594
         6 -11.4548     65.1078     10.5590   5.6290335982e+01   6.4688286383e+01    0.3439654    0.1733191  42.75  0.001463106    1.654    0.395
         7 -11.3380     36.6539     11.0584   6.8116564398e+01   6.9433382334e+01    0.2042877    0.1442818  25.81 0.0002266353    1.224    0.183
         8 -11.0605    114.8519      7.2361   4.2077739053e+01   5.4378142717e+01    0.1960625    0.1707257  64.55 0.0002970541    1.068    0.063
         9 -10.5262    128.5753      5.6681   3.9144662829e+01   5.1317465848e+01    0.2907739    0.1272703  48.51  0.001355441    2.079    0.519
        10 -11.3546    189.7740      4.2949   3.1310443921e+01   3.7185113710e+01    0.2187533    0.1827303 -86.49 0.0004059814    1.039    0.038
        11 -11.5938     67.6061      3.0010   5.2045632166e+01   6.4888726214e+01    0.4308007    0.2293208  63.40  0.002173704    2.252    0.556
        12 -11.8030     72.7097    228.9912   1.0799385968e+02   1.6386416851e+01    0.3395281     0.275254 -86.62  0.001209303    1.247    0.198
        13 -10.4773    227.4075    249.7430   7.8325115521e+01  -9.4563484095e+00    0.3072366    0.0869925  28.15  0.001206382    3.643    0.726
        14 -11.9743     13.7465    249.9982   1.2162582883e+02   1.8959390441e+01    0.3154709    0.1045201  35.85  0.001581519    2.525    0.604
        15 -10.1758    127.3070    227.6411   9.5509806081e+01   8.6356906287e+00    0.1385191    0.1008977  65.71 0.0004266993    1.730    0.422
        16 -10.4350     50.2122    227.1490   1.1275877141e+02   1.9664100851e+01    0.2613483    0.1211645  55.24  0.001186138    2.066    0.516
        17 -11.4375    149.7158    223.6509   8.9878611595e+01   5.8788284147e+00    0.3430254    0.2102922  61.46  0.001470546    2.684    0.627
        18 -11.0878     35.6854    223.0033   1.1554795955e+02   2.2258127991e+01    0.2876117    0.1839965  85.76  0.001020216    1.463    0.317
        19  -9.5907     97.6763    220.7068   1.0134845209e+02   1.4621345093e+01    0.1307905    0.1060624 -10.41 0.0005346416    1.616    0.381
        20 -12.0976    239.0235    215.7148   7.0412947728e+01  -6.0003180447e+00    0.3332725    0.1638048 -46.04  0.001614923    2.456    0.593
        21  -9.6849    154.4934    212.5086   8.6978056029e+01   7.2798134614e+00    0.1416793    0.1267267  10.19 8.567511e-05    1.044    0.042
        22 -10.2273    234.3438    215.6663   7.1240862212e+01  -5.3810394307e+00    0.1077618     0.102744 -71.00 0.0007050306    1.761    0.432
        23 -10.0950    193.2109    210.4138   7.8231696785e+01   1.4314835779e+00    0.1853981    0.1214299  41.65 0.0009472749    1.666    0.400
        24 -10.8717     86.8275    206.9674   1.0211762910e+02   1.9292554553e+01    0.3561683    0.2482774 -35.02  0.001766018    1.863    0.463
        25 -10.9591    179.9255    217.1201   8.2205834973e+01   2.3049808382e+00    0.1999414    0.1878561  45.47  0.001186243    1.321    0.243
        26 -10.4919     18.6967    203.6969   1.1779282265e+02   2.8380983652e+01    0.2795859    0.1317188  62.93  0.001349444    2.097    0.523
        27 -10.1392      2.3491    203.0092   1.2131501333e+02   3.0000402871e+01    0.1672152    0.1225822  88.77 0.0003466923    1.111    0.100
        28 -10.2554     80.4022    201.2092   1.0292343969e+02   2.1566105296e+01    0.1995736     0.129641 -81.99 0.0009509724    1.743    0.426
        29 -11.6326      4.0880    197.0526   1.2057094303e+02   3.1220840406e+01    0.2858015    0.1948613  64.94 0.0008415557    1.278    0.218
        30 -10.3049    133.2781    195.5793   8.9009720983e+01   1.4410969745e+01    0.2575449    0.1804547 -64.34 0.0009948094    1.683    0.406
        31 -11.4580    162.5194    194.1149   8.1861068860e+01   9.6438298601e+00    0.5060382    0.2936745  45.37  0.002248235    1.839    0.456
        32 -10.3576    230.5302    193.5023   6.7818383032e+01  -1.2864626208e+00    0.1324444    0.1088897 -15.52 0.0002550389    1.006    0.006
        33 -10.0120    172.5080    191.0121   7.9022413661e+01   8.5386997795e+00    0.1964756     0.131373 -70.53  0.000810592    2.587    0.613
        34 -10.7384    155.8920    188.2116   8.2266817085e+01   1.2047442189e+01    0.2865871    0.2222795 -27.58  0.001445844    1.349    0.259
        35 -10.2870     86.6722    188.5159   9.9552426939e+01   2.3679790897e+01    0.2581192    0.1317653 -62.24  0.001082497    1.976    0.494
        36 -10.4776    183.4670    184.4888   7.5344671821e+01   7.9343540643e+00    0.2529041    0.1359177 -53.84 0.0009529412    2.294    0.564
        37 -12.4279     44.3056    181.3848   1.0956337097e+02   3.1080855393e+01    0.4559643    0.2310626 -79.17  0.002026727    2.001    0.500
        38 -11.7235     63.6264    179.2446   1.0424258949e+02   2.9242200308e+01     0.547291    0.3301648 -68.53  0.002595681    1.595    0.373
        39 -10.4463    147.4764    179.9840   8.2665750535e+01   1.5355537529e+01    0.2116978    0.1371875 -75.60  0.000795268    2.633    0.620
        40 -11.9118     37.3700    178.0857   1.1097802838e+02   3.2667523372e+01    0.4749208    0.1707604 -65.39  0.001915473    2.385    0.581
        41 -11.7186     34.2870    173.4412   1.1126494008e+02   3.4153267905e+01    0.3154992    0.1922885  68.69  0.001558001    1.751    0.429
        42 -10.7209    192.0548    177.4993   7.2113346267e+01   7.8104590872e+00    0.3529156    0.2311166 -56.54  0.001623821    1.926    0.481
        43  -9.8492    217.4971    176.5161   6.6878829163e+01   3.6849331005e+00    0.1391821    0.1194054 -18.42 0.0001503866    1.004    0.004
        44 -10.2776    159.4706    175.4723   7.8908521458e+01   1.4139195285e+01    0.2649951    0.1452118 -58.10  0.001025954    2.309    0.567
        45 -11.4120     11.8062    172.8380   1.1696474765e+02   3.6368562341e+01    0.4628388    0.1788557 -71.73   0.00206779    2.123    0.529
        46 -11.6293     44.8154    170.8561   1.0816295562e+02   3.3670441350e+01     0.488585    0.1752449 -72.48  0.001771848    2.826    0.646
        47 -11.0848     47.3943    165.0876   1.0670890527e+02   3.4846872692e+01    0.2791641    0.2018198  42.59  0.001478106    1.426    0.299
        48 -10.3516    121.7642    170.1643   8.7192206686e+01   2.2308423401e+01    0.2673599    0.1686454  74.87 0.0009592061    2.871    0.652
        49 -11.6770     28.3094    167.4649   1.1218343350e+02   3.6250542898e+01    0.2891248    0.2586463  15.99  0.001802228    1.359    0.264
        50 -11.1968     97.5656    164.6218   9.2632512881e+01   2.7870144039e+01    0.5350536    0.2737009  33.88  0.002133609    2.001    0.500
        51 -10.7126     93.1864    160.6921   9.3116005758e+01   2.9579164416e+01    0.3406757     0.251653  83.72  0.001554706    1.698    0.411
        52 -10.8221     79.4840    163.4954   9.7472943743e+01   3.1008060600e+01    0.4679146     0.245658  87.28  0.001397446    4.315    0.768
        53 -10.0248    138.7916    165.1859   8.1808435067e+01   2.0334062902e+01    0.2636552    0.1740912  78.89 0.0009553934    2.863    0.651
        54 -10.3699    175.5823    171.7170   7.4457631573e+01   1.1951819366e+01    0.2962235    0.1369765 -40.86  0.001145825    2.116    0.527
        55 -12.3918    118.8806    157.7973   8.5455664766e+01   2.5820851676e+01    0.6849325    0.3319077  36.00  0.001451391    2.107    0.525
        56 -11.3912    167.9356    156.6570   7.2940482326e+01   1.6608115861e+01    0.4400018    0.3394733 -62.22  0.001876292    1.527    0.345
        57 -11.0830    125.1531    156.0269   8.3402986927e+01   2.5079931585e+01    0.3932032    0.2618779 -24.31  0.001558589    1.995    0.499
        58 -10.6572    219.0386    156.5313   6.2466371136e+01   7.0980135952e+00    0.2844316    0.1923186 -37.47 0.0007762972    1.306    0.234
        59  -9.9562    144.3178    154.6651   7.8155616507e+01   2.1702118897e+01    0.1583207    0.1261976  85.11 0.0007048451    1.697    0.411
        60 -10.2973     81.2461    154.2661   9.5323354770e+01   3.3104234729e+01    0.2416123    0.1265512 -72.54 0.0008897108    2.403    0.584
        61 -11.4172    242.7968    151.5934   5.7410316395e+01   4.0266108001e+00    0.1650236    0.1298395  57.64 0.0009583177    1.705    0.413
        62 -10.8609    189.9805    150.0161   6.6667214423e+01   1.3700791138e+01    0.3400716    0.2020847 -62.50  0.001317684    2.567    0.610
        63 -11.7323    108.9079    146.9033   8.5886176064e+01   3.0325045751e+01    0.7108483    0.3544885  58.77  0.002226535    3.467    0.712
        64 -10.6280     55.7002    145.7191   1.0137971820e+02   3.8859930374e+01    0.2981119    0.1707127  88.80  0.001173973    2.476    0.596
        65 -10.1234     22.6570    151.3351   1.1190524847e+02   4.0856315417e+01    0.1435046    0.0894497  66.90 0.0007050277    1.763    0.433
        66 -10.8341    148.8671    145.5129   7.4952435416e+01   2.2889836778e+01     0.379368    0.2690347 -87.81  0.001506037    2.344    0.573
        67 -10.8515     87.8291    143.9914   9.1381699022e+01   3.4695383556e+01    0.2606962    0.1802625  87.67  0.001090511    2.022    0.506
        68 -10.4492    182.0148    141.9937   6.6516944110e+01   1.6918244108e+01    0.2371856      0.19007 -81.00 0.0008332221    1.688    0.408
        69 -11.1289     21.9572    139.4000   1.1063388759e+02   4.3961499280e+01    0.3860241    0.2947794  -1.99  0.001581146    1.649    0.394
        70 -10.5407      1.3173    136.5138   1.1639285399e+02   4.6133359700e+01    0.2192606   0.09704363 -73.96 0.0004796099    1.819    0.450
        71 -10.5233    143.4173    131.7279   7.3037593276e+01   2.7145838911e+01    0.3141431    0.1511347 -50.57  0.001134968    2.139    0.533
        72 -11.2747     82.6129    131.0786   9.0217683641e+01   3.8816019232e+01     0.358423    0.1418507 -55.92  0.001245573    2.410    0.585
        73 -10.2703    131.6672    131.3370   7.5996970640e+01   2.9667859862e+01     0.163812    0.1280119  86.48 0.0007052036    1.740    0.425
        74 -11.5580     98.3976    127.1653   8.4464641205e+01   3.7111700364e+01    0.5345356    0.3746911 -87.26  0.002155856    2.154    0.536
        75 -10.2932    117.3188    125.6518   7.8540885735e+01   3.3897119964e+01    0.1630772    0.1273938  86.25 0.0007048553    1.733    0.423
        76 -10.9624     58.8549    123.8975   9.6306501224e+01   4.4085942022e+01    0.3863163    0.2213123 -78.91    0.0015359    2.367    0.578
        77 -11.5706     43.5564    124.0439   1.0139614196e+02   4.5863151547e+01    0.4490951     0.293052 -88.72  0.002087336    1.891    0.471
        78 -10.7139    189.1849    124.1137   6.0858404392e+01   1.9084651777e+01    0.2639666    0.2224795  60.71 0.0008837949    1.323    0.244
        79 -10.9351     28.4532    122.5872   1.0613808342e+02   4.7704752230e+01    0.4407162    0.2050259  80.88  0.001338713    4.962    0.798
        80 -11.0570    108.4689    113.1017   7.7893512315e+01   3.8589893148e+01    0.5801541    0.2815665 -61.93  0.001867334    3.130    0.681
        81 -10.6415     71.9810    115.4955   9.0081768277e+01   4.4365851911e+01    0.2186861    0.1497759  30.14 0.0006022672    1.553    0.356
        82  -9.7297    185.2838    113.9648   5.9183699585e+01   2.1915414529e+01    0.1942287    0.1267213 -42.54 0.0005488538    1.438    0.305
        83 -11.3575     92.2187    111.8982   8.2580186860e+01   4.1916732787e+01    0.6478913    0.2991425 -61.77  0.002139688    2.997    0.666
        84 -11.6343     78.4474    111.6387   8.6990288265e+01   4.4309581007e+01    0.6474218    0.3054686 -66.99    0.0020936    3.351    0.702
        85 -11.4728     13.8826    109.5235   1.0896254381e+02   5.2094792208e+01    0.6027423    0.2534698 -72.98  0.002580617    2.222    0.550
        86 -11.7417    122.4777    108.4843   7.2610318990e+01   3.6793136085e+01    0.3704197    0.2912469 -20.98  0.001725232    1.450    0.310
        87 -11.9948    140.8803    105.7781   6.6987425663e+01   3.3400903848e+01     0.422241    0.2995225  76.98  0.001760149    2.039    0.510
        88 -11.7860     45.5501    102.5209   9.6279993049e+01   5.1028560834e+01    0.5835284    0.3221067  70.25  0.001908122    4.538    0.780
        89 -11.7954     64.0265    102.2816   8.9574544070e+01   4.8741110931e+01    0.3997161    0.3033151 -67.62  0.001408823    1.465    0.317
        90 -11.0686      6.9545    102.7613   1.1033070419e+02   5.4173663227e+01    0.3496194    0.1970661  89.43  0.001696495    2.108    0.526
        91 -12.1535    128.3309    102.6624   6.9403659176e+01   3.6813570818e+01    0.3458224    0.2692465 -87.23   0.00154949    1.765    0.433
        92 -10.8512     71.1101    248.4592   1.1023117453e+02   1.2602729492e+01    0.2081712    0.1698415 -67.99 0.0004283703    1.379    0.275
        93 -10.7802     77.6761     97.9388   8.3653801870e+01   4.7678402718e+01    0.2131188    0.1880488 -42.56 0.0006109945    1.085    0.078
        94 -10.7773     94.5586     97.0254   7.7777373768e+01   4.4920500200e+01    0.3143507    0.2015603 -64.46  0.001294458    2.082    0.520
        95 -11.5580     63.2559     96.0604   8.8233495687e+01   5.0320544963e+01    0.4147743    0.2657655 -85.06  0.001609585    2.961    0.662
        96 -11.1064     34.0792     88.9809   9.7448607206e+01   5.5458477442e+01    0.4452853    0.1925899 -69.35  0.001664671    3.022    0.669
        97 -10.4382    105.7465     94.0819   7.3427303272e+01   4.3389653334e+01    0.3034605    0.2678225  86.44 0.0008571896    1.389    0.280
        98 -11.5281     87.1803     87.5878   7.7435406187e+01   4.8343318423e+01    0.4857433    0.3078621  68.96  0.001789449    3.149    0.682
        99 -10.4966     79.8274     87.8357   8.0019266360e+01   4.9584821666e+01    0.2217509    0.1906054 -12.64  0.000367268    1.165    0.142
       100 -11.0777     49.0708     85.2796   9.0643376572e+01   5.4677668168e+01    0.4018282    0.2365041  62.79  0.001506222    3.628    0.724
       101 -10.7166    104.5456     83.2876   7.0557386912e+01   4.5878605927e+01    0.2939067    0.1451745 -47.53  0.001139218    2.126    0.530
       102 -11.4240     24.0636     79.2442   9.9127686462e+01   5.8591784297e+01    0.5588986    0.2342718 -70.72  0.002096037    3.312    0.698
       103 -10.0213    157.6810     76.3371   5.4941582807e+01   3.5228238540e+01    0.1550181    0.1135584 -74.52 0.0007049374    1.705    0.414
       104 -11.3693     62.5143     72.4796   8.1614777163e+01   5.5618089462e+01     0.575918    0.1303876 -48.30  0.001698437    4.210    0.762
       105 -11.3136     82.0708     72.6273   7.4488558724e+01   5.2343171645e+01    0.4120773    0.2776583 -70.30  0.001724286    2.617    0.618
       106 -11.1148     21.5508    100.7501   1.0471443118e+02   5.3710631262e+01    0.4529051    0.2295372  73.47  0.001561862    4.448    0.775
       107 -11.1822     50.7476     68.3567   8.4965765264e+01   5.8124636460e+01    0.5289934    0.1911352 -58.10  0.001664805    4.374    0.771
       108 -10.0198    152.3058    229.6684   9.0250566335e+01   4.3345853072e+00    0.1303512    0.1032781  63.14 0.0002899276    1.661    0.398
       109 -12.3744     44.0194     64.3673   8.6486555462e+01   5.9791497068e+01    0.5636608    0.3082421 -36.01  0.001010929    1.704    0.413
       110 -12.4274     36.4964     62.9570   8.9278099443e+01   6.0945676659e+01    0.4342612    0.4153531 -81.75  0.001844147    1.403    0.287
       111 -12.7077     36.4303     56.9391   8.7351429450e+01   6.2159108470e+01    0.4908135    0.4571851  -0.76  0.001572069    1.216    0.178
       112 -12.0966      6.9704     65.5999   1.0317470359e+02   6.2791688451e+01    0.4266708    0.3006724  40.03  0.001877437    1.865    0.464
       113  -9.9880    235.2448     66.0069   4.0393329071e+01   1.9669441855e+01     0.175307    0.1417029 -53.72 0.0003590703    1.058    0.055
       114  -9.7677     14.9680     83.7644   1.0385804814e+02   5.8220783222e+01    0.1476478    0.1068244   6.40 0.0004347496    1.550    0.355
       115 -13.1514      9.7228     49.2194   9.7489053433e+01   6.6049654410e+01    0.3809167    0.2510664 -15.47  0.001211818    1.416    0.294
       116 -10.3024     43.3278     45.5549   8.0174759000e+01   6.3437387616e+01    0.2196922    0.1337039 -22.63 0.0007486107    1.653    0.395
       117 -10.1815    112.6717     47.3328   5.6457359549e+01   5.0359003258e+01    0.1404653    0.1109816 -78.21 0.0007051752    1.718    0.418
       118 -10.2072     57.5899     41.7728   7.2581260151e+01   6.1994591252e+01    0.1800728    0.1205961 -45.30   0.00095575    1.748    0.428
       119 -12.1195     74.9677     39.6007   6.5099766112e+01   5.9308716340e+01    0.2759942    0.2450384  27.03 0.0007886864    1.107    0.097
       120  -9.7692    162.9800     35.0368   4.2394955693e+01   4.0103320559e+01     0.158011    0.1396851  79.80 0.0009506263    1.019    0.018
       121  -9.7381    126.5508     35.4481   4.9175853748e+01   4.8747281576e+01    0.1359215    0.1241519  60.64 0.0002109388    1.034    0.033
       122 -11.3898     73.2800     32.2946   6.2772424223e+01   6.0641460205e+01    0.2458021    0.2015722 -83.90  0.001352234    2.087    0.521
       123 -12.3051     37.1364    244.3184   1.1680764822e+02   1.7593762619e+01     0.375045      0.24902  55.02  0.001636842    1.230    0.187
       124 -10.4554    178.9389     25.6067   3.7669942025e+01   3.7446047555e+01    0.1819917    0.1412556  79.88 0.0004162666    1.148    0.129
       125  -9.9729     28.2716     26.3411   7.9495176889e+01   6.8456934581e+01    0.1263135    0.0770655 -12.67 0.0001697234    1.610    0.379
       126 -11.3905    207.2960     20.9007   3.3466213547e+01   3.1550287748e+01     0.284274    0.1745502  36.93  0.001427401    2.736    0.634
       127 -10.4898     31.1033     20.5748   7.5446029439e+01   6.8960211770e+01     0.268085    0.1576418   0.93  0.001467475    1.837    0.456
       128 -10.4481     41.9027     20.5337   7.0237068791e+01   6.7481641869e+01      0.21217     0.103804  32.82 0.0004132002    1.869    0.465
       129 -10.4414     37.9305     18.3455   7.1060128675e+01   6.8343187078e+01    0.2206472     0.196653 -52.54   0.00118971    1.841    0.457
       130 -10.8188     91.1637     18.8554   5.1798368751e+01   5.8600531129e+01    0.2770933    0.1606912  52.17  0.000652285    1.497    0.332
       131 -10.9726    152.7308     28.3296   4.2111037061e+01   4.3352567049e+01    0.2319081    0.2016427  57.56  0.000302266    1.120    0.107
       132 -11.1456    219.0156    246.2486   7.9314829254e+01  -7.9319889341e+00    0.2701311     0.123486 -48.04  0.001241475    3.238    0.691
       133 -11.1714     25.6452    246.9796   1.1922152982e+02   1.8323690217e+01    0.1628994    0.1251028  79.03 0.0005003095    1.124    0.110
       134 -11.4239    210.1239    237.6108   7.9587094778e+01  -5.5051058406e+00    0.2633842    0.2087882  46.23  0.001625027    1.788    0.441
       135 -13.1370     19.1280    236.4398   1.1986180898e+02   2.1150164762e+01    0.4299876     0.207554  36.64 0.0007761084    1.895    0.472
       136  -9.8731    190.4858    236.9689   8.3363662272e+01  -2.6754366906e+00     0.147868    0.1178681 -74.17  0.000704881    2.328    0.570
       137 -10.6747     10.3254    232.0337   1.2133505362e+02   2.2938690569e+01    0.2196766    0.1750895 -31.41  0.001464956    1.989    0.497
       138 -10.3852    125.4442    231.0336   9.6408848391e+01   8.2531641368e+00    0.3438362    0.1418634  24.51 0.0007043494    3.307    0.698
