#   1 NUMBER                 Running object number                                     
#   2 MAG_AUTO               Kron-like elliptical aperture magnitude                    [mag]
#   3 X_IMAGE                Object position along x                                    [pixel]
#   4 Y_IMAGE                Object position along y                                    [pixel]
#   5 X_WORLD                Barycenter position along world x axis                     [deg]
#   6 Y_WORLD                Barycenter position along world y axis                     [deg]
#   7 A_WORLD                Profile RMS along major axis (world units)                 [deg]
#   8 B_WORLD                Profile RMS along minor axis (world units)                 [deg]
#   9 THETA_WORLD            Position angle (CCW/world-x)                               [deg]
#  10 FWHM_WORLD             FWHM assuming a gaussian core                              [deg]
#  11 ELONGATION             A_IMAGE/B_IMAGE                                           
#  12 ELLIPTICITY            1 - B_IMAGE/A_IMAGE                                       
         1 -12.9320    193.2817     40.6833   4.6949153998e+01   3.1840054111e+01     1.349455    0.9733303  39.25  0.004972997    1.667    0.400
         2 -12.2066    221.9135     10.4252   3.6176178858e+01   2.8703747463e+01    0.9653026    0.6025087 -35.56  0.005477733    1.577    0.366
         3 -11.6974    216.0082      9.7988   3.6534772316e+01   3.0118540063e+01    0.7835866    0.3348314 -34.28  0.003665158    2.200    0.545
         4  -9.0055     68.7602      3.0148   5.9428668147e+01   6.4910007867e+01    0.1579502   0.09625227 -17.60 0.0008896543    1.637    0.389
         5  -8.6836    244.3457    233.6745   8.2089868863e+01  -9.3915003189e+00   0.09871849    0.0941462  39.38 0.0007050273    1.744    0.427
         6 -19.5660     13.2599    147.1054   1.1965910010e+02   4.2471260621e+01     19.52565     3.013273 -74.38   0.05243661    6.239    0.840
         7  -8.4652     96.4826    202.0080   1.0660299114e+02   1.9593363183e+01    0.1938674    0.1278857 -64.93 0.0007346613    1.566    0.361
         8  -9.1088     75.8507    220.6076   1.1314569061e+02   1.8753731295e+01     0.292578    0.1820146 -69.88  0.001677522    1.644    0.392
         9  -8.7617     38.6393    199.2896   1.1876662848e+02   2.7968434703e+01    0.1977963    0.1389357  51.95  0.000589737    1.316    0.240
        10  -9.0685     69.6802    197.7018   1.1196135261e+02   2.4443410478e+01    0.4216688     0.193337 -59.57  0.001979071    2.149    0.535
        11  -9.9539    192.4992    194.0176   8.4588241843e+01   4.5461485993e+00    0.5833574    0.3127116 -61.85  0.001987375    4.505    0.778
        12  -9.4808     34.1277    196.9957   1.1950881274e+02   2.8971609196e+01    0.1894813    0.1579361  56.76  0.000369706    1.220    0.180
        13  -9.2544     89.8519    212.7399   1.0938103291e+02   1.8349648932e+01    0.2686307    0.1908181  78.88  0.000764842    1.467    0.319
        14 -10.1474    120.5020    194.5708   1.0017247919e+02   1.7266191243e+01     0.310147    0.2311649  74.60  0.001240919    1.569    0.363
        15  -8.5711    133.6652    194.3440   9.7190298785e+01   1.5035029072e+01    0.1464157    0.1059793  73.03 0.0007049971    1.765    0.433
        16  -8.3715     71.0381    213.8538   1.1343406390e+02   2.0798472978e+01    0.2945174    0.1471019 -69.70  0.001486947    2.025    0.506
        17  -8.7269     81.5177    194.3520   1.0892815699e+02   2.3510983449e+01    0.2767655    0.2053035  73.67   0.00156011    1.320    0.243
        18  -8.8554     93.7916    185.8342   1.0495480104e+02   2.3560317591e+01    0.1929724    0.1481723  70.45 0.0004491238    1.313    0.239
        19  -9.5995     99.3790    180.6707   1.0286155096e+02   2.3840364294e+01      0.24197      0.24051 -35.30 0.0006492849    1.167    0.143
        20  -9.0753    187.8498    176.5367   8.2091523840e+01   8.5577730826e+00    0.3097337    0.2435961  41.40  0.001156102    1.285    0.222
        21  -8.2631    149.1198    176.1900   9.0442529468e+01   1.5995275110e+01    0.1921601    0.1705954 -85.43 0.0005664724    1.297    0.229
        22  -9.8497     56.4381    175.2294   1.1230868782e+02   3.1315680801e+01    0.4463525    0.2070204  51.24  0.002019795    2.190    0.543
        23  -9.8004    102.4168    170.7811   1.0051623885e+02   2.5616116086e+01    0.4226915    0.2398944 -40.45  0.001799904    2.195    0.544
        24 -10.4064    110.6344    171.2335   9.8592006249e+01   2.4115485756e+01    0.4229859    0.3388997 -59.73  0.002244914    1.246    0.198
        25  -8.0177    193.6614    171.3051   7.9817750301e+01   8.4365673256e+00    0.1379766    0.1174774  87.88 0.0007040531    1.676    0.403
        26  -9.6509    234.8840    172.6706   7.2281681583e+01   7.7037387917e-01    0.2588273    0.1133782  34.68  0.001089238    2.518    0.603
        27  -9.2095    153.9719    213.4958   9.5935463581e+01   7.7988133139e+00    0.2120391    0.1199345  38.50 0.0007839732    1.587    0.370
        28  -9.1170    185.2780    168.5598   8.0970583554e+01   1.0564251904e+01     0.307356    0.1764316 -53.54  0.001291887    2.132    0.531
        29  -8.3621    137.6900    169.4162   9.1770056504e+01   1.9612119454e+01     0.287454    0.1369636  44.72   0.00101186    2.069    0.517
        30 -10.0542     88.7860    157.7283   1.0168528113e+02   3.0928062557e+01    0.2873273    0.2689495 -41.18 0.0005167793    1.196    0.164
        31 -10.0989     65.0258    155.4806   1.0746310783e+02   3.4943946439e+01    0.3767597    0.2220366  47.19  0.001830346    1.748    0.428
        32 -10.5617     94.9160    151.2266   9.8910700857e+01   3.1508682686e+01    0.6215619    0.4713815 -22.35  0.002999436    1.795    0.443
        33  -9.9451    133.6202    144.8636   8.7625586556e+01   2.5919474246e+01     1.166558    0.3082393 -55.20  0.002625938    6.162    0.838
        34  -8.0296    109.4683    147.4959   9.4364705276e+01   2.9892432691e+01    0.1501173    0.1427129 -80.47 0.0002110361    1.018    0.017
        35  -8.7086     87.0675    143.6741   9.9562920275e+01   3.4619010886e+01    0.2353329    0.1758087  61.61 0.0006053144    1.467    0.318
        36  -9.8486    106.7824    137.3654   9.2928368308e+01   3.2801202437e+01    0.4703146    0.3061543 -37.67  0.002069988    1.720    0.418
        37 -10.8876     94.8413    137.1339   9.6127553396e+01   3.4944636009e+01    0.3137039    0.2596402 -45.57   0.00037527    1.210    0.173
        38  -9.7504    105.9773    130.7717   9.1675486113e+01   3.4528667291e+01    0.3681495    0.3358267 -53.81  0.001248406    1.049    0.047
        39  -9.9937    135.6901    127.6632   8.3061100452e+01   2.9419918072e+01    0.7282778    0.1412114 -49.30  0.001615603    5.778    0.827
        40  -9.4531    101.7252    124.6294   9.1435556041e+01   3.6770484173e+01    0.2894622    0.2403699 -15.57 0.0007391458    1.451    0.311
        41  -9.3000    119.4463    123.4007   8.6256353889e+01   3.3707762569e+01    0.2821337    0.1932161  10.03  0.001122689    2.289    0.563
        42  -9.9419    114.3697    128.9348   8.8963331482e+01   3.3398309873e+01    0.3717299    0.2684461 -36.29 0.0008149936    1.481    0.325
        43  -8.6117    109.8298    118.1417   8.7585623324e+01   3.6807369784e+01     0.220757    0.2040786 -80.63 0.0003151604    1.142    0.124
        44  -9.1053    231.2648    113.8163   5.9830108756e+01   1.1465422210e+01    0.2439576    0.2105415  40.16 0.0007116452    1.298    0.229
        45 -10.7803    117.9013    110.1253   8.3266196652e+01   3.7071587347e+01    0.6314437    0.3841259  53.20  0.002621683    1.876    0.467
        46  -8.6731    205.5435    110.4668   6.3383044341e+01   1.7509971189e+01    0.2540167    0.1367632  40.35 0.0006491573    2.158    0.537
        47  -9.7628    134.6006    104.9264   7.7384945882e+01   3.4703881158e+01    0.5382493    0.1491389 -43.64  0.001515772    3.502    0.714
        48  -9.3400     66.9629    104.3041   9.7038144824e+01   4.7247464098e+01    0.1984813    0.1879611 -36.61 0.0007673852    1.082    0.076
        49  -8.2949    163.6617    210.6635   9.3465034203e+01   6.6482934466e+00    0.1390645    0.1010484   2.63 0.0007051389    1.753    0.430
        50 -12.2786    113.3830    196.8386   1.0211823855e+02   1.7982752408e+01     1.668792     1.005406 -22.88  0.006303048    3.730    0.732
        51 -11.7969    177.5189     53.8271   5.3062788354e+01   3.3864415007e+01    0.6368586    0.5782617 -31.77  0.001575711    1.142    0.124
        52  -8.0954     83.5347    244.4870   1.1397239743e+02   1.3124808705e+01    0.1192647   0.09476319  59.66 -7.591189e-06    1.003    0.003
        53 -11.8308    198.0603     34.6255   4.4688855395e+01   3.1470558018e+01    0.6545206    0.4391772  65.45  0.001219379    1.447    0.309
        54 -10.5533    111.9284    205.1319   1.0364929534e+02   1.6487620377e+01    0.3302685    0.2378668  47.99 0.0003187448    1.262    0.208
        55 -10.2881    197.9769     23.4959   4.1763635094e+01   3.2849676136e+01     0.265565    0.2002884 -33.88  0.001094654    1.377    0.274
        56 -10.9774    107.9188    203.9883   1.0436422401e+02   1.7372050877e+01    0.3982643    0.3186344 -44.45 0.0006494157    1.467    0.319
        57  -8.4063     65.9704    241.7254   1.1700486470e+02   1.5994758462e+01    0.1501914    0.1177348  61.42 0.0003262686    1.032    0.031
        58  -8.9712     96.4038    243.2335   1.1141543905e+02   1.1528795406e+01     0.158246    0.1078569 -85.91 0.0009577929    1.678    0.404
        59  -8.1507     93.1673    205.8416   1.0782475084e+02   1.9289119328e+01    0.1643059    0.1542772 -35.33 0.0004673095    1.343    0.255
