#   1 NUMBER                 Running object number                                     
#   2 MAG_AUTO               Kron-like elliptical aperture magnitude                    [mag]
#   3 X_IMAGE                Object position along x                                    [pixel]
#   4 Y_IMAGE                Object position along y                                    [pixel]
#   5 X_WORLD                Barycenter position along world x axis                     [deg]
#   6 Y_WORLD                Barycenter position along world y axis                     [deg]
#   7 A_WORLD                Profile RMS along major axis (world units)                 [deg]
#   8 B_WORLD                Profile RMS along minor axis (world units)                 [deg]
#   9 THETA_WORLD            Position angle (CCW/world-x)                               [deg]
#  10 FWHM_WORLD             FWHM assuming a gaussian core                              [deg]
#  11 ELONGATION             A_IMAGE/B_IMAGE                                           
#  12 ELLIPTICITY            1 - B_IMAGE/A_IMAGE                                       
         1 -15.2743     11.3960    145.7078   1.4134732385e+02   4.3683612105e+01     9.892023     3.327643 -83.92   0.03461128    4.227    0.763
         2 -13.5350    199.0828     28.7728   6.5485591072e+01   3.1837961744e+01     1.437475     1.283626  35.92  0.007068783    1.407    0.289
         3 -13.4498    214.9419     10.7051   5.9517994244e+01   3.0138526283e+01    0.9495336     0.797998  59.80  0.004597776    1.348    0.258
         4 -12.9865      2.6831      8.2979   1.1366865167e+02   7.1376021915e+01     1.012467    0.4259757 -40.76  0.006219696    1.951    0.488
         5  -9.4674     88.4842    249.4898   1.3609012814e+02   1.1520623601e+01    0.1258511   0.09835964  63.44  0.000810393    1.003    0.003
         6 -11.9389    247.8514    248.0805   1.0516327336e+02  -1.4333407686e+01    0.5449974    0.3313092  20.36  0.003292808    1.446    0.308
         7 -12.1749    140.0331    249.0661   1.2606437796e+02   3.1351565441e+00    0.5341098    0.3240383  47.17  0.002910767    1.365    0.267
         8 -11.4964    123.9813    249.9311   1.2932735197e+02   5.7132050856e+00     0.617374    0.1146235  42.00  0.001922329    4.275    0.766
         9 -10.1932     65.6984    249.1441   1.4025984626e+02   1.4938268240e+01     0.246832    0.1605593  78.53 0.0008114759    1.378    0.274
        10 -10.9761     46.1039    249.0898   1.4372782877e+02   1.7585929025e+01    0.2974071    0.1904409  83.57   0.00165692    1.327    0.246
        11 -12.0469     35.3702    245.2321   1.4529986504e+02   1.9665968971e+01    0.4821939    0.3731689 -59.13  0.003408852    1.782    0.439
        12 -12.6274     12.4517    240.7162   1.4885953267e+02   2.3144444027e+01    0.6968802    0.3425439  59.72  0.004152333    1.603    0.376
        13 -10.9443     16.7388    248.9684   1.4863918210e+02   2.1113077897e+01    0.2694108    0.1780389  81.77  0.001967185    1.132    0.117
        14 -11.8201      4.6097    248.6214   1.5054660677e+02   2.2469668245e+01    0.7412732    0.2826795  50.25  0.003821361    2.029    0.507
        15 -10.5059     52.7286    237.4926   1.4161993124e+02   1.8977132902e+01    0.2399208    0.1611333  66.68 0.0006332259    1.194    0.162
        16 -10.9711    226.2249    248.9158   1.0926366990e+02  -1.1262765885e+01    0.2428535    0.1701069   8.51  0.001488938    1.361    0.265
        17 -14.3007    104.8150    229.4379   1.3061532027e+02   1.2796374977e+01     5.179112          nan  44.85   0.00890524   13.586    0.926
        18 -11.1064    162.5384    249.5148   1.2167816163e+02  -8.2535773564e-01    0.3759867    0.1101917  38.27  0.001362861    3.061    0.673
        19 -12.7737     30.3594    230.8558   1.4514580416e+02   2.3093284606e+01    0.2955487    0.2334871 -72.59  0.000742037    1.422    0.297
        20 -13.8041     35.6335    224.0620   1.4366445707e+02   2.3857479105e+01    0.7114268    0.5293104  75.13  0.002367787    1.032    0.031
        21 -10.8312    229.2634    229.5095   1.0534513591e+02  -9.0257989794e+00    0.4397601    0.2718484 -60.58  0.001891723    3.777    0.735
        22 -10.6485     76.2144    216.5214   1.3495376305e+02   2.0007410999e+01     0.467982    0.1392525  55.20  0.001466541    4.532    0.779
        23 -12.5649      9.8163    207.2996   1.4718444008e+02   3.0150346926e+01    0.6290422    0.5425588  45.90  0.003291564    1.483    0.326
        24 -11.1294      6.3099    225.6478   1.4899809176e+02   2.6729376468e+01    0.3887523    0.1239043  44.54  0.002050576    2.595    0.615
        25  -9.4412     34.7988    202.4140   1.4196350029e+02   2.8567402107e+01      0.19857    0.1324309  88.41 0.0003571899    1.259    0.206
        26 -11.6435     58.1298    197.5894   1.3659812857e+02   2.6745160374e+01      0.32634    0.2320213 -69.08 0.0005193587    1.323    0.244
        27  -9.8298    193.2007    195.3289   1.0612039259e+02   3.0782703513e+00    0.7363619    0.3648093 -65.08   0.00156167   10.226    0.902
        28 -11.9229     64.7061    189.2185   1.3413632944e+02   2.7757103685e+01    0.2802276    0.2500817 -59.89 0.0004385975    1.292    0.226
        29  -8.8776    152.6788    213.0054   1.1804648434e+02   7.5101948521e+00    0.1806085    0.1773739 -86.58 0.0003794569    1.119    0.106
        30 -13.2254     61.8512    174.4760   1.3283835419e+02   3.1592820115e+01    0.5381204    0.2835407 -46.16  0.001833336    2.304    0.566
        31 -10.8382     75.3696    176.5338   1.2990872993e+02   2.9189005072e+01    0.2504454    0.2237002 -84.36 0.0003703174    1.051    0.048
        32  -9.8654     94.9815    171.7839   1.2437800453e+02   2.7206897809e+01    0.3146895    0.2037341  50.16 0.0004931344    1.529    0.346
        33 -11.8237     83.1075    167.4627   1.2659276063e+02   3.0168686464e+01    0.6307647    0.5993813 -54.44  0.003747214    1.186    0.157
        34 -12.1361     15.6258    123.2324   1.3739471234e+02   4.8506513726e+01    0.5836954    0.2728547  48.61  0.002502981    2.707    0.631
        35 -10.0514     96.3424    151.8895   1.2039303150e+02   3.1742433394e+01    0.2985598    0.2885356 -25.83 0.0006307793    1.171    0.146
        36  -9.0308     99.4166    147.7401   1.1875459134e+02   3.2205596885e+01    0.1983354    0.1749544 -25.69 0.0003652505    1.325    0.245
        37 -12.0307     84.7359    150.8589   1.2325260124e+02   3.3911535067e+01    0.3068696    0.2489605 -45.59 0.0005713624    1.293    0.227
        38 -12.5125     45.3408    213.6294   1.4090218101e+02   2.4868603397e+01    0.7150924     0.533588 -67.21  0.003160167    1.400    0.286
        39 -12.2487     67.4452    143.5621   1.2653174726e+02   3.8243598412e+01    0.6826988     0.446089  64.69  0.003294132    1.857    0.461
        40 -10.4493     95.6335    134.2644   1.1694081663e+02   3.6091642352e+01    0.2546301    0.2324543 -29.35 0.0004118443    1.189    0.159
        41  -9.6563    108.7894    136.9604   1.1394089062e+02   3.3072913976e+01    0.4055312    0.2729234 -20.36  0.001643807    2.316    0.568
        42 -11.7656     25.6663    128.4565   1.3541369472e+02   4.6502223310e+01    0.3505935    0.2814763  69.30  0.002253157    1.375    0.273
        43  -9.2390     74.9238    128.2408   1.2148005130e+02   4.0848650688e+01    0.2148628    0.1825055  75.18  0.001178891    1.308    0.235
        44  -9.1917    106.0615    123.7337   1.1162358657e+02   3.6686712434e+01    0.1967657    0.1891294  29.09 0.0002358899    1.087    0.080
        45 -10.1621    167.7794    112.8922   9.3048436611e+01   2.5629659822e+01    0.3227855    0.2619488 -66.88 0.0006357161    1.372    0.271
        46 -11.1673    243.1859     92.4908   7.4251150731e+01   1.1911533194e+01    0.2788436    0.1874184 -42.65   0.00142823    1.360    0.265
        47  -9.7046     63.6229     80.5006   1.1338900951e+02   5.3071541058e+01    0.2714178    0.1915034  47.02  0.001062978    1.748    0.428
        48  -9.6944    158.8290     77.3942   8.5457845042e+01   3.4641091142e+01    0.2245498    0.1347849  44.46 0.0007917309    1.675    0.403
        49 -10.0084     56.8635     75.4032   1.1425248955e+02   5.4980259821e+01    0.3431403     0.212364  51.42  0.001180434    2.376    0.579
        50 -12.4772      5.1039     50.8982   1.2679808034e+02   6.4338278491e+01    0.4342843    0.3990352  74.07  0.003363911    1.620    0.383
        51 -12.3462      3.1026     39.1684   1.2434735216e+02   6.6545693959e+01    0.5257763    0.2189142 -54.61  0.002925535    2.066    0.516
        52 -11.8366     98.3323    245.9358   1.3384131640e+02   1.0648481233e+01    0.3771394    0.3157421  61.60  0.001724633    1.072    0.067
        53 -11.1032    198.6396    247.1224   1.1422514898e+02  -6.6032858873e+00     0.264501    0.1875278  56.29  0.001485972    1.798    0.444
