#   1 NUMBER                 Running object number                                     
#   2 MAG_AUTO               Kron-like elliptical aperture magnitude                    [mag]
#   3 X_IMAGE                Object position along x                                    [pixel]
#   4 Y_IMAGE                Object position along y                                    [pixel]
#   5 X_WORLD                Barycenter position along world x axis                     [deg]
#   6 Y_WORLD                Barycenter position along world y axis                     [deg]
#   7 A_WORLD                Profile RMS along major axis (world units)                 [deg]
#   8 B_WORLD                Profile RMS along minor axis (world units)                 [deg]
#   9 THETA_WORLD            Position angle (CCW/world-x)                               [deg]
#  10 FWHM_WORLD             FWHM assuming a gaussian core                              [deg]
#  11 ELONGATION             A_IMAGE/B_IMAGE                                           
#  12 ELLIPTICITY            1 - B_IMAGE/A_IMAGE                                       
         1  -9.4662     97.8150     12.0671   1.1772123878e+01   5.9078797818e+01    0.3656268    0.2103352  -4.43  0.001264371    2.320    0.569
         2 -10.3885     41.0534     13.7655   3.4563207170e+01   7.1908737401e+01    0.2623058     0.204905  26.84  0.000214933    1.205    0.170
         3  -8.3947     80.1694     12.1777   1.6590380198e+01   6.3575555476e+01    0.1906535    0.1656116 -69.15 0.0005271526    1.340    0.254
         4  -8.6503      3.3797     12.1904   6.2999505725e+01   7.6969983046e+01    0.1619871    0.1120736 -67.76 0.0007796654    1.583    0.368
         5  -8.8703     62.3644      9.7775   2.1515120750e+01   6.8085228864e+01     0.186615    0.1280372  -9.56 0.0004286318    1.637    0.389
         6  -8.4554     65.1278      4.8543   1.7457986175e+01   6.8002029481e+01    0.1911742    0.1425378  30.91  0.001031907    1.303    0.233
         7  -8.0706     98.2757      4.6816   8.1644588306e+00   5.9673350550e+01    0.1411555    0.1023186 -62.07 0.0002125617    1.571    0.363
         8  -7.9386     52.0079      3.0287   2.1627453976e+01   7.1163895004e+01    0.1587474    0.1390779  29.91            0    1.009    0.009
         9  -8.9654      2.6848      2.9535   5.8579586188e+01   7.8885703041e+01    0.2058144     0.143722  -5.83 0.0006444573    1.363    0.267
        10  -9.6210     67.5149      1.3800   1.4504806228e+01   6.7780435328e+01    0.2480065    0.1197519  60.78 8.518418e-05    1.881    0.468
        11 -10.3052    100.0003    217.4714   6.4991925798e+01   1.6934280115e+01    0.2906823    0.1982186  53.98 0.0006695515    1.477    0.323
        12 -10.6640    247.2629    248.4913   4.1154080276e+01  -5.8286529496e+00    0.2930652    0.1991883  13.25  0.001602563    1.189    0.159
        13  -9.4379    214.1047    250.1302   4.6645102792e+01  -2.5078029176e+00    0.2196766    0.1068907  23.96   0.00140413    1.580    0.367
        14  -9.9262    204.8946    249.7818   4.8152490439e+01  -1.4353069106e+00    0.2679863    0.1284509  29.20  0.001681459    1.624    0.384
        15  -9.3333    157.4739    221.5600   5.3131100570e+01   8.1707818967e+00    0.2360719    0.1767053  22.64 0.0008000449    1.060    0.057
        16 -10.4008    161.3358    249.0101   5.5914073832e+01   3.8997586861e+00    0.3550406    0.2783487 -58.50  0.002263535    2.092    0.522
        17 -11.7772    167.2056    242.0314   5.3938448342e+01   4.0493102257e+00    0.7416976    0.3370323  27.49  0.003164384    1.761    0.432
        18 -10.2322    167.1069    248.2666   5.4736180235e+01   3.2708117960e+00    0.3964599    0.2104856  36.08  0.002009636    1.576    0.365
        19 -11.5440    173.5298    244.9672   5.3123615329e+01   2.8790119132e+00    0.5919954    0.4425875 -27.08  0.004328762    1.547    0.353
        20 -10.9075    169.6906    224.8624   5.1167965907e+01   6.0156820357e+00    0.5211527    0.2964409  31.12  0.003066635    1.420    0.296
        21 -11.2184    169.4711    233.4936   5.2392704367e+01   4.8735912226e+00    0.5473826    0.3919952  26.64  0.002990625    1.125    0.111
        22 -10.6231    161.6317    231.1908   5.3607012466e+01   6.2268642040e+00    0.5062043    0.2342615  29.83  0.001778256    1.734    0.423
        23 -11.4877    162.3634    225.7664   5.2731865146e+01   6.8875865403e+00    0.5830269    0.2961364  27.92   0.00242685    1.624    0.384
        24 -10.7500     54.1107    248.7759   7.7487777055e+01   1.7179984327e+01    0.4555997    0.2886968   8.71  0.002085508    2.277    0.561
        25 -11.0855     19.0346    247.7154   8.4502291965e+01   2.0974726873e+01    0.5128372    0.2255225  53.82  0.003143787    1.675    0.403
        26 -10.1329     12.9810    250.0566   8.5756151449e+01   2.1142227202e+01    0.2615266    0.1190893  41.01  0.001661799    1.468    0.319
        27  -9.7249      4.1071    249.2303   8.7447022351e+01   2.2078485615e+01     0.255652    0.1170807  48.85 0.0008755347    1.451    0.311
        28  -8.6147    188.3144    248.7064   5.0908591324e+01   6.2266662744e-01   0.09845463   0.07470939  37.23 0.0002601226    1.598    0.374
        29  -8.6022     36.2348    247.9837   8.1078244808e+01   1.9226002130e+01    0.1232469   0.08524025  87.07 0.0007801404    1.602    0.376
        30  -8.9716    100.8332    247.1876   6.7747475300e+01   1.1871072493e+01    0.1528788    0.1174282  17.60 0.0004392417    1.314    0.239
        31 -11.5472     98.6391    225.3084   6.6122025669e+01   1.5737645837e+01     0.490342    0.4029558  31.62  0.001747431    1.077    0.071
        32  -9.1123     12.7028    244.5402   8.5658221683e+01   2.2111956061e+01    0.2421639    0.1068296  30.60   0.00121189    1.821    0.451
        33 -10.7018     73.5526    244.5920   7.3198835683e+01   1.5638069181e+01    0.2634717    0.1990173  31.73  0.000570727    1.157    0.136
        34  -9.5551     30.6710    244.4989   8.2055205663e+01   2.0389625987e+01    0.2180864    0.0825808  60.50   0.00113421    2.408    0.585
        35  -8.8525      2.2775    243.8069   8.7686138493e+01   2.3167669184e+01    0.1852141    0.1185866  39.87 0.0009152173    1.203    0.169
        36 -10.2285      7.9147    241.3678   8.6522100052e+01   2.3098671859e+01    0.2804348    0.2036613  86.39  0.002136172    1.463    0.317
        37  -9.7925    250.5074    241.5160   3.9681995111e+01  -5.4982139672e+00    0.2220663    0.1339886 -10.17 0.0009602935    1.307    0.235
        38 -10.6378    248.6154    237.7916   3.9430180178e+01  -4.9509772268e+00    0.2380349    0.1719571  -2.02  0.001519097    1.169    0.145
        39 -11.5621    237.6982    240.8060   4.1539498738e+01  -4.1138143132e+00    0.4489832    0.2818696   6.96  0.002265819    1.165    0.142
        40 -11.2915    238.9095    230.2463   3.9811900052e+01  -3.1729614482e+00    0.4737498    0.2442793  10.81  0.002179406    1.782    0.439
        41 -10.0451    242.7315    224.1030   3.8294484837e+01  -2.9513225907e+00    0.2082519     0.164938 -14.07  0.001104752    1.413    0.292
        42 -10.6880     98.0917    241.4570   6.7798669062e+01   1.3118992529e+01    0.3957306    0.2160772  27.16  0.001061593    1.559    0.359
        43  -9.2736    221.4051    239.8522   4.4016788194e+01  -2.2430179653e+00    0.1885683    0.1169108  20.98 0.0006885208    1.249    0.199
        44  -8.5429     16.9863    238.6760   8.4621866829e+01   2.2744377402e+01    0.2861628   0.09169573  72.27  0.001308602    3.449    0.710
        45 -10.5126    231.1683    234.5215   4.1665430574e+01  -2.7687299967e+00    0.2668154    0.1910694  -3.38 0.0008185339    1.128    0.114
        46 -11.9078    126.7845    221.6922   5.9563035983e+01   1.2471950452e+01    0.7042178    0.4884663 -67.94  0.001243565    2.102    0.524
        47  -8.1980    195.5429    227.9791   4.6767749424e+01   2.2072439269e+00    0.1497248   0.08145431  -9.25 0.0004889651    2.255    0.557
        48 -10.5285    182.3418    226.4160   4.8969906784e+01   4.1135892409e+00     0.466693     0.202055  36.59  0.002442833    2.003    0.501
        49  -9.2093    144.9005    227.4416   5.6476528411e+01   9.0447135930e+00    0.2024702    0.1646766 -10.21 0.0006259331    1.339    0.253
        50  -8.4460     80.1823    227.8099   7.0440795512e+01   1.7703083161e+01    0.1499978    0.1354894   4.20 0.0005817534    1.351    0.260
        51  -8.4983     27.9902    226.4934   8.1845855898e+01   2.3906158744e+01    0.1479821   0.09546915  -1.04 0.0008104288    2.608    0.617
        52 -10.0737    249.4595    226.6702   3.7658799234e+01  -3.9393148819e+00    0.2656009    0.1570484  -3.73  0.001895177    1.364    0.267
        53  -8.0753     73.4470    224.4845   7.1657124866e+01   1.9148655979e+01     0.122986   0.09792069  41.05 0.0002100148    1.032    0.031
        54  -9.2967     66.8314    223.6790   7.3076302275e+01   2.0112305294e+01    0.2019782    0.1636019  75.13 0.0006795632    1.313    0.239
        55  -9.9614    114.9715    220.9274   6.2042110822e+01   1.4255550771e+01    0.2283482    0.1895092 -51.52 0.0008409264    1.497    0.332
        56  -9.5287    219.0146    219.1852   4.1359205937e+01   3.3934315886e-01    0.3311572    0.1866529   3.71  0.001979882    1.790    0.441
        57  -8.9245    213.4145    220.5231   4.2514525182e+01   8.6971654601e-01    0.2786286     0.115073  33.49  0.001496659    2.119    0.528
        58 -10.9358    131.0238    214.6726   5.7753039898e+01   1.3024104608e+01    0.6679071    0.4640923 -70.89  0.003769078    2.211    0.548
        59  -9.4505    128.0656    211.9447   5.8042499553e+01   1.3912907230e+01    0.2282542    0.1614686  44.95 0.0003660723    1.355    0.262
        60  -8.6066    226.8730    219.3733   4.0086012122e+01  -6.2755064654e-01    0.1649156    0.1250195 -19.06 0.0006002968    1.354    0.261
        61  -8.5588    149.2096    219.8007   5.4579118521e+01   9.5977874030e+00      0.19152    0.1610047 -10.58 0.0008103261    1.269    0.212
        62  -9.2003    151.5173    216.0424   5.3582121890e+01   9.8454527457e+00    0.3098804    0.1760401  14.46  0.001105329    2.030    0.507
        63  -9.7489     75.1928    219.3789   7.0824838541e+01   1.9871690098e+01    0.2674564    0.1655876  43.02 0.0009223016    1.280    0.219
        64  -9.9876    190.2930    216.5743   4.6034593504e+01   4.3518869495e+00    0.4266278    0.2545575 -31.89  0.002591996    1.775    0.437
        65  -9.4625     61.1709    218.5433   7.3961116507e+01   2.1762840013e+01    0.2721018    0.1252423 -51.24  0.001314976    2.920    0.658
        66  -9.8828    176.0048    216.3301   4.8708411570e+01   6.3380817993e+00    0.2763613    0.1667958 -31.39  0.001627468    1.805    0.446
        67  -8.6646    143.5409    217.0603   5.5390155635e+01   1.0831815928e+01    0.1613607    0.1245901 -43.26   0.00102151    1.568    0.362
        68 -10.2381    170.7338    215.1916   4.9570308400e+01   7.2367474262e+00    0.2697832    0.2037137  16.65 0.0006946953    1.079    0.074
        69 -10.9266    121.5988    222.2524   6.0751633225e+01   1.3107538085e+01     0.295099    0.2442202 -58.52  0.001830293    1.550    0.355
        70 -10.0775    117.6207    227.7451   6.2248597314e+01   1.2756108810e+01    0.3645404    0.2187079  47.48  0.001276811    1.613    0.380
        71  -9.7897    113.0556    212.7161   6.1491513151e+01   1.5950285651e+01    0.5779177    0.3427579   2.01  0.002549503    2.971    0.663
        72  -8.8780    228.3093    214.0761   3.9024167381e+01  -1.9418653938e-01    0.1554423    0.1145129  -6.74 0.0006174666    1.119    0.106
        73  -9.5590    202.7530    211.4817   4.2975619267e+01   3.3537991199e+00    0.3742025    0.1761616 -34.95   0.00203977    2.207    0.547
        74  -9.8137     63.9114    213.0877   7.2893746519e+01   2.2483409029e+01    0.3769863    0.1671505  43.96  0.001541586    1.777    0.437
        75  -8.7511     18.3265    214.3189   8.3456304579e+01   2.7195257875e+01    0.1021129   0.08840485 -30.60 0.0007046331    1.679    0.405
        76  -8.9561    215.6864    203.7190   3.9462082121e+01   2.6380157679e+00    0.1526643   0.08302247  30.26 0.0004271593    1.645    0.392
        77 -10.6855    211.7747    208.0493   4.0839985395e+01   2.6042389273e+00    0.5068165    0.3585508 -29.35  0.002705031    1.489    0.328
        78  -9.9091    237.7558    210.2773   3.6909636036e+01  -8.8541152304e-01    0.2306218    0.1336037  42.06   0.00140394    2.360    0.576
        79  -8.7956    135.0973    208.6079   5.6045676174e+01   1.3443922229e+01     0.358672    0.1198101  41.79  0.001197182    2.703    0.630
        80  -8.9008    224.6211    206.3705   3.8393847654e+01   1.1657675425e+00    0.2699184   0.09458083 -40.15  0.001242101    3.383    0.704
        81 -10.2803     11.8955    205.8493   8.4588138963e+01   2.9487711666e+01    0.3664214    0.2464861  88.15  0.002390055    1.451    0.311
        82 -11.3258     15.4522    196.1975   8.3366510765e+01   3.1181573609e+01    0.6142837    0.3199841 -40.15  0.002874834    3.398    0.706
        83 -11.3912     20.3451    181.3247   8.1414861110e+01   3.3990541551e+01    0.7569753    0.3981346 -69.28  0.003995827    1.965    0.491
        84 -10.1637     11.1067    187.4205   8.4052738332e+01   3.3458478278e+01    0.3369175    0.2584209  32.86  0.001326264    1.293    0.227
        85 -11.7843     12.7202    179.8247   8.3308008923e+01   3.5007167339e+01    0.7105091    0.6145922 -45.51  0.004763099    1.503    0.335
        86 -11.3937      5.7307    176.2645   8.4957616480e+01   3.6385085680e+01    0.5885077    0.3144544 -72.42   0.00122575    1.884    0.469
        87 -11.2266      3.4824    170.0086   8.5298893674e+01   3.7985820102e+01    0.5547599    0.2553183 -70.88  0.001828058    2.145    0.534
        88  -9.5134    124.0468    205.9487   5.8140903019e+01   1.5545251332e+01    0.1873489    0.1561926  28.61            0    1.019    0.019
        89  -8.1945     99.2994    206.6657   6.3935230695e+01   1.9020391531e+01    0.1332082   0.08722335  57.41 0.0003987094    1.653    0.395
        90  -8.0548     33.3944    206.2915   7.9599979824e+01   2.7323153284e+01    0.1125528    0.0916409 -17.76 0.0007004391    1.783    0.439
        91  -9.7851    126.6607    196.6844   5.6252106435e+01   1.6814845884e+01    0.2966606    0.2255629  14.36  0.001134951    1.346    0.257
        92  -9.2653    124.7724    192.7012   5.6108250838e+01   1.7843514196e+01    0.2531303    0.2001502 -35.07  0.001472429    1.454    0.312
        93  -9.4987    129.6130    201.4641   5.6263935638e+01   1.5502903599e+01    0.3325521    0.2358568  54.73  0.001845254    1.634    0.388
        94  -9.6116    185.3598    189.9059   4.2655113776e+01   8.8244465176e+00    0.5524803    0.1800839  39.72  0.002234744    2.893    0.654
        95 -10.0460    183.1508    185.6038   4.2337432000e+01   9.8162797191e+00    0.3120187    0.2120252 -30.14  0.001377808    1.492    0.330
        96 -11.1940    176.0131    184.9944   4.3647779210e+01   1.1027151495e+01    0.6282566    0.4187377 -52.61  0.002429104    2.065    0.516
        97 -10.1987    171.2805    201.0526   4.7286918360e+01   9.2528780522e+00    0.3124009     0.256912 -49.35  0.001025752    1.623    0.384
        98 -11.4814    178.5848    196.5274   4.5096381049e+01   8.8484618668e+00    0.7512211    0.4494875 -15.56  0.002807533    2.019    0.505
        99 -11.5574    172.8912    195.6066   4.6079013616e+01   9.8469487663e+00    0.6765303    0.3124664 -37.27  0.002481615    2.342    0.573
       100  -9.6926    166.8922    199.1715   4.7875907891e+01   1.0201099715e+01    0.2799797    0.1711192 -35.14  0.000976534    1.778    0.438
       101  -9.4681     57.8767    196.2551   7.2919413173e+01   2.6646714473e+01    0.5247484    0.1254552 -67.61  0.001861016    4.305    0.768
       102  -9.1963    212.6977    199.0343   3.9199833482e+01   3.6338781648e+00    0.1645287    0.1251723  -8.81 0.0003957291    1.129    0.114
       103  -9.4639    105.2471    197.5553   6.1404683994e+01   1.9899267688e+01    0.2487341    0.2251294 -18.16  0.000923522    1.292    0.226
       104  -9.1718    112.7286    198.0332   5.9689105268e+01   1.8689444932e+01     0.414061    0.1931755  54.55  0.001635561    2.993    0.666
       105  -8.7689    113.0581    194.3118   5.9103913532e+01   1.9349190269e+01    0.1888151     0.148359  35.33 0.0003585537    1.083    0.077
       106  -8.8899     51.6495    197.9814   7.4612346893e+01   2.7030215172e+01    0.2878327   0.08565722  38.92  0.001179248    2.436    0.589
       107  -9.2217    249.1017    194.7350   3.2619430445e+01  -4.6589646083e-01    0.3213509    0.1550993  -7.52  0.001655686    2.561    0.610
       108  -8.9640    131.4944    195.0157   5.4898784086e+01   1.6368293645e+01     0.172397    0.1349502 -51.21 0.0005157125    1.512    0.339
       109  -8.5731     66.9130    194.9944   7.0541660409e+01   2.5776099604e+01    0.2284103    0.1262811  57.45  0.001123002    1.812    0.448
       110  -8.4815     40.3515    194.4609   7.7155245049e+01   2.9065488710e+01    0.2272912   0.08017606 -58.40  0.000947408    3.215    0.689
       111  -8.4057    134.9837    192.4880   5.3720770463e+01   1.6277969721e+01    0.1943369   0.09786325  51.48 0.0008101604    2.519    0.603
       112  -9.0143     89.3043    177.3130   6.2714122611e+01   2.6447772618e+01    0.4084779    0.2005102  57.64   0.00111218    2.627    0.619
       113 -10.7861     93.8070    181.8315   6.2158572169e+01   2.4800535261e+01    0.4748432    0.3411622 -37.42  0.001744974    1.733    0.423
       114 -11.8034     97.9346    188.7310   6.2037367724e+01   2.2744878304e+01    0.5777133    0.3852589  63.78  0.001523871    1.777    0.437
       115 -10.1261    104.0579    189.4553   6.0617842282e+01   2.1674631156e+01    0.3246686    0.2078723  32.90 0.0009535093    1.366    0.268
       116  -8.9642     91.0847    190.0476   6.3918689236e+01   2.3485510042e+01     0.195126    0.1758252   8.21 0.0006917792    1.249    0.199
       117  -9.4425    203.9524    187.8703   3.8831247367e+01   6.3610431984e+00    0.2633912    0.2271157  46.64  0.001738244    1.627    0.386
       118  -8.8488    198.9990    185.4874   3.9311470031e+01   7.4263604887e+00    0.2319806    0.1112501  39.57  0.001147672    2.058    0.514
       119  -8.8916    155.0334    187.7469   4.8503381105e+01   1.3916166158e+01    0.3089575    0.1706785 -25.71  0.001403758    2.404    0.584
       120  -8.3677    138.5394    189.5289   5.2451447451e+01   1.6247536216e+01    0.1353595     0.116492  26.31 0.0003396822    1.010    0.010
       121  -8.5368    128.8575    188.5884   5.4534390715e+01   1.7967303112e+01    0.1980364    0.1099435  43.45 0.0009387888    1.673    0.402
       122  -8.5606    148.6755    187.0176   4.9773384952e+01   1.5065640936e+01    0.1944479    0.1153657 -72.16 0.0007050923    4.374    0.771
       123  -8.7297    250.1901    185.3252   3.0852357320e+01   4.8849685699e-01     0.196436    0.1352503 -18.99  0.001377061    1.191    0.160
       124  -9.4649    232.2259    185.5563   3.3637420564e+01   2.7458469546e+00    0.2545675    0.1193876 -20.73  0.001303306    2.192    0.544
       125 -10.1229    108.5386    185.0504   5.8894488048e+01   2.1870980434e+01    0.3620495    0.2656825  71.31  0.001564216    1.734    0.423
       126  -9.4446    111.5071    184.4604   5.8075906717e+01   2.1524100358e+01    0.2642799      0.18957  29.12 0.0007118506    1.276    0.216
       127  -9.6039    209.6688    185.0845   3.7324764167e+01   5.9219810606e+00    0.1995561    0.1567579  30.79 0.0007940027    1.336    0.252
       128  -9.0411    228.1353    184.1572   3.4047110991e+01   3.4691155550e+00    0.1858786    0.1326912  -0.73  0.001038136    1.188    0.158
       129 -10.3554     46.4427    180.6747   7.4503147131e+01   3.1422861495e+01    0.6488416    0.2164533 -66.25  0.002632758    2.977    0.664
       130  -8.2878    212.5395    182.4812   3.6360306217e+01   5.8668236332e+00    0.1240461   0.09862231   0.65 2.582391e-05    1.020    0.020
       131  -8.5070    196.8492    181.8528   3.9060016307e+01   8.2779071420e+00    0.1580462     0.149275  13.40 0.0007595267    1.326    0.246
       132 -10.2283    181.0541    179.1307   4.1597396267e+01   1.1156572929e+01    0.4398494    0.2917391 -66.29  0.001947216    3.375    0.704
       133  -9.1981    138.7205    180.1370   5.0879674746e+01   1.7942264850e+01    0.2924294    0.1957124  56.48  0.001435741    1.882    0.469
       134 -11.1256    204.8501    175.2459   3.6397564534e+01   8.0259689528e+00    0.5485479    0.2914494 -31.61   0.00254231    1.810    0.448
       135 -10.7833    207.8721    168.6728   3.4630471056e+01   8.5175146413e+00    0.5610197    0.3215782 -47.23  0.002830793    2.285    0.562
       136  -9.7085    105.7655    175.1819   5.8127899988e+01   2.4345439165e+01    0.3588443     0.220638  73.99  0.001490794    2.705    0.630
       137  -9.3091    104.0013    179.8026   5.9269011938e+01   2.3657445169e+01    0.3371307    0.1969159 -49.54  0.001353304    1.931    0.482
       138  -9.5867    100.9940    177.3117   5.9672733229e+01   2.4652521460e+01    0.3105826    0.2628335  16.95  0.001207052    1.245    0.197
       139  -8.3418    250.4071    200.5031   3.3386164219e+01  -1.2676986944e+00    0.1108142   0.07852098  -3.94 7.236951e-05    1.035    0.034
       140  -9.7718    158.1968    177.0670   4.5974455497e+01   1.5246669129e+01    0.4553271    0.3675024  14.04  0.002651559    1.162    0.140
       141 -10.7972    151.9989    174.5024   4.6881137719e+01   1.6747344796e+01    0.4678647    0.4113431   9.86  0.002509539    1.062    0.059
       142 -10.0936    148.6829    174.6781   4.7657033803e+01   1.7278312300e+01    0.2843238    0.2434192   1.71 0.0007318283    1.164    0.141
       143  -9.6386    112.5071    179.2476   5.7045366314e+01   2.2419127269e+01    0.2738569    0.1736796  33.97   0.00136229    1.400    0.286
       144  -8.4159    219.3887    178.2155   3.4423096725e+01   5.4654806384e+00    0.1548153    0.1035827 -35.89  0.000482499    1.567    0.362
       145  -8.7226    240.6520    177.9154   3.0972225105e+01   2.5894328762e+00    0.1666294    0.1189713 -17.05   0.00075902    1.148    0.129
       146 -10.8020     29.3816    171.4057   7.8375529817e+01   3.5399308592e+01    0.6691617    0.3207101 -66.76   0.00322663    2.107    0.525
       147 -10.3457     24.0638    173.6968   7.9978175312e+01   3.5384024133e+01    0.4776602    0.2004846  88.05  0.002082459    2.541    0.606
       148  -8.9495    192.7287    172.8376   3.8178347028e+01   1.0273958335e+01    0.3362243    0.1454974  24.08  0.001270184    3.328    0.700
       149  -9.4668     90.6015    172.5658   6.1708600506e+01   2.7290489031e+01    0.5954781    0.2357986  29.56  0.002236021    2.546    0.607
       150  -8.4353    223.9935    172.4331   3.2600482983e+01   5.5863695776e+00    0.1703794    0.1088846  33.51 0.0003836771    1.570    0.363
       151  -8.7031    217.7796    182.7085   3.5503602378e+01   5.0888065518e+00    0.1913899    0.1279174  12.95 0.0007807167    1.393    0.282
       152  -8.3201    179.3422    169.6960   4.0193115203e+01   1.2957742967e+01    0.2067381    0.1285247  40.46 0.0007799828    1.586    0.369
       153  -8.8450    176.9842    167.5259   4.0256020969e+01   1.3712883475e+01    0.2184565    0.1713505  -1.65 0.0005663154    1.265    0.210
       154  -9.0644    135.0000    171.1920   5.0216091228e+01   2.0276564024e+01    0.2324958    0.1498762  56.44  0.001075651    1.938    0.484
       155  -8.9733    121.2885    169.7534   5.3315429356e+01   2.2908758962e+01    0.2575723    0.2083392  77.11 0.0009126392    1.575    0.365
       156  -9.7431    200.0417    167.1177   3.5737247110e+01   9.9790628967e+00     0.267448    0.1851525  -3.65  0.001186855    1.503    0.335
       157  -8.4278     55.0723    169.5487   7.1074302550e+01   3.2949132238e+01    0.2118856     0.079068  48.52  0.000807796    2.516    0.603
       158  -9.6633    160.2043    165.9680   4.3491459896e+01   1.6872166230e+01     0.566605    0.2512717 -55.23   0.00203266    3.683    0.729
       159 -11.0831    217.8257    165.3310   3.2286505722e+01   7.4736439464e+00    0.5118921    0.3101063  29.04  0.002255459    1.633    0.388
       160  -9.2611     97.9740    165.2411   5.8629511345e+01   2.7751375926e+01    0.4063387     0.245285  68.52  0.001361856    2.420    0.587
       161  -9.1495     19.3176    166.6794   8.0834571518e+01   3.7462638157e+01    0.1423223   0.07540789  57.32 0.0003621741    1.663    0.399
       162  -8.9216    138.9170    164.9738   4.8160883365e+01   2.0807958612e+01    0.2793718      0.19946 -82.55 0.0009466822    2.393    0.582
       163  -8.3940     80.5002    164.9502   6.3380266252e+01   3.0534925017e+01    0.1979131    0.1164969  79.39 0.0008077117    2.483    0.597
       164  -8.8155     37.6877    164.5867   7.5503883569e+01   3.6150520844e+01    0.2400589    0.1401833  70.63 0.0008305142    1.732    0.423
       165  -8.1856    130.4722    164.5524   5.0124566702e+01   2.2379706522e+01     0.143665    0.1297119  26.21 0.0002013143    1.020    0.019
       166  -9.2393      9.2685    163.2738   8.3431153552e+01   3.9112121931e+01    0.3259663    0.1446888 -75.69 0.0009642445    2.117    0.528
       167 -11.4583    248.9783    155.6403   2.5648892599e+01   4.2655939239e+00     1.060519    0.2753341 -30.60  0.004148286    3.505    0.715
       168 -10.9130    149.8254    163.7958   4.5396137326e+01   1.9100934987e+01    0.4560231    0.3642962 -19.74  0.001853332    1.344    0.256
       169  -8.8234      1.3889    162.3020   8.5560212801e+01   3.9930128954e+01    0.2181537    0.1041821 -81.27  0.000629623    1.926    0.481
       170 -10.4161     23.7983    160.0152   7.9121356554e+01   3.8645639313e+01    0.6012856    0.3009199   6.04   0.00252994    3.072    0.674
       171  -7.9515    177.3285    160.6572   3.8850897290e+01   1.4807923874e+01    0.1281836    0.1114591  86.64 0.0007051105    1.744    0.427
       172  -9.8681     99.9186    159.0368   5.7089991411e+01   2.8818439359e+01    0.3169918    0.2891378 -51.53 0.0008775748    1.196    0.164
       173  -9.2501     99.9561    154.0289   5.6221637203e+01   2.9944895434e+01    0.4316228    0.2615224 -78.56  0.001665504    2.420    0.587
       174  -8.4688     92.7468    160.1772   5.9252406774e+01   2.9732936029e+01    0.2473473    0.1367217  64.90 0.0009390635    2.699    0.629
       175  -8.8791    220.5277    159.5096   3.0718454312e+01   7.8831270290e+00    0.1249102    0.1041933  -7.89  7.65248e-05    1.032    0.031
       176 -10.6612    143.3440    158.5223   4.5888120225e+01   2.1276732254e+01      0.70411    0.2365532  44.61  0.002390067    2.994    0.666
       177  -8.7251    127.5361    157.1297   4.9478093433e+01   2.4422453535e+01    0.2514124    0.1469112 -54.44 0.0008536761    1.936    0.484
       178  -9.2850    105.1103    157.5281   5.5418446060e+01   2.8281966720e+01    0.2873111    0.2146673  77.39 0.0008705589    1.706    0.414
       179  -9.3428    225.0162    157.0840   2.9520308319e+01   7.5388508980e+00    0.1782849    0.1530445 -57.49  0.001134491    1.757    0.431
       180  -9.2450    208.1179    156.8503   3.2293195106e+01   1.0224441531e+01    0.2558621      0.19316  46.62   0.00115837    1.588    0.370
       181 -11.7414    206.3781    150.3856   3.1296415585e+01   1.1487231935e+01    0.8012261    0.6472605 -82.89  0.004372579    2.268    0.559
       182  -9.5840    206.5073    142.3497   2.9612693589e+01   1.2698319583e+01    0.3529747    0.2121848 -17.54  0.001280783    1.839    0.456
       183  -8.9759     50.1131    155.4540   7.0948039036e+01   3.6939025719e+01    0.4192703    0.1375521  53.68  0.001330298    3.793    0.736
       184 -10.1648    134.6138    153.8120   4.7073331489e+01   2.3815582501e+01    0.5474384    0.3515421  62.25  0.001741352    2.207    0.547
       185  -8.5666    119.7775    155.0104   5.1064243676e+01   2.6265018360e+01    0.2367657    0.1703154  82.07  0.001062224    2.083    0.520
       186  -9.4230     81.9315    154.4983   6.1418244618e+01   3.2759083914e+01    0.2671885    0.1964758  81.00 0.0009809496    1.580    0.367
       187  -9.7722     68.5971    153.9815   6.5250394700e+01   3.4860749434e+01     0.437783    0.2354997  63.41   0.00139524    2.326    0.570
       188  -9.4611    166.6523    157.2128   4.0387112380e+01   1.7296460679e+01    0.3918254    0.2723121  62.30  0.001860332    2.133    0.531
       189  -9.5130      4.8778    152.0658   8.4124776208e+01   4.2124033882e+01    0.3877828    0.1445351  60.12  0.001630609    2.470    0.595
       190 -10.5663    223.5121    148.5144   2.8065377271e+01   8.9775304047e+00    0.4386584     0.351926   4.39  0.002089955    1.154    0.134
       191  -8.8253    190.2344    150.8521   3.4331798892e+01   1.4182123767e+01    0.2291505    0.1756568  45.63 0.0009256582    1.446    0.308
       192  -8.7569     88.7290    151.0362   5.8889348658e+01   3.2499804709e+01    0.3192689    0.1807228  34.06  0.001397566    1.669    0.401
       193  -9.0848     28.6346    149.6830   7.6859722597e+01   4.0719694780e+01    0.5246075    0.1731542  61.53  0.001677185    4.086    0.755
       194  -9.0357    121.5536    112.0514   4.1123382524e+01   3.5361430898e+01    0.3812397    0.2706349  72.55  0.001613699    1.927    0.481
       195 -10.7252    120.9084    145.1664   4.8848119934e+01   2.8185764039e+01     1.247699    0.6605286  44.51  0.005202896    1.816    0.449
       196 -10.9751    107.6398    113.7401   4.5551974267e+01   3.7867832981e+01     1.346856    0.8714413 -49.88   0.00543855    1.584    0.369
       197 -10.2516    109.1064    132.0598   4.9356800083e+01   3.3346824658e+01     0.827256    0.5895389  10.97  0.003627991    1.905    0.475
       198 -10.3775    116.9865    125.2071   4.5597008957e+01   3.3371286217e+01    0.6136677    0.4675629  42.60  0.001696993    1.265    0.210
       199 -10.1797    118.1851    118.4338   4.3654053508e+01   3.4648467479e+01     0.713306    0.3059767 -45.41   0.00242502    2.411    0.585
       200  -9.5231    109.9413    124.7366   4.7491174315e+01   3.4871293036e+01    0.3157769    0.2252985  38.44 0.0008956897    1.361    0.265
       201  -9.5285    105.1882    123.5872   4.8620050099e+01   3.6061159089e+01    0.3134252    0.2370312  16.44  0.001055281    1.607    0.378
       202  -9.7982    108.8782    121.1130   4.6961713352e+01   3.5915886243e+01    0.3633947     0.301838  60.00 0.0008722664    1.263    0.208
       203  -9.6865     39.2404    146.9704   7.3320863906e+01   4.0302564301e+01    0.5034153    0.2117816  62.42  0.001856678    2.953    0.661
       204  -8.8827    142.8574    146.2822   4.3536062374e+01   2.3793628594e+01    0.2672105    0.1864076 -12.83  0.000952028    1.931    0.482
       205  -9.2676    107.4545    138.3734   5.1151453818e+01   3.2204909381e+01    0.4423591    0.2871152  71.80  0.001700215    2.332    0.571
       206  -8.7425     77.7963    147.1462   6.1467389666e+01   3.5158157476e+01    0.1982584    0.1761858  -9.69  0.001068203    1.347    0.257
       207 -10.1241     57.4914    145.5002   6.7443609531e+01   3.8468610494e+01    0.7832518    0.2765468  35.09  0.002928718    2.478    0.597
       208 -10.9173    245.1015    143.8816   2.3927568047e+01   6.3301291802e+00     0.716593    0.3828005 -10.58  0.003563698    2.336    0.572
       209  -9.8513    244.1918    135.1906   2.2328166891e+01   7.6136612316e+00     0.168183    0.1424402  -7.58 0.0006092091    1.087    0.080
       210  -8.8151    195.4158    145.7500   3.2302019231e+01   1.4097815695e+01    0.2415244    0.1209033 -40.39 0.0006892372    1.976    0.494
       211  -9.2129    158.7168    145.7239   3.9746565127e+01   2.0874269001e+01    0.3413249    0.1990611   1.67  0.001134476    3.872    0.742
       212  -9.9453    148.8840    145.0297   4.1843589672e+01   2.2888414639e+01    0.4475152    0.3145936  83.83  0.001837557    2.699    0.630
       213  -9.4223    107.0804    145.0615   5.2586103822e+01   3.0744554788e+01    0.4879307    0.2933821  73.30  0.001761841    3.065    0.674
       214  -8.1863     13.3945    146.2113   8.1250252652e+01   4.2922330575e+01     0.180759    0.1072758  80.73 0.0004145881    1.556    0.357
       215  -8.1136    165.4645    143.9775   3.7895366991e+01   1.9914891585e+01    0.1896228    0.1259884 -65.14 0.0008080772    2.435    0.589
       216  -8.7928     88.0820    143.8388   5.7830970240e+01   3.4314011256e+01    0.3276997    0.1959418  66.01  0.001314752    2.282    0.562
       217 -10.6262     70.1726    142.1237   6.2989071496e+01   3.7538852218e+01    0.5720203    0.3700968  76.48  0.002552111    1.911    0.477
       218  -8.8554      3.7617    142.8510   8.3993096889e+01   4.4455396283e+01    0.1909619    0.1222072  58.88 0.0006575984    1.374    0.272
       219  -8.9293    192.7801    133.8024   3.0218087115e+01   1.6525799297e+01    0.2078388     0.186282 -49.84 0.0007815384    1.293    0.226
       220 -10.6841    197.7149    136.2271   2.9852334269e+01   1.5221630043e+01     0.533173    0.3636863  12.04    0.0027046    1.768    0.434
       221  -9.4269    202.6940    136.2993   2.8987526591e+01   1.4312323494e+01    0.2342455    0.2021011  13.03 0.0004727041    1.126    0.112
       222  -9.9369     41.3585    135.3705   7.1293676098e+01   4.3013833965e+01    0.4006831    0.3111867 -57.20  0.001493663    1.344    0.256
       223 -10.8849     44.0795    131.0649   6.9821586751e+01   4.3811649465e+01    0.8439386    0.4517455  70.85  0.003465956    2.308    0.567
       224  -9.2298     23.6308    138.4513   7.7431255364e+01   4.4013317887e+01     0.411961    0.1592342  55.23   0.00160441    2.673    0.626
       225  -9.0523     21.8714    132.2623   7.7442626853e+01   4.5750042009e+01    0.4607762    0.1490547 -60.10  0.001748987    2.826    0.646
       226  -9.2814     24.8232    125.9136   7.5806426995e+01   4.7132080630e+01    0.3810483    0.2195574 -89.73  0.001374074    1.712    0.416
       227  -9.9542     28.6520    122.0442   7.4024852373e+01   4.7789726112e+01    0.7310043    0.4048698 -88.22  0.003327186    1.845    0.458
       228  -9.6495    234.3620    136.8352   2.4049405849e+01   8.9061352254e+00    0.3145753    0.2130335 -12.26   0.00110471    1.432    0.301
       229  -8.8848     81.5200    137.6106   5.8698202736e+01   3.6896576048e+01    0.3269008    0.1319188 -53.46   0.00119405    2.506    0.601
       230  -8.5712    161.9711    136.8218   3.7089788722e+01   2.1920601374e+01    0.2460404    0.1636743  14.37  0.001082645    1.997    0.499
       231  -8.2911      3.7937    134.3878   8.3522540540e+01   4.6561513439e+01    0.1668679    0.1233269  -4.07 0.0009508483    1.726    0.420
       232  -9.6473     83.6637    131.9570   5.6973168723e+01   3.7931921521e+01    0.4364475    0.2832769  65.56  0.001429256    1.909    0.476
       233  -9.4066    209.4464    131.6643   2.6836828206e+01   1.3831768887e+01    0.2698251    0.2555586   5.05  0.001020106    1.143    0.125
       234  -9.4312    132.1202    131.1369   4.2902093589e+01   2.9034007801e+01    0.3578706     0.244351 -62.84  0.001073975    1.824    0.452
       235  -8.4492    242.5100    131.4983   2.1812494356e+01   8.3643587433e+00    0.1233704     0.099397 -17.05 0.0001025055    1.019    0.018
       236  -8.1094    143.2896    131.6286   4.0225081096e+01   2.6674607449e+01    0.1502298    0.1205759 -87.28 0.0007022622    1.718    0.418
       237  -9.3589     13.3957    129.8398   8.0069090428e+01   4.7052121011e+01    0.4796516    0.1819009  61.16  0.001842452    2.863    0.651
       238 -10.8685    246.4267    128.7722   2.0731670445e+01   8.1268740829e+00    0.4492886    0.2112815 -45.74  0.002156234    2.498    0.600
       239  -8.7725    153.4688    129.5495   3.7344302532e+01   2.5019219371e+01    0.2595671    0.1386703 -53.36 0.0008034097    2.287    0.563
       240  -9.7027     99.6093    128.4018   5.1349058030e+01   3.5981414937e+01    0.4879352    0.3228877  83.11  0.001935946    2.383    0.580
       241  -9.0843     72.9040    128.8279   5.9826675856e+01   4.0449665760e+01    0.2961886    0.1882809  80.56  0.001223497    2.138    0.532
       242  -9.9451    227.8590    125.9655   2.2736961369e+01   1.1493034531e+01    0.3222618    0.2230986 -42.76  0.001252408    1.472    0.321
       243 -10.0594     60.3324    124.6467   6.3282501078e+01   4.3381100768e+01    0.7446855    0.3542699  67.97  0.002295234    3.985    0.749
       244 -10.0262     44.4813    123.1423   6.8554837202e+01   4.5822716153e+01    0.6329973    0.3050616  65.92  0.002275844    2.874    0.652
       245  -9.2275    134.6416    124.3638   4.0681299187e+01   2.9954070406e+01    0.4446568     0.181264  36.39  0.001493948    2.738    0.635
       246  -9.2518    181.0906    120.3516   2.9350461046e+01   2.1081955172e+01    0.4794588    0.2706295 -10.03  0.001691147    3.419    0.708
       247  -9.6203    141.8637    120.1945   3.7869457484e+01   2.9307930696e+01    0.4674875    0.3274064 -44.04  0.002181896    1.454    0.312
       248  -8.5390     84.0023    122.0374   5.4857965608e+01   4.0321765258e+01     0.244529    0.1889644 -16.41 0.0009349672    1.719    0.418
       249 -10.6783     23.6468    102.2946   7.3384548360e+01   5.3439015788e+01    0.9380978    0.3239651  59.27  0.002711064    4.939    0.798
       250 -10.8599     15.3158    112.8867   7.7874375968e+01   5.1305295395e+01    0.8851177    0.3780628 -73.98  0.003798302    2.070    0.517
       251  -9.9052     22.6091    109.9141   7.4786467112e+01   5.1515187152e+01    0.3950328    0.2445691  88.02  0.001030239    1.608    0.378
       252 -11.0748     16.7855    104.5297   7.6402779597e+01   5.3392335020e+01    0.5590324    0.3873334 -51.31   0.00194299    1.453    0.312
       253  -8.7620     71.2274    119.8009   5.8647515454e+01   4.2995936725e+01    0.2594581    0.1464555  68.38 0.0009201939    2.697    0.629
       254  -9.0518    131.2590    118.7122   4.0186461607e+01   3.1861001380e+01    0.3516222    0.2222134  86.29  0.001126494    3.794    0.736
       255 -10.5995    248.2613    116.7350   1.8028687322e+01   9.4387596232e+00    0.3054792    0.2713584 -32.33  0.002168484    1.186    0.157
       256  -9.4725      2.4443    116.3223   8.2858529160e+01   5.1238047901e+01    0.5366752    0.1860134  72.93  0.001944887    3.275    0.695
       257  -7.9652    172.6776    117.6653   3.0370187778e+01   2.3285594221e+01    0.1514274    0.1121174   4.93  0.000705041    1.708    0.414
       258  -9.9865    185.1112    113.9263   2.7059050112e+01   2.1371406826e+01    0.3625666    0.2923658  62.82  0.001934603    1.461    0.315
       259  -9.5515     92.9314    112.6337   4.9844447798e+01   4.1008685185e+01    0.4476287    0.3057714  83.78  0.001436337    2.178    0.541
       260  -9.4592     79.1552    112.4668   5.4377047241e+01   4.3538776562e+01    0.4259374    0.2729441  79.39  0.001664741    2.366    0.577
       261  -9.6672     66.2873    110.3169   5.8420953491e+01   4.6188137261e+01    0.4632636    0.2482619  67.08  0.001581551    3.117    0.679
       262  -9.8535     61.7112    105.9431   5.9160380803e+01   4.8007770683e+01    0.3140525    0.2249744  36.35 0.0006404478    1.394    0.283
       263  -9.3512    133.7313    108.2461   3.6884463063e+01   3.3542188955e+01    0.4892763    0.2018658 -44.80  0.001708899    2.461    0.594
       264 -10.5522    250.2623    102.2344   1.4757643528e+01   1.1030745291e+01    0.6229606    0.1533206 -28.89  0.002085809    4.198    0.762
       265  -9.6117     35.0380    103.1828   6.8955898015e+01   5.2126086102e+01    0.4101996    0.2681851  77.67  0.001221148    1.717    0.418
       266 -10.1776     29.5230    100.8849   7.0802773441e+01   5.3283660748e+01    0.4473935    0.2164031  46.92  0.001580681    2.176    0.540
       267  -8.6585     78.3296    105.4496   5.3025533964e+01   4.5433622712e+01     0.305744     0.151037  19.79 0.0009512251    3.508    0.715
       268 -10.1796     45.8683    102.1993   6.4478034418e+01   5.1149127560e+01     0.811566    0.3499151  61.00   0.00242963    4.270    0.766
       269  -8.4557    150.3367    103.8200   3.1674672231e+01   3.0734179229e+01    0.3032641    0.1307249 -48.35   0.00105589    2.549    0.608
       270  -8.5572    139.6545    104.3513   3.4358770464e+01   3.3029204713e+01    0.2389283    0.1868295 -82.91  0.000908658    1.695    0.410
       271  -8.5716     93.0513    103.9697   4.7646883195e+01   4.3068983396e+01    0.2509155    0.1949948 -10.57 0.0008944969    1.729    0.422
       272 -10.7982    130.7968    101.7147   3.5895614960e+01   3.5561482670e+01    0.7865058    0.4322677  29.22  0.002814609    2.585    0.613
       273 -10.0228    108.8501     98.5372   4.1193442958e+01   4.1090155662e+01    0.6097702    0.3904602  69.68  0.001878744    2.314    0.568
       274  -8.4228     82.1937     99.7864   5.0252501117e+01   4.6139750743e+01    0.2616992    0.1641751  77.49 0.0008382202    2.746    0.636
       275  -9.7780     64.0614     96.0208   5.5989077248e+01   5.0186185939e+01    0.5388448    0.3164276  75.23  0.001787561    2.978    0.664
       276  -8.2973    129.4020     96.7760   3.4890686024e+01   3.6906808797e+01    0.2125409    0.1500152 -31.05 0.0006163683    1.574    0.365
       277  -8.6790     95.0299     96.9732   4.5124267076e+01   4.4334251702e+01    0.2475892    0.1915681  83.28 0.0005507529    1.651    0.394
       278 -10.3301     22.3347     92.4477   7.2490942025e+01   5.6148127571e+01    0.4028223    0.3416536 -43.85  0.001708914    1.216    0.178
       279  -9.2006      7.0452    103.0693   8.0086547212e+01   5.4414896919e+01    0.2241132    0.1331951  60.04 0.0006819217    1.695    0.410
       280  -8.8058    108.0831     91.7743   3.9495924905e+01   4.2766521330e+01    0.3077384    0.2187173  25.78   0.00125056    1.702    0.412
       281  -9.4895     44.7098     91.7174   6.2802184275e+01   5.4032788721e+01    0.4979523    0.2236398  16.12  0.001756465    3.115    0.679
       282  -9.6996      4.7329     91.1411   7.9876113095e+01   5.7654607858e+01    0.4550443    0.1887531  69.25  0.001770345    2.891    0.654
       283  -8.8908    124.7872     91.0445   3.4476006646e+01   3.9156605745e+01    0.2485606    0.2121029 -82.39  0.000652384    1.354    0.261
       284  -8.1007     57.6928     91.7004   5.7444796852e+01   5.2262227412e+01    0.1512756    0.1141654 -25.98 0.0003022838    1.595    0.373
       285  -9.8168     34.6576     88.7758   6.6495937167e+01   5.5958783404e+01    0.5935246    0.2935478 -88.72  0.002178633    2.887    0.654
       286  -9.4045     37.1499     80.6818   6.3648052392e+01   5.7790250155e+01    0.4165396    0.2409702  -8.71  0.001669236    2.660    0.624
       287  -8.7086     64.3926     87.4032   5.3644715001e+01   5.2301612559e+01    0.3682742    0.1981279 -21.01   0.00102978    4.863    0.794
       288  -9.2208     86.6153     86.5175   4.5001682989e+01   4.8474523598e+01    0.3740012    0.2422679  74.05  0.001139006    2.510    0.602
       289  -9.4005     48.4741     84.0608   5.9412030937e+01   5.5520161967e+01    0.4134817    0.2534658  66.03  0.001276827    2.266    0.559
       290  -9.6580      7.9982     84.0141   7.7637865721e+01   5.9342051901e+01    0.3295667     0.194492 -47.71  0.001449603    1.649    0.394
       291  -9.1006    104.7290     82.9990   3.7880632692e+01   4.5433190479e+01     0.344159    0.2466763 -78.86  0.001017299    1.982    0.495
       292  -8.8840    116.8056     82.9647   3.4259200646e+01   4.2685827207e+01    0.2295893    0.2103987 -10.51  0.000312779    1.206    0.171
       293  -9.5298     24.5783     80.5271   6.9437583705e+01   5.9085470502e+01    0.4091821    0.2243671  71.67  0.001392589    2.457    0.593
       294  -9.6100    187.0951     81.0428   1.8389778276e+01   2.6394961155e+01    0.3583775     0.195866  47.45 0.0009825109    1.980    0.495
       295  -9.0586     87.3769     80.1604   4.2783704124e+01   4.9788082794e+01    0.4730635    0.2070295  28.27  0.001332648    4.093    0.756
       296  -8.3622     74.9843     80.5229   4.7494081156e+01   5.2128401032e+01      0.21581    0.1269602  60.48  0.000537764    2.365    0.577
       297  -8.4253    191.2028     77.8354   1.6894816307e+01   2.5974541583e+01    0.1895185     0.165273  13.79 0.0005404215    1.329    0.248
       298  -9.1062     49.4713     76.8175   5.7073840041e+01   5.7214672332e+01    0.2872172    0.1996907   0.39 0.0009356346    1.894    0.472
       299  -7.9392    213.6664     76.7191   1.3441919175e+01   2.1300062680e+01    0.1292448     0.101559  16.08 0.0003691266    1.612    0.380
       300  -8.2928    128.3113     75.6451   2.8838714582e+01   4.1405419709e+01    0.1646628    0.1227807 -76.07 0.0007044108    1.731    0.422
       301  -9.8952     10.5785     74.2066   7.5052262967e+01   6.1745142904e+01    0.3343981    0.2007591  18.26  0.001328886    1.831    0.454
       302  -9.8527     27.7423     71.2599   6.5959878165e+01   6.1189558752e+01    0.6265813    0.2546365 -27.47  0.001803612    5.170    0.807
       303  -9.1898     82.3471     72.3604   4.2075149728e+01   5.2575726896e+01     0.324945    0.2540993  86.15  0.001041017    1.689    0.408
       304  -8.6954     95.6626     71.6646   3.7123634114e+01   4.9887598399e+01    0.3215527    0.1842855 -63.25  0.001157596    2.557    0.609
       305  -8.0628    105.5484     71.5160   3.3889816655e+01   4.7668541980e+01    0.1568168    0.1512171  84.03 0.0001887931    1.055    0.052
       306  -9.4407     51.6916     69.6277   5.3967923662e+01   5.8666510669e+01    0.4423575     0.237043 -72.95  0.001644166    2.712    0.631
       307  -9.5076      5.2609     70.3137   7.7115879207e+01   6.3029992217e+01    0.3625959    0.1562911 -81.38  0.001541886    2.219    0.549
       308  -8.7036     16.5496     70.0183   7.1337863343e+01   6.2439294507e+01    0.2670379    0.1567993  83.09   0.00115327    2.035    0.509
       309  -8.2300    129.3362     69.2825   2.6526346059e+01   4.2351691435e+01    0.1580967    0.1219444  22.52 0.0005715787    1.621    0.383
       310  -8.8454      1.4882     68.5722   7.8788374997e+01   6.3640297442e+01    0.2743575    0.1130553 -75.50  0.001187276    2.090    0.522
       311  -8.8387     84.6177     63.7587   3.8220215052e+01   5.3969916401e+01    0.3309894    0.1855753  17.38  0.000962598    4.281    0.766
       312  -8.6092     37.6661     64.3232   5.9146837424e+01   6.1859730959e+01    0.2225592    0.1632806  68.72  0.001086877    1.740    0.425
       313  -8.1700    110.2817     63.6121   2.9730096658e+01   4.8105820188e+01     0.163557    0.1213632 -72.90 0.0007004046    1.740    0.425
       314  -9.4340     18.2063     61.6032   6.8698475781e+01   6.4458822294e+01    0.3033246    0.1936194 -45.28  0.001003069    1.461    0.315
       315  -8.6044     51.3481     61.3146   5.1428863878e+01   6.0700867226e+01    0.1539787    0.1106215 -18.02 0.0007047207    1.722    0.419
       316  -9.2826     73.3803     59.4716   4.0980963603e+01   5.7203782558e+01    0.3367504    0.2535394 -65.64 0.0009584633    1.598    0.374
       317  -8.4009    164.8040     59.4372   1.6018232189e+01   3.5095580920e+01    0.2108944    0.1330662  49.59  0.000945718    1.662    0.398
       318  -8.4804    111.0705     58.4323   2.7644458306e+01   4.8881009670e+01     0.224614    0.1246381  33.16 0.0004990798    2.442    0.591
       319  -9.7351     39.3117     57.3206   5.6116548719e+01   6.3349428752e+01    0.3083661    0.2365624 -42.62  0.001359152    1.241    0.194
       320  -9.8847      7.0502     56.8186   7.3916431950e+01   6.6371649190e+01    0.3077099    0.1633822  81.89  0.001332548    2.344    0.573
       321  -9.8197      2.3970     56.1079   7.6447628919e+01   6.6762019297e+01     0.337445    0.2190164 -79.40  0.001623103    1.432    0.301
       322  -8.7424     63.0732     54.6585   4.3534682945e+01   6.0214533477e+01    0.2503683     0.203397 -60.46 0.0006083467    1.355    0.262
       323  -9.3355     20.9334     53.1260   6.5013597763e+01   6.6342805453e+01    0.2297276    0.1394878  51.97  0.001083264    2.071    0.517
       324  -8.8788     92.4558     50.1854   3.0240012267e+01   5.4887628376e+01    0.3602862    0.1306618 -47.23  0.001132422    3.221    0.690
       325  -8.5403     31.4557     51.5135   5.8464688002e+01   6.5681564631e+01    0.1356528    0.1300795 -52.19  0.000292435    1.079    0.073
       326  -8.8831     75.0222     50.1897   3.6653661616e+01   5.8778711960e+01    0.2541734     0.171076  17.53   0.00107107    2.044    0.511
       327 -11.2643     45.5753     48.8620   4.9760361049e+01   6.4421670249e+01    0.3076664    0.2544712 -43.00 0.0005102612    1.161    0.139
       328  -9.2594     22.5532     46.6232   6.2091899611e+01   6.7763461130e+01    0.2749124    0.1638421   8.52  0.001326309    1.916    0.478
       329  -8.7502     54.2220     53.8063   4.7322631732e+01   6.1952864685e+01    0.2389451    0.1607281  79.05 0.0009453204    2.767    0.639
       330  -8.7114      1.4650     45.9607   7.5145157477e+01   6.9312448561e+01    0.1883404     0.111652 -69.65 0.0003664206    1.474    0.322
       331  -8.6689    150.1629     44.3826   1.3823473443e+01   4.1083534800e+01    0.2796162     0.113018 -27.66 0.0009773291    2.712    0.631
       332  -8.3672     81.8452     46.8373   3.2612136971e+01   5.7941144141e+01    0.2020172    0.1791633 -74.20 0.0005195822    1.309    0.236
       333 -10.0105     16.4103     43.3423   6.4899248038e+01   6.9072013626e+01    0.4294195    0.1966032 -67.81  0.001872138    2.177    0.541
       334  -9.9450      4.8310     40.6079   7.1750273002e+01   7.0463970785e+01    0.4965093    0.2235029  85.92  0.001878179    3.574    0.720
       335  -8.9428    113.9363     41.1027   2.0306356980e+01   5.1078357368e+01    0.2265148     0.213208  54.01 0.0003213147    1.039    0.037
       336  -8.4196     68.9805     41.0426   3.5201943544e+01   6.1798067979e+01    0.2266139    0.1831976 -86.25 0.0006469949    1.719    0.418
       337  -8.6485     36.9143     40.7453   5.1264007068e+01   6.7451263767e+01    0.2514136    0.1860806 -87.96 0.0009817845    2.071    0.517
       338  -8.8981    123.4413     40.1262   1.7655400978e+01   4.8740985130e+01     0.249883    0.1927642  51.67 0.0004032276    1.263    0.208
       339  -8.6599     84.0397     39.8915   2.8810610299e+01   5.8680771462e+01    0.2466422    0.1768648  19.29   0.00111638    1.756    0.431
       340  -8.8611     26.0648     36.4683   5.6174348996e+01   6.9737070994e+01    0.2464579    0.1902729 -76.94  0.001073836    1.617    0.381
       341  -8.4400    106.4957     36.5441   2.0408617147e+01   5.3690789090e+01    0.1513553    0.1423305  52.55 4.200802e-05    1.027    0.026
       342  -8.4310     38.2935     35.3153   4.8059417649e+01   6.8409996480e+01    0.1419856    0.1006051 -17.13 0.0002872314    1.599    0.375
       343  -9.2023     20.8188     34.1622   5.8733916252e+01   7.0799280426e+01    0.1988858    0.1379298 -31.21  0.001075111    1.388    0.280
       344  -9.8507      6.4049     33.5292   6.8698871050e+01   7.2056751913e+01    0.2564787    0.1919474 -39.80 0.0008695937    1.174    0.148
       345  -8.4755    119.4224     33.2625   1.5917173290e+01   5.0781944160e+01    0.2098069    0.1343903 -44.20 0.0005877187    1.626    0.385
       346  -9.2298    222.4904     32.4749   1.6544062200e+00   2.5177934336e+01     0.129597     0.105866 -52.53 0.0001625938    1.024    0.023
       347  -8.2402     60.5081     32.4979   3.4916973729e+01   6.5080459688e+01    0.1398336    0.1369337  26.82 -3.128754e-05    1.100    0.091
       348  -8.3607     49.5427     32.5233   4.0384759185e+01   6.7145807956e+01    0.1381762    0.1316893  -0.35  8.53828e-05    1.058    0.055
       349  -8.9544     12.9754     31.0377   6.3063748967e+01   7.2190344209e+01    0.2003499    0.1531466  64.59  0.001042046    1.756    0.431
       350  -8.7772    147.6226     28.6986   8.9605391536e+00   4.3841957489e+01    0.1552768    0.1044256  38.85 0.0007026445    1.764    0.433
       351  -8.3767    101.3161     28.6412   1.8435614888e+01   5.6158406382e+01    0.1568043    0.1119943 -67.54 0.0007043763    1.754    0.430
       352  -8.9295      1.9673     27.7563   7.0265218802e+01   7.3618747171e+01    0.2343442     0.149406  -0.90 0.0007186921    1.658    0.397
       353  -8.8111     28.3177     27.0162   5.0399002603e+01   7.1479677281e+01    0.2306175   0.07720473 -36.02 0.0007048186    4.282    0.766
       354  -8.0048     91.6713     26.3402   2.0129167497e+01   5.8927832109e+01    0.1527606    0.1130384 -70.51 0.0007051609    1.738    0.425
       355  -9.7982     44.3925     25.1927   3.9387006286e+01   6.9398151925e+01    0.2469066      0.20746  16.57 0.0003372753    1.146    0.128
       356  -8.3546    110.4812     24.0863   1.4198750425e+01   5.4356786985e+01    0.2034976    0.1491464 -24.58 0.0004344159    1.484    0.326
       357  -9.3868     66.5798     23.0987   2.7368356534e+01   6.5339476834e+01    0.2695756    0.1772865 -84.06  0.001025311    3.295    0.696
       358  -8.2604     58.7961     22.1562   3.0272484213e+01   6.7151945832e+01    0.1894695    0.1531212  13.02 0.0002869508    1.286    0.223
       359 -10.0760     13.0906     21.0626   5.8779294758e+01   7.4363884903e+01    0.2774422    0.2273048  -4.95 0.0006775549    1.176    0.150
       360  -9.9432    188.7851     20.4032   1.4184622732e+00   3.4240263190e+01    0.2401239    0.2209141   7.17 0.0007818266    1.346    0.257
       361  -8.6476     84.8434     21.1905   1.9753319017e+01   6.1319593392e+01    0.2144008    0.1916287 -77.79 0.0005501697    1.273    0.215
       362  -8.1028     48.3332     21.7010   3.5249051271e+01   6.9292626116e+01    0.1299283    0.1122709  86.92 0.0003564293    1.649    0.394
       363  -9.2204     40.9708     21.0221   3.9033511943e+01   7.0723310026e+01     0.205483    0.1782631  -1.43  0.001217745    1.078    0.072
       364  -8.3012     73.4460     19.2363   2.2620002935e+01   6.4324731857e+01    0.1958721    0.1295062 -43.62 0.0009352714    1.697    0.411
       365  -9.9147     29.6298     18.5004   4.4879874079e+01   7.2955364717e+01    0.3977692    0.2617384  57.58  0.001499858    2.473    0.596
       366  -9.3431     27.4921     13.4471   4.3309844155e+01   7.4172467977e+01    0.1974491    0.1128234 -32.51 3.215373e-05    1.743    0.426
       367  -8.5661      1.5026     19.5252   6.7845517905e+01   7.5496804397e+01    0.1251012    0.1055087 -39.35 0.0008101263    1.010    0.010
       368  -8.8641     50.6903     15.0710   3.0079058440e+01   6.9876140608e+01    0.2519402    0.1702219  24.64 0.0006211424    1.577    0.366
       369 -10.1559    196.0665    248.5061   4.9511271274e+01  -2.7329923424e-01    0.2531882    0.1651328  29.36  0.001089761    1.338    0.252
       370  -8.9457    148.0821    248.7007   5.8419701753e+01   5.6173567320e+00     0.170086    0.1537292  36.05  0.001319508    1.366    0.268
       371 -10.7843     84.3540    214.5557   6.8269328600e+01   1.9585745439e+01    0.5300786    0.3596581  87.40  0.003046746    1.887    0.470
       372 -10.7325     77.8324    210.7305   6.9417522329e+01   2.1175002742e+01    0.3880942    0.3398477  43.27  0.002140255    1.084    0.077
       373  -8.7031     31.9637     11.4766   3.8860054442e+01   7.3825010460e+01    0.1907131    0.1216121  35.07  0.000462389    1.524    0.344
       374 -11.7784    106.2610    224.3495   6.4341596594e+01   1.4873786778e+01    0.9634398    0.6467177 -15.65   0.00503516    2.276    0.561
       375 -10.0248    107.3770    246.9532   6.6382067851e+01   1.1079775790e+01    0.3520341    0.2545972  87.00   0.00201737    2.068    0.516
       376 -10.7335    107.5025    238.0467   6.5495026370e+01   1.2449332828e+01    0.6636514    0.3683387  52.86  0.003290677    1.963    0.491
       377 -11.8189     89.7977    230.4434   6.8563059259e+01   1.6012573458e+01     1.112276    0.5450916 -66.25  0.005907238    2.646    0.622
       378 -11.5827     95.6668    217.9696   6.6026607806e+01   1.7436645771e+01    0.5583377    0.3303128  43.62  0.001710253    1.409    0.290
