#   1 NUMBER                 Running object number                                     
#   2 MAG_AUTO               Kron-like elliptical aperture magnitude                    [mag]
#   3 X_IMAGE                Object position along x                                    [pixel]
#   4 Y_IMAGE                Object position along y                                    [pixel]
#   5 X_WORLD                Barycenter position along world x axis                     [deg]
#   6 Y_WORLD                Barycenter position along world y axis                     [deg]
#   7 A_WORLD                Profile RMS along major axis (world units)                 [deg]
#   8 B_WORLD                Profile RMS along minor axis (world units)                 [deg]
#   9 THETA_WORLD            Position angle (CCW/world-x)                               [deg]
#  10 FWHM_WORLD             FWHM assuming a gaussian core                              [deg]
#  11 ELONGATION             A_IMAGE/B_IMAGE                                           
#  12 ELLIPTICITY            1 - B_IMAGE/A_IMAGE                                       
         1  -9.0920    134.7780     12.5016   5.2744790479e+01   5.0144837743e+01    0.3177662    0.2075426 -42.71  0.001047174    1.717    0.418
         2  -8.6142     55.6073     10.0392   7.4179508583e+01   6.6989109414e+01    0.1937039    0.1722564  43.50 0.0007094744    1.499    0.333
         3  -8.3563     91.1567      9.2002   6.1617254576e+01   6.0519648624e+01    0.1652051      0.15846 -65.57 0.0007431552    1.353    0.261
         4  -7.7832    101.4993      8.4385   5.8496029199e+01   5.8372801976e+01    0.1306094    0.1190516  32.37 0.0001545234    1.074    0.069
         5  -8.4865     33.7932      5.5489   8.1566149214e+01   7.0645184758e+01     0.210878    0.1365125 -43.32  0.001118756    1.910    0.477
         6  -8.5955     79.2617      4.3647   6.2930353891e+01   6.3413812531e+01    0.2371266    0.1532623 -29.73 0.0008276061    1.642    0.391
         7  -8.0231     15.6296      2.8060   8.9612914521e+01   7.2994527852e+01    0.1472721   0.08985899 -43.18 0.0004194939    1.661    0.398
         8  -7.6925    115.3069      2.6347   5.2882298163e+01   5.5752204678e+01    0.1328119   0.09907959 -60.05 0.0007037516    1.747    0.427
         9  -8.4893     62.2007      1.7191   6.7396896356e+01   6.6840818372e+01    0.1688645    0.1540062   5.13  0.000575399    1.245    0.197
        10  -8.4133    218.5970    247.9330   9.4174368586e+01  -6.9786276173e+00    0.1788268    0.1398574 -42.85  0.001074802    1.824    0.452
        11  -8.6751    248.9657    249.2169   8.9232996640e+01  -1.1399591692e+01    0.3265699    0.1295397 -24.75  0.001703453    2.855    0.650
        12  -9.2966    248.5494    242.4916   8.8242169214e+01  -1.0640738029e+01    0.2393164    0.1835672 -29.93  0.001012887    1.651    0.394
        13  -7.9372    191.5755    249.7708   9.9191380869e+01  -3.1171960141e+00    0.1289251    0.1146909 -57.57 0.0006503876    1.622    0.384
        14  -7.9917    125.2982    250.3595   1.1121701020e+02   7.1392634765e+00    0.1067623   0.08747486  12.17 0.0007034736    1.710    0.415
        15  -8.4483     94.0247    249.5199   1.1671615252e+02   1.1905777940e+01    0.2516569    0.1277972  67.38   0.00135107    2.215    0.549
        16  -7.5796     86.4612    250.5111   1.1812704401e+02   1.2808409944e+01    0.1149927   0.08514728  59.62 0.0002239282    1.013    0.013
        17  -9.3793    211.9751    244.9351   9.4882884585e+01  -5.6376721858e+00    0.5077608     0.275317 -11.05  0.002097168    2.861    0.651
        18 -10.0106    223.9940    244.1058   9.2660962990e+01  -7.3307139526e+00     0.394846    0.2270189 -44.24  0.002297021    2.506    0.601
        19  -9.0656    147.1351    246.2243   1.0677781363e+02   4.3665215615e+00    0.2798832    0.2045435 -86.02   0.00139833    1.971    0.493
        20  -8.4126    147.0128    240.5278   1.0610141097e+02   5.2471822102e+00    0.2983989    0.1862507  83.51  0.001441499    3.116    0.679
        21 -10.1475    118.8061    245.2234   1.1184986259e+02   8.9397417598e+00    0.3157657    0.1826601  52.48  0.001873831    1.429    0.300
        22  -8.7269    139.4836    244.4760   1.0797440612e+02   5.8406075294e+00    0.1834273    0.1142297 -73.61 0.0009828494    2.404    0.584
        23  -8.3335     67.4849    245.0580   1.2099278103e+02   1.6298337417e+01    0.1500149   0.09838417 -80.88 0.0007056494    1.555    0.357
        24  -9.1018    202.0336    242.9468   9.6349732512e+01  -3.8722947445e+00     0.277557    0.1622491 -37.37  0.001126962    2.057    0.514
        25  -8.7084    194.1960    243.8328   9.7883626693e+01  -2.7654108391e+00    0.2618707    0.1668367  10.01 0.0009170251    1.945    0.486
        26  -8.4221    194.0020    239.9247   9.7350989413e+01  -2.2243713579e+00    0.1745439    0.1688811 -25.91 0.0006237371    1.356    0.262
        27  -9.3728    169.4823    242.8915   1.0224882826e+02   1.2849044962e+00    0.3426479    0.2123924 -33.84  0.001179229    2.103    0.525
        28  -8.6088      9.5587    243.7984   1.3045952046e+02   2.3210283029e+01    0.1461408   0.06727697  79.84 0.0009457072    1.750    0.429
        29  -9.3405    160.0316    240.4606   1.0367144668e+02   3.1583022541e+00    0.3277707     0.228763  86.19  0.001407222    2.477    0.596
        30  -9.1122    183.1286    240.2813   9.9384261716e+01  -5.4009572309e-01    0.3533974    0.2355282  66.93  0.001879791    2.545    0.607
        31  -7.8975    153.4169    242.1986   1.0512241201e+02   3.9656967204e+00    0.1450626    0.1147823 -78.65 0.0007112931    1.716    0.417
        32  -8.1593     88.0381    241.8449   1.1710123313e+02   1.4047515451e+01    0.1922352    0.1231982  85.93 0.0006025825    1.667    0.400
        33  -8.1449    240.6145    239.8373   8.9147605978e+01  -9.2470995200e+00    0.2019261    0.1013284 -26.00  0.001154365    2.125    0.529
        34  -8.2533    243.2267    234.9878   8.7921674470e+01  -9.0747162014e+00    0.3050918    0.1394424 -19.78  0.001542152    2.638    0.621
        35  -7.9867    208.9128    238.5391   9.4459601925e+01  -4.3821228178e+00    0.1669365    0.1379676 -30.80 0.0006274715    1.468    0.319
        36  -9.1659    135.3269    238.9226   1.0808685968e+02   7.3692472983e+00    0.2182612    0.1387973  57.50 0.0008399892    1.517    0.341
        37  -9.2726    230.7552    236.8846   9.0361020753e+01  -7.4856299832e+00    0.2474958    0.2185115 -57.78  0.001533953    1.964    0.491
        38  -8.5418     25.7445    237.1283   1.2755737585e+02   2.2707565672e+01    0.2004418   0.06504735  64.65 0.0009594582    2.920    0.658
        39  -8.9885    247.7724    235.0458   8.7166174466e+01  -9.7234333403e+00    0.2015416    0.1668821  -3.64 0.0007238598    1.242    0.195
        40  -9.3146    246.4929    229.4001   8.6444531957e+01  -8.9044211837e+00    0.3750058    0.1749546 -28.91  0.001941964    2.208    0.547
        41  -9.8437    214.8671    233.3027   9.2581968298e+01  -4.6443687714e+00    0.4582352    0.3457901 -87.93  0.002302831    3.668    0.727
        42  -8.8651    203.3205    235.1466   9.4945278848e+01  -3.0712381658e+00    0.2532915    0.1994743 -63.72   0.00128174    2.133    0.531
        43  -7.7509    196.5324    236.4694   9.6378444941e+01  -2.1680137394e+00    0.1227984    0.0973129  26.75 0.0001929875    1.020    0.020
        44  -9.7217    175.7379    233.4784   9.9779162037e+01   1.6203371226e+00    0.4155712    0.2470613 -60.26  0.002155098    2.702    0.630
        45  -9.1919     77.6392    243.1698   1.1906875185e+02   1.5265995887e+01    0.2967058    0.1403644  66.27  0.001471533    2.225    0.551
        46  -9.3381    108.8473    234.5670   1.1256185318e+02   1.2236924296e+01    0.3794011    0.1907039  59.13 0.0009961581    2.019    0.505
        47  -8.0388    183.9919    235.5098   9.8538082491e+01  -1.8507008298e-02    0.1742828     0.090705  23.27 0.0007160074    2.413    0.586
        48  -8.4918    122.9961    234.0802   1.0983859029e+02   1.0120868365e+01    0.2467481    0.1518694  84.78 0.0007384127    2.420    0.587
        49  -8.6037    120.2598    228.5063   1.0970978082e+02   1.1507681902e+01    0.3169852     0.178405 -80.27  0.001540639    2.741    0.635
        50  -8.2701     99.8531    234.6964   1.1425855954e+02   1.3570780333e+01    0.2248142    0.1293346  74.42  0.001208108    2.082    0.520
        51  -9.0417     78.8293    234.5177   1.1812343870e+02   1.6625926980e+01    0.2323206    0.1384579  72.68  0.001087504    1.635    0.389
        52  -9.1971      8.4873    233.5257   1.3019527018e+02   2.5134703742e+01    0.1743653   0.07021935 -69.30  0.001040033    2.457    0.593
        53  -8.2073    194.4922    232.8602   9.6206362235e+01  -1.3534045759e+00    0.1515061    0.1207689 -33.83 0.0005159128    1.486    0.327
        54  -9.1463    141.7732    231.2285   1.0591228606e+02   7.5690753688e+00    0.6184089    0.2302543  56.42  0.002042693    4.741    0.789
        55  -8.0736    132.8005    232.9766   1.0784504662e+02   8.7402424281e+00    0.1943322     0.128317  76.68  0.001063142    2.033    0.508
        56  -8.3321     92.5985    232.2718   1.1537195071e+02   1.5069170484e+01    0.2689537    0.1267091  67.37   0.00123285    2.751    0.637
        57  -9.1413     67.9172    232.1205   1.1990721460e+02   1.8540780213e+01    0.3286448    0.1522496  69.86  0.001650108    2.418    0.586
        58  -8.9744    236.1329    231.0128   8.8479600356e+01  -7.5869939511e+00    0.2002326    0.1798935 -10.43 0.0007154789    1.372    0.271
        59  -9.2840    186.3121    230.5408   9.7369850085e+01   3.0422987182e-01    0.2942292    0.2148389 -69.01  0.001211554    2.337    0.572
        60  -8.4053    157.7319    232.1734   1.0299318309e+02   4.7891537084e+00    0.1837685    0.1495798  75.58 0.0008830467    1.528    0.345
        61  -8.9895      1.7824    230.8763   1.3115833668e+02   2.6256051133e+01     0.201537   0.09282764  73.50 0.0009272569    1.651    0.394
        62  -8.0935    204.8563    230.3911   9.3927127909e+01  -2.6873263389e+00    0.1808702   0.09473052  30.50 0.0006512754    1.706    0.414
        63  -9.1388    151.3376    229.0064   1.0378383327e+02   6.3497313775e+00    0.3000894    0.1976315  87.85  0.001487852    2.729    0.634
        64  -9.4206    148.6468    224.4951   1.0368743017e+02   7.5350735095e+00    0.4490003    0.2894666  81.72  0.001726335    2.737    0.635
        65  -8.0489    229.5918    228.7777   8.9246266989e+01  -6.3400901134e+00    0.1439947    0.1097803 -36.70 0.0004276443    1.651    0.394
        66  -8.6934    162.2893    228.1243   1.0155984664e+02   4.6611640058e+00    0.3103079    0.1851285  59.86  0.001221376    2.124    0.529
        67  -8.8979    128.0359    227.3218   1.0806442848e+02   1.0463957895e+01    0.2786471    0.1832109  74.54   0.00112104    1.925    0.481
        68  -9.2672    225.4601    222.2596   8.8886298936e+01  -4.8851960463e+00    0.2825549    0.2253421  -4.09  0.001137292    1.182    0.154
        69  -8.4049    206.0218    226.1326   9.3036025417e+01  -2.3019255259e+00    0.2121586    0.1740158 -47.69 0.0008221456    1.645    0.392
        70  -8.1035     49.4844    227.1514   1.2285331341e+02   2.1812192509e+01    0.2316791   0.08609417  56.17  0.001158012    2.286    0.563
        71  -7.4970     78.6485    226.3341   1.1742297990e+02   1.8146854196e+01    0.1313243   0.07129727  65.70 0.0007046356    1.783    0.439
        72  -8.7743    180.5542    224.4882   9.7534264337e+01   2.1469075733e+00    0.2724673    0.1910527  61.42   0.00106289    1.869    0.465
        73  -8.9001    104.7194    223.6300   1.1215730686e+02   1.4812927002e+01    0.3238547    0.1924123  78.47  0.001678962    2.146    0.534
        74  -8.8171     94.0489    224.3732   1.1430105973e+02   1.6291073195e+01    0.3566575    0.1735476  62.65  0.001725706    2.254    0.556
        75  -8.5496    216.3607    223.6527   9.0750018787e+01  -3.6304313374e+00    0.2170498     0.192588  62.29 0.0008561898    1.657    0.396
        76  -7.8755    114.0780    224.1506   1.1039489688e+02   1.3257471599e+01    0.1764465    0.1241981  63.55 0.0005618448    1.337    0.252
        77  -7.9543     59.9369    223.9524   1.2070649499e+02   2.1106445304e+01    0.2004615     0.103977  65.57  0.001123168    1.757    0.431
        78  -7.6072     38.2899    224.6387   1.2467806612e+02   2.3612512747e+01    0.1214053   0.06135025  68.40 0.0007026392    1.694    0.410
        79  -9.4501    192.5719    221.5051   9.4791043425e+01   5.6690058806e-01    0.3104426     0.253898 -69.63  0.001008126    1.878    0.467
        80  -8.5635    172.9328    223.1198   9.8783316868e+01   3.6440600757e+00    0.1893598    0.1588356  58.56 0.0006476264    1.331    0.249
        81  -9.2674    160.2605    221.2734   1.0096385230e+02   6.0958312893e+00    0.5172118    0.2483545  59.20  0.001794045    3.408    0.707
        82  -8.8897    238.8589    221.6039   8.6425504794e+01  -6.8578435952e+00    0.2029463    0.1611139 -26.49 0.0005758219    1.420    0.296
        83  -9.2765    120.2783    219.2748   1.0858391151e+02   1.3144163263e+01    0.4222628    0.2262099  70.21  0.001828789    2.920    0.658
        84  -8.8037     83.0674    220.6593   1.1604004202e+02   1.8589362571e+01    0.3019032    0.1614283  70.64   0.00127251    2.085    0.520
        85  -8.2497     73.0095    220.9306   1.1799375149e+02   1.9946393358e+01    0.2039169    0.1120333  68.36 0.0007801297    1.787    0.440
        86  -8.0411     27.5690    220.7680   1.2633037100e+02   2.5543729681e+01    0.1995351   0.08524252 -72.36  0.001137389    2.152    0.535
        87  -8.3122    202.5180    220.1220   9.2703970563e+01  -8.9446859271e-01    0.1656856    0.1228815 -35.62 0.0005718463    1.543    0.352
        88  -8.2516    210.0660    219.3040   9.1172321562e+01  -2.0248230365e+00    0.1730253    0.1417605  28.00 0.0004708716    1.084    0.078
        89  -7.8876    183.9876    219.2240   9.6057652358e+01   2.3593611023e+00    0.1727807     0.090992  40.19     0.000862    1.616    0.381
        90  -8.1482    249.4818    218.5306   8.4077271583e+01  -8.0598573195e+00    0.1948082    0.1035808  46.41  0.001021859    2.312    0.567
        91  -8.3951    140.4779    222.5549   1.0502056164e+02   9.2311318309e+00    0.1912324    0.1228951 -71.01 0.0008287216    2.133    0.531
        92  -8.8271    142.8043    216.4353   1.0371511261e+02   9.8947727103e+00    0.3437094    0.2092491 -69.40  0.001538036    2.329    0.571
        93  -8.0086    135.3397    218.6620   1.0551062397e+02   1.0766848600e+01    0.2114476   0.09345167  56.50 0.0008497451    2.804    0.643
        94  -9.0545    132.0619    215.4411   1.0572977457e+02   1.1890549775e+01    0.2953359    0.2027458 -79.55 0.0008412552    1.907    0.476
        95  -8.5373     61.9388    217.3816   1.1978529920e+02   2.2111051599e+01    0.2992111    0.1466773  78.08   0.00149345    2.343    0.573
        96  -8.9399     51.4489    217.3440   1.2175922202e+02   2.3447882338e+01    0.2655273    0.1451993  81.29 0.0009028456    1.755    0.430
        97  -7.8148    179.2955    217.6678   9.6713462026e+01   3.4025360112e+00     0.121645   0.09790516  68.86 0.0006013733    1.639    0.390
        98  -8.7542    169.3125    216.3563   9.8451144626e+01   5.3354456348e+00    0.2632412    0.2059299  81.21 0.0008919562    1.836    0.455
        99  -8.0637    111.7967    217.0078   1.0999216047e+02   1.4925375669e+01    0.2082161    0.1296171  76.69  0.001052278    2.009    0.502
       100  -7.9091     18.6294    216.2125   1.2763959567e+02   2.7355636008e+01    0.1483658   0.08128779 -73.61 0.0009556432    1.702    0.413
       101  -8.4998    232.4540    215.0341   8.6403771920e+01  -5.0447944611e+00    0.2139944    0.1609428  45.07  0.000869463    1.568    0.362
       102  -8.4490    185.6725    214.3599   9.4949670035e+01   2.8155393991e+00    0.1981325    0.1606946 -57.46 0.0006536539    1.625    0.384
       103  -7.8920    154.3979    215.1577   1.0121684336e+02   8.1214419156e+00     0.163575    0.1242455 -70.92 0.0004826118    1.713    0.416
       104  -9.4857    213.8986    212.0680   8.9231572635e+01  -1.6461267496e+00    0.3220585     0.297272 -60.74  0.001458647    1.567    0.362
       105  -8.8416     92.8092    213.9224   1.1342390862e+02   1.8453983169e+01    0.2746582    0.1544574  64.56  0.001045172    1.830    0.454
       106  -9.5811     73.3446    212.0543   1.1709012929e+02   2.1628139972e+01    0.6523401    0.2208833  59.45  0.002353176    4.032    0.752
       107  -8.8163    161.6925    212.4171   9.9347117084e+01   7.3148432642e+00    0.2016024    0.1633008 -69.81 0.0005704699    1.578    0.366
       108  -7.9981    106.7570    213.0506   1.1052351147e+02   1.6471455851e+01    0.2027172    0.1452382  68.44  0.001039946    1.352    0.260
       109  -7.7485    224.9893    212.5017   8.7288373235e+01  -3.5227170921e+00    0.1496218    0.1063196  58.68 0.0004787204    2.212    0.548
       110  -8.9090    204.3210    211.2002   9.0864104279e+01   8.9485512854e-02    0.2461157    0.2100634 -54.42 0.0007576433    1.596    0.373
       111  -9.4882    175.6842    210.3132   9.6237030906e+01   5.2026640742e+00    0.3946699    0.2665475  70.43   0.00163484    2.429    0.588
       112  -8.9134    148.0524    210.6815   1.0182407019e+02   1.0000870284e+01     0.307797    0.2071254  72.39  0.001152071    2.063    0.515
       113  -8.3831    192.1629    210.6489   9.3082286029e+01   2.2629374337e+00    0.2036907    0.1768291 -51.73 0.0007140121    1.458    0.314
       114  -8.9416    116.3441    210.5206   1.0826009008e+02   1.5411040112e+01    0.3293757    0.1948631  68.35  0.001134668    2.070    0.517
       115  -8.3888     32.5672    210.3456   1.2476250494e+02   2.7032363037e+01    0.2877677    0.1114442  86.24  0.001314823    2.941    0.660
       116  -9.1522      6.1199    208.9774   1.2945400120e+02   2.9974851075e+01    0.3243031    0.1092382  77.89  0.001512678    3.044    0.671
       117  -8.7198     85.5704    209.3067   1.1436961324e+02   2.0433594113e+01    0.2997111    0.1699139  81.08  0.001500831    2.132    0.531
       118  -8.1445     46.0940    209.5390   1.2215884204e+02   2.5642220288e+01    0.2514313    0.1210225  62.99  0.001357059    1.881    0.468
       119  -9.2451    236.3750    207.8981   8.4442756525e+01  -4.7253330204e+00    0.3676697    0.2287392 -40.11  0.001215556    1.905    0.475
       120  -8.2113    126.6410    208.5363   1.0588515877e+02   1.4073894531e+01     0.212404    0.1512644  88.02 0.0008434508    1.753    0.430
       121  -9.3774    246.3980    207.3742   8.2610039974e+01  -6.2155876361e+00    0.2492792    0.1915376 -22.42 0.0006746312    1.303    0.233
       122  -7.9619    156.4465    208.1980   9.9745461235e+01   8.9628381895e+00    0.1639963    0.1284727 -71.31 0.0007602861    1.628    0.386
       123  -8.2576    139.3185    208.0474   1.0321346396e+02   1.1993807978e+01    0.2378772    0.1623715  62.65 0.0008688556    1.594    0.373
       124  -9.3277     99.3260    206.0796   1.1119318954e+02   1.8995597032e+01    0.3814155    0.2261726  86.40  0.001366145    2.189    0.543
       125  -8.4300     56.2961    205.4590   1.1983727681e+02   2.5213663603e+01    0.2079149    0.1164746  80.12 0.0008707295    1.766    0.434
       126  -8.0118     11.7055    206.6981   1.2834496784e+02   2.9899398232e+01   0.09472418   0.07510757 -66.93 0.0002594331    1.574    0.365
       127  -9.0786    183.6895    203.9362   9.3589363880e+01   4.8209177914e+00    0.3173912    0.2389995  71.56  0.001178592    1.965    0.491
       128  -8.6895    131.3958    204.1126   1.0427502989e+02   1.4097129857e+01    0.2982794    0.2017531  80.86 0.0009834332    2.004    0.501
       129  -8.0339    109.2425    205.4369   1.0906266929e+02   1.7548455835e+01    0.1809399       0.1048  52.07 0.0004587058    1.543    0.352
       130  -9.2780    194.9982    203.6145   9.1322439945e+01   2.8596788639e+00    0.3057938    0.2608202 -29.33  0.001059954    1.281    0.219
       131  -9.3668    192.3703    197.4144   9.0730631855e+01   4.3219564049e+00    0.3595714    0.2894884 -51.38  0.001351378    1.524    0.344
       132  -9.5993    163.9332    203.1754   9.7422101835e+01   8.5030989255e+00    0.4223316    0.2498488  58.23  0.001265371    2.064    0.515
       133  -9.3360    250.0834    202.3107   8.1051730912e+01  -6.1284248126e+00    0.3805762    0.1644131 -32.81  0.001106309    2.265    0.559
       134  -9.9973    246.7209    194.9477   8.0242131009e+01  -4.6319531585e+00    0.4082402    0.3102448 -67.90  0.002107153    2.943    0.660
       135  -7.7630     17.3582    203.6866   1.2714595742e+02   2.9952239758e+01    0.1231856   0.05901789  65.42 0.0007043501    1.745    0.427
       136  -9.3140    243.0228    200.6072   8.1944561406e+01  -4.8063057862e+00    0.3170889    0.1726555 -33.75 0.0009035707    1.853    0.460
       137  -8.9297    140.6729    201.2601   1.0191477926e+02   1.3014220703e+01    0.3496331    0.2241429  71.24  0.001192976    2.177    0.541
       138  -8.6049     80.0898    201.2687   1.1460700887e+02   2.2855950662e+01    0.3122222    0.1687221  71.48  0.001324432    2.140    0.533
       139  -7.5125     72.6973    202.3035   1.1623774060e+02   2.3687082785e+01    0.1306133   0.07886865  68.55 0.0003075421    1.594    0.373
       140  -8.1742     48.1766    202.0325   1.2114262052e+02   2.6919348831e+01    0.2062406    0.1043631  76.75 0.0009111431    2.025    0.506
       141  -7.9277     10.2058    202.6006   1.2839142316e+02   3.0857146929e+01    0.1246193    0.1010327  38.32 0.0007999983    1.595    0.373
       142  -7.9881    221.5574    201.4873   8.5931802872e+01  -1.4194236084e+00    0.1285548    0.1102392  13.24 0.0001358346    1.041    0.039
       143  -9.1604    236.9206    198.8334   8.2678779734e+01  -3.5887712722e+00    0.2704263     0.194974 -41.48  0.001159103    1.695    0.410
       144  -9.5067    149.5626    198.6516   9.9647554128e+01   1.1911967855e+01    0.4264058    0.2862705  86.45  0.001119725    2.478    0.596
       145  -8.9403    123.8135    199.1732   1.0514932997e+02   1.6353563563e+01    0.3226757    0.2207717  83.20  0.001643234    1.875    0.467
       146  -9.4966    113.0277    198.6808   1.0736651009e+02   1.8269642649e+01    0.4334021    0.2482232  68.18  0.001752709    2.238    0.553
       147  -8.4481    176.9500    199.1261   9.4102455810e+01   6.8408689074e+00    0.1990022    0.1736732  62.31 0.0005051497    1.311    0.237
       148  -9.1288     88.5899    198.2049   1.1247945846e+02   2.2237476575e+01    0.3839053    0.2254882 -86.41  0.001717822    1.993    0.498
       149  -8.4278    202.3639    198.0310   8.8900598806e+01   2.4292188201e+00     0.223186    0.1811128  61.25 0.0007466353    1.613    0.380
       150  -9.4138     61.4886    196.9930   1.1799713461e+02   2.6299780217e+01    0.4003997    0.2029209  73.72  0.001670787    2.234    0.552
       151  -8.9330    216.0850    196.1357   8.5951808421e+01   3.0488174096e-01    0.3132136    0.1937229 -53.09  0.001116512    2.446    0.591
       152  -8.0977     12.4090    197.2708   1.2768227771e+02   3.1728056973e+01    0.1630349   0.07985962  85.72 0.0009498477    1.697    0.411
       153  -8.2060    132.9885    195.9755   1.0272249421e+02   1.5384191554e+01    0.2132103    0.1534893  74.30 0.0005790114    1.660    0.398
       154  -7.7446     53.3367    196.6517   1.1963256690e+02   2.7408747207e+01    0.1350947    0.0731682  68.53 0.0001863341    1.782    0.439
       155  -8.3234    230.9692    194.4550   8.2911367546e+01  -1.9922030372e+00    0.1971366    0.1585365 -17.53 0.0005481596    1.193    0.162
       156  -8.7222    224.5287    194.1849   8.4026108367e+01  -8.6198213914e-01    0.2681234    0.1978486 -53.11  0.001126839    1.957    0.489
       157  -7.5395    209.3010    195.6582   8.7138583415e+01   1.5675273697e+00    0.1213515    0.1079718  85.59 0.0005493134    1.674    0.402
       158  -8.7721    185.2577    194.8430   9.1676403163e+01   6.0459611602e+00    0.2272441    0.2027562  89.36 0.0007233591    1.482    0.325
       159  -9.4451    160.9661    194.3532   9.6553871389e+01   1.0620415260e+01    0.3235708    0.2329199  73.09  0.001043788    1.925    0.480
       160  -8.9465     77.2561    193.9873   1.1438147908e+02   2.4781850468e+01    0.2753647    0.1822275  73.33  0.000747027    1.467    0.318
       161  -8.9421     43.9041    193.6252   1.2127832650e+02   2.9182325687e+01    0.4075301    0.1815137  70.44  0.001903473    2.507    0.601
       162  -8.5318    210.9669    202.2586   8.8035717203e+01   2.7453040921e-01    0.2051275    0.1853675 -68.81 0.0006226232    1.609    0.379
       163  -8.2053    198.7435    191.9026   8.8469785572e+01   4.0611503014e+00    0.1813184    0.1682117   2.93 0.0004515465    1.090    0.083
       164  -8.3666    172.5079    192.0047   9.3753264024e+01   8.9007885066e+00    0.2584671    0.1812133  56.80  0.000898677    1.591    0.371
       165  -9.2667    139.6682    191.0018   1.0050415650e+02   1.5161688189e+01    0.3774865    0.2447239  75.19  0.001241888    2.279    0.561
       166  -8.8102     21.3947    191.5682   1.2560251976e+02   3.2040695020e+01    0.2865768   0.08362246  57.13  0.001207896    3.352    0.702
       167  -7.5713    205.2553    191.6767   8.7165529273e+01   2.9149869657e+00    0.1187601    0.1082624 -84.35 0.0002559661    1.545    0.353
       168  -8.1248    178.8473    191.3759   9.2342586320e+01   7.8288422136e+00     0.178698    0.1735982  67.64 0.0005876292    1.180    0.153
       169 -10.4350     92.1575    188.7355   1.1052522009e+02   2.3683797987e+01    0.9502984    0.2728377  50.56  0.003178507    3.792    0.736
       170  -8.0537     90.6496    181.7002   1.0991650109e+02   2.5436711442e+01    0.2028783    0.1478523 -21.24 0.0006996273    2.464    0.594
       171  -8.4475    148.3702    189.2342   9.8341850302e+01   1.3911634857e+01    0.2250282      0.17276 -65.26 0.0006106701    1.515    0.340
       172  -9.0360      6.4851    189.9861   1.2837272555e+02   3.3762927616e+01    0.1725712   0.08549369 -82.05  0.001038628    1.609    0.378
       173  -8.3943    237.3498    188.5002   8.0631703326e+01  -2.2077624935e+00    0.2347734    0.1467094 -34.23 0.0006527916    1.611    0.379
       174  -9.0014    216.4910    187.9835   8.4326103141e+01   1.4782603809e+00    0.2721981     0.233001 -43.56 0.0008233311    1.408    0.290
       175  -9.2808    155.9848    187.4671   9.6409679718e+01   1.2831823769e+01    0.3462759     0.222122 -59.49 0.0009552845    1.893    0.472
       176  -8.9573    129.2023    188.6184   1.0238796183e+02   1.7517275014e+01     0.282663    0.2033116  76.70 0.0008740262    1.677    0.404
       177  -9.8856    120.8892    186.7224   1.0391355628e+02   1.9370016856e+01    0.5476559    0.2914894 -74.34  0.002206556    2.867    0.651
       178  -9.2517     54.8534    186.9770   1.1838446408e+02   2.9286496304e+01    0.4535279    0.2178264  76.65  0.001804185    2.549    0.608
       179  -8.5012     34.2154    187.9898   1.2277422443e+02   3.1470952609e+01    0.2903106      0.13672  77.60  0.001011525    2.195    0.545
       180  -8.8628    191.4315    187.3051   8.9048917092e+01   6.1781624238e+00    0.2843879    0.2358753 -77.66  0.001229642    1.748    0.428
       181  -9.2061    109.7463    186.3769   1.0632317559e+02   2.1348429492e+01    0.3910707    0.2395521  73.76  0.001364154    2.121    0.528
       182  -7.8853    230.4107    187.2296   8.1621174754e+01  -8.4592570377e-01    0.1714155    0.1187301 -41.62 0.0007586144    1.654    0.395
       183  -8.7813    164.7933    186.6432   9.4396710706e+01   1.1326561095e+01    0.2544472    0.2207629 -87.60  0.000653802    1.413    0.292
       184  -8.4765    249.4400    185.8092   7.8014030220e+01  -3.8168385502e+00    0.2086406     0.201929 -46.43 0.0008514417    1.505    0.335
       185  -8.6597    182.9803    185.2941   9.0374735600e+01   8.1192626603e+00    0.2482123    0.2022255 -29.90 0.0006512208    1.309    0.236
       186  -8.8551    210.0822    184.0974   8.4783286080e+01   3.2509604181e+00     0.250413    0.1827969 -33.03 0.0007480212    1.408    0.290
       187  -8.8150    202.7749    184.7217   8.6315515790e+01   4.4966378060e+00    0.2521281    0.1873991 -49.36 0.0008239197    1.622    0.383
       188  -8.4264    138.2664    184.9689   9.9808655015e+01   1.6614281108e+01    0.1848408    0.1744719 -75.09 0.0003328102    1.126    0.112
       189  -8.9103     66.8630    184.6420   1.1555151283e+02   2.8236699477e+01    0.3724339    0.1874653  63.79  0.001059019    2.156    0.536
       190  -8.4045    224.1635    183.9099   8.2106482976e+01   7.4294103464e-01    0.1862329    0.1759467 -20.15 0.0004643264    1.242    0.195
       191  -8.0750    197.0334    183.9232   8.7288108171e+01   5.7015030644e+00    0.2011449    0.1719631  86.85 0.0005941663    1.683    0.406
       192  -8.9438    174.2859    183.3142   9.1794792898e+01   1.0132630797e+01    0.3250528     0.237247 -57.97 0.0009169748    1.674    0.403
       193  -8.3097      2.0491    183.8179   1.2886810786e+02   3.5424090374e+01    0.1879064    0.1016231  49.45  0.001210381    1.681    0.405
       194  -9.1196    241.5041    182.1687   7.8659547168e+01  -1.9931211066e+00    0.3488523    0.2524744 -65.11  0.001700912    2.818    0.645
       195  -8.8189     44.2079    182.3163   1.2019243686e+02   3.1582214667e+01     0.307252    0.1646425  81.27 0.0009335566    1.879    0.468
       196  -8.4840     19.7844    183.1815   1.2533158029e+02   3.3973195051e+01    0.2103902   0.07946589  65.96 0.0009476385    2.813    0.644
       197  -9.3574    147.6737    180.8210   9.7029154625e+01   1.5691390014e+01    0.3783991    0.2700469  88.61  0.001158214    2.038    0.509
       198  -8.8771     26.7783    181.1377   1.2374839667e+02   3.3724864902e+01    0.3352397    0.1441208  64.35  0.001646299    2.331    0.571
       199  -8.7623     24.2372    176.4768   1.2390567856e+02   3.4992301704e+01    0.3110122    0.1265444  88.67  0.001422656    2.555    0.609
       200  -8.6066    137.6788    179.3956   9.8984166823e+01   1.7853727382e+01    0.2892185    0.1999552 -86.88 0.0009437291    2.056    0.514
       201  -9.4001    191.5180    178.3071   8.7292411950e+01   7.7173972827e+00    0.2982204    0.2716867 -65.07 0.0005944645    1.351    0.260
       202  -8.0578    169.5330    178.7695   9.1934846812e+01   1.1892629880e+01     0.185683    0.1380206 -61.44 0.0009284134    1.654    0.396
       203  -9.4098     35.6484    175.8000   1.2141978114e+02   3.3971350638e+01      0.64871    0.2350658 -87.02  0.002501073    3.505    0.715
       204  -9.4372    248.5429    176.6711   7.6349794387e+01  -2.3791934910e+00    0.3920362    0.2236252 -47.72  0.001872328    2.406    0.584
       205  -8.3362    231.4546    177.4583   7.9492871639e+01   4.3965077259e-01    0.2334249    0.1755773 -37.63 0.0005878642    1.421    0.296
       206  -8.8330    204.9752    177.7184   8.4505806226e+01   5.2502276858e+00    0.2565597    0.1990129 -43.86 0.0007211079    1.436    0.304
       207  -8.6902    129.1771    177.5922   1.0057743860e+02   1.9794573618e+01    0.2981006    0.2095316  85.90  0.001080601    1.880    0.468
       208  -8.4408    217.4288    177.1757   8.2013493010e+01   3.0152755314e+00    0.1994274    0.1878149  55.57 0.0005907321    1.328    0.247
       209  -9.4558    183.0774    176.0452   8.8569601289e+01   9.7585214575e+00     0.289638    0.2297176 -57.51 0.0006202023    1.518    0.341
       210  -8.0091     97.8931    177.5154   1.0768195410e+02   2.5210078325e+01    0.1999697    0.1278646  41.23  0.000602943    1.530    0.346
       211  -8.7654     89.0536    176.7418   1.0959042774e+02   2.6775936351e+01    0.2934046    0.1790002  79.80  0.001016703    2.010    0.502
       212  -9.9037     57.4142    173.3400   1.1635927406e+02   3.1983581092e+01    0.8195657    0.3485081  80.07  0.002665292    4.780    0.791
       213  -8.8139     13.1463    176.9473   1.2623650518e+02   3.5927182800e+01     0.260076    0.1116724  66.00  0.001335261    2.228    0.551
       214  -9.2513    158.8355    175.0683   9.3530480626e+01   1.4687497541e+01    0.3848745    0.2760596  80.94  0.001246818    2.085    0.520
       215  -9.3925    104.2164    174.9383   1.0584139304e+02   2.4739684249e+01     0.469581    0.2717833  68.43  0.001717178    2.239    0.553
       216  -9.7311     81.4864    155.6318   1.0825067056e+02   3.2755363023e+01    0.5284973    0.4020109 -67.39  0.001987756    1.231    0.188
       217 -10.7554     75.8190    170.9122   1.1183827116e+02   3.0055452908e+01     1.049053    0.4653368 -84.89  0.003332517    4.067    0.754
       218  -9.1345     74.9565    160.1765   1.1054055607e+02   3.2648529436e+01    0.2830732    0.2080128 -15.16  0.001050967    2.382    0.580
       219  -8.3244    224.2937    174.4342   8.0180175943e+01   2.1946191214e+00    0.2160774    0.1598662 -51.16 0.0003452496    1.743    0.426
       220  -8.4279    250.5405    172.9151   7.5251570336e+01  -2.1712616803e+00     0.188129     0.115157 -29.79 0.0004457749    1.503    0.334
       221  -9.5232    175.9223    172.3103   8.9323920172e+01   1.1857568078e+01    0.3603706    0.2267145 -51.43 0.0007937473    1.808    0.447
       222  -8.3849    143.0013    172.6736   9.6588144217e+01   1.8233273839e+01    0.2542216    0.1976027  86.30 0.0007928239    1.601    0.376
       223  -8.3504    134.7966    171.7319   9.8273334780e+01   1.9987020261e+01    0.2690768    0.1850218 -87.06  0.001001838    2.063    0.515
       224  -9.5961    121.3912    170.3355   1.0110879589e+02   2.2760579746e+01    0.4737791    0.2899829 -74.56  0.001172536    2.137    0.532
       225  -9.0082     45.0378    170.9898   1.1888571825e+02   3.4005244335e+01    0.3548074    0.1782273  85.87  0.001419762    2.180    0.541
       226  -8.6829    205.8530    169.9602   8.2753987887e+01   6.3986249000e+00    0.3567186    0.1846428 -44.21  0.001000857    2.090    0.522
       227  -8.4002    244.7264    169.7147   7.5581024807e+01  -7.1267255757e-01    0.1647762    0.1564462 -41.35  0.001047241    1.369    0.270
       228  -8.2596    237.1923    169.6755   7.6879742658e+01   6.1331127988e-01    0.2185886    0.1705551 -37.32 0.0007188765    1.360    0.265
       229  -8.8803    230.5770    169.8951   7.8102018372e+01   1.7668267982e+00     0.234449    0.1630204 -34.94  0.001255746    1.423    0.297
       230  -8.5918    198.3799    170.0289   8.4243163105e+01   7.8408166548e+00     0.233379    0.2012399  73.32 0.0006146978    1.514    0.340
       231  -9.1544    149.8446    169.3606   9.4427747732e+01   1.7590912735e+01    0.3687333    0.1986178 -53.04  0.001359144    2.029    0.507
       232  -9.1949    166.9956    168.5793   9.0490026009e+01   1.4350992613e+01    0.3619228    0.2421004  63.85  0.001027058    1.932    0.482
       233  -8.3062     88.6744    168.7689   1.0852542110e+02   2.8625372014e+01    0.2636706    0.1495523 -86.98 0.0008816258    2.350    0.574
       234  -8.3673    218.8274    168.2410   7.9914788673e+01   4.2076001572e+00    0.1930879    0.1865143 -28.03 0.0005322783    1.213    0.175
       235  -8.1051    211.3991    168.2404   8.1322897586e+01   5.6223496310e+00    0.1921694    0.1291601 -45.82 0.0009432044    1.663    0.399
       236  -9.0194    191.8831    166.6310   8.4849163870e+01   9.7328091448e+00     0.324701    0.2029901 -48.07 0.0008532332    1.781    0.439
       237  -8.8108    111.8031    167.6749   1.0289346607e+02   2.5051130066e+01    0.3543062    0.2041734  70.59  0.001298908    2.564    0.610
       238  -8.7897    184.9955    166.4910   8.6238228486e+01   1.1137639713e+01     0.257656    0.2013015 -58.37  0.000610394    1.544    0.353
       239 -10.0092     95.1157    162.6794   1.0604416378e+02   2.8993886332e+01    0.8974087    0.5103459  88.14   0.00331652    2.742    0.635
       240  -8.9262     20.4412    166.1343   1.2387228465e+02   3.7637892372e+01    0.3148274    0.1293118  61.45 0.0009860888    2.530    0.605
       241  -8.3121    140.6327    166.3014   9.5930444018e+01   2.0021011468e+01    0.2194258     0.166791  77.67 0.0006918013    1.616    0.381
       242  -9.7567    135.5930    163.9121   9.6637970807e+01   2.1502059030e+01    0.4505412    0.2919389  63.74  0.001104672    1.864    0.463
       243  -8.1345    233.8744    165.1451   7.6519997624e+01   1.9131818146e+00    0.1950053    0.1747481 -31.99 0.0005649355    1.226    0.184
       244  -8.5752    159.4322    164.5314   9.1336813423e+01   1.6673064694e+01    0.3028792    0.2219111  76.64 0.0008788767    1.891    0.471
       245  -9.4751     33.6550    163.5558   1.2069619637e+02   3.6930287459e+01    0.5103973    0.1990444  58.40  0.002215683    2.867    0.651
       246  -8.0001    240.0357    164.2964   7.5260448669e+01   9.3330847861e-01    0.1837345    0.1636552   5.43 0.0005303776    1.070    0.066
       247  -8.5622    212.8896    163.6730   8.0074857113e+01   6.1088370844e+00     0.260335    0.1925381 -39.37 0.0005922941    1.391    0.281
       248  -8.9430    246.0009    162.9996   7.3965569578e+01   7.4521654006e-02    0.2047323    0.1763662  -7.55 0.0005279321    1.018    0.017
       249  -8.4042    204.8788    163.0686   8.1497319856e+01   7.7843112960e+00    0.2058896    0.1959225 -68.71 0.0005206933    1.281    0.219
       250  -9.3181      3.4199    162.3804   1.2725383324e+02   3.9908221496e+01    0.3585781    0.1446618  60.21  0.001839646    2.398    0.583
       251  -7.8798    200.2969    162.6637   8.2316870159e+01   8.7669341122e+00    0.1381554    0.1168436 -80.81 0.0005029608    1.652    0.395
       252  -8.8654    151.5574    160.8955   9.2371607222e+01   1.9002065065e+01    0.3006895    0.2380328 -71.11 0.0008071177    1.487    0.328
       253  -9.0116    177.4396    160.5812   8.6592773116e+01   1.3793282212e+01    0.2883504    0.2414787 -78.98 0.0007008159    1.535    0.349
       254  -8.7752     60.5286    160.2520   1.1403351503e+02   3.4587753955e+01    0.3120303    0.1780131  80.54  0.001011354    2.042    0.510
       255 -10.0186    250.1516    157.8472   7.2181791946e+01   1.2589875959e-01    0.3773089    0.3008133  -3.05   0.00205217    1.164    0.141
       256  -9.2231    246.5361    155.5217   7.2287926610e+01   1.1220619865e+00    0.3295133    0.1920759 -22.76   0.00134946    1.703    0.413
       257  -7.6115    242.2925    160.2862   7.4023845992e+01   1.1479094430e+00    0.1353303   0.09566674   3.91 0.0001711833    1.541    0.351
       258  -8.6985    227.2576    158.8802   7.6372730312e+01   4.1483604319e+00    0.3008487    0.2065808 -54.53 0.0009472472    1.969    0.492
       259  -8.5034    128.4468    159.4159   9.7457413692e+01   2.3845907387e+01       0.3244    0.2121633  81.12 0.0008365689    2.335    0.572
       260  -7.9880    237.3456    159.1373   7.4634070925e+01   2.2248768267e+00    0.1884232    0.1160911 -41.19 0.0005071171    1.672    0.402
       261  -9.6226    105.8168    158.0739   1.0266671291e+02   2.8258770975e+01     0.445208    0.2960956  75.90  0.001203859    1.894    0.472
       262  -8.3894    196.5819    158.0790   8.2076492547e+01   1.0343989767e+01    0.2345223    0.1998118  54.85 0.0005901211    1.296    0.229
       263  -8.2473    188.1640    157.7330   8.3724519131e+01   1.2132250461e+01    0.2528557    0.1951227 -49.70 0.0007210642    1.418    0.295
       264  -9.1872    167.5733    157.3697   8.8051748676e+01   1.6458254038e+01    0.3340527    0.2688374 -88.55  0.001143004    1.646    0.392
       265  -8.4243    218.0046    156.5679   7.7576605727e+01   6.3193713236e+00    0.2699439    0.1837865 -49.34 0.0008542662    1.718    0.418
       266  -9.3481    157.5439    155.8275   8.9965064530e+01   1.8840030544e+01    0.3805883    0.2643192 -62.05  0.001092071    1.718    0.418
       267  -9.3939    119.6364    155.4383   9.8813530570e+01   2.6385059902e+01    0.4139156      0.27861 -88.51  0.001676301    2.057    0.514
       268  -9.1080     49.7831    155.4163   1.1600670406e+02   3.7035881689e+01    0.4396862    0.1976559  65.14  0.001779787    2.999    0.667
       269  -8.7200     23.2297    156.0709   1.2235663920e+02   3.9651903589e+01    0.2223534    0.1423838 -28.39  0.001182087    2.764    0.638
       270  -8.3084    242.9957    155.2418   7.2825103467e+01   1.8045276016e+00    0.1953258    0.1772483 -33.93 0.0004192202    1.228    0.186
       271  -7.9604    239.9898    153.0374   7.2861566341e+01   2.7027355632e+00    0.1816921    0.1603468 -47.88  0.000428211    1.352    0.260
       272  -8.1133    204.8527    155.1713   7.9794170393e+01   9.1877484335e+00    0.2131411    0.1955678 -54.42 0.0007555703    1.258    0.205
       273  -8.7013    144.3862    154.7719   9.2772129954e+01   2.1739525228e+01     0.284586    0.2261958  74.97 0.0007198555    1.478    0.323
       274  -9.7700    132.7531    153.0297   9.5170521139e+01   2.4426876792e+01    0.4984854    0.3474659  76.85   0.00135736    1.944    0.486
       275  -9.3547    133.4714    148.5119   9.4068290001e+01   2.5287439355e+01    0.3987188    0.2431335 -41.59  0.001734337    1.779    0.438
       276  -9.3062     67.9261    153.8457   1.1134368185e+02   3.5111901125e+01      0.40989    0.2388072  74.31  0.001279322    2.101    0.524
       277  -8.7199    151.9177    152.8064   9.0611486764e+01   2.0628320867e+01    0.2700159    0.1945345 -63.80 0.0009128676    1.623    0.384
       278  -8.5616     19.9639    152.5487   1.2278220693e+02   4.0749546729e+01    0.2042563     0.132277  79.08 0.0009770526    1.360    0.265
       279  -8.1855      8.7940    153.3798   1.2540959376e+02   4.1489231922e+01    0.1331566    0.1148185   2.82 0.0009522761    1.736    0.424
       280  -8.2511    182.4825    151.5030   8.3551209195e+01   1.4504983589e+01    0.2460073    0.1403472 -52.44 0.0006436487    2.059    0.514
       281  -8.8752     98.4611    151.0945   1.0324515055e+02   3.1125099305e+01    0.3292732    0.2153418 -87.45  0.001064867    1.935    0.483
       282  -9.5728     29.4886    150.7350   1.2035594418e+02   4.0290921269e+01    0.4576644    0.2005732  73.23   0.00188366    3.011    0.668
       283  -8.7839      2.5990    150.8589   1.2660574731e+02   4.2521542665e+01    0.3643688    0.1204815 -81.47  0.001661431    2.498    0.600
       284  -9.7115    248.8686    149.5390   7.0609910267e+01   1.6266973021e+00     0.351369    0.1838159 -35.82 0.0008306198    1.744    0.427
       285  -9.0186    246.9883    144.0105   6.9709812304e+01   2.8346116134e+00    0.2337864    0.1747645 -27.56 0.0005169144    1.197    0.164
       286  -8.7560    233.4993    147.6623   7.2806249520e+01   4.7945792843e+00    0.2752476    0.1780861 -37.09 0.0007375545    1.471    0.320
       287  -9.8562    243.0151    150.0023   7.1685998001e+01   2.6238194899e+00    0.7043315     0.194651 -33.54  0.002323268    3.512    0.715
       288  -9.0349    238.2934    150.1628   7.2525739836e+01   3.4775913523e+00    0.4192127     0.159486  37.88   0.00153724    3.005    0.667
       289  -8.5753    240.1944    145.2119   7.1109432673e+01   3.9150843704e+00     0.268507    0.1718626 -41.98 0.0006887167    1.575    0.365
       290  -8.7574    242.6815    143.3026   7.0267072988e+01   3.7517543049e+00    0.2951922    0.1531914 -17.75  0.001124598    2.556    0.609
       291  -8.8505    189.5422    150.5397   8.1856814464e+01   1.3205297552e+01    0.2671322    0.2433624 -58.50 0.0007630346    1.232    0.188
       292  -8.3250    162.5123    150.5452   8.7707905470e+01   1.8901551124e+01    0.2940047    0.1493652 -45.55  0.000857692    2.019    0.505
       293  -8.1645    212.8879    149.8464   7.7059087033e+01   8.5013467797e+00    0.2157089    0.1839435  -2.94 0.0004117878    1.168    0.144
       294 -10.1827     89.3728    146.4316   1.0472065568e+02   3.3707037513e+01    0.6936617     0.374951 -88.80  0.002455835    3.362    0.703
       295  -9.7671     39.8358    147.9476   1.1752470236e+02   3.9897039659e+01    0.5211186    0.2356741  65.84  0.001752061    2.915    0.657
       296  -8.4706    198.8563    149.0770   7.9629347980e+01   1.1528275335e+01    0.2178459     0.200279 -70.13 0.0005501075    1.295    0.228
       297 -10.4358    106.8417    144.0069   9.9787312111e+01   3.1335549817e+01    0.8769543    0.5766383 -79.86  0.002140086    1.916    0.478
       298 -10.2993    149.0940    145.1417   8.9610397740e+01   2.2849209573e+01    0.6413854    0.4329904  86.88  0.001997729    2.509    0.601
       299  -8.8148     78.1937    147.1684   1.0771533497e+02   3.5243038621e+01    0.3483619    0.2159221  85.61  0.001113012    2.028    0.507
       300 -10.2910     54.4029    143.8065   1.1330861350e+02   3.9229959437e+01    0.8790279    0.4283359  84.18  0.003000293    3.243    0.692
       301  -8.5810     57.3082    135.4170   1.1128948755e+02   4.0886023961e+01    0.2569186    0.2006819  17.10  0.001453295    1.693    0.409
       302  -8.1095    223.2869    146.9464   7.4471037752e+01   6.9131623677e+00    0.1973793    0.1729712 -22.23 0.0003748976    1.070    0.065
       303 -10.2262    139.1312    144.8935   9.1930300844e+01   2.4953922788e+01    0.8271454    0.3580239 -59.27    0.0026098    3.193    0.687
       304  -8.9263    139.9940    137.4877   9.0078714455e+01   2.6414531542e+01    0.3226602    0.2057736  25.13  0.001306168    2.119    0.528
       305  -9.2451     13.4218    146.1214   1.2372279711e+02   4.2768477198e+01    0.3849893    0.1610556  67.27  0.001189546    2.800    0.643
       306  -7.9501    206.7783    146.5618   7.7495477714e+01   1.0338618161e+01    0.1930793    0.1419039  58.30 0.0007631721    1.607    0.378
       307  -8.2819    175.4316    146.2196   8.3881876733e+01   1.7041805138e+01    0.2066322     0.143956 -53.93 0.0005571145    1.602    0.376
       308  -9.1793    165.2151    143.3522   8.5493341177e+01   1.9814456428e+01    0.4850962    0.2918388 -60.63   0.00140373    2.193    0.544
       309  -9.8637    125.2018    142.8696   9.4914410868e+01   2.8179176258e+01    0.5995116    0.3826161 -86.45  0.001629342    2.608    0.617
       310  -7.9179    194.1600    144.1684   7.9463778739e+01   1.3434801395e+01    0.1969431    0.1779945 -73.13 0.0004000253    1.318    0.241
       311 -10.7271     68.6819    141.0348   1.0917547829e+02   3.8057679531e+01    0.8318012     0.485203 -86.81  0.003750814    2.081    0.520
       312  -9.2858     70.1705    134.0336   1.0759631285e+02   3.9537229633e+01    0.4103297    0.2422632  14.71  0.001733768    2.883    0.653
       313  -9.3546      2.6309    141.6526   1.2587811467e+02   4.4589567188e+01    0.3899899    0.1642733  82.25  0.001568171    2.411    0.585
       314  -7.7841    235.4971    142.5189   7.1311635084e+01   5.2531811579e+00    0.1405701     0.126722 -15.82 0.0004868424    1.029    0.029
       315  -8.3963    182.0686    141.8944   8.1461380851e+01   1.6471607264e+01    0.2311875    0.2038317 -84.91 0.0005462239    1.372    0.271
       316  -8.1171    250.4789    140.9365   6.8464048625e+01   2.6729586665e+00    0.2061734     0.120769 -32.94 0.0004500406    1.524    0.344
       317  -8.4247    134.4303    140.0211   9.2010326214e+01   2.6990472304e+01    0.2331735    0.1478039 -50.23 0.0006761945    1.583    0.368
       318  -9.8669     23.4966    138.3608   1.2048817828e+02   4.3723284853e+01    0.4917775    0.2253206  68.41  0.001798475    2.716    0.632
       319  -8.6379    172.2569    138.3487   8.2764913558e+01   1.9316016968e+01    0.3145354    0.2178434 -76.75 0.0007202223    2.314    0.568
       320  -7.6550    218.5183    138.5773   7.3440380964e+01   9.3257799294e+00    0.1441913    0.1347741  -9.35  0.000143522    1.019    0.018
       321  -8.1135    207.3434    137.9188   7.5396185363e+01   1.1786188209e+01    0.2320595    0.1741439 -52.70 0.0006354805    1.508    0.337
       322  -8.6109    197.6254    137.5751   7.7229865234e+01   1.3933413026e+01    0.2850759    0.2145772 -54.67 0.0007724335    1.517    0.341
       323 -10.4223     83.3792    132.9961   1.0382676187e+02   3.7854386315e+01    0.5464427    0.3230008 -74.58  0.001371531    1.927    0.481
       324  -8.7541    162.5927    136.5219   8.4508204906e+01   2.1802882323e+01    0.2896973    0.1884753 -47.71 0.0006334712    1.567    0.362
       325  -9.1779     39.3924    136.1482   1.1614003411e+02   4.2736382746e+01    0.2903083    0.1844589  63.28 0.0009887668    1.672    0.402
       326  -8.4960    246.9300    130.1803   6.6624525226e+01   5.0479702720e+00    0.2656783    0.1804661 -40.69 0.0006622418    1.401    0.286
       327  -9.0035    248.6283    135.2801   6.7502918145e+01   3.9098592769e+00     0.311151    0.1947527 -36.86 0.0007250535    1.454    0.312
       328  -9.1947    250.7234    130.1260   6.6012044384e+01   4.3318393175e+00    0.5627482    0.1171886 -35.54  0.001656269    4.185    0.761
       329  -7.4590    192.3078    136.6639   7.8094341181e+01   1.5261131584e+01    0.1516976     0.121734 -77.18 0.0007042097    1.676    0.403
       330  -7.9839    187.9972    135.9489   7.8816445341e+01   1.6342032346e+01    0.2317179    0.1877791 -78.49  0.000491201    1.631    0.387
       331  -8.6473    179.3734    134.0096   8.0182627445e+01   1.8625131867e+01     0.314139    0.2242411 -60.03 0.0007791432    1.692    0.409
       332  -8.2623    151.5231    135.6924   8.6890823757e+01   2.4373893955e+01    0.2806692    0.1395348  45.55  0.001070224    2.000    0.500
       333  -8.1310    237.4979    133.9696   6.9034224690e+01   6.2701905691e+00    0.2157996    0.1274722 -36.57 0.0007237802    1.555    0.357
       334  -7.4673    231.4632    134.4452   7.0173168370e+01   7.3936985926e+00    0.1418761    0.1302562 -22.84 9.328627e-05    1.051    0.049
       335 -10.0374    132.4953    131.5134   9.0566982286e+01   2.9296853010e+01    0.6441844    0.4322771 -86.24  0.001240405    2.392    0.582
       336  -9.2673    133.6106    124.9905   8.8740299297e+01   3.0534162724e+01    0.4710403    0.2181061  34.59  0.001621231    2.701    0.630
       337  -9.1448    112.9015    133.0334   9.5946094556e+01   3.2795138652e+01    0.4336015     0.300862 -66.40  0.001327695    1.544    0.352
       338  -9.1609    143.1530    131.8672   8.8006762424e+01   2.6993884632e+01    0.3668388    0.2774158 -85.73 0.0008637576    1.762    0.432
       339 -10.4130     98.2550    130.4715   9.9293066484e+01   3.6030686048e+01    0.7121958    0.3568254 -58.82  0.001560165    1.969    0.492
       340  -8.8042     99.7483    120.3270   9.6664110489e+01   3.8176876927e+01    0.5988489    0.3473979  11.82  0.001915776    4.234    0.764
       341  -9.8113     73.1003    129.1984   1.0592353917e+02   4.0293129361e+01    0.4764318     0.288859 -87.35  0.001502791    2.152    0.535
       342  -9.6623     71.6239    120.5251   1.0467384058e+02   4.2596329437e+01    0.6066647    0.3502046  81.62  0.002275303    2.966    0.663
       343 -10.1667     12.8941    129.3685   1.2221148322e+02   4.6675203829e+01    0.4635041    0.2230797  76.51  0.001885013    2.363    0.577
       344  -8.2912      1.5062    130.9197   1.2523572489e+02   4.7103864831e+01    0.1886358   0.08945513 -76.71  0.001035184    1.597    0.374
       345  -7.9982    204.4622    130.1975   7.4124947670e+01   1.3822746186e+01    0.2121416    0.1368928 -48.87  0.000934133    1.665    0.399
       346  -8.2395    192.8905    130.1531   7.6416739800e+01   1.6380228832e+01    0.2281448    0.2035584 -67.90 0.0004578994    1.282    0.220
       347  -9.5307    168.4752    129.0432   8.1379963123e+01   2.2059365506e+01    0.4670518    0.2808931 -39.11  0.001135409    1.681    0.405
       348  -9.6921    152.8312    128.8881   8.4960847493e+01   2.5556760564e+01    0.5066029    0.2838274 -55.15  0.001066908    2.031    0.508
       349  -8.0004    211.4452    129.2368   7.2561089537e+01   1.2482174049e+01    0.2098525    0.1336118 -47.95 0.0006268781    1.670    0.401
       350  -7.6428    186.3696    129.7289   7.7661587353e+01   1.7914854819e+01    0.1534992    0.1231493  89.01 0.0004511752    1.671    0.402
       351 -10.6863     44.9175    123.6727   1.1283020888e+02   4.5143739580e+01     1.058294    0.5130503  77.50  0.003839792    3.813    0.738
       352  -7.9172     25.9818    130.0000   1.1887374016e+02   4.5472136917e+01    0.1751816   0.07212477  26.51 0.0008047815    2.959    0.662
       353 -10.0321    118.3030    125.5216   9.2832249783e+01   3.3508542282e+01    0.6480431    0.4291793  83.23  0.001863106    2.435    0.589
       354 -10.3681     60.0279    125.1837   1.0883980164e+02   4.3016635509e+01    0.6854052    0.3852438  80.20  0.002629459    2.709    0.631
       355  -7.6863    228.3458    125.6866   6.8669926363e+01   9.5192710675e+00    0.1446882    0.1134861 -69.27 0.0007046945    1.713    0.416
       356  -9.0276    179.1891    124.9048   7.7999863012e+01   2.0485809905e+01    0.2773655    0.2456362 -67.99 0.0006649291    1.260    0.207
       357  -8.7010     84.4919    123.2109   1.0156570780e+02   4.0032822202e+01    0.4239127    0.2707348 -16.71  0.001656642    3.047    0.672
       358 -10.1588     28.5002    122.6368   1.1724342282e+02   4.6995545534e+01    0.7050146    0.3276156  76.46  0.002826457    3.328    0.700
       359  -8.6153     26.6697    113.8692   1.1652794014e+02   4.9234981426e+01    0.2216833    0.1603458 -17.74 0.0008219715    1.925    0.481
       360  -7.4343    188.6409    124.2871   7.5851240673e+01   1.8464854657e+01    0.1551954     0.123745 -85.35 0.0003980294    1.682    0.406
       361  -9.2507    158.7316    121.1730   8.1656378031e+01   2.5891211069e+01    0.5074786    0.3229178 -48.97  0.001654644    1.604    0.376
       362  -7.8215    203.2705    122.6069   7.2509579426e+01   1.5491275047e+01    0.1564053     0.116144 -64.50 0.0006986632    1.725    0.420
       363  -8.6335    171.9182    121.6556   7.8774424585e+01   2.2796531987e+01    0.2977748    0.2188301 -49.98 0.0006132151    1.403    0.287
       364 -10.6733    128.5905    101.8503   8.4066063205e+01   3.6745215638e+01     0.699025    0.4116511 -36.14   0.00264498    1.813    0.449
       365 -10.1261    131.0650    118.6208   8.7825094240e+01   3.2497628534e+01    0.6250731    0.4235604 -80.88  0.001887141    2.283    0.562
       366 -10.2164    133.6179    109.3211   8.4766605967e+01   3.4022794465e+01    0.7042547     0.351445 -51.02  0.002096967    2.077    0.519
       367 -10.1727    141.4868    117.8730   8.4987549167e+01   3.0433171351e+01    0.7190018    0.3234466 -51.13  0.001429899    2.365    0.577
       368  -9.7760      2.8935    117.3736   1.2357874449e+02   5.0124147189e+01    0.4820007    0.2163013  75.64  0.002274939    2.677    0.626
       369  -7.9545    231.5972    117.7924   6.6242712326e+01   1.0183961328e+01    0.2075512    0.1232234 -44.66  0.000645311    1.662    0.398
       370  -8.3311    152.3267    116.6749   8.2024357679e+01   2.8289182639e+01    0.3086553    0.2272398   0.12 0.0006581977    1.990    0.498
       371  -9.9832    109.4395    114.4394   9.2576855710e+01   3.7783035001e+01    0.5690495     0.376794 -82.99  0.001589142    2.332    0.571
       372  -9.1160    109.4624    107.9460   9.0938003265e+01   3.9276926108e+01    0.4128935    0.2804915   5.93  0.001639223    2.528    0.604
       373  -7.6577    219.3160    116.6438   6.8074653865e+01   1.3018323511e+01    0.1534133    0.1140141 -65.76 0.0003839261    1.747    0.427
       374  -8.0185    185.8057    115.8534   7.4312122894e+01   2.0755060681e+01    0.2112599    0.1802882 -64.21 0.0004215571    1.308    0.236
       375  -8.8046     59.7494    115.1367   1.0706958678e+02   4.5477995903e+01    0.3528353     0.209221 -15.98  0.001379775    3.491    0.714
       376  -8.4036    249.9925    115.0536   6.2680234029e+01   6.8789378346e+00    0.2160242     0.193891 -14.93  0.001161202    1.074    0.069
       377 -10.6196    248.7481    108.0855   6.1244799888e+01   8.2453486673e+00    0.6283799    0.3311042 -20.88  0.002599895    2.312    0.567
       378 -10.2451    248.7424    102.6311   5.9965319029e+01   9.1205179223e+00    0.3365472     0.301593 -65.88  0.001983291    1.239    0.193
       379  -8.1791    192.9159    115.1856   7.2689263248e+01   1.9239432310e+01    0.2289312    0.2030793 -65.03 0.0004184872    1.241    0.194
       380 -10.1073     78.8703    112.4325   1.0086722089e+02   4.3483240139e+01    0.5754328    0.3747482 -88.35  0.001694311    2.170    0.539
       381  -8.9060     78.9518    104.8961   9.9117072701e+01   4.5262490231e+01    0.2962599    0.1745136 -35.23  0.001125248    2.046    0.511
       382  -8.4593    208.1490    113.9685   6.9437136954e+01   1.5982290755e+01    0.2225628    0.1943247 -56.14 0.0003397978    1.219    0.179
       383 -10.1641     92.7552    112.4727   9.6823911833e+01   4.1244521377e+01     0.608312    0.3621683 -69.04  0.001253905    2.028    0.507
       384  -8.8128     93.4914    104.5058   9.4666646665e+01   4.2987681093e+01    0.4488664    0.2270238  26.02  0.001645179    2.922    0.658
       385  -8.6877    174.7895    112.0736   7.5675774510e+01   2.4067871782e+01    0.3209968    0.2036598 -52.35 0.0008044824    1.721    0.419
       386  -9.9008    121.8761    112.6285   8.8728704746e+01   3.5750688898e+01    0.3532098    0.3044693 -63.96 0.0005988174    1.184    0.155
       387 -10.0583    119.4580    106.3865   8.7758016865e+01   3.7652687903e+01    0.5156718    0.3198033 -42.88  0.001909424    1.588    0.370
       388 -10.8951    109.5889     99.3068   8.8612085217e+01   4.1214132855e+01    0.9375487    0.5351402  66.85  0.002825256    3.203    0.688
       389  -8.4610    159.1756    111.9048   7.9155244269e+01   2.7734904299e+01    0.2422467    0.2112451 -73.34 0.0005322739    1.282    0.220
       390 -10.1436     66.3738    110.6447   1.0419735282e+02   4.5697518971e+01    0.4216085     0.294392 -89.26  0.001146326    1.736    0.424
       391  -9.6265     14.1807    111.0875   1.1972809008e+02   5.0850545902e+01    0.3923796    0.1950866  75.26   0.00143572    2.588    0.614
       392  -9.0006     43.2139    109.5264   1.1094993129e+02   4.8720507328e+01    0.2924605    0.1392593  23.06  0.001321826    2.733    0.634
       393  -8.2435    189.2611    108.0326   7.1576877892e+01   2.1455970832e+01    0.2262718     0.194577 -43.31 0.0005315017    1.140    0.123
       394  -9.1640    107.8249     92.7686   8.7298255204e+01   4.3013581054e+01    0.4600524    0.3266812  15.91  0.002037192    1.913    0.477
       395  -9.3725    139.9277    104.7782   8.1925108701e+01   3.3624299300e+01    0.3915823    0.2995504  89.98 0.0009328186    1.771    0.435
       396 -10.5519     45.6983    102.4842   1.0887269096e+02   5.0140068761e+01    0.7605559    0.4180523  74.65  0.003026948    3.213    0.689
       397  -8.8379     45.7616     92.8895   1.0688179816e+02   5.2398387225e+01    0.4218471    0.2289551   2.65   0.00175444    3.378    0.704
       398 -10.6673     22.8999    102.5638   1.1593960516e+02   5.2210094325e+01    0.7576326    0.3794144  77.24  0.002899682    3.085    0.676
       399  -8.6966    166.7205    104.1131   7.5334606246e+01   2.7566285608e+01    0.3208582    0.2016994 -50.62 0.0006147819    1.683    0.406
       400  -9.5526    150.5374    103.1429   7.8845651774e+01   3.1558822613e+01    0.4689876    0.2976807 -61.01  0.001065681    1.997    0.499
       401  -9.1233      6.7971    103.0928   1.2084068854e+02   5.3187121479e+01    0.2640058    0.1632391  66.16  0.001141174    1.843    0.457
       402  -7.8560    175.5333    102.0684   7.2843550905e+01   2.5871836214e+01    0.2391179    0.1522656 -40.85 0.0005915051    1.536    0.349
       403  -8.4129    159.7413    100.9619   7.6061740508e+01   2.9855523109e+01     0.292567     0.207855 -55.50 0.0005055313    1.540    0.351
       404  -9.2976     82.1346    100.0217   9.6960473971e+01   4.5912694193e+01    0.3856395    0.2431161 -71.58  0.001051397    1.968    0.492
       405 -10.2342     63.7972     96.2382   1.0178991515e+02   4.9462008163e+01    0.6416595    0.3635263 -74.64  0.001729863    2.326    0.570
       406  -9.0016     65.8475     87.2689   9.8901806550e+01   5.1264402783e+01    0.5934501    0.3414176   2.54   0.00225295    3.516    0.716
       407  -9.6362     94.9725     96.2718   9.2078537416e+01   4.4624532094e+01    0.6401491    0.2591909 -48.34 0.0009996773    2.294    0.564
       408  -8.1938    151.3526     95.2996   7.6449406843e+01   3.2986166257e+01    0.1634965    0.1258521  11.99 0.0007037061    1.696    0.410
       409  -7.8248    188.6241     93.8096   6.7899641757e+01   2.4283254563e+01    0.2267198    0.1375862 -46.68 0.0005423093    1.664    0.399
       410  -8.1732    164.6939     94.1377   7.3021047416e+01   3.0034877269e+01    0.2530441    0.1881621 -54.20 0.0004778286    1.436    0.303
       411  -9.3143    139.0170     92.4371   7.8677637762e+01   3.6436125493e+01    0.3909971     0.282844 -80.34 0.0007296749    2.027    0.507
       412 -10.1069    248.2870     92.0744   5.7531920597e+01   1.0894465241e+01    0.3120072    0.2468751   1.28  0.001184401    1.548    0.354
       413  -8.2754    176.4806     93.0922   7.0169265729e+01   2.7374655630e+01    0.2428957    0.1512927 -40.83 0.0008627308    1.567    0.362
       414 -10.2888    123.8748     91.4671   8.2392321945e+01   3.9999254207e+01    0.5617909    0.4350955  26.29  0.001465774    1.477    0.323
       415  -9.9339      5.2161     91.7850   1.1980255897e+02   5.5878751556e+01     0.414088    0.2428506  79.41  0.001895486    1.957    0.489
       416  -7.9634    157.8478     91.8266   7.3921338311e+01   3.2138905785e+01    0.2165597    0.1868421 -74.03 0.0004281093    1.309    0.236
       417  -9.5281     34.7705     89.9029   1.0988729801e+02   5.4180195080e+01    0.4509763     0.242057 -82.93  0.001704369    2.463    0.594
       418  -8.1702    151.0116     89.2361   7.4778847566e+01   3.4287067119e+01    0.2327578    0.1642277 -58.42 0.0004632699    1.632    0.387
       419 -10.1489     86.4425     86.2660   9.1941961213e+01   4.8350109017e+01    0.6314477    0.4132621 -70.09   0.00111859    2.054    0.513
       420  -9.7890     48.5336     84.4289   1.0402566323e+02   5.4058776040e+01    0.4947536    0.3117241  80.35  0.001893061    2.722    0.633
       421  -7.3586    179.3276     85.6833   6.7495905475e+01   2.8060381194e+01    0.1627735    0.1221233 -73.01 0.0007045399    1.677    0.404
       422  -9.9353    104.8026     83.2905   8.5410236187e+01   4.5659596277e+01    0.4898551    0.3378336 -69.75  0.001073999    2.018    0.504
       423  -8.7318    105.2445     77.0482   8.3353246636e+01   4.6881943598e+01     0.307177    0.1991291  22.81 0.0009250857    2.021    0.505
       424  -8.3171    157.8799     84.1046   7.1660376031e+01   3.3635098275e+01    0.2371253    0.2097878 -64.14 0.0004004601    1.207    0.171
       425  -8.9872    140.8439     83.0061   7.5413288655e+01   3.7923636752e+01    0.2809627    0.2130625 -60.38 0.0005344582    1.511    0.338
       426  -9.5698      9.8219     81.1352   1.1664233453e+02   5.8045842600e+01    0.3415152    0.1909598  67.32  0.001460702    2.570    0.611
       427  -9.1405     22.7342     90.3894   1.1395429549e+02   5.5066328759e+01    0.2829839    0.2023449 -36.94  0.001132152    1.472    0.321
       428  -9.6705     24.4839     80.2747   1.1142902119e+02   5.7258477803e+01    0.4841423    0.2637538 -84.56  0.001510626    2.405    0.584
       429  -8.5124    150.2046     80.6419   7.2411346693e+01   3.6158988049e+01    0.2785412    0.2046428 -49.43 0.0006523781    1.407    0.289
       430  -9.0487    119.4197     80.3030   8.0264300679e+01   4.3285017928e+01    0.3534344    0.2365362 -67.55  0.001127726    2.157    0.536
       431  -8.9533     74.5566     80.3257   9.4105909523e+01   5.1569558822e+01     0.359892    0.2151003 -66.76  0.001012375    2.185    0.542
       432  -8.3472    166.6925     79.5643   6.8361957495e+01   3.2318738850e+01    0.2930907     0.185242 -40.17  0.000548494    1.556    0.357
       433  -7.8480    183.7310     78.6054   6.4609245981e+01   2.8240304100e+01    0.1593544    0.1220867   6.59 0.0006357458    1.725    0.420
       434  -9.6147    128.2081     75.6222   7.6391664217e+01   4.2283171961e+01    0.4829275    0.2598641 -51.71   0.00115365    2.145    0.534
       435  -9.9470     63.5239     73.8649   9.6008431193e+01   5.4577217102e+01    0.6799662    0.2920502 -62.07  0.002451831    3.173    0.685
       436  -8.2458    157.4233     76.9084   6.9607920628e+01   3.5101506432e+01    0.2254052    0.1258283 -57.48 0.0006206731    2.427    0.588
       437  -8.4164    140.5087     75.5048   7.3184666914e+01   3.9457574760e+01    0.2669059    0.2089923 -75.73 0.0006559772    1.644    0.392
       438  -8.1126    163.4667     73.4330   6.7221935829e+01   3.4234595891e+01     0.311898    0.1516781 -36.75  0.001167817    2.032    0.508
       439  -9.8548    113.7623     73.0143   7.9561016112e+01   4.5954546818e+01    0.4968753    0.2532153  48.63  0.001199697    2.061    0.515
       440  -9.8314     82.5733     71.1214   8.8645158204e+01   5.2267349230e+01    0.8892762    0.3100466 -44.43  0.002668356    2.637    0.621
       441  -7.6945    151.2966     73.6427   7.0009449970e+01   3.7207289143e+01    0.1627536    0.1217473 -69.68 0.0007033775    1.700    0.412
       442  -9.4914    105.9270     71.4241   8.1346376644e+01   4.7886503450e+01    0.5043856    0.2220494 -49.33  0.001291072    2.471    0.595
       443  -8.7057     42.7494     72.6926   1.0312845036e+02   5.7326664453e+01    0.2688194    0.1643125 -65.73  0.001158931    1.659    0.397
       444  -7.8541    175.4819     72.5219   6.4461464389e+01   3.1377543466e+01    0.1535713    0.1510651 -66.19 4.443661e-05    1.000    0.000
       445  -9.2710     95.1170     71.0589   8.4554810756e+01   5.0058371152e+01    0.3915776    0.2339482 -56.70 0.0009480312    2.005    0.501
       446  -9.6035     51.5138     69.8326   9.9145916270e+01   5.6982976553e+01    0.4448908     0.246776 -69.49  0.001431361    2.483    0.597
       447  -9.0737     30.2732     69.9113   1.0702397682e+02   5.9119437940e+01    0.5435796    0.2387009 -20.28  0.001847332    5.202    0.808
       448  -9.2216     16.7577     70.1411   1.1208969117e+02   6.0085997789e+01    0.2670166    0.1637484 -75.78 0.0007924074    1.638    0.389
       449  -8.6552    147.0597     68.4528   6.9371541827e+01   3.9184811587e+01    0.2876298      0.20779 -52.37 0.0005781046    1.508    0.337
       450  -8.4217    208.4713     66.1823   5.6829838706e+01   2.4160880573e+01    0.2725487    0.1460749 -29.07  0.001040981    1.939    0.484
       451  -9.1673    138.4955     66.1815   7.0706798493e+01   4.1660741164e+01    0.3522646    0.2286592 -57.59 0.0009519886    1.931    0.482
       452  -8.7529    121.7348     66.1664   7.5067630280e+01   4.5540033809e+01    0.3249325    0.2198805 -57.12 0.0006705325    1.812    0.448
       453  -7.2415    163.6755     65.7096   6.4817697130e+01   3.5532833345e+01    0.1577506    0.1197402  22.95 0.0006701392    1.612    0.380
       454  -9.6437     97.4951     60.5143   8.0256007431e+01   5.1673149537e+01    0.3973022    0.2669169 -29.44  0.001346409    1.499    0.333
       455  -8.8564     64.0625     63.9248   9.2779606836e+01   5.6616424832e+01    0.4395586    0.2407848 -16.29  0.001643926    3.409    0.707
       456  -8.9340     37.2014     64.2568   1.0293827459e+02   5.9726111835e+01    0.3005937    0.2029773 -77.54 0.0009916354    1.935    0.483
       457  -9.0547    110.0976     63.7517   7.7550021313e+01   4.8513083249e+01    0.2954273    0.2330819 -57.43 0.0007017932    1.468    0.319
       458  -7.2563    187.5053     63.5015   5.9563122348e+01   2.9843999898e+01    0.1527494    0.1447744 -69.13 0.0008104335    1.034    0.033
       459  -8.2916    158.2524     61.9802   6.4803593809e+01   3.7531239114e+01    0.2132394    0.1952973 -38.81 0.0003744604    1.097    0.089
       460  -9.6542     73.3155     59.5989   8.8026959023e+01   5.6114358091e+01    0.4279129    0.2290235 -52.83  0.001201191    2.021    0.505
       461  -8.4215     74.7809     52.2014   8.4895221369e+01   5.7303176164e+01    0.3930389     0.228905  -0.91  0.001495039    3.260    0.693
       462  -8.3033     88.8480     59.8097   8.2790525868e+01   5.3434932806e+01    0.1868613    0.1686462 -60.30 0.0005764722    1.291    0.225
       463  -8.0149    147.1424     59.1916   6.6367287845e+01   4.0772309686e+01    0.2147302    0.1782611 -62.67 0.0005084106    1.358    0.264
       464  -9.8457     23.4479     56.6075   1.0626080913e+02   6.2549868196e+01    0.4090808    0.2619156 -88.00  0.001989522    2.491    0.598
       465  -8.1879    130.9179     57.9407   6.9864512448e+01   4.4904317983e+01    0.2313323    0.1843502 -76.56 0.0005533723    1.640    0.390
       466  -9.8719      7.3432     56.9852   1.1282588582e+02   6.3509404144e+01    0.2985432    0.1844956 -76.96   0.00098406    1.691    0.409
       467  -9.0279    119.0563     55.5554   7.2170165511e+01   4.8041006507e+01    0.4754479    0.2185178 -44.03  0.001409167    2.302    0.566
       468  -9.5176     54.2807     55.4368   9.3653965583e+01   5.9657807570e+01    0.3365731    0.2133616 -63.12 0.0009987693    2.015    0.504
       469  -8.8578     44.1945     55.6706   9.7667806725e+01   6.0810059840e+01    0.3029223    0.1937119 -69.18 0.0009969876    2.127    0.530
       470  -8.2806    139.9090     56.1350   6.7042318788e+01   4.3056023906e+01    0.2340338    0.2025406 -63.20 0.0004678354    1.297    0.229
       471  -8.6323    105.8956     53.4102   7.5161517100e+01   5.1266097768e+01    0.2664575    0.1962298 -50.30 0.0006536008    1.529    0.346
       472  -9.4949     92.3737     50.7068   7.8363241951e+01   5.4449836095e+01    0.3841662    0.2352037 -48.94  0.001025786    1.843    0.457
       473  -8.4494    144.6551     49.1914   6.3611247845e+01   4.3001281011e+01    0.2048314    0.1424677 -19.74 0.0004657241    1.604    0.377
       474  -8.5577    129.8483     49.1649   6.7099945305e+01   4.6605813081e+01    0.2230237    0.2067505 -75.34 0.0005093761    1.224    0.183
       475  -8.7116    120.8773     47.6022   6.8848003351e+01   4.8946763596e+01    0.2361292    0.1970112 -11.78 0.0004549417    1.239    0.193
       476  -8.4934    112.2579     47.1010   7.1017061114e+01   5.0961610010e+01    0.2549165    0.1890277 -50.86 0.0007635523    1.564    0.361
       477  -9.0630     82.1913     46.4582   8.0156184794e+01   5.7075774265e+01    0.2879367    0.2166889 -54.20 0.0007742288    1.631    0.387
       478  -8.5908     45.0175     44.6067   9.3591635314e+01   6.2907452839e+01     0.222905    0.1658824 -57.95 0.0005679207    1.552    0.356
       479  -8.8981     16.5347     44.6915   1.0580819019e+02   6.5516222829e+01    0.2126714    0.1726493 -67.13 0.0006760432    1.363    0.267
       480  -8.9465    132.9544     43.5419   6.4360810401e+01   4.6727987241e+01     0.278161    0.1966724 -48.49 0.0007686503    1.580    0.367
       481  -9.1177     58.1471     42.4856   8.7493664020e+01   6.1615442743e+01    0.3608834    0.2000148 -56.61  0.001430669    2.519    0.603
       482  -9.7316      5.1664     42.1418   1.1009250282e+02   6.6714018989e+01    0.3529842    0.1846197 -73.04  0.001688908    2.198    0.545
       483  -8.7359     92.9074     42.6588   7.5138125908e+01   5.5710305675e+01     0.246723    0.1842004 -14.53 0.0008532759    1.371    0.271
       484  -9.3741     69.6126     41.1821   8.2597423095e+01   6.0120185353e+01    0.4548378    0.2162743 -47.61  0.001657377    2.332    0.571
       485  -7.9426    140.4208     41.5341   6.1937946118e+01   4.5196395727e+01    0.1439081    0.1423298  64.82 0.0002178849    1.050    0.048
       486  -8.3848    105.8384     41.1601   7.0620569948e+01   5.3293139863e+01    0.2079921    0.1925972 -49.55 0.0005069004    1.240    0.193
       487  -8.4838     36.8090     41.0355   9.5771359346e+01   6.4492292597e+01    0.1792108    0.1528348 -46.00 0.0004273184    1.230    0.187
       488  -7.3968    160.7093     40.3211   5.7367323367e+01   4.0236918755e+01    0.1518648    0.1115591 -65.70 0.0004808144    1.606    0.377
       489  -8.8131     95.4442     37.7830   7.2425112075e+01   5.5975650897e+01    0.2563654    0.1273276 -38.09 0.0008253935    2.012    0.503
       490  -8.3026     80.8808     36.9291   7.6852841092e+01   5.8899742675e+01    0.1964873    0.1685736 -68.41 0.0005680189    1.676    0.403
       491  -9.6006     26.0295     35.3880   9.8517285942e+01   6.6594510243e+01    0.2999119    0.2048637 -59.61  0.000998616    1.644    0.392
       492  -8.1740    133.3920     36.2213   6.1650433100e+01   4.7671961151e+01    0.2017938    0.1328837 -39.30 0.0009431395    1.592    0.372
       493  -8.0568    125.9823     35.6982   6.3205760606e+01   4.9527771090e+01    0.2007799    0.1760718  48.66 0.0003234128    1.104    0.094
       494  -8.5240    111.8677     34.6176   6.6413633252e+01   5.2938701621e+01    0.2689111    0.1742124 -47.13 0.0006160183    1.824    0.452
       495  -7.7406     88.5476     34.5213   7.3303929914e+01   5.7835669336e+01    0.1361247    0.1246016  -2.50 0.0003087596    1.060    0.057
       496  -8.9375     48.4707     33.4672   8.7867194036e+01   6.4510077272e+01    0.2241321    0.2068791 -40.79 0.0006296251    1.340    0.254
       497  -8.5144    118.9723     33.0032   6.3935506499e+01   5.1543354346e+01    0.2509883    0.1892093 -36.42 0.0006771022    1.391    0.281
       498  -8.6045     60.8087     32.6642   8.2494649300e+01   6.2919866297e+01    0.2344174    0.1690739 -37.26 0.0005429857    1.331    0.249
       499  -8.8116     72.0724     31.4319   7.7696277214e+01   6.1307233136e+01    0.2305836    0.1733966 -44.91 0.0005984834    1.539    0.350
       500  -9.1847     13.0210     30.6855   1.0295042124e+02   6.8493393723e+01    0.2693861    0.1728184 -66.95   0.00134317    1.910    0.476
       501  -7.6815    139.2964     31.6884   5.8732506257e+01   4.6823614655e+01    0.1444011    0.1112275 -66.88 0.0007009223    1.597    0.374
       502  -8.0280     41.6912     30.3111   8.9492653196e+01   6.5892086522e+01    0.1078525   0.09908608 -69.62 0.0001784845    1.622    0.383
       503  -8.2723    101.4976     29.3690   6.7233542121e+01   5.5932643577e+01      0.21638    0.1716637  77.33 0.0006810087    1.730    0.422
       504  -8.9900     81.4049     27.3981   7.2689450509e+01   6.0236236827e+01    0.2883053    0.2099114 -45.94 0.0007965253    1.669    0.401
       505  -9.2262      3.4030     27.5827   1.0659707580e+02   6.9660550782e+01    0.2309845    0.1742046 -75.80  0.001369477    1.732    0.422
       506  -9.0101     91.7101     26.1029   6.8804970795e+01   5.8407872473e+01    0.3541069    0.1901975 -38.69  0.001249015    1.986    0.496
       507  -8.6408    104.0027     22.7383   6.3825706188e+01   5.6247403821e+01    0.1939256    0.1662663  34.64 0.0004826816    1.076    0.071
       508  -7.8645     34.9046     23.4341   8.9643619624e+01   6.7830617641e+01     0.147252    0.1016583  52.12 0.0008061639    2.576    0.612
       509  -8.9578     63.6715     21.2135   7.6344096301e+01   6.4213528300e+01     0.258808    0.1947643 -48.25  0.001005377    1.768    0.434
       510  -8.9467     48.3886     21.6622   8.2791756466e+01   6.6440133364e+01     0.221852    0.1900733 -40.23 0.0006612623    1.431    0.301
       511  -8.2621    120.6612     20.8908   5.8883905473e+01   5.2667733067e+01    0.2006006    0.1178115 -37.36 0.0009345516    1.833    0.454
       512  -8.8899     74.1793     19.7505   7.1804706987e+01   6.2606612015e+01    0.2676188     0.181284 -44.54 0.0007711135    1.842    0.457
       513  -8.2530     19.7011     21.5838   9.6210219386e+01   6.9633267865e+01    0.1342353     0.104806  24.14 0.0004019116    1.550    0.355
       514  -8.1587     87.7717     17.7974   6.6441493304e+01   6.0257101750e+01     0.167456       0.1526 -37.91 0.0003844587    1.324    0.245
       515  -8.3698     38.5916     17.8388   8.5398574327e+01   6.8291271665e+01     0.226404    0.0981606 -36.32  0.001123823    1.997    0.499
       516  -7.9256    112.6496     16.8160   5.9185740782e+01   5.4992899937e+01    0.1845201    0.1199277 -34.58 0.0003371979    1.653    0.395
       517  -8.1020     30.1151     16.1352   8.8635226244e+01   6.9530010357e+01    0.1466158    0.1302813 -25.07 0.0005504296    1.323    0.244
       518  -7.9223     97.3224     15.1802   6.2498399435e+01   5.8577654284e+01     0.185851    0.1124645 -33.79 0.0004333864    1.757    0.431
       519  -8.0836      7.7608     15.5840   9.9923343996e+01   7.1575187958e+01    0.1290302   0.09904745  22.60 0.0005232414    1.624    0.384
       520  -9.0084    175.5544    247.4414   1.0175085137e+02  -3.1080787637e-01    0.2721366    0.2004513  78.29  0.001047449    2.299    0.565
       521  -8.0583     17.0308     14.2822   9.4427639661e+01   7.1090000473e+01    0.1582403    0.1210486 -21.54 0.0003721284    1.043    0.042
       522  -7.7056     83.4925     11.4665   6.4926216692e+01   6.1839852401e+01    0.1291742    0.1141976  15.06 7.181612e-05    1.062    0.059
       523  -8.7427    178.0027    242.3980   1.0061936231e+02  -1.0653424475e-02    0.2437209    0.1676151  16.01 0.0007886804    1.648    0.393
       524  -7.6909     47.6936     10.3528   7.7654659326e+01   6.8144271310e+01    0.1082832    0.0951789 -48.52  0.000468926    1.713    0.416
       525  -8.6074    156.2614    248.3885   1.0537637272e+02   2.6070088826e+00    0.2782949    0.1543252  57.72  0.001477218    2.124    0.529
       526  -8.8774    132.2926    248.0804   1.0970340063e+02   6.4130888724e+00     0.242829    0.1721226  71.88 0.0006231483    1.627    0.385
       527  -8.2319    113.0956    248.5593   1.1322759681e+02   9.2695325780e+00    0.1875288    0.1421655  86.82  0.000917854    1.465    0.318
       528  -9.3621    103.8402    246.8982   1.1472808260e+02   1.0913620639e+01    0.3888407    0.2054145 -85.10  0.001821912    2.851    0.649
       529  -8.9827    242.8022    246.5451   8.9839328845e+01  -1.0282236820e+01    0.2547869    0.1378553 -26.14  0.001577414    1.964    0.491
       530  -8.9378    232.8939    246.9773   9.1575751275e+01  -8.9410858523e+00    0.2811207    0.1500357 -28.22  0.001592192    2.065    0.516
