#   1 NUMBER                 Running object number                                     
#   2 MAG_AUTO               Kron-like elliptical aperture magnitude                    [mag]
#   3 X_IMAGE                Object position along x                                    [pixel]
#   4 Y_IMAGE                Object position along y                                    [pixel]
#   5 X_WORLD                Barycenter position along world x axis                     [deg]
#   6 Y_WORLD                Barycenter position along world y axis                     [deg]
#   7 A_WORLD                Profile RMS along major axis (world units)                 [deg]
#   8 B_WORLD                Profile RMS along minor axis (world units)                 [deg]
#   9 THETA_WORLD            Position angle (CCW/world-x)                               [deg]
#  10 FWHM_WORLD             FWHM assuming a gaussian core                              [deg]
#  11 ELONGATION             A_IMAGE/B_IMAGE                                           
#  12 ELLIPTICITY            1 - B_IMAGE/A_IMAGE                                       
         1 -12.1329     40.8940     29.9790   9.1958522327e+01   6.6970423364e+01    0.6507899     0.400579   0.95  0.003297291    2.208    0.547
         2 -11.8879     76.5340     21.6723   7.3205478748e+01   6.2733456642e+01    0.6196789    0.4133674 -39.36  0.003102522    1.543    0.352
         3 -11.3661     42.6423     18.1692   8.5522051098e+01   6.8845969778e+01    0.5757042    0.2554176 -31.79  0.002644996    2.139    0.532
         4 -11.8033     34.7425     12.9919   8.6729387616e+01   7.0723411807e+01    0.5606382     0.249136 -49.98  0.002500011    2.763    0.638
         5 -11.8004     30.1191      7.2250   8.5963227766e+01   7.2212524044e+01    0.4053578    0.3351161  30.03  0.002317314    1.486    0.327
         6 -10.3942     23.7677      5.0276   8.8252945886e+01   7.3293300569e+01    0.2131793     0.127184 -34.73            0    1.355    0.262
         7 -10.5471     16.9911      3.4980   9.1405924134e+01   7.4243829651e+01    0.3044214    0.1522177 -29.08  0.001159866    1.784    0.439
         8 -10.9070     20.5521      2.2453   8.8493384053e+01   7.4080684492e+01    0.2401269    0.1478145 -17.73  0.000694407    1.519    0.342
         9  -9.8730     26.6980     16.1475   9.2627778281e+01   7.1108761693e+01    0.2623407    0.1225134 -47.12  0.001207615    1.859    0.462
        10 -11.5964    234.6760     15.0551   4.2228190665e+01   2.4353286625e+01    0.2725514    0.2208603 -80.20 0.0001689885    1.204    0.170
        11 -11.5070     89.6837     14.0561   6.5153580442e+01   6.1061308964e+01    0.4327283    0.3393306 -55.05  0.001009122    1.665    0.399
        12  -9.8559     69.5757     13.6042   7.1644008674e+01   6.5172469718e+01    0.2633983    0.2004675 -81.92  0.001314485    2.532    0.605
        13 -10.2917     93.1123      8.6686   6.1516460329e+01   6.0922349572e+01     0.400467    0.1844073 -14.24  0.001556271    2.431    0.589
        14  -9.5509    104.6688     11.0972   5.9632347986e+01   5.8020295072e+01    0.2829843    0.1083652 -30.91   0.00109797    2.501    0.600
        15  -9.9572    126.0140     11.0236   5.4832184805e+01   5.2814612404e+01    0.1717969    0.1550575  48.84 0.0009670304    1.057    0.054
        16  -9.7902      4.2603     10.0371   1.0279228130e+02   7.4116848317e+01    0.1611649    0.1093641 -46.41 0.0003326711    1.146    0.127
        17 -11.3892    151.5317      8.6993   4.9485352269e+01   4.6414410624e+01    0.3506381    0.2972685 -48.50  0.001921765    1.234    0.190
        18 -11.0444    193.7590      6.6461   4.3579484259e+01   3.5432259095e+01    0.3695487     0.168297 -14.07  0.001452284    2.652    0.623
        19  -9.3722    183.4169      7.7548   4.5020480343e+01   3.8036408936e+01    0.1918091    0.1368451  -0.28 0.0009425643    1.681    0.405
        20  -9.6814    124.2910      8.3384   5.4045772245e+01   5.3514927665e+01    0.1517424   0.09813671  29.35 0.0004646557    1.643    0.392
        21 -10.9417     40.7711      7.1594   8.0395673750e+01   7.0819261149e+01    0.2893713    0.1833806 -15.94  0.001004182    1.487    0.328
        22  -9.9838    210.5050      7.4854   4.2239357127e+01   3.1055475001e+01    0.1374763     0.124737 -65.92 0.0003014478    1.004    0.004
        23  -9.9159     15.1525      8.8592   9.5492785086e+01   7.3506063920e+01    0.1830232     0.105887 -25.54 0.0004219432    1.585    0.369
        24 -11.0956     70.9250      5.7746   6.6941053030e+01   6.5881839480e+01    0.3359565    0.2708646 -11.13  0.001294276    1.128    0.113
        25  -9.9354     65.1437      6.5556   6.9477449717e+01   6.6889597709e+01    0.2459235     0.165895 -19.89 0.0007777787    1.353    0.261
        26  -9.5521     11.1793      7.0490   9.6983813123e+01   7.4159616464e+01       0.1712    0.1288381 -69.82   0.00107589    2.042    0.510
        27 -11.8616     57.3663      3.0535   7.0507078256e+01   6.8712531876e+01    0.4083224     0.286585   1.18  0.002385078    1.342    0.255
        28  -9.7078     36.5704      5.7418   8.1674191327e+01   7.1608763831e+01    0.1647445    0.1020627 -39.92 0.0005471652    1.604    0.376
        29  -9.9863      2.3932      6.4767   1.0231041250e+02   7.4893598770e+01    0.1922317    0.1284059  18.19 0.0007687645    1.776    0.437
        30  -9.3493      1.8219      3.2347   1.0107378087e+02   7.5517078408e+01    0.1735613    0.1016005 -21.24  0.001093147    1.622    0.383
        31 -10.9723    130.2237      3.2967   5.0841416315e+01   5.2467751775e+01    0.2587264    0.2169969  68.27 0.0007357458    1.173    0.148
        32 -10.2325    120.9586      4.0284   5.2859735520e+01   5.4751974164e+01    0.2119159      0.18949  34.57 0.0003757641    1.041    0.039
        33  -9.9419    104.1794      4.4070   5.6626546843e+01   5.8806650024e+01    0.2152866    0.1929466 -66.01 0.0004562126    1.355    0.262
        34  -9.9857    100.9680      2.2378   5.6356233836e+01   5.9760544956e+01     0.379694    0.1766311  54.48  0.001683312    1.928    0.481
        35 -10.3033     88.8860      7.5642   6.2163202436e+01   6.1971572113e+01    0.3499994    0.1977537 -32.12  0.001178069    1.784    0.439
        36 -10.6019    174.6631      2.4438   4.4283939719e+01   4.0844734696e+01    0.4925309    0.1658123  63.66  0.001825604    2.554    0.608
        37  -9.3660    112.5961      3.2531   5.4215359843e+01   5.6889371060e+01    0.1380003    0.1042895 -70.97 0.0006949048    1.711    0.415
        38 -10.8457     90.5483      2.5626   5.9167018165e+01   6.2109251789e+01    0.2699428     0.230919  89.65   0.00157286    1.526    0.345
        39  -9.9387    147.4936      2.4893   4.7770853091e+01   4.8042728276e+01    0.1418201    0.1311796  52.50  0.000105824    1.032    0.031
        40 -11.2403     80.2868      1.7286   6.1676055920e+01   6.4411996575e+01    0.3253109    0.1739421  51.93 0.0009170425    1.791    0.442
        41  -9.5631     67.0665      1.6425   6.5989528398e+01   6.7084887108e+01    0.1765899    0.1463948  23.90 0.0003596999    1.106    0.096
        42 -10.4297     10.0334      1.7473   9.4804257542e+01   7.5165858373e+01    0.1703935    0.1286883 -25.44 0.0005911179    1.040    0.038
        43 -10.0671    187.0469      1.3609   4.2630721968e+01   3.7678011548e+01    0.2002755    0.1257521  77.78 0.0002955326    1.530    0.346
        44  -9.9956     22.2951      9.4871   9.1618501814e+01   7.2718391321e+01    0.3475781    0.2088324 -12.54  0.001685467    1.830    0.454
        45  -9.6178    153.9121      1.0000   4.6326851817e+01   4.6474048394e+01    0.2257541   0.07623205  70.87 0.0004326563    2.792    0.642
        46 -11.1072      2.3972    132.9211   1.2674061540e+02   4.6694342156e+01    0.3009737     0.158155  61.40  0.001759733    1.778    0.437
        47 -11.7474     17.4252    249.3201   1.2976538129e+02   2.2574359356e+01    0.2526608    0.1636586  31.57  0.001922002    2.040    0.510
        48 -11.6449      2.6973    248.6825   1.3197066679e+02   2.4095515855e+01    0.3793279    0.1925431  55.00  0.002954324    1.315    0.239
        49 -12.0336     10.9938    244.6231   1.3058766014e+02   2.3959296594e+01    0.2405832    0.1674411  33.51   0.00193301    1.869    0.465
        50 -11.8160      6.3408    241.3178   1.3119517377e+02   2.4941040161e+01    0.2315253     0.157401 -82.23  0.001298333    1.547    0.354
        51 -11.2381      1.9842    239.5044   1.3180967780e+02   2.5643949776e+01    0.2518591    0.1272062  68.98  0.001885139    1.380    0.275
        52  -9.6717     35.2297    130.8352   1.1813917628e+02   4.4448120904e+01    0.1691901    0.1266341 -59.65 0.0004844963    1.339    0.253
        53 -11.5373     11.2450    129.5431   1.2425124484e+02   4.6834859467e+01    0.3662232    0.1935607  42.23  0.002125006    1.960    0.490
        54 -10.5536    248.5016    129.4799   6.9346002089e+01   5.7676317928e+00    0.1364973     0.116176 -11.07 0.0001061463    1.003    0.003
        55  -9.3632     28.6630    128.2702   1.1957828793e+02   4.5681387814e+01    0.1273656   0.07884896  68.08 0.0002545265    1.598    0.374
        56  -9.7058     20.3177    125.2541   1.2146823824e+02   4.7119198345e+01    0.1893886    0.1003867 -73.76 0.0001498991    1.505    0.336
        57 -10.2793     17.9425    121.9984   1.2176267262e+02   4.8076165696e+01    0.1803918    0.1424682 -80.52  0.001203797    1.055    0.052
        58 -11.0201     20.1411    112.7915   1.2011290722e+02   5.0078884896e+01    0.1832729    0.1456098 -61.64 0.0005121554    1.235    0.190
        59 -10.9902     17.0406    115.0389   1.2125412902e+02   4.9787485373e+01    0.2764692    0.1474447 -72.45 0.0007781229    1.472    0.321
        60 -10.3134      8.0181    121.0750   1.2433608140e+02   4.9028435704e+01    0.1827154    0.1378104 -89.13 0.0003455844    1.034    0.033
        61  -9.9384     72.2711    113.0014   1.0491691855e+02   4.4265368771e+01    0.1943417    0.1604654 -69.37 0.0002540795    1.085    0.079
        62 -11.1248     65.8437    110.9106   1.0638543411e+02   4.5665396977e+01    0.3199194    0.2394115  81.36  0.001125906    1.458    0.314
        63 -12.0025      4.5908    108.7484   1.2411252626e+02   5.2127984421e+01    0.3760202    0.2759656  -2.93  0.002465871    2.000    0.500
        64 -12.2770     24.0203    121.6970   1.2007581946e+02   4.7646162762e+01    0.7482995    0.3098696  60.66  0.002919345    2.959    0.662
        65  -9.4521     40.3348    106.7351   1.1328427374e+02   4.9707165177e+01    0.1299582   0.08931177  70.99 0.0002664055    1.584    0.369
        66  -9.8209     89.3192    105.3309   9.8244089307e+01   4.3441231883e+01    0.1474904    0.1125701 -24.60 0.0004158086    1.691    0.409
        67 -10.1881     52.3790    105.1034   1.0931987517e+02   4.8776456075e+01    0.1982945    0.1144701 -77.21 0.0009339591    1.767    0.434
        68 -11.5279     56.6089    108.1352   1.0860628148e+02   4.7531902682e+01    0.3697214    0.2298284  25.67  0.001855884    2.020    0.505
        69  -9.6233    187.0180    103.2703   7.3515865073e+01   2.3065628718e+01    0.2092336    0.1962625  50.83 0.0005139324    1.119    0.106
        70  -9.4822    113.6748    102.6546   9.0651125437e+01   3.9593666904e+01    0.1558422    0.1211299 -11.65 0.0007050319    1.743    0.426
        71 -10.0680     62.1556     97.9764   1.0482183569e+02   4.9275799715e+01    0.2421064    0.1346487 -41.92  0.001088747    1.975    0.494
        72  -9.8180    100.8553     96.5117   9.2637491888e+01   4.3449464028e+01    0.2547547    0.2044401 -73.49  0.001272256    1.366    0.268
        73  -9.5461     91.6217     96.7802   9.5434229585e+01   4.5048431274e+01    0.2047461    0.1327431 -61.81  0.000391622    1.565    0.361
        74 -10.5576      3.3276     95.6247   1.2310508042e+02   5.5280016514e+01    0.2163945    0.1579764 -67.76 0.0004228077    1.140    0.123
        75  -9.9262     78.8721     94.7780   9.8816261766e+01   4.7624703474e+01    0.2036189    0.1815004 -37.66 0.0002566346    1.175    0.149
        76 -11.2425     18.1190     95.0233   1.1838410234e+02   5.4470148655e+01    0.2332118    0.1714794  41.11 0.0009480204    1.591    0.372
        77 -11.7565     10.8559     91.0814   1.2016430490e+02   5.5902366251e+01    0.4202853    0.1623692 -67.28 0.0003639347    1.901    0.474
        78  -9.7266    125.0451     93.3147   8.4988635818e+01   3.9297613027e+01    0.2100959    0.1965833  51.52  0.000266969    1.109    0.098
        79  -9.9358     44.3261     92.1604   1.0935305454e+02   5.2810503101e+01    0.2839384   0.08560294 -56.57  0.001079368    2.563    0.610
        80 -10.8982     57.2778     92.0500   1.0507006133e+02   5.1327685509e+01    0.2657325    0.1954251  15.58 0.0009299326    1.776    0.437
        81  -9.8540     29.3001     92.0377   1.1428690522e+02   5.4294813294e+01    0.1955958    0.1849348  54.66 0.0007431686    1.260    0.206
        82 -10.3125     24.8869     89.7541   1.1535699298e+02   5.5211187785e+01    0.2726983    0.1991223  77.17  0.001637244    1.456    0.313
        83 -10.1354     76.5966     88.9785   9.8047739085e+01   4.9341618866e+01     0.224695    0.2041597  -1.37 0.0007239086    1.289    0.224
        84 -10.0492     64.9539     88.4791   1.0170392811e+02   5.1166123728e+01    0.2242671    0.1667375 -57.80 0.0005927028    1.181    0.153
        85 -10.7092     18.4785     87.5119   1.1712947176e+02   5.6235139220e+01    0.3580962    0.2032284 -59.95  0.001609258    1.410    0.291
        86  -9.0602    150.2807     88.2875   7.7176390183e+01   3.4611976859e+01    0.1537774       0.1241   6.80 0.0002158127    1.522    0.343
        87 -11.1688     54.7777     84.1891   1.0406737810e+02   5.3513253192e+01    0.3054975    0.1933161 -61.43 0.0007499821    1.383    0.277
        88  -9.9882     38.8529     85.7621   1.0988315269e+02   5.4912139926e+01    0.2646856    0.1536828  88.81  0.001215587    2.282    0.562
        89 -10.8368      3.9762     82.5341   1.2128208529e+02   5.8318174538e+01    0.3518734    0.1716325 -72.62  0.001892966    1.545    0.353
        90 -10.4223    124.5508     82.7434   8.1964683291e+01   4.1638171635e+01     0.303513    0.2407779  38.32  0.001087051    1.338    0.253
        91  -9.0315    124.6222     79.2751   8.0860966068e+01   4.2337215987e+01    0.1574799    0.1235111 -88.11 0.0007002521    1.699    0.411
        92 -10.0431     89.3679     80.5923   9.1616672620e+01   4.9141810800e+01    0.2797092    0.2058083 -73.90 0.0007265928    1.685    0.406
        93 -11.0967     64.3982     79.4617   9.9552013918e+01   5.3359520418e+01    0.4082677    0.2446161 -61.65  0.001586008    1.596    0.373
        94 -11.1366     10.1418     79.2683   1.1868463895e+02   5.8736932181e+01    0.2540618    0.1638133 -67.53  0.000706955    1.185    0.156
        95 -11.0511     27.4837     77.3727   1.1216037146e+02   5.7947913875e+01    0.3510582    0.2154264 -13.05 0.0006071153    2.420    0.587
        96 -10.1951    176.8424     76.8795   6.8013160421e+01   3.0231443784e+01    0.2461957     0.217946  12.47  0.001233919    1.233    0.189
        97 -11.8894      5.2330     75.2906   1.1980733462e+02   5.9946848855e+01    0.3303451    0.2885295  83.77  0.002385282    1.231    0.187
        98  -9.3281    169.9971     75.9858   6.9112866604e+01   3.2098552834e+01    0.1913563    0.1856872 -30.91  0.001000161    1.001    0.001
        99 -10.7508     55.5603     75.1426   1.0147874450e+02   5.5538130772e+01    0.3335351    0.2928127 -52.86  0.001530489    1.023    0.023
       100 -10.6352     15.1819     75.4022   1.1624167801e+02   5.9329483652e+01    0.2106161    0.1908891  68.19  0.001209724    1.286    0.223
       101 -10.4942     18.6888     74.7149   1.1483772091e+02   5.9251602247e+01    0.2026205    0.1462191 -53.69 0.0004644281    1.198    0.165
       102 -10.1476    160.7361     75.0330   7.0764444271e+01   3.4577678285e+01    0.2462137    0.2256596  52.00 0.0002334803    1.121    0.108
       103 -10.2717     71.6369     74.9475   9.5783572934e+01   5.3339721597e+01    0.4059111    0.1878331  35.65  0.001683304    2.450    0.592
       104 -10.8963     36.0832     73.0664   1.0806133276e+02   5.8191624627e+01    0.4682378    0.3295671 -52.38  0.001951667    1.195    0.163
       105  -9.4736    136.2759     74.3895   7.6263836303e+01   4.0640826988e+01     0.214688     0.152701  62.18 0.0009444614    1.591    0.371
       106  -9.7964     92.7676     72.7842   8.8113117688e+01   5.0240187790e+01    0.2028759    0.1752693 -77.49  0.001061678    1.344    0.256
       107  -9.4567    216.8579     72.1698   5.9785448285e+01   2.1153098906e+01    0.1956707    0.1677693   0.35 0.0004128915    1.271    0.213
       108 -10.3886    106.4812     72.0855   8.3665953574e+01   4.7704416638e+01    0.3539491    0.2143328  50.29  0.001437149    1.803    0.445
       109 -10.9504      9.8663     60.1125   1.1535932873e+02   6.3208687051e+01    0.1877606    0.1430643 -60.06 0.0002940322    1.029    0.028
       110 -10.6138     10.6750     67.6025   1.1650153308e+02   6.1433896650e+01    0.3438457    0.1596456 -72.97  0.001393972    1.798    0.444
       111 -11.7521      7.3170     64.1553   1.1715906221e+02   6.2421484770e+01     0.261312    0.1935527 -69.03    0.0017265    1.066    0.062
       112  -9.4319     81.4390     73.2147   9.1939314326e+01   5.2154503768e+01    0.2027497    0.1316374 -58.88 0.0009351553    1.596    0.373
       113 -10.0256     79.8917     68.9088   9.1090681893e+01   5.3359740100e+01    0.2248848    0.1877879 -23.74 0.0006016594    1.253    0.202
       114 -10.3897     46.7263     69.2739   1.0312145601e+02   5.7956548424e+01    0.2967326    0.1874825  12.78  0.001376383    2.154    0.536
       115 -11.0331     14.2872     64.2096   1.1443754550e+02   6.1997910616e+01    0.3709837    0.2002922 -82.03 0.0009605744    1.948    0.487
       116 -13.9213     19.9297     57.5419   1.1065758579e+02   6.3141923753e+01    0.4698589    0.2957808 -67.82  0.001137727    1.369    0.270
       117 -10.4945     34.4681     64.9289   1.0666355010e+02   6.0235138792e+01    0.4245363    0.2186052 -44.54  0.002109173    1.750    0.428
       118 -10.4437     39.2156     62.7816   1.0422205711e+02   6.0256453977e+01    0.3738491    0.1928999 -53.47  0.001745449    1.563    0.360
       119 -10.0589     41.6606     58.7038   1.0207155592e+02   6.0917190736e+01     0.279819     0.200378  -0.20  0.001090657    1.782    0.439
       120 -10.2243    133.3625     65.3458   7.3992361830e+01   4.3045035778e+01    0.2511404    0.1887136  10.12  0.001111158    1.717    0.418
       121  -9.3044     96.9197     64.0322   8.3859002929e+01   5.1281160469e+01    0.1703671    0.1655357  13.42 0.0003411146    1.084    0.078
       122  -9.3778     75.9548     64.5786   9.1023118961e+01   5.4950142332e+01    0.1851037    0.1419334  34.31 8.490028e-05    1.447    0.309
       123 -10.6771     63.4184     62.2760   9.4776713518e+01   5.7380352118e+01    0.4542831     0.297374 -20.36  0.002147864    2.007    0.502
       124 -11.0990     53.3782     62.1406   9.8519784788e+01   5.8771693888e+01    0.2402089    0.2143502 -61.00 0.0003685831    1.136    0.120
       125  -9.9269    193.3104     62.0133   6.0563178969e+01   2.8515785541e+01    0.2130643     0.185487 -32.54 0.0003145697    1.099    0.090
       126  -9.5661    192.9761     58.7691   5.9643723067e+01   2.9097924204e+01    0.2114359    0.1774469 -63.71 0.0003795177    1.263    0.208
       127 -10.2596    100.8338     60.7463   8.1475505296e+01   5.1156385988e+01    0.3202565    0.1975984 -51.57  0.001398175    1.734    0.423
       128  -9.4137    130.8349     58.0777   7.2102933752e+01   4.4967689838e+01    0.3180877    0.2078581  87.37  0.001189036    2.684    0.627
       129 -11.0081     91.7860     55.2294   8.2331572556e+01   5.4036886244e+01    0.2814105     0.226816  32.42 0.0003306303    1.325    0.245
       130 -11.0160     83.4993     56.8382   8.5700026721e+01   5.5267392110e+01    0.2813822    0.2452655 -63.14 0.0009263544    1.298    0.229
       131 -11.6886     87.9888     53.1393   8.2802290691e+01   5.5170293185e+01    0.4749381    0.3534478  -9.46  0.001355887    1.601    0.375
       132  -9.0794     48.3530     58.2448   9.9258263423e+01   6.0255303439e+01    0.1312893   0.09353057 -23.14  0.000269239    1.586    0.370
       133  -9.4617     71.6334     56.8294   8.9892577652e+01   5.7291505216e+01    0.1995231    0.1230318 -54.19 0.0008471505    1.644    0.392
       134 -10.0003    158.0631     56.0328   6.5168786616e+01   3.8523851976e+01    0.2341574    0.2162319 -58.08 0.0003280846    1.117    0.105
       135 -11.6731    114.4235     53.7190   7.4888290263e+01   4.9564840923e+01    0.3379947    0.3275765  10.76 0.0006110676    1.045    0.043
       136  -9.8181     33.0507     55.4405   1.0463134412e+02   6.2519528754e+01     0.278863    0.1027286 -37.16   0.00099187    3.445    0.710
       137 -10.1316    105.9539     53.2088   7.7146438238e+01   5.1521183899e+01    0.2936818    0.2043357  60.63  0.001082808    1.727    0.421
       138 -12.1298     66.1130     52.5350   9.0391181505e+01   5.9047236673e+01    0.5623175    0.2495052  34.38  0.002336089    2.604    0.616
       139 -10.6888     12.9846     41.0946   1.0935135213e+02   6.7270221052e+01    0.2513882     0.195933 -56.46 0.0004750456    1.068    0.063
       140 -10.5404     14.5240     35.1197   1.0676910927e+02   6.8444374559e+01    0.3385821    0.1836795 -22.39  0.001321541    2.172    0.540
       141 -10.7319     19.5230     31.9798   1.0319057153e+02   6.8725964167e+01    0.2888419    0.1740538  -3.16  0.001123699    2.092    0.522
       142 -10.5582     18.2035     44.6146   1.0795115678e+02   6.6148335402e+01    0.3933285    0.3251043  44.38   0.00234147    1.563    0.360
       143 -13.2433      5.7922     50.6373   1.1504450075e+02   6.5578300607e+01    0.4106851    0.2301813 -44.81 0.0005682569    1.535    0.348
       144 -10.9440     14.0600     48.7193   1.1095013159e+02   6.5527741593e+01     0.268684     0.200375 -69.22 0.0001871512    1.225    0.184
       145 -10.1907    122.4582     51.4918   7.1870933409e+01   4.8108429937e+01     0.287082     0.242638 -82.27 0.0009001764    1.470    0.320
       146  -9.8979     98.2168     49.0307   7.7904045110e+01   5.3916228867e+01    0.2922425    0.1660981 -24.34  0.001001335    2.042    0.510
       147 -10.0074     76.1557     49.5958   8.5563321547e+01   5.8000859631e+01    0.2830754     0.204758 -18.42  0.001133772    1.526    0.345
       148 -10.4823     79.0644     45.8422   8.3041933364e+01   5.8210215262e+01    0.2113624    0.1930699 -27.97 0.0004043571    1.050    0.048
       149 -10.7973     57.5394     47.1482   9.1730127250e+01   6.1413535696e+01    0.3542994    0.2091729 -58.01 0.0008981722    1.906    0.475
       150  -9.5956     53.3595     48.3331   9.3863750098e+01   6.1744798361e+01    0.2153813    0.1428018 -23.68  0.001099609    1.683    0.406
       151  -9.4936    154.7796     47.6121   6.2963822804e+01   4.0698706232e+01    0.1967085    0.1495603  74.39 0.0002343646    1.466    0.318
       152  -9.5999    135.7166     46.4020   6.6683539148e+01   4.5738163403e+01      0.20147    0.1414297  45.48 0.0003918426    1.438    0.305
       153 -11.9978     27.0576     43.7892   1.0365438730e+02   6.5617036715e+01    0.3997207    0.3232609 -34.93  0.002619314    1.133    0.117
       154  -9.8890     25.7556     29.7019   9.9188291122e+01   6.8648862275e+01    0.1691754    0.1409803 -78.72 0.0004475842    1.631    0.387
       155 -10.7222     22.7235     38.5623   1.0393542937e+02   6.7097905497e+01    0.2069951    0.1967392 -41.38 0.0004139736    1.218    0.179
       156 -11.8079     26.7118     35.5962   1.0097994642e+02   6.7369390901e+01      0.38515    0.2029313 -42.12  0.001124108    1.554    0.356
       157  -9.7910    159.5229     41.9237   6.0061528646e+01   4.0306515737e+01    0.2275077    0.1477571 -30.88 0.0003369954    1.513    0.339
       158 -10.1686     69.8020     41.5624   8.4707682377e+01   6.0616336332e+01    0.3187748    0.2111543  -0.79   0.00100219    2.103    0.524
       159 -10.6801      3.2715     41.8566   1.1412186562e+02   6.7650178769e+01    0.3047182    0.1783102  -7.65  0.001811934    2.168    0.539
       160  -9.5875    182.2651     40.9742   5.5829420490e+01   3.4453540864e+01    0.3257782    0.1855246 -77.62  0.001187396    2.723    0.633
       161 -11.3797    139.8566     40.5386   6.3572706797e+01   4.5595575799e+01    0.3732498    0.2887184 -53.12 0.0004540324    1.422    0.297
       162  -9.7827     42.9734     40.7222   9.5413858191e+01   6.4614712150e+01    0.1677265    0.1515447  -4.63 0.0006942586    1.187    0.157
       163 -10.0954     34.4385     41.3937   9.9480623752e+01   6.5420544080e+01    0.3742827    0.1129583  31.63   0.00149088    3.723    0.731
       164 -10.7061    127.9752     38.6684   6.5593457185e+01   4.8846867334e+01    0.5271698    0.2142924  56.66  0.001631066    2.472    0.595
       165 -12.1127    121.6119     37.2719   6.6610359810e+01   5.0605276072e+01    0.5241654    0.4376276 -54.52  0.002703991    1.347    0.258
       166  -9.7565    115.0697     39.1024   6.9043814243e+01   5.1876668870e+01    0.2273287    0.1927315  11.53 0.0004889179    1.227    0.185
       167 -10.5730      3.3795     35.3049   1.1235322089e+02   6.9064462454e+01    0.4217071    0.1733156 -26.38  0.001987738    3.033    0.670
       168 -11.0598     38.7725     35.4991   9.5258030143e+01   6.6151697648e+01    0.2613585    0.1971392  -1.10   0.00132996    1.473    0.321
       169  -9.8231    229.6460    248.0060   9.4371926155e+01  -5.6734410821e+00    0.1425186    0.1098521  11.09 0.0006057006    1.144    0.126
       170  -9.4257     99.6850     39.3083   7.3530078456e+01   5.5292405974e+01    0.1424463    0.1154413 -67.55 0.0003393884    1.629    0.386
       171 -11.1561     96.6067     32.9384   7.1765292204e+01   5.6969097529e+01    0.4013801    0.2257414 -37.79  0.001691433    1.732    0.423
       172  -9.5918    134.2336     34.2288   6.2427900018e+01   4.7928629597e+01    0.2083986    0.1817192  23.81 0.0003346379    1.173    0.147
       173  -9.6106     82.2375     34.1070   7.6975691657e+01   5.9702295517e+01    0.2104407    0.1718634   3.66  0.001156088    1.246    0.197
       174  -9.5891     50.4502     33.8254   8.9316623841e+01   6.5008859472e+01    0.1917917    0.1138874 -44.17 0.0009872194    1.484    0.326
       175  -9.6624    145.0162     33.0154   5.9689692606e+01   4.5333797137e+01    0.2277245    0.1733474 -62.68 0.0003209464    1.537    0.349
       176  -9.6350    166.4803     30.9286   5.5037507547e+01   3.9957953209e+01    0.2239644    0.1468714 -26.22 0.0005643151    1.535    0.348
       177 -10.2195    128.8582     30.8945   6.2334296917e+01   4.9738544935e+01    0.3120368    0.2331269  55.25  0.001160756    1.328    0.247
       178 -10.6269      8.0611     28.6462   1.0792010732e+02   7.0212089952e+01    0.2410248    0.2087349  74.78  0.001711468    1.580    0.367
       179  -9.6974     57.6171    248.1865   1.2333371278e+02   1.8354597573e+01    0.1963179   0.05505032  41.51  0.001000603    2.570    0.611
       180  -9.7300    146.9055     26.4772   5.6886465096e+01   4.5686801310e+01    0.2161201    0.1433659  61.42 0.0004102543    1.476    0.322
       181 -10.3414    113.5417     25.2435   6.3691280826e+01   5.4233056751e+01    0.2608721    0.2326179  36.88 0.0005883339    1.088    0.081
       182  -9.9711     97.9547     25.9864   6.8285916841e+01   5.7703585283e+01     0.208143    0.1907165   4.64  0.001197737    1.007    0.007
       183  -9.1643     18.3045     26.3188   1.0166850850e+02   6.9966872770e+01    0.1281995   0.07179387 -32.83 0.0007028166    1.629    0.386
       184  -9.5527    153.7535     25.5962   5.5318359879e+01   4.3994128877e+01    0.2047947    0.1425097  81.68 0.0007281807    1.620    0.383
       185 -10.2456     59.0223     24.2751   8.1248784939e+01   6.5418884755e+01    0.2443404    0.1829192  -3.65  0.001389058    1.359    0.264
       186  -9.4967    120.4284     24.6087   6.1736145026e+01   5.2652620744e+01    0.1463268    0.1323704  24.72            0    1.065    0.061
       187  -9.4553    123.6464     23.6843   6.0605276877e+01   5.1976710356e+01    0.1599193    0.1039355  27.83 0.0007046052    1.739    0.425
       188 -11.1541     14.6077     21.5177   1.0171559732e+02   7.1202001325e+01    0.2780743    0.2069338  36.93  0.001455922    1.795    0.443
       189 -10.5152      1.9549     21.9583   1.0894813727e+02   7.1921455400e+01    0.2333796    0.1351796 -61.87 0.0007324943    1.458    0.314
       190  -9.6759    197.7147     22.6712   4.8003376808e+01   3.2705248355e+01    0.1442244    0.1081649  29.13 0.0005640243    1.611    0.379
       191 -11.4280     30.5330     21.3097   9.3105597165e+01   6.9771432724e+01    0.2650501      0.19266 -29.96 0.0008491377    1.127    0.113
       192  -9.5830    175.5482     21.4460   5.0458563639e+01   3.8685821145e+01    0.1452404    0.1383844 -74.03 0.0001041227    1.026    0.025
       193  -9.5714    165.1669     20.8126   5.1754928982e+01   4.1523556350e+01    0.2019119    0.1687898  25.00 0.0005873549    1.309    0.236
       194  -9.6718     84.7570     21.3845   7.0256471344e+01   6.1145478825e+01    0.1957162    0.1190907  37.83 0.0007225521    1.657    0.396
       195  -9.8436    224.9797    246.7343   9.4936483992e+01  -4.9103176846e+00    0.1576757    0.1072311  25.72  0.001143548    1.077    0.072
       196  -9.5718     58.4026     19.2649   7.9007832576e+01   6.6317115558e+01    0.1865071     0.110879 -42.57 0.0009423357    1.740    0.425
       197  -9.5050    136.3738    245.7238   1.0973644682e+02   8.1294404682e+00    0.1155445   0.06885041  57.65  0.000700567    1.692    0.409
       198  -9.4122     45.0517    244.7883   1.2519615389e+02   2.0356069671e+01    0.1297677   0.06227965  44.13 0.0003199588    1.623    0.384
       199  -9.6735    202.4253    240.2953   9.7733051787e+01  -1.0160129971e+00    0.1686009    0.1049724 -26.55 0.0008065531    1.924    0.480
       200  -9.6494     49.7609    240.9651   1.2421018813e+02   2.0437100005e+01     0.122488   0.07575045 -83.83 0.0007507387    1.614    0.380
       201  -9.4928     60.6281    241.0000   1.2239190546e+02   1.9142408366e+01    0.2195192   0.04760977  38.17 0.0009159739    3.785    0.736
       202  -9.7218    199.7739     17.3995   4.6184355080e+01   3.2761947359e+01    0.1947403    0.1255842  60.33 0.0004756323    1.549    0.355
       203 -10.4583    108.3233     16.4299   6.1148070877e+01   5.6564115913e+01    0.2293344    0.1778047 -16.46  0.001216584    1.274    0.215
       204 -10.1347     82.9162     17.2261   6.8837962460e+01   6.2083798024e+01    0.2355855    0.1393047  25.49 0.0009117327    1.937    0.484
       205  -9.9128    148.5322    238.9876   1.0686533519e+02   7.2511442778e+00    0.1426155    0.1152186 -52.56  0.001033003    1.597    0.374
       206 -10.5705     20.0475     17.0380   9.6712708763e+01   7.1598700639e+01    0.2072802    0.1682913  22.53 0.0009965514    1.482    0.325
       207 -10.9556     13.9569     16.1560   9.9757754775e+01   7.2279310524e+01    0.2592809     0.170278  19.30  0.001063241    1.769    0.435
       208 -11.2642     14.1763    238.8733   1.2988827753e+02   2.4590661593e+01     0.157039    0.0891386  65.31 0.0004409109    1.214    0.176
       209  -9.1403     91.0000    237.0291   1.1685559645e+02   1.5876430625e+01    0.1502833   0.06111519 -65.46 0.0007963609    2.900    0.655
       210 -10.1587    250.5533     14.9634   4.0979906616e+01   2.0716913150e+01    0.1953716    0.1132425 -30.49 0.0003544624    1.538    0.350
       211 -10.4593    154.5189     15.0217   5.1343047427e+01   4.4988742764e+01    0.2761111    0.2071114  66.99 0.0005164955    1.291    0.225
       212  -9.3777     64.3616     15.2957   7.4525516003e+01   6.5889277393e+01    0.1393107    0.0919822  10.01 0.0001495876    1.709    0.415
       213 -10.2070    190.8967     13.8090   4.6079105472e+01   3.5458447063e+01    0.2185378    0.1886671  47.24  0.000826805    1.236    0.191
       214 -12.0992     26.5832    235.5113   1.2775594157e+02   2.3897992503e+01    0.2927141    0.2268669  79.68  0.002287955    1.238    0.192
       215  -9.7465    162.4670     13.4331   4.9578859280e+01   4.3039894662e+01    0.1429799    0.1369008  69.63 8.780604e-05    1.011    0.011
       216 -12.1415      4.2213    232.6242   1.3124482514e+02   2.6585161390e+01    0.2939363    0.1310476  60.44  0.002040006    1.542    0.351
       217 -12.6786      9.7737    228.3379   1.3020398186e+02   2.6797017302e+01     0.459427    0.2241425  64.55  0.001157381    1.464    0.317
       218  -9.9041    249.1883    234.0961   8.9237980012e+01  -6.9881428253e+00    0.1640822    0.1088072  14.07 0.0004265489    1.173    0.148
       219  -9.2406    242.9776    230.2130   8.9611458748e+01  -5.7627433191e+00    0.1453194   0.07163956  36.13 0.0008612305    1.673    0.402
       220  -9.5288    209.5364    229.5175   9.4991180114e+01  -8.4833776692e-01    0.1160525   0.08938704  24.40 0.0002034932    1.007    0.007
       221 -10.5642    140.6764    228.4896   1.0703767975e+02   9.9544645119e+00    0.1985191    0.1497947 -47.51 0.0008739643    1.667    0.400
       222 -10.8912      1.4830    225.4557   1.3144822665e+02   2.8063425657e+01    0.2310293   0.07380196  88.96 0.0009830015    2.790    0.642
       223 -11.4978      8.4310    218.4565   1.3005114938e+02   2.8659821026e+01    0.2562332    0.1835997  19.14  0.001864355    2.348    0.574
       224  -9.3613    209.6628    211.3038   9.2137991549e+01   1.3282620754e+00    0.1092673   0.09259449  59.22 0.0007038841    1.669    0.401
       225 -10.2674     20.1613    209.8418   1.2763672998e+02   2.9104862026e+01    0.1738514   0.09965797  64.35 0.0008001183    1.301    0.231
       226 -11.1908      9.4591    203.4978   1.2925216137e+02   3.1318154147e+01    0.2225793   0.09271614  33.80  0.001298472    2.494    0.599
       227  -9.9516     23.1317    197.1746   1.2641626217e+02   3.1226027712e+01    0.1555827    0.1289602  86.26 0.0005622249    1.247    0.198
       228 -11.0732     13.9119    192.6885   1.2791541932e+02   3.2994714386e+01    0.1931451    0.1166879  80.13 0.0004342794    1.273    0.214
       229  -9.1922     19.3243    192.6521   1.2688408998e+02   3.2489319711e+01    0.1227725   0.05799949  65.63 -1.943526e-05    1.746    0.427
       230 -10.5721      6.5970    191.5214   1.2923469955e+02   3.3885253061e+01    0.1993261    0.1271358  70.22 0.0003014508    1.147    0.128
       231 -10.0021     12.8184    179.6837   1.2742570427e+02   3.5712179112e+01    0.2581033   0.08473802  77.52  0.001080992    3.455    0.711
       232  -9.5551     22.5213    179.5779   1.2546155881e+02   3.4829840959e+01    0.1139543   0.08630105  76.94 8.132298e-05    1.023    0.023
       233 -11.0756      5.3795    167.5908   1.2826459876e+02   3.8866670028e+01    0.2328781    0.1330096  83.05    0.0010297    1.354    0.262
       234  -9.4697    226.5215    163.9517   8.0453839569e+01   4.8699952229e+00    0.1920466     0.121572 -27.64 0.0006745348    1.529    0.346
       235 -10.1775     14.8242    163.7648   1.2603073875e+02   3.8885337892e+01    0.1774969   0.09802544 -45.60 0.0009504216    2.798    0.643
       236  -9.1597     41.4406    157.5336   1.1953411200e+02   3.7644942008e+01    0.1243023    0.0994489  84.20  0.000738443    1.006    0.006
       237  -9.6640    247.4718    155.5068   7.5206748364e+01   2.3454376891e+00    0.1326822    0.1081355  -0.71 8.968169e-05    1.037    0.036
       238 -10.6477      2.4826    153.4902   1.2807541025e+02   4.2115461717e+01    0.1984545    0.1060777  30.71  0.001211907    2.169    0.539
       239 -10.5020     23.6982    150.6734   1.2303994402e+02   4.0972220245e+01    0.1767374    0.1525171  14.28  0.001132711    1.662    0.398
       240  -9.8853     15.8248    150.3517   1.2484608457e+02   4.1741107745e+01     0.137459    0.1132345  15.02 0.0009498156    1.755    0.430
       241 -10.0163      2.5064    148.5055   1.2776578161e+02   4.3204476839e+01    0.1166159   0.08498067  83.48 -8.992641e-05    1.020    0.020
       242 -10.5373     22.5493    142.9458   1.2263172714e+02   4.2827426917e+01    0.2341791   0.09028771 -70.55 0.0009871576    2.087    0.521
       243  -9.5910     24.6214    139.1315   1.2176331549e+02   4.3516698794e+01    0.1797318   0.08656522 -64.66 0.0009378182    1.790    0.441
       244  -9.5486     33.9466    142.0369   1.1973716127e+02   4.1958946867e+01    0.1511514    0.1181731 -89.05 0.0004239089    1.030    0.029
       245  -9.7859     11.8159    141.4099   1.2509561975e+02   4.4079022093e+01    0.1250411    0.1164651   0.03 0.0004075145    1.563    0.360
       246  -9.3496    236.3510    139.3278   7.3495054994e+01   6.6276926214e+00      0.14613   0.09656176   9.22 0.0007048142    1.764    0.433
       247 -10.5588    213.5987    134.3743   7.6275915485e+01   1.1869368307e+01    0.4291116    0.2690013  68.46  0.001793852    2.674    0.626
