#   1 NUMBER                 Running object number                                     
#   2 MAG_AUTO               Kron-like elliptical aperture magnitude                    [mag]
#   3 X_IMAGE                Object position along x                                    [pixel]
#   4 Y_IMAGE                Object position along y                                    [pixel]
#   5 X_WORLD                Barycenter position along world x axis                     [deg]
#   6 Y_WORLD                Barycenter position along world y axis                     [deg]
#   7 A_WORLD                Profile RMS along major axis (world units)                 [deg]
#   8 B_WORLD                Profile RMS along minor axis (world units)                 [deg]
#   9 THETA_WORLD            Position angle (CCW/world-x)                               [deg]
#  10 FWHM_WORLD             FWHM assuming a gaussian core                              [deg]
#  11 ELONGATION             A_IMAGE/B_IMAGE                                           
#  12 ELLIPTICITY            1 - B_IMAGE/A_IMAGE                                       
         1 -12.9016    199.7155     45.5976   3.6675058629e+01   3.0279439059e+01    0.8654438    0.7578667 -63.23  0.003179581    1.102    0.093
         2 -13.0800    234.3847     11.8460   2.6531131223e+01   2.7218426487e+01    0.7885817    0.6072425 -67.39  0.004115075    1.070    0.066
         3 -13.2515    208.7715     37.5210   3.3864730530e+01   2.9386345479e+01    0.6832306    0.6731385  55.53   0.00129429    1.365    0.267
         4  -9.6161     45.6823      5.3448   5.7814775704e+01   6.8551788402e+01    0.1013232   0.09682998  87.55 0.0007048848    1.721    0.419
         5 -10.5231    152.1763    221.8954   8.5089117036e+01   5.5028567699e+00    0.2120683    0.1925205  48.68   0.00109743    1.291    0.225
         6 -15.0584     39.0493    190.5896   1.0917777144e+02   2.9090296451e+01      9.19286      3.42442  63.88   0.02621233    5.325    0.812
         7 -17.8785      9.9083    239.9812   1.1962927821e+02   2.0574803876e+01     9.649784     5.558991 -79.95   0.02481556    1.618    0.382
         8  -9.5626     82.7938    194.9410   9.8159192045e+01   2.2418440958e+01    0.3421324    0.2081779  31.91   0.00140249    1.614    0.380
         9  -9.7414     57.1461    193.9655   1.0482486958e+02   2.6134483351e+01    0.2423001    0.2081282 -66.78 0.0003880426    1.153    0.132
        10  -8.9502     58.5065    190.4852   1.0403230356e+02   2.6839091450e+01    0.1409098    0.1317776  81.88 2.936493e-05    1.009    0.009
        11  -9.1515     89.6447    192.0458   9.5896944485e+01   2.2117598546e+01     0.205849    0.1822779 -70.39 0.0005987817    1.155    0.134
        12 -11.3349    115.7110    186.4008   8.7987550090e+01   1.9320527992e+01    0.3804831    0.2654243 -62.40  0.001116601    1.573    0.364
        13 -10.8896     54.9154    172.5171   1.0263139005e+02   3.1905958584e+01    0.3506799    0.2447644  67.15 0.0005340111    1.598    0.374
        14 -12.5810     55.7890    181.5190   1.0361148998e+02   2.9464263322e+01    0.9115692    0.7240772 -41.67  0.003124246    1.385    0.278
        15 -10.8343     62.9269    180.7781   1.0153339589e+02   2.8749442435e+01    0.5031416    0.2967365  71.65  0.002080933    2.257    0.557
        16 -11.3556     99.1700    181.1572   9.1525050209e+01   2.3340165803e+01    0.4237034    0.3435559 -39.20  0.001100762    1.296    0.228
        17  -9.5152     80.8567    183.3577   9.6940869642e+01   2.5604468970e+01    0.2362684    0.1995465 -84.61 0.0002921487    1.238    0.192
        18 -10.0029     74.6320    180.7821   9.8272364954e+01   2.7157610018e+01    0.4588055    0.2480869 -78.75  0.001225526    2.381    0.580
        19 -11.0490    120.2801    180.1618   8.5625820166e+01   2.0045374888e+01    0.3292502    0.2591122  23.22   0.00118604    1.299    0.230
        20  -8.7329     93.4683    180.4878   9.2982751518e+01   2.4415973484e+01    0.1489722    0.1469678  65.05 0.0002653937    1.005    0.005
        21  -9.4987    183.5893    178.2684   6.9817126741e+01   9.2256460015e+00    0.2864561    0.1362583 -47.91  0.001140026    2.129    0.530
        22  -9.8568     75.5371    246.4112   1.0614129454e+02   1.1720751054e+01    0.5049605    0.1358731 -58.43  0.001903109    3.752    0.733
        23 -10.3472     39.4757    176.5582   1.0749340566e+02   3.2621909341e+01    0.5318246    0.2096377 -44.16  0.001899797    3.225    0.690
        24 -10.0579     71.7501    243.9819   1.0674545845e+02   1.2718892903e+01    0.3061359    0.2223186  89.90  0.001276627    1.518    0.341
        25 -11.0905     88.0486    174.2886   9.3440898250e+01   2.6837557548e+01    0.6843095    0.3519996  37.57  0.002765672    1.900    0.474
        26 -14.5581     98.2501    168.9093   8.9575538671e+01   2.6582890281e+01     4.334124      1.98582  56.17   0.01303877    3.777    0.735
        27 -11.9779     69.2602    168.7270   9.7918557749e+01   3.1032008214e+01    0.6788673    0.3360904 -43.44  0.002305002    2.261    0.558
        28 -11.5734     73.9453    163.9965   9.5758600927e+01   3.1612636757e+01     0.480051    0.3892576 -42.21  0.001444591    1.267    0.211
        29 -13.0285     70.5102    150.7527   9.4445787414e+01   3.5585993644e+01     1.005642    0.5216964 -46.20  0.001435772    1.927    0.481
        30 -12.7922     70.1529    144.8778   9.3449777403e+01   3.7183503540e+01    0.6923297    0.5291142  63.41  0.002571395    1.541    0.351
        31 -10.6999    132.7254    219.1463   8.9223543141e+01   9.1169864728e+00    0.2175681    0.1895661  88.21  0.001199393    1.465    0.318
        32  -9.3258    180.1386    174.1740   6.9730660931e+01   1.0675919848e+01    0.1957894    0.1840647 -84.04 0.0005143529    1.344    0.256
        33 -10.7402    125.0706    173.1641   8.2994363219e+01   2.0893386883e+01    0.3835563    0.2016451  42.23  0.001501034    1.925    0.480
        34  -9.6318     78.1427    172.5185   9.5967792867e+01   2.8783769710e+01    0.3035423    0.2187604 -35.58 0.0007151884    1.571    0.363
        35 -10.0060     34.7740    171.5868   1.0821364533e+02   3.4397175355e+01    0.2693258    0.1993638  80.18 0.0003912288    1.358    0.263
        36 -11.8500    245.0034    169.3092   5.6406022421e+01   1.1631959584e+00     0.417913    0.2691185  34.35  0.002380949    1.827    0.453
        37  -9.7620    110.7568    167.4470   8.5768575097e+01   2.4830302759e+01    0.2933892    0.2408987  82.83 0.0008642741    1.498    0.333
        38  -9.2947    191.8689    165.8761   6.5480758335e+01   1.0305827207e+01    0.2283624     0.188473 -12.91 0.0007966733    1.210    0.174
        39 -10.6055     45.7606    164.7527   1.0419763102e+02   3.5015456447e+01    0.3345409    0.2217983  58.20  0.001037821    1.659    0.397
        40  -9.0663    186.6660    164.3086   6.6243892549e+01   1.1556069660e+01    0.1418852    0.1199535 -87.45 0.0007042077    1.673    0.402
        41 -13.8564     59.3410    138.4046   9.5696088043e+01   4.0354313617e+01       2.8166     1.405562 -63.93  0.007545931    1.963    0.491
        42  -9.7504     86.9014    205.4044   9.8576060428e+01   1.9277498982e+01    0.2272642    0.1935807  87.52 0.0003812766    1.249    0.199
        43 -10.0923     32.5377    156.1984   1.0695881467e+02   3.8640854987e+01    0.4261966    0.1738365  30.92  0.001741335    2.487    0.598
        44 -10.7268    134.1662    147.3634   7.5039710207e+01   2.5401970292e+01    0.8548706    0.2682802 -53.87  0.002335875    3.867    0.741
        45 -10.3782    133.0000    141.9874   7.4107534353e+01   2.6908889178e+01    0.6001014    0.2307227 -52.27  0.001911775    2.782    0.641
        46 -11.6125     89.0323    149.8620   8.8569801756e+01   3.2996661593e+01    0.7438562    0.4824043 -19.61  0.001804069    2.201    0.546
        47  -9.0619    174.8415    149.0595   6.5480693486e+01   1.6981087131e+01    0.2315109    0.2065724 -68.63 0.0007038009    1.293    0.226
        48  -8.0180    111.9940    150.0000   8.1790889606e+01   2.8977739742e+01    0.2547201   0.09074658  35.94 0.0005250152    2.836    0.647
        49 -11.4718     82.0398    156.2526   9.1944369607e+01   3.2439133874e+01    0.6602384    0.4734475 -13.43 0.0004142897    1.834    0.455
        50 -10.5938    104.5093    133.6380   8.0278233039e+01   3.4434412758e+01    0.9862493     0.448433 -36.07  0.002933195    2.877    0.652
        51 -11.5047     90.2481    135.9384   8.5213263955e+01   3.6376807176e+01    0.3111132    0.2833442 -37.05 0.0004071815    1.070    0.066
        52 -10.7451    133.9181    128.1084   7.0508499405e+01   2.9969633540e+01    0.5083483    0.3547958  76.81  0.001994357    2.309    0.567
        53 -11.4195     43.7140    129.4276   9.9246369539e+01   4.4562526640e+01    0.4115532    0.2427036  36.09  0.001876467    1.823    0.451
        54 -10.9273     39.4887    127.5019   1.0034340691e+02   4.5507481052e+01    0.2690614    0.2152042 -54.17 0.0008540945    1.115    0.103
        55  -9.6683    163.6057    202.7893   7.9101001550e+01   7.5456276467e+00    0.1939326    0.1390651 -55.32 0.0009450282    1.642    0.391
        56  -9.7565    111.7174    128.2375   7.6813439522e+01   3.4395786032e+01    0.3267485    0.2521704  20.13 0.0008094126    1.431    0.301
        57  -9.1282    144.6635    127.9200   6.7656782777e+01   2.7772890305e+01    0.2250163    0.1921954 -47.65 0.0004083191    1.160    0.138
        58  -9.4997    127.6769    127.6924   7.2104323150e+01   3.1348375672e+01    0.3234493    0.2381379  84.22 0.0009310019    2.083    0.520
        59 -10.4592     98.8891    123.8469   7.9639696359e+01   3.7880267617e+01    0.3323632    0.2683171   3.63  0.001030581    1.417    0.294
        60  -9.9864    117.2460    122.9090   7.3856047700e+01   3.4579576898e+01    0.3112435    0.2141017   7.38  0.001053519    2.089    0.521
        61  -8.5211    163.2769    120.6878   6.1393240114e+01   2.5392032152e+01    0.1512853    0.1210669 -77.60 0.0002276942    1.561    0.359
        62  -9.1524    107.9790    117.6840   7.5267868058e+01   3.7642208485e+01    0.2140786    0.1967471  31.67 0.0004536299    1.095    0.087
        63  -9.9517     44.7294    118.0032   9.6697930939e+01   4.7408307275e+01    0.2118045     0.171571 -52.35 0.0004104177    1.111    0.100
        64 -11.0957    134.4420    200.8039   8.5741871906e+01   1.2823651692e+01    0.2943823    0.2344235  59.34  0.000984311    1.509    0.338
        65  -9.3894    205.5305    110.2108   5.0598766321e+01   1.8638658525e+01    0.2279851    0.1988426  59.67  0.000573124    1.261    0.207
        66 -10.5971    115.9826    109.0458   7.0584155484e+01   3.8024535555e+01    0.4168572    0.3467065  48.78  0.002035496    1.249    0.200
        67 -10.5355    119.2638    103.7498   6.8182442477e+01   3.8509075850e+01    0.2765632    0.1981838 -47.20 0.0006933714    1.416    0.294
        68 -10.4336    112.9715    104.0066   7.0090053789e+01   3.9763717545e+01    0.2394722    0.2357866  22.70 0.0005202949    1.044    0.042
        69 -10.4607     34.0566    100.2076   9.6929981914e+01   5.2959669529e+01     0.248454    0.1837035 -54.42 0.0006693054    1.209    0.173
        70  -9.8701    106.1621     98.5096   7.0603581491e+01   4.2354769619e+01      0.37265    0.2652288  65.14  0.001220177    1.912    0.477
        71  -9.9763    120.8302     98.6453   6.6310466375e+01   3.9267802730e+01    0.2220468     0.197519 -27.18 0.0006460248    1.146    0.127
        72 -10.1558     14.7621     89.4431   1.0236458445e+02   5.7092378359e+01     0.239446    0.1211421  21.53  0.001152877    2.168    0.539
        73  -9.5578     31.8192     86.2145   9.4573466108e+01   5.6510396486e+01    0.4109272    0.1611406  44.07  0.001426739    4.015    0.751
        74  -9.5061     73.0572    205.4735   1.0213259798e+02   2.1218455696e+01    0.2629116    0.1888296  81.71 0.0009232832    1.568    0.362
        75 -12.3880    187.7241     54.6231   4.0356491102e+01   3.1684299587e+01    0.6242362    0.4823306  35.45 0.0008766484    1.719    0.418
        76 -10.6234    194.8430    198.3281   7.1377196092e+01   3.4088033376e+00    0.4098075    0.2435806 -59.56  0.001729998    2.708    0.631
        77 -10.2134     21.8656     40.8259   8.5449849948e+01   6.6842457435e+01    0.1552005    0.1432935  -7.16 0.0004494236    1.321    0.243
        78  -9.5681     60.3584     20.9180   5.9112143235e+01   6.4329669789e+01    0.2050759    0.1566158  42.11 0.0004881726    1.270    0.212
        79  -8.8963     61.7269    235.4416   1.0817635001e+02   1.5822256013e+01    0.2558768    0.1333448  63.04   0.00101101    2.191    0.544
        80 -10.7246    191.7460    192.3557   7.0876757599e+01   5.0471402105e+00    0.4567518     0.285347 -67.16  0.001770427    3.334    0.700
        81 -15.3177      8.9027    207.4756   1.1793936174e+02   2.7902405118e+01     1.527462     1.006407 -24.33  0.008250955    2.405    0.584
