#   1 NUMBER                 Running object number                                     
#   2 MAG_AUTO               Kron-like elliptical aperture magnitude                    [mag]
#   3 X_IMAGE                Object position along x                                    [pixel]
#   4 Y_IMAGE                Object position along y                                    [pixel]
#   5 X_WORLD                Barycenter position along world x axis                     [deg]
#   6 Y_WORLD                Barycenter position along world y axis                     [deg]
#   7 A_WORLD                Profile RMS along major axis (world units)                 [deg]
#   8 B_WORLD                Profile RMS along minor axis (world units)                 [deg]
#   9 THETA_WORLD            Position angle (CCW/world-x)                               [deg]
#  10 FWHM_WORLD             FWHM assuming a gaussian core                              [deg]
#  11 ELONGATION             A_IMAGE/B_IMAGE                                           
#  12 ELLIPTICITY            1 - B_IMAGE/A_IMAGE                                       
         1 -15.8533    135.4671     17.1905   5.2948688943e+01   4.9243194659e+01     4.889974     3.669541 -43.00   0.01838333    1.495    0.331
         2 -15.7549    182.1145     86.5260   6.5570668226e+01   2.7067295661e+01     4.888098     2.406775  59.44   0.01811196    2.249    0.555
         3 -18.5686    233.9373     51.9623   4.8090089875e+01   2.0078871437e+01     10.55813     6.533809 -29.18   0.05046606    1.645    0.392
         4 -13.4036    212.4924     25.4451   4.3923843297e+01   2.8713614481e+01      1.03582    0.7560727  42.48  0.005525944    1.643    0.391
         5 -11.3556    220.2844     10.1848   3.9299159496e+01   2.8569441046e+01    0.2212493    0.2110738  72.46  0.001373683    1.211    0.174
         6 -11.3477    209.3313      5.1476   3.9065318910e+01   3.1744201848e+01    0.2213618    0.1648372  -5.28  0.001229272    1.808    0.447
         7 -12.5008    158.6287      2.8556   4.4223677060e+01   4.4748638905e+01    0.2851436    0.2588102  47.01 0.0006326466    1.125    0.111
         8 -12.7371     68.0231      3.1913   6.4879129800e+01   6.5491278647e+01    0.6130349    0.1769621  40.72  0.002396362    3.093    0.677
         9 -12.7268     58.6017      2.4917   6.8005526449e+01   6.7228319726e+01    0.6136073    0.1478348  41.72  0.002299256    3.620    0.724
        10 -10.8070    202.1647    248.2166   9.5802500046e+01  -4.9852753973e+00    0.1787052    0.1289309  20.96 0.0003796399    1.157    0.136
        11 -10.6967    132.3690    139.1396   9.1023522907e+01   2.7472771939e+01    0.3621065    0.2065362 -56.62  0.001462393    1.909    0.476
        12 -11.8462    181.7534    148.8656   8.1597740450e+01   1.4985734974e+01    0.2562929    0.2262609  55.69 0.0004332305    1.225    0.184
        13 -12.8356     45.6257    172.4273   1.1825793051e+02   3.3410132422e+01    0.8540974    0.4188957  60.52  0.004131419    2.134    0.531
        14 -13.1092    189.4999    148.4806   7.9851546672e+01   1.3419057306e+01    0.6008482    0.3558341 -30.30  0.002340388    1.833    0.454
        15 -10.8585    166.0087    134.3496   8.1724104900e+01   2.1352428731e+01    0.2192344    0.1977439  40.08 0.0003790899    1.101    0.091
        16 -11.3541    132.3840     98.2262   8.0616270689e+01   3.6604110894e+01    0.4356195    0.3131247 -75.19 0.0002494245    2.007    0.502
        17 -11.2276    136.0000    129.4436   8.7844936193e+01   2.8916614919e+01    0.7526491    0.1746383 -46.43  0.001961897    4.286    0.767
        18 -11.3106    135.1433    121.3465   8.6077881320e+01   3.0917426708e+01    0.8810701    0.2228179 -49.37  0.001850066    4.306    0.768
        19 -10.9710    135.0000    112.9966   8.3968026713e+01   3.2809482138e+01    0.4370277    0.2086927 -45.46  0.001607922    2.071    0.517
        20 -11.8059    134.6647    106.1323   8.2215279989e+01   3.4391841322e+01    0.7934629    0.2720125 -46.07  0.002468971    2.914    0.657
        21  -9.7598     98.2033    131.6013   9.8433667796e+01   3.5682538395e+01    0.1866505     0.145197  25.51 0.0003843024    1.490    0.329
        22 -12.9050    161.1952    128.0341   8.1302838974e+01   2.3748881344e+01     0.642791    0.4938053  35.29  0.002376102    1.343    0.256
        23 -10.6248      7.1213    128.9639   1.2311979820e+02   4.7023552274e+01    0.1757802    0.1361952 -82.28 0.0003500845    1.017    0.017
        24 -12.6934    171.4047    123.2020   7.7735111211e+01   2.2451382094e+01    0.7445424    0.4978186 -84.18  0.002685582    2.884    0.653
        25 -11.6321    156.5988    112.5775   7.8429390532e+01   2.8057353906e+01    0.4078038     0.305558 -79.29 0.0008182903    1.872    0.466
        26 -14.1428    166.9700    114.6741   7.6547409449e+01   2.5222857739e+01     1.391877    0.9664246 -27.28  0.001332388    1.599    0.375
        27 -12.0290    174.5586    114.1970   7.4710331627e+01   2.3553610407e+01    0.3988301    0.3028486  61.79  0.001007908    1.475    0.322
        28  -9.4902    110.6935    111.7242   9.0283884994e+01   3.8098041353e+01    0.1501184    0.1212946  -8.52 0.0004125088    1.548    0.354
        29 -11.2158    178.3339    110.0737   7.2798018205e+01   2.3490542225e+01    0.2686407     0.217249  34.40 0.0005736324    1.299    0.230
        30 -12.3610    117.4753    108.6518   8.7572401594e+01   3.7462289048e+01    0.4846022    0.3650731 -55.26   0.00228154    1.349    0.259
        31 -11.4884    112.2470    104.3815   8.7917375217e+01   3.9476825584e+01    0.5394053    0.2780676 -56.67  0.001685335    2.207    0.547
        32 -11.3906    127.2743    105.2451   8.3951865558e+01   3.6188703604e+01    0.4840519    0.2889744 -54.64  0.001957008    1.830    0.454
        33 -11.9395    122.8679    102.6695   8.4454087969e+01   3.7692398109e+01    0.4749614    0.2510495  36.72  0.001790887    2.081    0.519
        34 -10.3764    140.3481    105.5658   8.0578161533e+01   3.3251654253e+01    0.2659349    0.1940049 -20.49 0.0004600678    1.674    0.402
        35 -11.4992    145.1024    102.3991   7.8488903441e+01   3.2847156709e+01    0.3675809    0.2924594  34.94  0.000768265    1.314    0.239
        36 -13.3202     36.6394    160.9889   1.1913061061e+02   3.7023169257e+01    0.8278866    0.4850058  83.43  0.004441662    1.677    0.404
        37 -11.1475    121.9640     97.8537   8.3358454941e+01   3.8941838698e+01    0.2946114    0.2212658  48.38  0.001371928    1.382    0.276
        38 -10.1566    113.4891     94.9957   8.4955712852e+01   4.1324614885e+01    0.2268564    0.1487841 -45.22  0.000333071    1.478    0.324
        39 -11.8239    138.4369     92.5006   7.7367575503e+01   3.6444049340e+01    0.3779081    0.3156287  61.83 0.0006890625    1.305    0.233
        40 -11.3267    187.5413    168.4830   8.4635640864e+01   1.0030555303e+01    0.2580985    0.1347631  52.74  0.000917743    2.256    0.557
        41 -10.6266    197.4548     84.1388   6.1968429887e+01   2.3723878517e+01    0.2448721    0.2139212  63.23 2.411316e-05    1.187    0.157
        42 -10.9692     89.0781     79.7382   8.7947027462e+01   4.9278730191e+01    0.5151636    0.2625944 -62.81  0.001771409    3.269    0.694
        43 -11.4311     86.8485     74.3750   8.7015857264e+01   5.0806268800e+01    0.3656569    0.1991674 -51.33  0.001138395    1.887    0.470
        44 -10.4531    138.9897     78.6576   7.3048154144e+01   3.9083701907e+01    0.2532718    0.2156085 -69.28 0.0001925822    1.375    0.273
        45 -10.6826    126.0722     78.7622   7.6504100354e+01   4.2035721428e+01    0.3212362    0.1920056 -63.61  0.001156153    2.707    0.631
        46 -13.2357    192.6526    194.6310   8.8743581452e+01   4.4287427855e+00     1.049426     0.576295 -64.25  0.003301531    5.657    0.823
        47 -13.1544    199.8083    163.3864   8.1014947025e+01   8.5192424919e+00     1.015825    0.5994319 -71.67   0.00243494    8.494    0.882
        48 -13.4407    192.4696    153.4438   8.0347933987e+01   1.1850370394e+01    0.6238918    0.4054729  25.13  0.002767182    1.783    0.439
        49 -14.5938    196.8397     71.3767   5.8576027701e+01   2.6044215561e+01     1.541421    0.8688216  60.05  0.006507833    1.825    0.452
        50 -12.4745    205.0383    199.3365   8.7158804541e+01   1.4456118355e+00    0.3517413    0.2343041   7.93  0.001694163    1.749    0.428
        51 -11.2301    113.9838     49.9280   7.0140352598e+01   4.9980397893e+01    0.2264109    0.2146459   9.43 0.0005560243    1.029    0.028
        52 -11.6201    115.4724     44.5372   6.7754529784e+01   5.0501533980e+01    0.2592653    0.2397719   6.21 0.0005372756    1.033    0.032
        53 -11.0234    201.2968     32.9529   4.7278321502e+01   3.0566884404e+01    0.3883388    0.1730745 -40.23  0.001611103    2.126    0.530
        54 -14.3191     58.3790    156.4561   1.1329643983e+02   3.5597326232e+01    0.8275637    0.5820823 -79.54  0.002973185    1.297    0.229
        55 -10.6941    201.2583     24.6841   4.5040440474e+01   3.1597304749e+01    0.1842681    0.1702442 -69.68 0.0009462023    1.053    0.051
        56 -10.7560    202.9196     18.8576   4.3283477060e+01   3.1858680948e+01    0.1818885    0.1745501  57.76 0.0005758788    1.176    0.150
        57 -10.1982    206.2852     16.9447   4.2404228228e+01   3.1236612423e+01    0.1782015    0.1383118 -71.23 0.0006108847    1.220    0.180
        58 -11.1738     39.0230     18.8162   8.4614939478e+01   6.8003613178e+01    0.2091285    0.1206812   0.53  0.001085192    2.059    0.514
        59 -14.0063     65.0911    151.3427   1.1087166771e+02   3.5950942218e+01    0.8879091    0.5040573 -81.00   0.00193661    1.921    0.480
        60 -14.9569     25.0044    176.0018   1.2316805621e+02   3.4786210225e+01    0.9674551     0.814744  80.38  0.004063959    1.115    0.103
        61 -14.5522     68.1581    144.8374   1.0906666295e+02   3.7103854855e+01     1.493822     1.084221  51.99  0.003723677    1.411    0.291
        62 -11.9503    172.2161    149.5656   8.3858631702e+01   1.6871145379e+01    0.3381547    0.2795145  73.51  0.001657126    1.504    0.335
        63 -11.0315     44.4692     13.4957   7.9557021376e+01   6.8068416629e+01    0.1253954   0.09686544  -4.89 0.0001175431    1.036    0.035
        64 -13.7932     51.4349    160.5773   1.1553748009e+02   3.5472478136e+01     0.629073    0.4273783 -67.62 0.0008871265    1.326    0.246
        65 -14.7742     12.6125    188.5828   1.2664379542e+02   3.3223014922e+01     1.548203    0.7896577  69.35  0.009085471    1.707    0.414
        66 -13.7214      6.9096    170.5659   1.2661108492e+02   3.7596505231e+01    0.8108801    0.5926285  65.50  0.005098644    1.221    0.181
        67 -11.4237    133.7702    145.8788   9.2156644253e+01   2.5668197209e+01    0.8545867    0.2548558 -55.04  0.002296429    4.468    0.776
        68  -9.6692    147.9901    193.5038   9.7947238399e+01   1.2882693263e+01    0.1918801    0.1104235  60.18 0.0008047824    2.270    0.560
        69 -14.2521    164.5842     74.4434   6.5723093378e+01   3.3616125355e+01     1.392186    0.7484887 -23.20  0.003465197    2.398    0.583
