#   1 NUMBER                 Running object number                                     
#   2 MAG_AUTO               Kron-like elliptical aperture magnitude                    [mag]
#   3 X_IMAGE                Object position along x                                    [pixel]
#   4 Y_IMAGE                Object position along y                                    [pixel]
#   5 X_WORLD                Barycenter position along world x axis                     [deg]
#   6 Y_WORLD                Barycenter position along world y axis                     [deg]
#   7 A_WORLD                Profile RMS along major axis (world units)                 [deg]
#   8 B_WORLD                Profile RMS along minor axis (world units)                 [deg]
#   9 THETA_WORLD            Position angle (CCW/world-x)                               [deg]
#  10 FWHM_WORLD             FWHM assuming a gaussian core                              [deg]
#  11 ELONGATION             A_IMAGE/B_IMAGE                                           
#  12 ELLIPTICITY            1 - B_IMAGE/A_IMAGE                                       
         1 -11.3641    187.1700     37.3169   5.1545054385e+01   3.3698190056e+01     1.621122    0.6508594 -55.02  0.001703357    3.680    0.728
         2 -12.7002    221.8654     12.7224   4.0776712799e+01   2.7989478687e+01     1.844991    0.7750872 -66.70  0.006676721    3.156    0.683
         3 -13.3405    238.3794      4.9968   3.7565097546e+01   2.4965797457e+01     1.880568      1.09094  83.01    0.0102039    1.634    0.388
         4 -10.4173    119.6489      9.3813   5.4148133366e+01   5.3960724550e+01    0.5663233    0.4103821  32.71  0.002773424    1.334    0.250
         5 -10.5657    178.9236      5.2169   4.3255657761e+01   3.9468573329e+01    0.5936629      0.25702 -53.64  0.002363432    2.741    0.635
         6 -10.6220    172.7301      3.2144   4.3410126177e+01   4.1235293339e+01    0.6468284    0.3625627 -59.60  0.002878125    2.046    0.511
         7 -10.4522    192.6690      4.1952   4.1431332463e+01   3.6078156634e+01    0.5259737    0.3010247 -62.22  0.002533563    1.859    0.462
         8  -9.8027    184.6020      2.1147   4.1715981442e+01   3.8313501707e+01    0.4864315    0.1308022  72.53  0.001625091    3.443    0.710
         9  -9.3953    200.7648      1.5845   3.9919025419e+01   3.4303909288e+01    0.2555178    0.1104208  69.09 0.0008058346    2.040    0.510
        10 -13.2821     53.1475    189.3104   1.1867283108e+02   2.9038960948e+01     1.547975     1.265238 -88.63  0.007271653    1.107    0.096
        11 -11.3954    235.4273    249.4102   9.1146516446e+01  -9.6357821808e+00     1.193351    0.3661821  33.46  0.005385902    2.815    0.645
        12 -11.1217    249.0857    245.7396   8.8286255624e+01  -1.1126157532e+01    0.6985179    0.4661829 -28.90   0.00483416    1.704    0.413
        13 -13.5614     86.7607    162.8287   1.0769330251e+02   3.0321080664e+01     2.423476      1.99996 -12.29   0.01318171    1.790    0.441
        14  -7.7091    217.2390    188.3443   8.3827688383e+01   1.2531966493e+00    0.1334044   0.09415524  -1.73 0.0001819498    1.561    0.359
        15  -8.5836    242.9468    184.3102   7.8400901857e+01  -2.5761787706e+00    0.2534475     0.169911 -19.43  0.000821536    1.407    0.289
        16  -9.4375    184.9739    184.2557   8.9347192998e+01   7.8966586040e+00    0.2236932    0.2201889  24.87 0.0003610598    1.132    0.117
        17  -9.1130    156.3344    179.3176   9.4450581585e+01   1.4326058764e+01    0.1446063    0.1117585   4.95 -5.119154e-05    1.695    0.410
        18 -10.7093    175.2568    172.7508   8.9116363744e+01   1.1887071311e+01    0.2452941    0.2367956 -73.58  0.001423624    1.168    0.144
        19  -8.5960    215.3179    197.8563   8.5996479049e+01   1.3940387367e-01    0.2079192    0.1623678  40.40 0.0002842824    1.298    0.230
        20 -10.2473    246.9016    195.7905   7.9946991473e+01  -4.8138354584e+00     0.226594    0.1893766   4.96 0.0003916884    1.058    0.055
        21 -11.0862    171.8912    169.1402   8.9107807964e+01   1.3246951357e+01    0.3508597    0.2503101 -14.19  0.001634036    1.861    0.463
        22  -9.0580    205.6823    168.1394   8.1963481267e+01   6.7178189790e+00    0.2213891    0.1860846  46.19 0.0003022689    1.263    0.208
        23  -9.1098    161.3257    167.6571   9.1106891059e+01   1.5654786090e+01    0.1495701    0.1162562  82.89 7.218484e-05    1.737    0.424
        24 -11.9880    184.4911    161.8087   8.4911778397e+01   1.2096530810e+01    0.5207017    0.4188448  18.72  0.002696841    1.322    0.243
        25 -12.3962    192.1852    155.1834   8.1882606069e+01   1.1758750290e+01    0.9459794    0.4972564 -43.15  0.003983453    1.949    0.487
        26  -8.4182    216.6294    193.0887   8.4853520311e+01   6.3190088122e-01     0.198336    0.1662526  36.78 0.0004582939    1.223    0.182
        27  -9.0363    241.8085    144.4072   7.0211163371e+01   3.7180375850e+00    0.2659569    0.2038084 -11.80 0.0007573973    1.279    0.218
        28  -9.2636    242.3620    135.7402   6.8178695968e+01   5.0108042017e+00    0.2722601    0.1654091 -33.90  0.001326657    1.488    0.328
        29 -10.6635    136.1423    131.1163   8.9077713984e+01   2.8635279229e+01    0.7128657    0.2120913 -47.88  0.002125826    3.359    0.702
        30 -10.3002    245.5210    127.5414   6.5804239211e+01   5.7265046481e+00    0.3926027    0.1811441 -45.58  0.001606926    2.295    0.564
        31  -8.6910    223.9765    128.5266   6.9646713117e+01   9.9174559613e+00    0.2381278    0.1823557 -32.32 0.0006668268    1.218    0.179
        32  -9.4649    215.3080    125.0018   7.0363328592e+01   1.2381221864e+01    0.2207665    0.1921009 -31.53  0.001179478    1.086    0.079
        33  -9.6267    201.3789    124.8499   7.2956230042e+01   1.5468234476e+01     0.259375    0.2108282  60.21 0.0007803383    1.372    0.271
        34  -9.5806    239.1191    131.5090   6.7751075478e+01   6.3342579832e+00     0.294232    0.1667068 -47.58  0.001313676    1.937    0.484
        35 -10.1807    206.1507    122.7850   7.1530914620e+01   1.4789106694e+01    0.2658046    0.2590247 -25.65  0.001477237    1.046    0.044
        36 -10.2066    215.5747    116.7477   6.8304946142e+01   1.3792934696e+01    0.3427452    0.2631608  84.21  0.001627734    1.801    0.445
        37 -10.6652    207.7964    112.9879   6.8787973530e+01   1.6208413758e+01    0.5754753     0.307299 -31.65  0.001100342    1.895    0.472
        38  -9.6720    190.9407    109.1248   7.1042529158e+01   2.0818216335e+01    0.3813321    0.1823443  54.53  0.001414175    2.245    0.555
        39  -8.9343    134.7601    106.5103   8.3202626442e+01   3.4376061659e+01    0.4498498    0.1305474 -44.30  0.001294954    3.382    0.704
        40 -10.6537    189.2427    100.5412   6.9114252507e+01   2.2837931928e+01    0.3888475    0.3318505 -18.14  0.001829854    1.246    0.198
        41  -9.5877    141.3162     99.8213   7.9682463603e+01   3.4341838279e+01    0.4200432    0.2855961  17.04   0.00166609    2.196    0.545
        42  -9.9333    151.9548     88.9624   7.3956272548e+01   3.4071371933e+01    0.4716714    0.3850031 -74.01  0.001550119    1.467    0.318
        43  -9.6299    153.2949     85.4379   7.2601855077e+01   3.4437597676e+01    0.4620244     0.309615 -60.80  0.001626114    1.862    0.463
        44  -8.0379    137.0384     88.3422   7.7450045022e+01   3.7692768870e+01    0.2693261    0.1617572 -70.08 0.0008918315    3.149    0.682
        45  -9.0345    188.0690     78.6082   6.3309283948e+01   2.7095236670e+01    0.6170713    0.3182757  80.55  0.001753311    4.513    0.778
        46  -9.9183    162.7373     77.4827   6.8095714305e+01   3.3618532943e+01    0.5693157     0.360583 -68.86  0.002156274    2.426    0.588
        47 -11.8307    166.9110     73.0457   6.5875079146e+01   3.3371444236e+01     1.319801    0.7851532 -32.18  0.005507485    1.728    0.421
        48 -10.3754    164.4401     63.7594   6.3563651229e+01   3.5587276379e+01    0.4357719    0.3178205  11.65 0.0007113505    1.863    0.463
        49 -10.9098    160.8894     61.0419   6.3454105429e+01   3.6936204284e+01    0.5090321    0.3744551 -40.84  0.001098461    1.365    0.268
        50  -8.2931    232.8959     79.4941   5.6214926562e+01   1.6210336419e+01    0.2032903    0.1431155  60.98 0.0006933377    1.542    0.351
        51 -10.0464    146.2456     75.4748   7.1247660862e+01   3.8031662904e+01    0.4959691    0.3577923 -66.36  0.001974741    1.788    0.441
        52  -8.4276    246.6605     76.1860   5.3543269847e+01   1.3684224113e+01    0.2057709    0.1220928 -25.87 0.0009519667    1.756    0.430
        53  -9.3417    207.9622     65.8075   5.6371106823e+01   2.4278359158e+01    0.4545933    0.2675081 -41.45  0.001598984    1.601    0.376
        54 -10.0772    184.7863     59.5885   5.8445094381e+01   3.1078320231e+01     0.463011    0.3729521 -83.29  0.001239912    1.377    0.274
        55 -12.0858    180.3590     55.5486   5.8034979446e+01   3.2838858244e+01      1.10514    0.9173772  52.30   0.00313571    1.210    0.174
        56  -8.4956    235.3424     59.6578   5.0959487991e+01   1.8691889172e+01    0.1540271   0.09581318 -62.63 0.0007048046    1.781    0.438
        57  -9.2930    190.9015     52.1114   5.5250738911e+01   3.0660368948e+01    0.4162225    0.2073355 -55.88   0.00154152    2.539    0.606
        58  -9.3243    186.3183     47.5946   5.4680328876e+01   3.2494327062e+01    0.3486503    0.2408584 -85.97  0.001374764    1.735    0.424
        59  -9.6895    185.5376     41.5095   5.3021145467e+01   3.3552033660e+01    0.3563347    0.2585304 -88.26 0.0007567449    1.533    0.348
        60  -9.4678    117.1619    245.0505   1.1184137021e+02   9.1895494750e+00    0.1845473    0.1467351  50.98 0.0002952405    1.037    0.036
        61 -10.6425    179.8658     35.8740   5.2235461608e+01   3.5772071174e+01    0.4144326     0.337518  65.45  0.001196741    1.175    0.149
        62 -10.8201    181.3046     31.7265   5.0775910519e+01   3.5933818574e+01    0.3829203    0.3143735  69.21 0.0005222387    1.157    0.136
        63 -10.7205    144.3333     59.6651   6.6650914346e+01   4.1298951747e+01     0.478545    0.3315237 -60.42 0.0008181642    1.810    0.448
        64  -9.2210    237.2188     50.6049   4.8505914015e+01   1.9565535490e+01    0.1868254    0.1237716  55.81 0.0009483751    1.646    0.393
        65 -11.0345    246.3715     36.1229   4.4065999428e+01   1.9454562254e+01    0.5308807    0.2864539 -63.51  0.002504719    1.989    0.497
        66  -9.8273    221.7002     39.6282   4.7577474172e+01   2.4735743229e+01    0.4190797    0.2523944 -68.38 0.0007567079    1.883    0.469
        67  -9.8336    205.3542     39.7867   4.9674150947e+01   2.8742108194e+01    0.3118547     0.253373 -74.64 0.0005399772    1.219    0.180
        68  -8.6217    201.3259     37.2863   4.9527793964e+01   3.0090185590e+01    0.2216371     0.197448  32.33 0.0005386519    1.309    0.236
        69 -10.5403    198.9221     33.7199   4.8861206973e+01   3.1164356078e+01    0.3097967    0.2790071 -49.48 0.0004150762    1.102    0.093
        70  -8.2278    100.8471     38.8351   7.0603189272e+01   5.4610711976e+01    0.1795634    0.1672003 -53.61 0.0003917876    1.281    0.219
        71  -8.7276    121.2948     35.4766   6.3742800734e+01   5.0546083181e+01    0.3459519    0.1894775 -54.00  0.001352794    2.716    0.632
        72  -9.9695    213.9456     31.9828   4.6511772177e+01   2.7627936111e+01    0.3016244    0.2675128 -84.17 0.0006203132    1.049    0.047
        73 -10.6539    207.1159     25.7674   4.5668494122e+01   3.0094343560e+01     0.441633    0.2919758 -48.25 0.0007013655    1.449    0.310
        74  -8.6484    112.8213     26.8593   6.2592690425e+01   5.3636974106e+01    0.1856792    0.1691336 -63.56 0.0006806823    1.330    0.248
        75  -9.6366     26.7354    233.5512   1.2698419530e+02   2.3268488096e+01    0.2472294   0.07766449  40.78  0.001291489    2.598    0.615
        76  -9.2536     21.1794    231.4050   1.2780182465e+02   2.4256907865e+01    0.1529733   0.06940318  51.61 0.0008187527    1.686    0.407
        77 -12.4436     36.7488    215.0304   1.2406351796e+02   2.5672044500e+01     1.037388    0.5408741  76.40  0.002572558    1.739    0.425
        78 -10.7109     28.6809    209.0024   1.2514410459e+02   2.7761203464e+01    0.4326996     0.292519  89.16  0.001481893    1.212    0.175
        79  -8.3713    229.0125    220.9532   8.7635570788e+01  -5.3260104564e+00    0.1810043    0.1460308  16.87 0.0003554451    1.040    0.038
        80  -9.0802      2.4016    212.8392   1.3006472147e+02   2.9608058328e+01    0.1693372     0.137103  79.71 0.0005923207    1.241    0.194
        81  -8.8856    227.5123    203.2921   8.4765040475e+01  -2.7125350632e+00    0.2137755    0.2046628 -35.02 0.0008998808    1.423    0.297
