#   1 NUMBER                 Running object number                                     
#   2 MAG_AUTO               Kron-like elliptical aperture magnitude                    [mag]
#   3 X_IMAGE                Object position along x                                    [pixel]
#   4 Y_IMAGE                Object position along y                                    [pixel]
#   5 X_WORLD                Barycenter position along world x axis                     [deg]
#   6 Y_WORLD                Barycenter position along world y axis                     [deg]
#   7 A_WORLD                Profile RMS along major axis (world units)                 [deg]
#   8 B_WORLD                Profile RMS along minor axis (world units)                 [deg]
#   9 THETA_WORLD            Position angle (CCW/world-x)                               [deg]
#  10 FWHM_WORLD             FWHM assuming a gaussian core                              [deg]
#  11 ELONGATION             A_IMAGE/B_IMAGE                                           
#  12 ELLIPTICITY            1 - B_IMAGE/A_IMAGE                                       
         1 -11.4987     80.3653     23.3763   9.4958875986e+01   6.3081513276e+01    0.6985667    0.3193387  37.41 0.0005680451    2.352    0.575
         2  -9.0371     27.1795     22.7791   1.2389222181e+02   7.1676444166e+01    0.7460958     0.204439 -40.47   0.00249698    3.824    0.738
         3  -9.3279    128.0667     15.8221   7.7098469960e+01   5.2048458052e+01    0.4535885    0.2919958  11.21  0.001238303    1.967    0.492
         4  -9.9173    134.4792     13.1097   7.4677987342e+01   5.0566749937e+01    0.5225797     0.277144  34.28  0.001572805    2.218    0.549
         5  -9.5937     64.1874     14.1623   9.7130310467e+01   6.7894802806e+01    0.4494964    0.2825966  -0.07  0.001550075    2.133    0.531
         6  -9.3483     79.3579     12.9474   8.9792789109e+01   6.4849918495e+01    0.3907082    0.2820412  53.00  0.001137172    1.394    0.283
         7  -8.9661     74.4858     13.5307   9.2100000699e+01   6.5851462718e+01    0.3672224    0.2446201  20.23  0.000952841    1.676    0.403
         8  -8.9781    106.3197     12.8271   8.0929682924e+01   5.8240456635e+01    0.5466439    0.2436706  26.99  0.001684002    3.793    0.736
         9  -8.5552     96.6988     12.8717   8.3723149235e+01   6.0703767414e+01     0.378455    0.2224776  13.08  0.001389464    2.308    0.567
        10  -8.0553    112.5176     12.4241   7.9136111835e+01   5.6647732538e+01    0.2621461    0.1459473  -3.40  0.001029398    2.345    0.574
        11  -8.9671    125.1054     10.3208   7.5342415430e+01   5.3452015049e+01    0.2664197    0.2265127  30.05 0.0004466475    1.190    0.160
        12  -9.1227     70.3654      9.5272   9.1542613442e+01   6.7301782382e+01    0.3713581     0.257262  28.94  0.001884828    1.416    0.294
        13  -9.0065     33.7113      9.5922   1.1258261300e+02   7.3658373858e+01    0.5348322    0.2523042  19.27  0.002319066    2.629    0.620
        14  -8.9149     32.2804      6.1288   1.1149432534e+02   7.4478709308e+01      0.24381    0.1892067 -11.39 0.0003030008    1.174    0.148
        15  -9.3250     40.7108      6.5056   1.0579179229e+02   7.3240619128e+01    0.4590961    0.2734029  -2.53  0.002095277    2.329    0.571
        16  -8.7594    155.9881      7.5793   6.9042315733e+01   4.5090273312e+01    0.3328408    0.1934919 -10.56  0.001436907    2.009    0.502
        17  -9.1115    118.8559      6.8243   7.5085804258e+01   5.5516947788e+01    0.3335232    0.2902716  74.41 0.0004015619    1.147    0.128
        18  -9.6119     46.7535      6.4273   1.0187103058e+02   7.2293197180e+01    0.2593172     0.239347  16.46 0.0002572039    1.193    0.162
        19 -10.3274      8.2456      5.3289   1.3106723587e+02   7.6772448783e+01    0.5974954    0.2488547 -10.17  0.002666765    2.954    0.662
        20  -8.7371    100.6678      6.5088   7.9312936240e+01   6.0408114535e+01    0.2966602    0.2253032 -42.69 0.0009030612    1.492    0.330
        21  -8.4089    130.5414      6.0337   7.2442223838e+01   5.2362467299e+01    0.2578654     0.182975  45.31 0.0005680876    1.347    0.258
        22  -9.0343     76.6176      5.0771   8.6314364992e+01   6.6480398257e+01    0.4126074    0.2806731 -50.14  0.001845219    1.940    0.485
        23  -6.8169    179.6850      5.3222   6.5442155480e+01   3.8764289302e+01    0.1544902   0.09636216 -58.75 0.0003674423    1.660    0.398
        24  -9.8089    110.9293      3.1382   7.5088145474e+01   5.8020118212e+01    0.4862162    0.3885916  42.40  0.002555276    1.159    0.137
        25  -8.6846    105.9505      1.5045   7.5431928256e+01   5.9504970054e+01    0.3533345    0.1326023  52.65  0.001318207    2.216    0.549
        26  -8.0698     91.4812      4.8804   8.1099868646e+01   6.2924229077e+01    0.2488078    0.1734049  36.49 0.0005316793    1.352    0.260
        27  -7.6608     84.4125      3.7572   8.2735761358e+01   6.4788089212e+01    0.2043675    0.1318393  -1.12 0.0009502268    1.750    0.428
        28  -8.7792    153.2537      2.8809   6.7672414964e+01   4.6273863083e+01    0.3437318    0.1555237  73.44  0.001343295    2.068    0.516
        29  -8.2963    143.0999      2.3122   6.8864386389e+01   4.9173239627e+01    0.2258581    0.1975368  17.64 0.0002022368    1.246    0.198
        30  -7.2384    134.3162      3.2630   7.0620429919e+01   5.1556959534e+01    0.1550446   0.09934376  42.85  0.000238888    1.544    0.353
        31  -8.6606     56.7023      3.0644   9.3978412839e+01   7.0986510154e+01    0.3053735    0.1727969  36.91  0.001296931    1.690    0.408
        32  -8.0460     51.4118      3.8042   9.7363489299e+01   7.1881016979e+01    0.2811366   0.07902555  36.94 0.0008620145    4.298    0.767
        33  -8.0416    159.2078      1.8117   6.6530182578e+01   4.4699904370e+01    0.2092618    0.1605036  43.23 0.0009621129    1.350    0.259
        34  -8.1232    237.1635      1.5111   5.9907381533e+01   2.4835292635e+01    0.2193527     0.117529  88.41 0.0007459561    1.966    0.491
        35  -7.8417      2.7164      1.3649   1.3449078662e+02   7.7850008015e+01    0.1565501   0.09596448 -17.58 0.0004020254    1.584    0.369
        36  -9.3256    242.4832    105.0551   8.4765806700e+01   1.1905670536e+01    0.2083685    0.1893353  78.02 0.0004708272    1.512    0.339
        37  -9.8593    216.5709    249.3113   1.1532397316e+02  -8.6760236651e-01    0.3315984    0.1505764  39.87  0.001977375    2.114    0.527
        38  -7.8420     93.5347    103.6457   1.1843264420e+02   4.3565368515e+01    0.2943056    0.1915558   3.84  0.001136271    2.618    0.618
        39  -7.2275    140.3538     99.3236   1.0336806197e+02   3.4938603660e+01    0.1655265    0.1216946  10.14 0.0003867914    1.760    0.432
        40  -8.9755     16.2610     95.3017   1.4484186791e+02   5.4813522548e+01      0.25777    0.1583882  75.21 0.0007586285    1.591    0.371
        41 -10.2325     12.1127     93.9649   1.4625356749e+02   5.5375073640e+01     0.593451    0.2643975 -32.99  0.002074737    3.038    0.671
        42  -7.2737    189.5263    105.4494   9.3741723465e+01   2.2694831713e+01    0.1506518    0.1332393  11.32 0.0001333694    1.075    0.070
        43  -8.6253     43.3701     92.5222   1.3417278637e+02   5.3360103600e+01    0.3010114    0.1912953 -31.00  0.001246582    1.965    0.491
        44  -7.8923    109.1405     91.2543   1.1017595629e+02   4.3414013953e+01    0.4862043    0.2488227  21.30  0.001408325    4.120    0.757
        45  -8.1179     96.4251     90.6781   1.1418533205e+02   4.6053962432e+01    0.3550456    0.2344274  -1.29  0.001344554    2.665    0.625
        46  -9.1896     21.1508     90.6498   1.4250416437e+02   5.5667696133e+01     0.362597    0.1513048 -37.75  0.001461535    3.122    0.680
        47 -10.1044     37.5206     81.0731   1.3450042454e+02   5.6801807735e+01    0.6630331    0.3362312 -22.43  0.002594366    3.188    0.686
        48  -7.4066      2.2865     84.6487   1.4922860682e+02   5.8097860380e+01    0.1300432   0.07687327  63.87 0.0007022267    1.663    0.399
        49  -8.6229     87.8648     78.7993   1.1383704409e+02   5.0389013512e+01    0.4053358    0.2701089   3.36  0.001613388    2.407    0.585
        50  -9.7347      8.1694     77.4421   1.4628030824e+02   5.9644409217e+01    0.5458136     0.237636 -39.33  0.002235045    2.549    0.608
        51  -7.8664    184.2620     77.9421   8.7335708962e+01   2.8323373149e+01    0.2088086    0.1938181  -2.40 0.0004476391    1.058    0.055
        52  -8.8985     49.4744     77.3674   1.2871406100e+02   5.6499996042e+01    0.4883547     0.276298  -2.14  0.001965833    2.846    0.649
        53  -8.5629     44.0084     77.9654   1.3115971335e+02   5.6947671604e+01    0.2050375    0.1877641 -72.62 0.0003056232    1.034    0.033
        54  -7.8809    105.7471     76.3558   1.0684642805e+02   4.7382793817e+01    0.2280336    0.1424802  33.80 0.0006194909    1.699    0.411
        55  -9.6356     28.6859     68.6860   1.3606826781e+02   6.0646199718e+01    0.4206534    0.2133443 -36.33  0.001896653    2.230    0.552
        56 -10.0951     23.9966     73.7095   1.3903868007e+02   5.9723269780e+01    0.6119406    0.1713392 -51.93  0.002270004    3.026    0.670
        57  -8.4022     23.4651     69.4622   1.3858697407e+02   6.0821289709e+01    0.2275709    0.2052464 -85.94 0.0005092268    1.084    0.077
        58  -7.0518    120.3335     75.7278   1.0203598095e+02   4.4286457232e+01     0.155993    0.1265504  83.47 0.0002863312    1.595    0.373
        59  -8.1030     75.0953     74.0772   1.1730511334e+02   5.3719026874e+01    0.2527002    0.2085108  29.70 0.0005415787    1.246    0.198
        60  -7.4526    129.3477     69.3284   9.7323996771e+01   4.3417813783e+01    0.1689645    0.1234765  14.77 0.0007049532    1.757    0.431
        61  -8.5391    105.6415     67.5501   1.0399158014e+02   4.9269283645e+01    0.3252376    0.2599504  -4.59 0.0009846288    1.508    0.337
        62  -8.7892     83.6615     64.4809   1.1090087266e+02   5.4410680671e+01     0.524918    0.3265433 -10.96  0.001901741    2.961    0.662
        63  -8.4934     16.2119     63.8081   1.4103816445e+02   6.2657008522e+01    0.2684805    0.1261652 -42.74  0.001062767    2.104    0.525
        64  -9.4640     19.4811     61.4511   1.3909124646e+02   6.3062672622e+01    0.2972737     0.187433 -31.15   0.00134247    1.715    0.417
        65  -7.2078    148.0351     63.6626   9.0605165405e+01   3.9767547805e+01    0.2729075     0.101189  37.62 0.0007037506    4.262    0.765
        66  -9.2480     62.8511     61.2332   1.1850937358e+02   5.8656741254e+01    0.4057041    0.2839321  12.56  0.001118528    1.711    0.416
        67  -8.5813     57.6679     62.4179   1.2119676873e+02   5.9118925632e+01    0.4927746    0.1808169  33.33    0.0018193    2.759    0.638
        68  -8.6795     97.9341     57.5582   1.0310377846e+02   5.2998846305e+01    0.7172718    0.4196824  -4.88  0.002069662    4.571    0.781
        69  -7.0174    123.6708     60.6527   9.5959768853e+01   4.6432580789e+01    0.1684458    0.1230761  13.77 0.0007049624    1.758    0.431
        70  -9.1630     36.9368     59.1951   1.3008211992e+02   6.2299146603e+01     0.419954     0.189915 -28.78   0.00153489    3.353    0.702
        71  -7.9410    111.2633     58.3533   9.8900202365e+01   4.9838238513e+01     0.244735    0.1757489  15.96 0.0008727167    1.788    0.441
        72  -8.0936     49.7018     58.0857   1.2359276768e+02   6.1185784669e+01    0.2064328    0.1763752 -51.24 0.0009339172    1.086    0.079
        73  -7.3048     32.6439     58.3081   1.3198155482e+02   6.2901538381e+01    0.1376677   0.09720559  62.35 0.0007042256    1.726    0.421
        74  -9.9619     75.1934     50.0177   1.0913071123e+02   5.9118026726e+01    0.3981408    0.3285233  -7.71 0.0002995813    1.320    0.242
        75  -7.8243    133.4254     51.6724   9.0055473276e+01   4.5559695017e+01    0.2030856     0.155095 -16.78 0.0004976821    1.455    0.313
        76  -8.2834    118.4095     51.0973   9.3991339390e+01   4.9461097778e+01    0.2863679    0.2202708  57.29 0.0004802262    1.325    0.245
        77  -9.3862     45.7459     49.0103   1.2270626404e+02   6.3805474498e+01    0.4304962    0.3037527  -7.92  0.001489268    1.688    0.408
        78  -9.6211    248.1275     48.4808   7.0610812262e+01   1.7693409721e+01    0.3091041    0.2400619  14.68 0.0004479365    1.519    0.342
        79  -6.9893     40.3000     50.2696   1.2591803610e+02   6.4118863339e+01    0.1379152   0.09490434 -29.77 0.0002266664    1.525    0.344
        80  -7.5115    107.0218     48.4843   9.6516828951e+01   5.2687283020e+01    0.2352756    0.1483922  45.84 0.0008630295    1.534    0.348
        81  -9.3016     56.1236     43.2135   1.1533089151e+02   6.3740032194e+01    0.6249199    0.2949176 -30.11  0.001199118    3.125    0.680
        82  -9.6313     11.6251     46.5144   1.4046784370e+02   6.7125041718e+01    0.6933494    0.2815241 -35.58  0.002324615    2.553    0.608
        83  -9.4817      7.0399     47.7742   1.4317530175e+02   6.6988944218e+01    0.8173389    0.2482113  43.51  0.002836305    4.387    0.772
        84  -7.8897    113.8403     41.7610   9.1679834688e+01   5.2201031160e+01     0.271467    0.1573446  20.87 0.0009413293    2.780    0.640
        85  -9.4505     69.3370     36.4789   1.0609630869e+02   6.2958132680e+01     0.773232    0.4476274  12.82  0.002888261    2.941    0.660
        86  -8.8150      3.5958     39.3378   1.4376425565e+02   6.9126237228e+01    0.3281855    0.1083992 -79.82  0.001327908    2.794    0.642
        87  -9.4252      6.3657     33.6587   1.4106275504e+02   7.0405929017e+01    0.3535571    0.2517967 -41.88  0.001844416    1.258    0.205
        88  -7.4311    124.4579     39.5283   8.7779718704e+01   4.9847865674e+01    0.1578933    0.1470915  32.39 2.570881e-05    1.039    0.038
        89  -9.3794     92.0029     38.4138   9.7548250565e+01   5.7964769091e+01    0.3834489    0.3096749  29.85  0.001652454    1.230    0.187
        90  -8.8185     87.7512     37.9893   9.8970573115e+01   5.8977742157e+01    0.2783415    0.2570763  -6.56 0.0007122377    1.051    0.048
        91  -9.2534     61.1568     36.8482   1.1017908032e+02   6.4307331114e+01    0.4499877    0.2521467  58.00  0.001702097    3.159    0.683
        92  -9.3200     55.9291     35.4703   1.1223138821e+02   6.5425045663e+01    0.3851715     0.228519 -35.70  0.001004244    1.675    0.403
        93  -8.6185     19.1206     36.1430   1.3375010240e+02   6.9234541435e+01    0.1820855    0.1735751  79.38            0    1.217    0.178
        94  -8.9939     23.0273     36.0006   1.3131853363e+02   6.9011495571e+01    0.3359185    0.2762111  22.95  0.001175668    1.366    0.268
        95  -8.9478     22.0367     32.0865   1.3072596100e+02   6.9992957168e+01    0.2825468    0.2141154  31.47 0.0002845578    1.513    0.339
        96  -9.0855     38.2181     35.5192   1.2204908573e+02   6.7753607469e+01    0.3419875    0.2259983   6.40  0.001053495    1.735    0.424
        97  -7.1794    189.4751     35.4840   7.3791502491e+01   3.2963178556e+01    0.1436846    0.1403898 -66.34  0.000809945    1.005    0.005
        98  -9.3071      1.8160     28.6281   1.4297965584e+02   7.1711614250e+01    0.5453481    0.1509561 -74.77  0.002146947    3.006    0.667
        99 -10.2824    143.0225     27.7472   7.8832346201e+01   4.6505034192e+01    0.2954924    0.2655044  12.78 0.0002260605    1.184    0.156
       100  -7.9135    144.7839     23.4075   7.6823621265e+01   4.6550447004e+01    0.2180591    0.1795679  53.64 0.0002170503    1.147    0.128
       101  -9.7285     70.3436     26.3252   1.0079751091e+02   6.4663144291e+01    0.4119881    0.2679186 -49.81  0.001613485    1.812    0.448
       102  -9.7171    196.9035    248.8852   1.1862618842e+02   1.6576715951e+00    0.2653145    0.1074488  27.58  0.001471557    1.913    0.477
       103  -9.0113     42.0961     27.4685   1.1638902186e+02   6.9043851709e+01    0.3075043    0.2775967 -54.16  0.001180892    1.232    0.188
       104  -7.3854    162.4377     27.5061   7.5221716265e+01   4.1181690942e+01    0.1493963     0.144421  65.98 0.0002177869    1.014    0.014
       105  -9.1265     61.7233     26.8431   1.0521306128e+02   6.6175202636e+01    0.2616636    0.2009045   2.99 0.0005569122    1.406    0.289
       106  -9.3692    171.3443    245.9401   1.2283294267e+02   5.3346810745e+00    0.1571742    0.1152927  23.21  0.001164201    1.083    0.077
       107  -7.9456     33.1448     20.3815   1.1876226477e+02   7.1587373554e+01    0.2536778    0.1063415  34.60  0.001096195    2.571    0.611
       108  -7.5080    118.1309     24.6189   8.3227424760e+01   5.3663306400e+01    0.2292283    0.1254255  47.92 0.0006273537    1.706    0.414
       109  -8.1096    128.8557     22.6717   7.9810734911e+01   5.1026359683e+01    0.2572981    0.1735534  45.98 0.0007890973    1.415    0.293
       110  -8.7215     45.9677     21.0487   1.1092933747e+02   6.9814875264e+01    0.3037873    0.1964114 -33.59 0.0007710537    1.456    0.313
       111  -8.6044     92.6607     20.7949   8.9046713278e+01   6.0650035189e+01    0.2889308    0.2116599  14.65  0.001001832    1.526    0.345
       112  -8.3793    140.3726     20.0772   7.6366632873e+01   4.8163326174e+01    0.2497289    0.1916364  53.35 0.0003712883    1.219    0.179
       113  -8.5973      9.7120     19.5952   1.3520972661e+02   7.3558067140e+01    0.2990269    0.1741362 -21.37  0.001226304    1.748    0.428
       114  -8.6709      4.9943     18.5539   1.3842003789e+02   7.3969268979e+01    0.2335511    0.1714563  73.67 0.0003702729    1.700    0.412
       115  -7.5502    146.8177     19.1774   7.4830788307e+01   4.6472641470e+01    0.2050413    0.1677395  34.74 0.0003249933    1.271    0.213
       116  -8.2424    158.6496    249.3123   1.2554455079e+02   6.6387200686e+00    0.1091975   0.06851911  47.78 0.0005984956    1.722    0.419
       117  -9.4276     61.9685    248.2923   1.4372078220e+02   1.8888056097e+01    0.1776187    0.1315036  44.32 0.0001992976    1.091    0.083
       118  -9.3798    190.2640    246.8825   1.1954266331e+02   2.7255468848e+00    0.2246568    0.1072329  19.00  0.001246704    2.110    0.526
       119  -7.2928    189.2883     15.6923   6.7700619607e+01   3.5210448828e+01    0.1497608   0.09816327 -57.85 0.0002841645    1.574    0.364
       120  -7.4583     86.7041    244.6312   1.3879558088e+02   1.6569175865e+01   0.09757672   0.07797138   5.33 8.164733e-05    1.727    0.421
       121  -7.4531    230.3414    241.6744   1.1202105716e+02  -1.8622666494e+00   0.09312431   0.07326445  33.66 0.0007051178    1.733    0.423
       122  -9.3527    188.1044    233.9908   1.1828631374e+02   4.4170729889e+00    0.1856159    0.1649006 -17.43  0.001151707    1.519    0.342
       123  -7.4860    128.8156    235.1528   1.2973783520e+02   1.2487304443e+01    0.1482817    0.1126011  19.15 0.0003953249    1.317    0.240
       124  -8.7526     39.9856    226.6363   1.4690122686e+02   2.4657587796e+01    0.1657099    0.1395277  83.92 0.0005934997    1.350    0.259
       125 -10.3742    123.9963    206.0029   1.2749734691e+02   1.7571665589e+01    0.1795016    0.1404251  36.27  0.001161159    1.002    0.002
       126  -8.0092     11.6856    206.6903   1.5186507866e+02   3.0774590108e+01   0.08781434   0.08024477 -42.94 0.0006798874    1.631    0.387
       127 -10.1420    183.3776    196.1223   1.1368417688e+02   9.8319192032e+00    0.2250405    0.1771863  22.25 0.0002149646    1.026    0.025
       128  -7.6969    205.5162    151.5172   1.0119238503e+02   1.2384093056e+01    0.1365406    0.1141427  11.49 0.0001874767    1.005    0.005
       129  -9.0821     67.4853    144.7770   1.3388547970e+02   3.7843186346e+01    0.4354907    0.2612953  61.26  0.001950548    1.760    0.432
       130  -7.2673    125.9445    136.0000   1.1596562541e+02   3.0363557712e+01    0.2502743   0.07840131  39.44 0.0007988503    2.918    0.657
       131  -8.5157    193.4076    132.4790   9.9448734755e+01   1.7545879471e+01    0.2552198    0.1845269  14.78 0.0008005533    1.430    0.301
       132  -8.2832      5.4986    133.5486   1.5084995815e+02   4.6301328349e+01    0.1809368    0.1129116  -4.12  0.001025776    2.255    0.557
       133  -9.6610    239.2154    124.3031   8.9570723043e+01   1.0030608475e+01    0.2575747    0.2122054   6.66 0.0004124683    1.069    0.065
       134  -7.1546    132.3470    124.6873   1.1182721324e+02   3.1462715095e+01    0.1538279    0.1184613  72.89 0.0007046501    1.714    0.417
       135  -7.2831    159.9300    122.0293   1.0427478246e+02   2.6256639203e+01    0.1690357    0.1587052   5.02            0    1.053    0.050
       136  -7.6343     85.0075    121.5172   1.2495427349e+02   4.0772595867e+01    0.2046181    0.1298887   4.67 0.0008099104    2.637    0.621
       137  -8.9564     12.4931    121.0179   1.4811842736e+02   4.8794327186e+01    0.2238625    0.1451528 -50.13 0.0008276924    1.728    0.421
       138  -7.5204     99.0483    119.3047   1.2017052910e+02   3.8953643652e+01    0.2402153    0.1239812  15.83 0.0007040977    4.286    0.767
       139  -7.1364    167.6791    116.7393   1.0120350152e+02   2.5559054977e+01     0.151942    0.1110257  16.42 0.0003443406    1.550    0.355
       140  -7.3753    119.4963    119.0031   1.1407357381e+02   3.5218494794e+01     0.202216    0.1298563 -23.08 0.0006654749    2.293    0.564
       141  -7.2571    142.6803    111.6573   1.0599199583e+02   3.1958824192e+01    0.1607027    0.1198007   4.95 0.0007049715    1.721    0.419
       142  -8.9122      2.0942    109.6515   1.5077291648e+02   5.2063442849e+01    0.3496239    0.1135727 -58.43  0.001495354    2.934    0.659
       143  -7.1551     39.2870    110.3355   1.3830646531e+02   4.9308648988e+01    0.1351088   0.09318567 -43.60 0.0007016689    1.628    0.386
       144  -8.6053     28.2409    110.3478   1.4210170284e+02   5.0266625337e+01    0.1792168     0.105989  37.45  0.000687962    1.668    0.401
       145  -7.7496    133.5721    106.8098   1.0717574657e+02   3.4910546907e+01    0.3534378    0.1526774 -41.96  0.001071959    2.450    0.592
       146  -7.4639    124.6586    106.6699   1.0962495930e+02   3.6832342930e+01    0.1612144    0.1220402   2.28 0.0007051404    1.745    0.427
       147  -7.6643    109.0653    106.4982   1.1419334204e+02   4.0020621960e+01    0.2323706    0.1465735  38.53  0.000621816    1.531    0.347
       148  -9.0414     14.3536    105.4862   1.4641296855e+02   5.2422020155e+01    0.3101116     0.134419 -44.48  0.001375685    2.736    0.634
