#   1 NUMBER                 Running object number                                     
#   2 MAG_AUTO               Kron-like elliptical aperture magnitude                    [mag]
#   3 X_IMAGE                Object position along x                                    [pixel]
#   4 Y_IMAGE                Object position along y                                    [pixel]
#   5 X_WORLD                Barycenter position along world x axis                     [deg]
#   6 Y_WORLD                Barycenter position along world y axis                     [deg]
#   7 A_WORLD                Profile RMS along major axis (world units)                 [deg]
#   8 B_WORLD                Profile RMS along minor axis (world units)                 [deg]
#   9 THETA_WORLD            Position angle (CCW/world-x)                               [deg]
#  10 FWHM_WORLD             FWHM assuming a gaussian core                              [deg]
#  11 ELONGATION             A_IMAGE/B_IMAGE                                           
#  12 ELLIPTICITY            1 - B_IMAGE/A_IMAGE                                       
         1 -14.3375    227.7400      7.6696   3.2694038784e+01   2.8240027986e+01     1.881252    0.9604999  52.94  0.009290318    2.421    0.587
         2 -13.8012    183.3892     52.2055   4.8538151877e+01   3.2924125218e+01    0.9605343    0.8961805  39.72 0.0008058515    1.204    0.169
         3 -13.9990    195.8041     42.3645   4.4138162133e+01   3.1333144951e+01     1.042033    0.9136001 -61.59  0.003191746    1.072    0.067
         4 -14.2426    203.6590     34.2853   4.1118573664e+01   3.0546133281e+01    0.9961424    0.8468302  -5.17  0.001315601    1.555    0.357
         5 -13.9391     53.6128      4.4015   6.2795497062e+01   6.7530873867e+01     1.454437    0.4049918  45.91  0.006007764    3.096    0.677
         6 -10.4147     49.4455    217.3105   1.1580295859e+02   2.2553806153e+01    0.4707782    0.3282608  59.05  0.002903735    1.234    0.190
         7 -16.7089     70.9921    147.0157   1.0166154156e+02   3.6391126698e+01     15.58611     7.774357  77.08    0.0299017    6.180    0.838
         8 -10.9444     42.0660    208.2675   1.1658035475e+02   2.5382951230e+01    0.3564701    0.1731218  74.89  0.001368106    2.349    0.574
         9 -11.8912    203.9467    200.1394   7.9611771885e+01   1.6859465732e+00    0.3331977     0.207185  22.32  0.001629208    1.665    0.400
        10 -11.0788     66.0106    194.9397   1.0985638873e+02   2.5426997458e+01    0.2859358    0.2680563 -87.84 0.0008022484    1.133    0.117
        11 -13.2705     49.6468    196.1321   1.1376615307e+02   2.7220162053e+01    0.4343119    0.3708124 -25.80  0.001263147    1.639    0.390
        12  -9.8510     19.0576    200.0000   1.2081890047e+02   2.9641154635e+01    0.2724184    0.1236806  45.53 0.0009720872    1.970    0.492
        13 -12.4751     49.2296    249.6616   1.1837444922e+02   1.6091367854e+01     0.204081    0.1526666  72.23 0.0005234161    1.122    0.109
        14 -12.0544     62.3011    199.9263   1.1128109867e+02   2.4775287665e+01     0.402501    0.2017358 -61.44  0.001130553    1.950    0.487
        15  -9.4049     66.0386    217.0397   1.1225445134e+02   2.0518240048e+01    0.1716935    0.1247473  75.00 0.0004778065    1.296    0.228
        16 -10.7761    151.5377    193.5194   8.9536980635e+01   1.2005687122e+01    0.2779971    0.2274314  -0.78 0.0009432805    1.387    0.279
        17 -12.4092    147.8493    187.6246   8.9308111194e+01   1.3887105242e+01    0.6624863    0.3857695 -64.10  0.002375841    2.381    0.580
        18 -16.8126      1.7695    100.4104   1.1549124580e+02   5.4585401142e+01     14.01459    0.1090413 -70.77   0.02428334   14.736    0.932
        19 -13.5849     60.8874    183.9844   1.0976290147e+02   2.8659370922e+01     0.899838    0.7499874  -2.40  0.005183615    1.661    0.398
        20  -6.3816     62.9905    214.0117   1.1260792914e+02   2.1567005884e+01    0.5879095    0.2800333 -79.11  0.001868054    2.351    0.575
        21  -9.8530     70.5150    184.9497   1.0754091392e+02   2.7150050993e+01     0.191869    0.1273315 -69.89 -3.559753e-05    1.453    0.312
        22  -9.6303     39.0251    186.9320   1.1528949003e+02   3.0570584078e+01    0.2140451    0.1243453  67.81 0.0008036224    1.736    0.424
        23  -9.8182     82.3182    195.0329   1.0602903807e+02   2.3133355642e+01    0.2231036    0.1909932  24.44   0.00103468    1.346    0.257
        24  99.0000     65.5795    206.6929   1.1127770182e+02   2.2829074129e+01    0.3244818    0.3156164 -41.40  0.001126229    1.305    0.233
        25 -11.0601     56.9343    211.3569   1.1365849232e+02   2.2917443321e+01    0.3399583    0.3004964  42.50  0.001287748    1.250    0.200
        26 -11.8624     99.2685    181.0024   9.9860642541e+01   2.3785614283e+01     0.292512    0.2823484  18.60 0.0006826358    1.150    0.130
        27 -11.3342     72.1374    244.8709   1.1361902446e+02   1.4105044050e+01    0.4436966    0.2579938  62.71  0.002536562    1.640    0.390
        28 -12.4641    241.3369    177.1976   6.8180864436e+01  -4.9931676502e-01     0.348042    0.2506567  16.29  0.001998879    1.449    0.310
        29  -9.2007     41.7422    178.7086   1.1379830120e+02   3.2214280521e+01    0.1211698    0.0925733 -49.75 0.0001887313    1.491    0.329
        30 -11.5038    187.0068    175.3852   7.8212028619e+01   9.1520417031e+00    0.4015664    0.3103611 -41.44  0.001132273    1.303    0.232
        31 -11.7066     55.4141    206.4581   1.1351022561e+02   2.4185836546e+01     0.391288    0.2639187  88.73 0.0009676503    1.428    0.300
        32 -10.6420    148.2151    175.0076   8.6821040545e+01   1.6510706667e+01    0.3393179    0.2469712 -81.83 0.0008938963    2.043    0.511
        33 -11.0376    146.1916    171.4197   8.6589174368e+01   1.7673106809e+01    0.2480184     0.231715 -80.53 0.0006959023    1.183    0.155
        34 -11.3030    184.4379    212.3073   8.5769005911e+01   2.7985262351e+00    0.2966281    0.2316043 -62.29  0.001631539    1.811    0.448
        35 -11.3718     50.1046    163.8589   1.0992918975e+02   3.4868014768e+01    0.5651513    0.3047141 -34.38  0.002324458    2.985    0.665
        36 -10.2586     45.2725    169.2922   1.1185317204e+02   3.4092042349e+01     0.250843    0.2006206  81.42 0.0006205359    1.149    0.130
        37  -9.7042    193.2167    170.1905   7.5837174650e+01   9.0026720630e+00    0.1886503     0.174926 -69.31 0.0005160372    1.334    0.250
        38 -11.4716    240.0596    169.2762   6.6803002127e+01   9.9807354913e-01    0.1826814    0.1614367  -4.77 0.0004155076    1.093    0.085
        39 -10.9997    184.9725    167.7091   7.7043930946e+01   1.1035436734e+01    0.3315675    0.2134069 -41.87   0.00108901    1.528    0.345
        40 -10.0616    135.1839    165.3667   8.8045717974e+01   2.1104730789e+01    0.3295301    0.2069195  48.97  0.001440041    1.663    0.399
        41  -9.7600    132.6717    162.3406   8.8056326345e+01   2.2270067904e+01    0.2599518    0.2233996 -75.51 0.0006675301    1.299    0.230
        42 -10.7768     49.1746    170.8438   1.1105394624e+02   3.3264646432e+01    0.4845952    0.2602187 -42.28  0.002165302    2.440    0.590
        43 -12.3636     92.3045    151.2410   9.6478389239e+01   3.2105280538e+01    0.7558581    0.5856419  -4.87  0.003630523    1.755    0.430
        44 -11.9253    133.9250    145.7487   8.4186342591e+01   2.5858093530e+01     1.311383    0.3456285 -54.56  0.003080818    5.535    0.819
        45 -10.4173    174.8623    149.2700   7.5199511224e+01   1.6775418173e+01    0.2574314    0.2231445 -38.85 0.0006669991    1.124    0.110
        46 -10.7450     89.5409    211.5326   1.0647149697e+02   1.8416441691e+01    0.2508439    0.2021893  82.41 0.0006316235    1.247    0.198
        47  -9.1426    164.6537    149.2853   7.7507386410e+01   1.8853046920e+01    0.1523898    0.1238182  82.86 0.0007019302    1.649    0.393
        48 -10.9859    104.6627    137.8093   9.0278885858e+01   3.3296061405e+01    0.5586467    0.3220343 -27.59  0.002003663    2.738    0.635
        49 -11.1806    105.9717    130.8460   8.8340395694e+01   3.4749137817e+01    0.4106305     0.324173 -61.04  0.001336302    1.283    0.221
        50 -12.5958     92.3908    137.2728   9.3651463025e+01   3.5547483825e+01    0.2951424    0.2662151 -39.21 0.0004320935    1.134    0.118
        51 -12.3976    193.6557    198.0323   8.1284165187e+01   3.7671576920e+00      1.42009    0.7438537 -50.27  0.006269289    2.336    0.572
        52 -11.1531    135.9180    128.9478   7.9724273377e+01   2.9320257448e+01    0.5778906    0.1791992 -48.17  0.001710416    3.222    0.690
        53 -11.0879    113.1281    128.8191   8.5844580186e+01   3.3899831030e+01    0.3747691    0.3037959   8.11 0.0008786735    1.497    0.332
        54 -10.0257    160.6219    127.8728   7.3367876514e+01   2.4304555851e+01    0.3260045    0.1978224 -56.46  0.001306969    1.920    0.479
        55 -11.1667    100.3460    124.7735   8.8543948456e+01   3.7234535407e+01    0.2953452    0.2425316 -22.84  0.000478058    1.377    0.274
        56 -11.8209    119.7987    123.0568   8.2582920729e+01   3.3959833307e+01    0.5148181    0.3972573   2.00  0.002324478    1.700    0.412
        57 -11.0163    135.0000    119.0845   7.7481729017e+01   3.1742905443e+01    0.6106562     0.174539 -41.68   0.00168704    3.703    0.730
        58 -10.1895    108.9181    118.0900   8.4414718274e+01   3.7244470578e+01    0.2236937    0.2189866 -35.17 0.0003444761    1.015    0.015
        59 -10.7553    231.2828    113.8290   5.6278348923e+01   1.2110073930e+01    0.2655881    0.2452154 -28.38 0.0007146938    1.077    0.071
        60  -9.5799    167.9592    112.9441   6.7912291585e+01   2.5815078216e+01    0.2602195    0.1954342 -79.88  0.001137727    1.838    0.456
        61 -12.3550    117.6424    108.2307   7.9339519735e+01   3.7795963803e+01    0.8135105    0.6158602 -41.99  0.003849788    1.291    0.225
        62  -8.9998    141.9882    108.7498   7.2957054524e+01   3.2498496734e+01    0.1934268    0.1352059  45.19 0.0003466017    1.457    0.314
        63 -10.6336    134.8181    104.1642   7.3548863278e+01   3.5056122317e+01    0.6265249    0.2001209 -40.63   0.00186792    3.223    0.690
        64 -10.7279     66.4894    104.7491   9.4333690782e+01   4.7510339600e+01    0.2649666    0.2099177  28.64  0.001404362    1.374    0.272
        65 -10.7754     60.1819     97.5007   9.4701624204e+01   5.0091983053e+01    0.2543907    0.2154051  83.75  0.000669333    1.463    0.316
        66 -18.3468     17.6197    233.7231   1.2322664007e+02   2.2685978139e+01     6.169416     4.510012  70.03   0.04466545    1.029    0.028
        67 -10.7204     21.7072    203.4444   1.2050976310e+02   2.8620981975e+01    0.2161181    0.1814269  63.21 0.0008827279    1.154    0.133
        68 -10.2669    205.3942    110.2496   5.9759364039e+01   1.8065223504e+01    0.2879185    0.2079311  46.25 0.0009137992    1.499    0.333
        69  -9.6839    157.2807     82.9441   6.2110497933e+01   3.4152082473e+01    0.2140664    0.1970908 -34.69 0.0004671747    1.091    0.084
        70  -8.6020    107.6687     78.6821   7.3622451000e+01   4.6131885223e+01    0.1562428    0.1168692   2.36 0.0002565779    1.688    0.408
        71  -9.3208     25.3747    202.7215   1.1968500086e+02   2.8413351423e+01    0.2613315    0.1379491  58.00 0.0007680338    1.713    0.416
        72  -9.6022     83.8711    245.2192   1.1133526589e+02   1.2456469237e+01    0.1956436     0.133777  63.98 0.0004713404    1.374    0.272
        73 -10.3033    249.3282    244.0099   7.8970352555e+01  -1.1150168177e+01    0.1881679   0.07274126 -18.29  0.000705182    4.379    0.772
        74 -10.2839    167.9884    232.4440   9.2462054440e+01   2.0177662821e+00    0.2228127    0.1980995  26.18 0.0008541187    1.077    0.071
        75  -9.4843     60.4161    218.9957   1.1364525927e+02   2.0832053195e+01    0.1678113    0.1118028 -82.29 0.0004152257    1.474    0.321
        76 -11.2134     72.2442    249.4322   1.1399344961e+02   1.3236559006e+01    0.1998141    0.1551848 -81.98 0.0009527388    1.356    0.263
        77 -10.4335    198.3353     23.3645   3.9024320963e+01   3.3110095526e+01    0.2540769    0.2008068  33.92 0.0008603687    1.666    0.400
        78  -9.9129    189.6633     14.9801   3.7874586573e+01   3.6078287776e+01    0.1786954    0.1557976 -59.43 0.0006093117    1.135    0.119
