#   1 NUMBER                 Running object number                                     
#   2 MAG_AUTO               Kron-like elliptical aperture magnitude                    [mag]
#   3 X_IMAGE                Object position along x                                    [pixel]
#   4 Y_IMAGE                Object position along y                                    [pixel]
#   5 X_WORLD                Barycenter position along world x axis                     [deg]
#   6 Y_WORLD                Barycenter position along world y axis                     [deg]
#   7 A_WORLD                Profile RMS along major axis (world units)                 [deg]
#   8 B_WORLD                Profile RMS along minor axis (world units)                 [deg]
#   9 THETA_WORLD            Position angle (CCW/world-x)                               [deg]
#  10 FWHM_WORLD             FWHM assuming a gaussian core                              [deg]
#  11 ELONGATION             A_IMAGE/B_IMAGE                                           
#  12 ELLIPTICITY            1 - B_IMAGE/A_IMAGE                                       
         1 -13.2740    233.1766     19.5485   4.0417567365e+01   2.4965573636e+01     1.246585    0.6030582 -23.56  0.005957682    1.879    0.468
         2 -13.7095    235.0015     36.4643   4.4648053650e+01   2.2711953375e+01     1.272945    0.7173908 -39.62  0.006615785    1.451    0.311
         3 -12.6541    243.9611     26.8751   4.1513462205e+01   2.1911933280e+01     1.966281          nan -37.06  0.005766956    4.785    0.791
         4 -12.7250    248.0715     14.7590   3.8257782257e+01   2.2333472149e+01     1.774752    0.5350026 -26.18   0.00729038    2.661    0.624
         5 -12.8134    245.8987     47.2462   4.6422517757e+01   1.9210873208e+01     1.221164     0.526262 -14.25  0.004704806    3.175    0.685
         6  -9.5605    140.0546      9.4642   4.6432626731e+01   4.8977675267e+01    0.2138888    0.1388589  72.97 0.0005069957    1.537    0.349
         7  -9.0466     18.5394      9.0760   8.8786010060e+01   7.5249197103e+01    0.1834354    0.1052849 -44.40 0.0003006739    1.482    0.325
         8 -12.2682    242.2690      4.0528   3.5950289534e+01   2.4572416683e+01    0.6818034    0.5699435  84.77  0.004580155    1.341    0.254
         9  -9.4452    116.7994      5.3587   4.8344670676e+01   5.5467178362e+01    0.2277228    0.1832601 -35.79 0.0003759109    1.252    0.201
        10  -9.5205    110.9731      4.9913   4.9227490125e+01   5.7004510986e+01    0.2049691    0.1976699  31.52  0.001207524    1.019    0.019
        11  -9.2316    217.4578      2.5647   3.6939208687e+01   3.0144425587e+01    0.2267954    0.1218693  -6.79  0.001033443    2.353    0.575
        12  -8.6169     50.8386      3.4112   6.5947372718e+01   7.1064135808e+01    0.1676784    0.1138869  33.95  0.000259115    1.482    0.325
        13  -9.3494     14.8036      2.1394   8.6904489315e+01   7.6936519657e+01      0.17014    0.1199381 -21.85 0.0002540454    1.317    0.241
        14  -8.6607    121.6998      1.7134   4.5906222078e+01   5.4516274438e+01    0.1456634   0.09906393  37.03 0.0002199254    1.556    0.357
        15  -9.5586    170.9883    235.0319   9.6352020753e+01   6.1262875423e+00    0.1596641     0.121963  53.43  0.001136273    1.692    0.409
        16  -9.3243    225.0537    249.1712   8.9415322408e+01  -2.0578982166e+00     0.143443    0.1377803 -50.94  0.001240763    2.147    0.534
        17  -9.9509    210.7028    249.1933   9.1619000261e+01  -3.9335853974e-01    0.2073525    0.1294232 -21.41  0.001558275    1.721    0.419
        18 -10.6150    203.7009    232.6524   9.0556056051e+01   2.1647852185e+00    0.1821713    0.1484759  26.07 0.0002663618    1.263    0.208
        19  -9.1585    235.8317    230.0472   8.5163467549e+01  -1.5086844849e+00    0.1340366     0.120889 -39.13  0.001082925    2.033    0.508
        20  -9.2481    229.8875    228.7177   8.5872789849e+01  -6.6903670468e-01    0.1543466      0.13751 -47.43  0.001209757    2.131    0.531
        21  -9.5905    206.1617    225.8424   8.9209846348e+01   2.5981791256e+00    0.2003986    0.1493559 -45.56  0.001421407    2.029    0.507
        22  -9.0769    190.6270    226.1903   9.1838152430e+01   4.5920831187e+00    0.1413567   0.09312245 -18.88 0.0009475722    1.666    0.400
        23  -9.3547    217.9480    224.4509   8.7114610291e+01   1.2441569869e+00    0.1683698    0.1390024 -79.76  0.001031784    3.474    0.712
        24  -9.4983    240.9464    221.9764   8.3209538444e+01  -1.3320039096e+00    0.1375227    0.1251686  21.50  0.001136717    1.693    0.409
        25  -9.3976    228.4764    222.3229   8.5154233117e+01   1.5026876112e-01    0.1886642   0.08017964  35.27  0.001092173    2.026    0.507
        26  -9.9927    193.6482    219.4549   9.0382679143e+01   4.9910516788e+00    0.2445003    0.2015207  75.78  0.001610171    2.415    0.586
        27  -9.6477    248.3757    218.7482   8.1623577972e+01  -1.9004179671e+00    0.1831344    0.1717099  15.34  0.001536295    1.809    0.447
        28  -8.9077    211.3195    219.6578   8.7477589449e+01   2.6183704884e+00   0.09385829   0.08500008  47.57 0.0004638168    1.719    0.418
        29  -9.2480    219.9751    217.9039   8.5826733459e+01   1.6906474263e+00    0.1445444    0.1301307  42.60 0.0008946874    1.719    0.418
        30  -9.6678    186.0000    215.9533   9.1195045141e+01   6.4699558431e+00    0.1602829   0.06278658 -39.75 0.0007983561    2.914    0.657
        31  -9.5059    177.3068    211.6484   9.2109082970e+01   8.2495125955e+00    0.1054729    0.0883391  61.68 0.0003765791    1.711    0.416
        32  -9.1430    241.7740    210.1811   8.1269083704e+01  -2.4886260858e-01    0.1373885    0.1230158 -77.80 0.0009454475    2.779    0.640
        33  -9.0246    232.9854    213.7695   8.3163398704e+01   4.7674222239e-01    0.1355426    0.1131316 -29.17  0.001040044    1.635    0.388
        34  -9.1156     73.3176    210.2876   1.1225302322e+02   2.2887726770e+01    0.1014309   0.08894052  -0.63 0.0002588154    1.592    0.372
        35  -9.6113    218.5087    213.1349   8.5337574471e+01   2.4072795577e+00     0.211604    0.1306125  44.71  0.001304994    1.982    0.495
        36  -9.2772    206.6983    208.3590   8.6532746425e+01   4.5469152187e+00    0.1507977    0.1364443  56.25 0.0008766335    1.738    0.425
        37  -9.3272    197.2688    204.7994   8.7576782505e+01   6.3022027589e+00    0.1907177    0.1389616 -31.84  0.001284516    1.505    0.336
        38  -9.5760    187.7279    203.7623   8.9079449959e+01   7.8031883874e+00    0.1991915     0.145365 -63.00  0.001164665    2.506    0.601
        39  -9.4861    172.9245    203.6952   9.1736088811e+01   9.9732432359e+00    0.1918939    0.1502376 -17.74 0.0007611726    1.362    0.266
        40  -8.8562    250.5430    201.7935   7.8622285477e+01  -4.7477127805e-01    0.1321616   0.08910937 -28.62 0.0008069907    1.590    0.371
        41  -9.1277    193.4960    210.9846   8.9169446396e+01   6.0529001712e+00    0.1310269    0.1026379 -66.26 0.0008093061    2.446    0.591
        42  -8.6337    217.3307    204.6765   8.4205656905e+01   3.5307216197e+00   0.09569889   0.09004306  49.65 0.0007050047    1.701    0.412
        43  -8.8562    244.0089    202.0000   7.9619655455e+01   3.2267069610e-01    0.1683765   0.05337492  38.39 0.0008065279    2.971    0.663
        44  -9.7151    202.1361    197.6848   8.5611189610e+01   6.5130958717e+00     0.183762    0.1556793 -28.06  0.001111262    1.366    0.268
        45  -9.3329    176.5061    197.5086   9.0133395167e+01   1.0317077713e+01    0.1830753    0.1151208 -52.84  0.001020089    2.222    0.550
        46 -10.2148    185.0000    194.9476   8.8179775204e+01   9.4025830002e+00    0.3262694   0.08541721 -36.06  0.001174913    4.644    0.785
        47  -9.0490    231.4853    194.5180   8.0287137505e+01   2.7853025214e+00    0.1128767   0.08944292   4.77 0.0008096009    1.056    0.053
        48  -9.5879    224.4802    192.9807   8.1133259283e+01   3.9253140455e+00    0.1371435   0.09664146 -50.57   0.00060753    2.430    0.589
        49  -9.3045    172.5845    191.3090   8.9881819194e+01   1.1816231070e+01    0.2116205     0.117881 -46.41  0.001127845    2.117    0.528
        50  -8.7626    243.6844    188.3346   7.7368599880e+01   1.8460058961e+00   0.09562134   0.08766809 -32.98 0.0007047187    1.691    0.409
        51  -9.1188    230.6564    187.9749   7.9299453780e+01   3.6591895233e+00    0.1674757   0.08400402 -48.85  0.000704924    4.384    0.772
        52  -9.4986    237.2287    187.2606   7.8158269368e+01   2.8373012743e+00     0.166899   0.07912628 -38.48 0.0006300549    2.408    0.585
        53  -9.1609    215.0574    186.9788   8.1638852728e+01   6.0021986409e+00    0.1559881    0.1467867 -55.24 0.0006440455    1.665    0.399
        54 -10.4295    210.3934    185.2388   8.2115404606e+01   6.9112726007e+00    0.3842968    0.1069836 -34.68  0.001530135    3.675    0.728
        55 -11.2652    197.7883    183.4841   8.3979636899e+01   9.0502751504e+00    0.3516518    0.2605811 -55.62  0.002076488    2.080    0.519
        56  -9.7816     77.6185    185.6833   1.0897835275e+02   2.7011179135e+01    0.2104641    0.1731104  40.97 0.0005882505    1.175    0.149
        57  -9.3209    224.2967    184.4992   7.9701147242e+01   4.9750873989e+00    0.1769633    0.1346785 -43.21 0.0006471193    1.797    0.444
        58  -9.1389    199.3052    191.6440   8.5104494408e+01   7.7155986428e+00     0.104203   0.09691025  82.03 0.0003132801    1.718    0.418
        59  -9.5018    166.3847    186.2689   9.0246868855e+01   1.3550115203e+01    0.1581648    0.1187572 -51.69 0.0009396763    1.639    0.390
        60  -9.8033    183.5022    182.9716   8.6464593645e+01   1.1346524442e+01    0.1763708    0.1182108 -36.79   0.00102843    1.585    0.369
        61  -8.2921    162.3346    183.2931   9.0547008667e+01   1.4662850294e+01    0.1276663    0.0912585   7.47 0.0005805374    1.640    0.390
        62  -9.4684    241.8228    181.6763   7.6480034122e+01   2.8509983306e+00    0.1921277    0.1416607 -45.61  0.001228267    2.084    0.520
        63  -9.6840    176.9980    181.9398   8.7500143340e+01   1.2530844950e+01    0.1809639    0.1563722  77.96  0.001123992    1.723    0.420
        64  -8.6387    235.9720    181.4708   7.7332438908e+01   3.6851680795e+00    0.1351045     0.103208  60.81 0.0008091698    2.478    0.596
        65  -9.7658    191.0149    180.0223   8.4581618931e+01   1.0592109206e+01    0.1771893    0.1582526  84.56  0.001132067    1.753    0.430
        66  -9.0165    165.6682    180.3010   8.9395603177e+01   1.4604678366e+01    0.1200088   0.09851757  67.19 0.0007033517    1.650    0.394
        67  -9.1104    248.1799    179.2187   7.5098244302e+01   2.2655284308e+00    0.1427689     0.120417 -15.22   0.00105378    1.312    0.238
        68  -9.7838    219.5174    178.5172   7.9410667625e+01   6.4228586450e+00    0.1752818    0.1689038 -76.91 0.0008579576    1.673    0.402
        69  -9.5112    197.8792    177.2730   8.2866606259e+01   9.9036805342e+00    0.2031782    0.1617426 -37.84 0.0008195787    1.427    0.299
        70 -10.0862    169.4835    177.9993   8.8260211157e+01   1.4352056812e+01    0.1795539     0.123048 -38.81 0.0005658393    1.558    0.358
        71  -9.4386    210.7275    176.3214   8.0473757736e+01   8.0380763262e+00    0.2080384    0.1374476 -40.11  0.000863397    1.720    0.418
        72  -9.5445    223.9784    173.6888   7.7807807126e+01   6.3753082143e+00    0.2172538    0.1400963 -51.39   0.00115233    2.607    0.616
        73 -10.3979    188.1893    172.6830   8.3782249204e+01   1.2122064286e+01    0.2894385    0.1644597 -44.33  0.001368651    1.999    0.500
        74  -9.1013    228.2203    171.7748   7.6777812100e+01   5.9861653829e+00    0.1616462    0.1312472 -72.71 0.0009299682    2.629    0.620
        75  -9.7273    205.7921    170.0163   8.0154762210e+01   9.6724592677e+00    0.2547441    0.1633122 -43.68  0.001421579    1.845    0.458
        76  -9.6557    237.7290    169.9314   7.4960668668e+01   4.8187142229e+00    0.2079305    0.1452072 -35.49  0.001320681    1.579    0.367
        77  -9.4696    212.1610    169.2482   7.8925672781e+01   8.7722087827e+00    0.2044978    0.1535468 -52.80 0.0008735633    1.976    0.494
        78  -9.2205    197.9833    170.0610   8.1529861847e+01   1.0918308532e+01    0.1755574    0.1595532 -87.23 0.0008999474    1.698    0.411
        79  -9.2827    245.9033    169.1640   7.3595826158e+01   3.7405878549e+00    0.1687796     0.143827 -14.32  0.001045279    1.262    0.207
        80  -9.8972    219.1218    168.7141   7.7669406536e+01   7.7601644631e+00    0.2023228    0.1965122  66.23  0.001420688    1.548    0.354
        81 -10.6709    179.8122    168.7266   8.4620353968e+01   1.4111357053e+01    0.2543842    0.1777428 -46.55  0.001427167    1.649    0.393
        82 -10.1034    169.7376    168.1555   8.6462321839e+01   1.5898031714e+01    0.1925607    0.1672231 -62.96  0.000925414    1.482    0.325
        83  -9.9540    191.5228    166.6881   8.2060201180e+01   1.2473838312e+01    0.2558506    0.2229301   4.93  0.001199208    1.009    0.009
        84 -10.6188    197.2064    158.1229   7.9378487458e+01   1.2810246073e+01    0.4403787     0.181468 -39.58   0.00192896    2.442    0.591
        85  -9.9458    205.5087    161.9032   7.8658104837e+01   1.0868671676e+01    0.2978377    0.2178939 -49.60  0.001709423    1.801    0.445
        86  -9.6725    184.5045    160.4641   8.2168527727e+01   1.4618133041e+01    0.2195076    0.1194112 -48.74  0.001023918    2.262    0.558
        87  -9.4538    237.8599    159.0949   7.2876939161e+01   6.1405348123e+00    0.1762294    0.1538546 -25.78  0.001222628    1.336    0.251
        88  -9.4628    176.6679    158.5174   8.3286664091e+01   1.6289394764e+01    0.2246495    0.1193768 -39.62 0.0007928389    1.919    0.479
        89  -9.0807    245.8672    157.8332   7.1446135571e+01   5.1044163404e+00    0.1558376    0.1310234 -27.02  0.001079067    1.342    0.255
        90  -8.8472    222.4218    157.2238   7.4915539443e+01   8.7804696192e+00    0.1662193    0.1071155 -37.01 0.0005300723    1.592    0.372
        91  -9.4698    216.4240    156.4395   7.5737998926e+01   9.8552221628e+00    0.2100689    0.1884458 -19.30  0.001303764    1.208    0.172
        92  -9.3745    212.2634    155.9537   7.6334406285e+01   1.0605769163e+01    0.1591934    0.1005977 -31.01 0.0004979944    1.491    0.329
        93  -9.2376    187.6035    155.7354   8.0658176739e+01   1.4829477479e+01    0.2502284    0.1204312 -33.28  0.001132822    2.120    0.528
        94  -8.7953    154.4828    156.4831   8.7382999413e+01   2.0555335049e+01    0.1333423    0.1259644  23.49 0.0003113021    1.023    0.023
        95  -9.1974    233.6842    154.3105   7.2570636497e+01   7.3906611130e+00    0.1723007    0.1460353 -55.29   0.00109674    1.791    0.442
        96  -9.4221    205.8007    153.8207   7.7007622645e+01   1.1993558475e+01    0.2074192    0.1945299  77.76  0.001135213    1.516    0.341
        97  -9.0408    202.5092    151.4973   7.7108689152e+01   1.2899368412e+01     0.207702    0.1647159 -32.70  0.001099189    1.265    0.209
        98  -8.6664    240.6282    164.3257   7.3467257288e+01   5.0804931915e+00    0.1060258   0.09386926 -54.78 0.0007031419    1.818    0.450
        99  -8.8418    250.6018    153.1840   6.9859112052e+01   4.9730706490e+00     0.170227   0.09404873 -17.94 0.0009144954    1.634    0.388
       100  -9.7547    157.3195    152.8179   8.6074125516e+01   2.0709953261e+01    0.2546728    0.1216542 -51.67  0.001039772    2.498    0.600
       101  -9.1595    221.3054    152.0219   7.4055586182e+01   9.6701176596e+00    0.1815445    0.1443401 -19.04  0.000866391    1.123    0.110
       102  -9.1772    211.8440    151.3157   7.5469997238e+01   1.1337777551e+01    0.1794235    0.1454727 -26.31 0.0009903837    1.188    0.158
       103  -9.6413    176.3644    151.1976   8.1889259085e+01   1.7558445600e+01    0.1852075    0.1223962 -46.95 0.0008598114    1.669    0.401
       104  -9.5745    244.7692    149.9931   7.0061369520e+01   6.2359747068e+00    0.1819883    0.1649917  53.79  0.001262169    1.618    0.382
       105  -9.5213    215.8314    149.4292   7.4420570717e+01   1.0937785686e+01    0.2559362    0.1517085 -45.00  0.001306701    2.004    0.501
       106 -10.0159    213.1561    163.3136   7.7628681121e+01   9.4296946962e+00    0.3009783    0.2078363 -38.60  0.001773266    1.565    0.361
       107 -10.4729    235.4543    147.4638   7.0925462229e+01   8.0042888964e+00    0.3475376    0.2771037 -55.01   0.00155343    1.889    0.471
       108  -8.8667    229.4638    148.4332   7.2037409713e+01   8.8335144604e+00    0.1274675    0.1022723  -2.91 0.0002739019    1.070    0.066
       109  -8.4632    171.6616    154.3158   8.3442217999e+01   1.7874612329e+01    0.1287952    0.1086556  84.65 0.0007048008    1.701    0.412
       110  -9.7056    223.7690    147.0318   7.2643234602e+01   9.9527867403e+00    0.2041491    0.1878624 -88.57  0.001317735    1.674    0.403
       111  -9.9946    207.9642    145.4802   7.4921887373e+01   1.2852641413e+01    0.2431191    0.1742137 -44.08 0.0009345749    1.577    0.366
       112  -9.3830    200.4453    144.8139   7.6086016213e+01   1.4272692412e+01    0.2482573      0.11883 -39.10   0.00112844    2.049    0.512
       113  -8.6585    247.6594    144.3358   6.8508825773e+01   6.5022045400e+00    0.1135726   0.09068733 -49.18 0.0007050933    1.758    0.431
       114  -8.8151    219.3365    144.6858   7.2867206707e+01   1.1019676663e+01    0.1182005    0.1016619 -61.35 0.0007046789    1.692    0.409
       115  -8.4980    171.3253    144.3146   8.1463757561e+01   1.9655325783e+01    0.1416378    0.1035365   4.04 0.0005509295    1.667    0.400
       116  -9.3199    214.4276    142.7359   7.3260243017e+01   1.2135938965e+01    0.2447338    0.1116722 -37.89  0.001027051    2.098    0.523
       117  -9.7527    181.9945    141.8512   7.8849188586e+01   1.8096438900e+01    0.3096457    0.1774507 -53.27  0.001368771    2.340    0.573
       118  -9.6162    230.4852    141.4464   7.0437716973e+01   9.6078233171e+00    0.2316958   0.09913269 -40.58  0.001031379    2.439    0.590
       119  -9.4947    243.7662    140.9000   6.8359811624e+01   7.5408686678e+00    0.2270327    0.1477285 -38.23  0.001324591    1.591    0.372
       120  -8.9542    224.3712    140.2086   7.1124526763e+01   1.0797585256e+01    0.1773036    0.1061246 -36.90 0.0005327697    1.611    0.379
       121 -10.2107    199.4720    136.9714   7.4575361770e+01   1.5662703636e+01    0.3074414    0.1814009 -35.43  0.001467059    1.604    0.377
       122  -9.5957    187.8825    136.0877   7.6483580987e+01   1.7954361162e+01    0.2429791    0.1739091 -41.62 0.0006713137    1.424    0.298
       123  -9.2744    166.5981    140.2950   8.1567612575e+01   2.1249864813e+01    0.2119599    0.1726764 -80.25   0.00110964    1.736    0.424
       124  -9.4304    218.6935    138.2432   7.1609285291e+01   1.2046150096e+01    0.2180886    0.1915136 -33.88  0.001382269    1.256    0.204
       125  -9.6341    209.1314    138.6777   7.3278872116e+01   1.3659839990e+01    0.2333602    0.1695155 -36.65  0.001206849    1.361    0.265
       126  -9.6488    172.8068    137.7493   7.9759317247e+01   2.0523700670e+01    0.2838753    0.1890814 -48.40  0.001408603    1.638    0.390
       127  -9.0873    192.8658    136.5738   7.5672485367e+01   1.6944205708e+01    0.2271413    0.1504056 -37.61  0.001174847    1.467    0.319
       128  -9.9216    242.4430    134.6398   6.7243115746e+01   8.5596852913e+00    0.3315191    0.0908359 -36.25  0.001265569    3.187    0.686
       129  -9.9128    234.9185    135.8258   6.8586625709e+01   9.6331851004e+00    0.2345764    0.1513483 -49.08  0.001241842    2.072    0.517
       130  -8.7590    249.3147    135.6897   6.6500535355e+01   7.3318913481e+00    0.1136237   0.08969421 -46.44   0.00044655    1.633    0.388
       131  -9.3681    225.4883    133.5226   6.9520144609e+01   1.1541617745e+01    0.2656688    0.1128138 -32.21  0.001008673    2.091    0.522
       132 -10.1167    179.3394    132.1413   7.7228228206e+01   2.0245341658e+01    0.3305337    0.1589505 -43.81  0.001396428    2.125    0.529
       133  -9.7771    198.4718    131.5314   7.3548336162e+01   1.6703615255e+01    0.2695846    0.1247789 -35.22 0.0007008137    2.027    0.507
       134  -9.6602    205.5871    130.7480   7.2139257126e+01   1.5503020344e+01    0.1889399    0.1168541 -40.91 0.0009268411    1.621    0.383
       135  -9.7610    248.9716    130.0929   6.5372711909e+01   8.0962304277e+00    0.2681069    0.1856318  61.10  0.001545839    2.197    0.545
       136  -8.6216    234.2682    129.6628   6.7360430854e+01   1.0573747606e+01    0.1215645    0.0918605 -46.72 0.0005103773    1.595    0.373
       137  -8.8049    221.1622    129.2090   6.9250318746e+01   1.2910560714e+01    0.1743757    0.1504779 -43.43  0.001069946    1.343    0.255
       138  -9.1393    212.1194    128.9441   7.0643266196e+01   1.4577246678e+01     0.217393    0.1401799 -51.92 0.0007831249    2.039    0.510
       139 -10.4166    200.0791    126.3341   7.2089202507e+01   1.7222706496e+01    0.4207605    0.1772165 -42.54  0.001701735    2.424    0.587
       140  -9.4603    192.4364    129.0288   7.4063872299e+01   1.8247867790e+01    0.2148893     0.126529 -35.66  0.001027453    1.605    0.377
       141  -9.0225    186.0176    128.7847   7.5192488969e+01   1.9523851138e+01    0.1988505    0.1449563 -51.81 0.0005729873    1.598    0.374
       142 -10.2777    240.9357    126.3529   6.5683956545e+01   9.8958874607e+00    0.2966522    0.1506066 -40.69  0.001465693    1.993    0.498
       143 -10.0407    179.8034    123.7078   7.5196607290e+01   2.1609034436e+01    0.4325184    0.2209978 -33.84  0.001666112    1.925    0.481
       144  -8.7386    249.6471    124.3010   6.4045559866e+01   8.7277289365e+00    0.1175995    0.0911127 -51.18 0.0005569911    1.700    0.412
       145  -8.8797    169.7779    123.9911   7.7246978227e+01   2.3564385451e+01     0.191359     0.113414 -38.23 0.0006226763    1.638    0.389
       146  -9.2670    146.4964    124.5089   8.2370909892e+01   2.8141694712e+01     0.142607    0.1409324 -23.44 0.0001781491    1.019    0.018
       147  -9.5565    220.9701    121.4675   6.7544179289e+01   1.4062990185e+01    0.3962005    0.1416328 -45.01   0.00139613    3.571    0.720
       148  -9.1635    213.1692    123.1989   6.9173117086e+01   1.5243913174e+01    0.1835599    0.1548107 -47.78   0.00107609    1.367    0.269
       149  -8.7589    165.6572    127.6800   7.8952246968e+01   2.3716543656e+01    0.1488759    0.1099447   4.90 0.0007049803    1.722    0.419
       150  -9.6081    227.8410    125.1321   6.7320492591e+01   1.2309015192e+01    0.1991771    0.1659872 -37.36  0.001226926    1.273    0.214
       151  -9.6436    202.8811    121.1130   7.0399532978e+01   1.7509093611e+01    0.2100656    0.1816315 -41.98  0.001019914    1.233    0.189
       152  -9.6788    194.1552    120.9769   7.1889031401e+01   1.9227289710e+01    0.2253176    0.1461696 -53.22 0.0007556608    1.928    0.481
       153  -8.5378    231.5313    120.0427   6.5636986425e+01   1.2368260631e+01    0.2018829    0.1113474 -30.85  0.001018676    1.561    0.359
       154  -9.2928    248.3656    119.1867   6.3107429356e+01   9.5969370809e+00    0.1826432   0.09602724 -35.07 0.0006716503    1.651    0.394
       155 -10.2110     18.5496    118.8224   1.1747153401e+02   4.8973183223e+01    0.2377746    0.1754587  60.91 0.0005686762    1.278    0.217
       156 -10.4299    213.0065    116.8426   6.7729504347e+01   1.6228762575e+01    0.3884241    0.1417844 -42.89  0.001447099    2.897    0.655
       157 -10.4767    186.0722    114.6479   7.1837729794e+01   2.1895705382e+01    0.2574575    0.1838786 -42.94  0.001044055    1.391    0.281
       158  -8.9670    173.5050    113.9937   7.4081199155e+01   2.4597448269e+01    0.2222473    0.1367824 -37.76 0.0006556214    1.549    0.354
       159  -9.0372    194.9870    112.7674   6.9772889680e+01   2.0398829593e+01    0.2092448     0.138769 -48.02 0.0007645715    1.637    0.389
       160  -8.9500    173.4952    119.0416   7.5318978613e+01   2.3699713508e+01    0.2272604     0.136172 -37.46  0.001036949    1.602    0.376
       161  -8.6604    168.3372    111.6833   7.4540400439e+01   2.6093763489e+01    0.1469508    0.1165139 -76.17   0.00044907    1.700    0.412
       162 -10.0723    218.9600    111.2400   6.5481948089e+01   1.5930652216e+01    0.5116659    0.1395206 -39.31  0.001741968    3.343    0.701
       163  -9.7796    160.6330    108.0352   7.5208194424e+01   2.8401068023e+01     0.348184     0.136273 -39.47  0.001244518    2.457    0.593
       164  -8.9023    189.5197    108.4999   6.9688533215e+01   2.2218606276e+01    0.1434598    0.1312379 -19.71 0.0008103655    1.001    0.001
       165  -9.1913     56.6715    108.2821   1.0372219210e+02   4.7583927802e+01    0.1446822   0.09972198  69.67 0.0002415265    1.604    0.376
       166  -9.0129    222.4519    104.9551   6.3464745355e+01   1.6180727858e+01    0.2165473    0.1171491 -31.36 0.0007621157    1.603    0.376
       167  -9.2595    205.6407    104.8341   6.6025777473e+01   1.9508276620e+01    0.2097291    0.1139096 -40.51 0.0008012455    1.734    0.423
       168 -10.1884    229.4475    102.9592   6.1987717831e+01   1.5137330178e+01    0.2954892    0.2116431 -34.25  0.001321947    1.236    0.191
       169  -9.0526    200.5484    103.0099   6.6405806475e+01   2.0832108922e+01    0.2202629    0.1276073 -32.87 0.0007559911    1.563    0.360
       170  -8.9784    195.0000    102.9563   6.7328974137e+01   2.1990131529e+01    0.2350777   0.07549423 -34.31 0.0006168897    2.853    0.650
       171  -9.1342    202.7568     98.0188   6.4781420221e+01   2.1160187605e+01    0.1949378    0.1095235 -32.64 0.0007990402    1.599    0.375
       172  -9.3365    194.9809     97.2954   6.5880079848e+01   2.2908898071e+01    0.2735995    0.1845089 -50.62  0.001314855    1.625    0.385
       173 -10.7372    211.2780     92.6918   6.2097378983e+01   2.0210558489e+01    0.5863586    0.1898229 -44.33  0.001945965    3.406    0.706
       174  -9.6141    236.4995     89.9879   5.7944013729e+01   1.5593999707e+01    0.2637528    0.1054773 -33.78 0.0008976767    2.035    0.509
       175  -9.3220    235.3974     95.2021   5.9336351339e+01   1.5093143236e+01    0.3497603    0.1365114 -41.52  0.001439744    2.428    0.588
       176 -10.4187    231.7690     90.8815   5.8769940108e+01   1.6377651746e+01    0.4895116    0.1686612 -40.78   0.00189016    2.659    0.624
       177  -8.8480    171.0000     94.9884   6.9626781850e+01   2.8522294266e+01    0.2499255   0.08091871 -36.42 0.0007975258    2.909    0.656
       178  -9.4438    242.3228     93.4269   5.8032536092e+01   1.4044643121e+01    0.2401173    0.1011395 -30.48  0.001067496    1.945    0.486
       179  -8.6611    206.7096     94.3264   6.3212575277e+01   2.0908988345e+01    0.1415931    0.1027001 -55.79 0.0003838463    1.616    0.381
       180  -9.7883    164.4796     93.5117   7.0519375111e+01   3.0242338113e+01    0.3214954    0.1419688 -37.04  0.001204201    2.144    0.534
       181  -8.8798    225.0000     92.9705   6.0191479246e+01   1.7404596197e+01     0.226911   0.06811518 -30.95 0.0006902489    2.867    0.651
       182  -8.8834    247.7112     92.3313   5.7118590225e+01   1.3207876742e+01    0.1298291   0.08607628 -48.04 0.0004546259    1.623    0.384
       183 -10.5939     25.0227     90.1997   1.1162716802e+02   5.5659003393e+01    0.2483644    0.2109718 -39.41 0.0004757709    1.342    0.255
       184  -9.3530    249.3148     87.6803   5.5843548380e+01   1.3520106000e+01    0.2701445    0.1382253 -44.93 0.0007981285    1.966    0.491
       185  -9.5845    246.6116     85.2550   5.5585992178e+01   1.4327777881e+01    0.1860445    0.1073879 -20.43 0.0009431687    1.595    0.373
       186  -9.0488    150.6656     88.3252   7.1967668534e+01   3.4327465315e+01    0.1580398    0.1193425 -73.42 0.0007051243    1.714    0.417
       187  -9.2267    225.5403     87.0550   5.8652545942e+01   1.8133220007e+01    0.2186748    0.1163829 -31.49  0.001028534    1.595    0.373
       188  -9.3742    163.6784     86.5081   6.8704536797e+01   3.1685657432e+01    0.2762854    0.1326653 -36.93  0.001070439    1.955    0.489
       189  -8.4147    203.3200     89.6645   6.2535680990e+01   2.2337321871e+01      0.14677    0.1042185 -58.51 0.0007049612    1.704    0.413
       190  -8.9785    197.4921     86.0702   6.2505667232e+01   2.4150953689e+01    0.2289156    0.1312393 -31.76   0.00102936    1.580    0.367
       191  -9.3071     30.6634     97.2884   1.1069443044e+02   5.3334738929e+01    0.1397372   0.09108891  66.84   0.00030896    1.634    0.388
       192  -9.2822    170.5772     83.7672   6.6567391390e+01   3.0582485359e+01     0.221483     0.129882 -45.03 0.0009431677    1.673    0.402
       193  -9.7070    224.2928     82.3056   5.7625678684e+01   1.9050678214e+01    0.3663734    0.2312183   7.64  0.001666192    2.299    0.565
       194  -8.8278    193.0000     82.9390   6.2382794065e+01   2.5632833989e+01    0.2457388   0.07680655 -32.61 0.0006551828    2.908    0.656
       195 -10.1695    229.5720     77.7027   5.5789071556e+01   1.8618687249e+01    0.2697138    0.1560931 -17.71  0.001277617    1.784    0.440
       196 -10.0913    159.2930     81.3069   6.8075695662e+01   3.3630630228e+01    0.3765118      0.17066 -39.55  0.001420703    2.056    0.514
       197  -9.4435    201.1280     77.7161   5.9683363213e+01   2.4635606881e+01    0.2714438    0.1696164 -39.76  0.001109757    1.451    0.311
       198  -9.0628    167.0000     78.0028   6.5570115003e+01   3.2406967137e+01    0.2582789   0.08214813 -34.60 0.0008037334    2.951    0.661
       199 -10.0536    243.5130     76.4889   5.3840903856e+01   1.6045273016e+01    0.2751667    0.1109649 -28.08 0.0008219645    2.077    0.519
       200  -9.7908    244.0000     72.0078   5.2698667062e+01   1.6528468252e+01    0.3728364    0.0630602 -28.79  0.001042428    4.854    0.794
       201  -9.0217    183.5678     76.7663   6.2222852923e+01   2.8753484046e+01    0.2200558    0.1254852 -42.36 0.0009495041    1.651    0.394
       202  -9.2617    174.3957     77.2139   6.3959724752e+01   3.0809063897e+01    0.2287541    0.1265925 -42.98 0.0009549677    1.722    0.419
       203 -10.5465    238.9970     73.9846   5.3740950437e+01   1.7243538334e+01    0.4668655    0.0951413 -30.26  0.001469515    3.788    0.736
       204  -9.2329    211.0262     75.9907   5.7785471065e+01   2.2728292677e+01    0.2204441    0.1636603   4.85 0.0006997056    1.629    0.386
       205  -8.7958    200.4535     82.9469   6.1201153537e+01   2.3987969468e+01    0.2025337    0.1034423 -50.48 0.0006278682    2.281    0.562
       206  -9.8035    248.3812     73.6678   5.2626160113e+01   1.5483600497e+01     0.266771   0.09491803 -32.71  0.001127768    2.160    0.537
       207 -10.1231    157.6085     74.9626   6.6506253256e+01   3.5153341650e+01     0.360643    0.1412378 -35.25  0.001249919    2.416    0.586
       208  -8.5990    226.9950     72.9950   5.4913625266e+01   1.9782917691e+01    0.2850687    0.1289905 -58.28 0.0009553398    4.103    0.756
       209  -8.6950    210.6470     71.3214   5.6588191732e+01   2.3482350936e+01    0.1494087   0.09925344 -58.20 0.0007047323    1.752    0.429
       210  -9.0751    170.5153     69.9966   6.2515489318e+01   3.2919273160e+01    0.2422932     0.140505 -34.12 0.0009691061    1.602    0.376
       211  -9.3941    101.9758     69.2376   7.8502950590e+01   4.9047448805e+01    0.2792571    0.1629287 -72.57  0.000897902    3.539    0.717
       212  -9.0621    182.0000     67.9738   5.9928927913e+01   3.0512215730e+01    0.2515004   0.07937957 -31.69  0.000799295    2.921    0.658
       213 -10.7692    249.4379     63.4438   5.0054372578e+01   1.6560711808e+01    0.5373468    0.2181516 -19.79  0.002161622    2.701    0.630
       214  -8.6399    212.4907     65.9851   5.4902882302e+01   2.3832129897e+01    0.1932907    0.1177626  -1.27 0.0006471017    2.387    0.581
       215  -8.7233    214.3077     69.6628   5.5654128464e+01   2.2921259900e+01    0.1475886   0.09627167 -54.34 0.0003957817    1.678    0.404
       216 -10.8848    192.5654     60.4826   5.6094402925e+01   2.9149093690e+01    0.4557383    0.2459706 -28.48  0.001976388    1.725    0.420
       217  -8.9929    157.6458     61.1845   6.2150816862e+01   3.7489318416e+01    0.2213768    0.1413635 -22.77   0.00090934    1.688    0.408
       218 -10.2009    192.5874     54.9696   5.4474743337e+01   2.9933659140e+01    0.4385414    0.1262076 -30.70  0.001384216    3.008    0.668
       219 -10.1568    227.1330     56.6692   5.0671958746e+01   2.1916058033e+01    0.3126262    0.1626717 -28.02   0.00127964    1.659    0.397
       220  -9.1963    167.9932    249.5273   9.8580340437e+01   4.7947798249e+00    0.1474619    0.0730682  19.24  0.000539195    2.402    0.584
       221  -8.9282    140.3486    249.6763   1.0331861333e+02   8.2649054813e+00    0.1060164   0.06763811  53.49 0.0007049223    1.747    0.428
       222 -10.5563    194.0336    249.7614   9.4327610735e+01   1.5473287773e+00    0.2183947    0.1527562  39.29    0.0016354    1.477    0.323
       223 -10.5512    176.2748    247.0301   9.6906610954e+01   4.0388753423e+00    0.2571164     0.229333  64.55  0.002105315    1.732    0.423
       224 -10.3536    250.1455     54.8272   4.7897973662e+01   1.7472789968e+01    0.7611443   0.06482285 -38.12  0.002199983    4.881    0.795
       225  -9.0742    149.3970     34.2109   5.4371382235e+01   4.3635545556e+01    0.2112815    0.1304247 -38.22 0.0003897029    1.527    0.345
       226  -9.0725    125.6739     30.3350   5.7395092523e+01   5.0280103516e+01    0.1600561    0.1098149 -61.26 0.0007051494    1.718    0.418
       227  -9.4309    177.4601    242.2524   9.6136354772e+01   4.4325338732e+00    0.1765815    0.1035984 -38.33 0.0006266379    2.092    0.522
       228  -9.9055     30.4808     28.2842   9.1558943836e+01   7.0033652739e+01    0.2572408    0.1773314 -14.69  0.001369269    1.734    0.423
       229  -8.9439     42.2347     27.7526   8.4849825448e+01   6.8552471221e+01    0.1835552     0.140295 -23.27 0.0004551328    1.306    0.234
       230  -9.2048    136.6368     25.1355   5.3177556961e+01   4.8131172949e+01    0.2081923    0.1398564  -9.89 0.0004517708    1.704    0.413
       231  -9.3477    172.3677     24.2423   4.7512064135e+01   3.8942506095e+01    0.2164488    0.1172521 -36.45 0.0005256283    1.669    0.401
       232  -9.4957    215.6085     16.1458   4.0795306522e+01   2.9240856600e+01    0.2625225    0.1654252  -6.28   0.00129447    1.917    0.478
       233  -8.9280     29.7453     12.9683   8.3708285514e+01   7.3122352493e+01    0.1791168    0.1428384 -29.85 0.0002289101    1.075    0.070
       234  -9.0166    147.0239    247.0132   1.0188466872e+02   7.7522989629e+00    0.1612445    0.1062059  51.49 0.0008581348    1.652    0.395
       235  -9.6303    202.5184    242.5200   9.2056022689e+01   1.2633068798e+00    0.1924065    0.1520062  59.04  0.001375881    2.353    0.575
       236  -8.7981    240.3796    240.6935   8.5991187218e+01  -3.0248943626e+00   0.08590209   0.07231084  32.86 0.0007025697    1.784    0.440
       237  -9.3799    231.2111    237.7779   8.6953048399e+01  -1.7051903486e+00    0.1312601    0.1126171  63.04 0.0009490664    2.752    0.637
       238  -9.7528    207.3680    237.5841   9.0631188722e+01   1.1806124957e+00    0.2055618    0.1480258  48.35  0.001456083    2.005    0.501
       239 -10.4926    191.4184    236.2111   9.3045318444e+01   3.3354768885e+00    0.4385234    0.2977796  63.73  0.002416724    3.668    0.727
       240  -8.8414    244.4818    236.5487   8.4810692982e+01  -3.1131456115e+00     0.101735   0.07076959  10.34 0.0001646502    1.006    0.006
       241 -11.4819    232.2067     48.7687   4.8086788155e+01   2.1836658545e+01    0.5590066     0.251442 -15.06  0.002175555    2.861    0.650
       242  -9.8795    216.7665    234.8162   8.8766838438e+01   3.1095619464e-01    0.2211835    0.1449988  34.39  0.001616624    1.435    0.303
