#   1 NUMBER                 Running object number                                     
#   2 MAG_AUTO               Kron-like elliptical aperture magnitude                    [mag]
#   3 X_IMAGE                Object position along x                                    [pixel]
#   4 Y_IMAGE                Object position along y                                    [pixel]
#   5 X_WORLD                Barycenter position along world x axis                     [deg]
#   6 Y_WORLD                Barycenter position along world y axis                     [deg]
#   7 A_WORLD                Profile RMS along major axis (world units)                 [deg]
#   8 B_WORLD                Profile RMS along minor axis (world units)                 [deg]
#   9 THETA_WORLD            Position angle (CCW/world-x)                               [deg]
#  10 FWHM_WORLD             FWHM assuming a gaussian core                              [deg]
#  11 ELONGATION             A_IMAGE/B_IMAGE                                           
#  12 ELLIPTICITY            1 - B_IMAGE/A_IMAGE                                       
         1 -12.9340    157.2664     85.5933   5.4180536477e+01   3.3265059330e+01     1.715569    0.8711445 -47.81  0.006928958    2.014    0.504
         2 -10.2110     15.1270     13.4317   7.7164075476e+01   7.2981784502e+01    0.3048139     0.142221 -33.57  0.001597365    1.984    0.496
         3 -12.0673     22.9182     15.0130   7.3227952799e+01   7.1805478324e+01    0.7768924    0.3516569  17.77  0.003444177    2.834    0.647
         4 -10.7771      9.5496     15.9470   8.2099727248e+01   7.3171136392e+01     0.297402    0.1705944 -19.32  0.001253731    1.655    0.396
         5 -12.0254      3.8434     16.7548   8.6342566134e+01   7.3543192903e+01    0.3695181    0.2586453  27.87  0.001889524    1.649    0.394
         6 -11.6934     99.4972     22.9931   4.6917507798e+01   5.6310784779e+01     0.588807    0.3583506  27.95  0.002207854    1.952    0.488
         7 -11.8022    128.3586     24.5112   4.1338580464e+01   4.9270572980e+01    0.4774873    0.2966487 -30.21  0.002450951    1.756    0.430
         8 -11.8143    128.7626     18.9351   3.9418393564e+01   4.9760964623e+01    0.2709424    0.2240134  35.27 0.0003117689    1.317    0.241
         9 -11.5455    159.9472     22.9622   3.5971051467e+01   4.1789876091e+01    0.3916754    0.2913455   3.49  0.001914014    1.907    0.475
        10 -11.9235     46.5980     14.0876   6.0515111386e+01   6.8291006913e+01     0.726509     0.424427  48.85   0.00391012    1.780    0.438
        11 -11.9315     40.6469     16.6465   6.4599843921e+01   6.8981732795e+01    0.5262789    0.3790806 -52.25  0.001775028    2.198    0.545
        12 -10.6898     39.6884     11.0345   6.2094464908e+01   6.9838684394e+01    0.1972465    0.1641369  26.89  0.000517072    1.157    0.136
        13 -10.8596     43.6471      8.6364   5.8955266797e+01   6.9435356913e+01    0.2774917    0.2353518  57.49  0.001075731    1.570    0.363
        14 -10.4996     73.3720      6.3006   4.6887042990e+01   6.3801828482e+01    0.2792355     0.221259 -45.02  0.001716992    1.589    0.371
        15 -10.3446     74.4455      2.3587   4.4764962633e+01   6.3899016461e+01    0.2435201    0.2024314 -87.01 0.0009209777    1.542    0.351
        16 -10.9110     73.7672     16.8749   5.1585767454e+01   6.2688159166e+01    0.4818736    0.2346267  44.48   0.00230664    1.778    0.438
        17 -10.2871     70.7019     13.7278   5.1140076029e+01   6.3662975728e+01    0.2612154    0.1951744   8.80 0.0007665431    1.398    0.285
        18 -10.8389     76.9008     11.0779   4.8023454557e+01   6.2604107500e+01     0.574178    0.1925562  56.89  0.002319238    2.582    0.613
        19 -10.9537     32.9144     16.5199   6.8442843418e+01   7.0204656762e+01    0.5321422    0.2334919  23.94  0.002068012    2.790    0.642
        20 -10.6336    118.1995     10.2201   3.8286217800e+01   5.3140889066e+01     0.422199    0.1614946 -28.40  0.001819314    2.785    0.641
        21 -10.9980     60.5786     14.2267   5.4893755160e+01   6.5666301968e+01    0.3939889    0.2773015  72.55  0.002085726    2.159    0.537
        22 -11.2758    228.3110     13.1079   2.7174328173e+01   2.7715516163e+01    0.3010817    0.1993472  87.94  0.001423901    1.397    0.284
        23 -12.3182    128.5858     11.1984   3.6892061703e+01   5.0547703367e+01    0.4278305    0.2936348 -79.71 0.0005129733    1.614    0.381
        24 -10.6230    156.9081     12.1281   3.3286665058e+01   4.3629387602e+01    0.2310654    0.1690314 -45.50  0.001367544    1.396    0.284
        25 -10.3716    155.5736      7.5188   3.2137353125e+01   4.4378572127e+01    0.2935027    0.1814371  35.00  0.001516449    2.170    0.539
        26 -11.5375      8.5108      9.3616   7.9338758661e+01   7.4305322963e+01    0.4811026     0.272429  14.64  0.002134461    1.653    0.395
        27 -10.2223    176.0006     11.2730   3.0980373906e+01   3.9218695667e+01    0.1835438    0.1455705  87.76 0.0005311672    1.095    0.087
        28  -9.7503    137.9708     10.9908   3.5418189382e+01   4.8295169248e+01    0.2128407    0.1387478 -69.11 0.0006667308    1.705    0.414
        29 -10.2085    240.9657      9.5154   2.5678129595e+01   2.5641061482e+01    0.1532721   0.09523989  86.78 0.0003986277    1.516    0.340
        30 -12.5411    214.0417      6.0074   2.6635403483e+01   3.1361074674e+01    0.6953533    0.3650922 -68.70  0.003932258    1.737    0.424
        31 -10.7293    203.0984      3.1969   2.6772620367e+01   3.3952615278e+01    0.3477986    0.2191938  42.93  0.001977248    2.322    0.569
        32 -10.5940    164.4504      9.4729   3.1695658222e+01   4.2092284144e+01     0.240833    0.1527577 -58.43 0.0008699298    1.557    0.358
        33 -10.3480    164.6978      5.3691   3.0560587742e+01   4.2413696902e+01    0.2206425    0.1747911 -57.21 0.0007548078    1.227    0.185
        34  -9.6378    150.6605      5.7152   3.2188742500e+01   4.5712419403e+01    0.2066385    0.1045377  68.79 0.0002983534    1.689    0.408
        35 -11.0769    146.1992      6.9850   3.3100006038e+01   4.6670399268e+01      0.32767    0.2569493  29.04  0.001598083    1.580    0.367
        36 -11.3447    148.6589      2.1440   3.1382860268e+01   4.6495542446e+01    0.3246594    0.2163233  70.09 0.0003531531    1.291    0.225
        37 -11.2955    190.0454      6.6163   2.8557637924e+01   3.6480678747e+01    0.4405651    0.3081734 -84.66  0.002755415    1.243    0.195
        38 -11.1515    194.6625      1.8720   2.7081140278e+01   3.5910907657e+01    0.3209401    0.1501459  86.81  0.001637249    2.015    0.504
        39 -11.1806     12.3211      2.1015   7.2501319781e+01   7.4906914460e+01    0.3986723    0.3524579  36.46  0.001990862    1.697    0.411
        40  -9.9621     32.7695      1.3139   5.9998189105e+01   7.2068714228e+01    0.2791483    0.1053311  48.97  0.001246362    2.815    0.645
        41 -11.2519     22.6072      7.4968   6.9236339049e+01   7.2879691342e+01     0.499651    0.1914555  41.84 0.0005930856    2.851    0.649
        42 -10.7791     98.8125      3.9567   3.9635824166e+01   5.8263066554e+01    0.3229924    0.2506421 -48.86 0.0009735137    1.523    0.344
        43 -10.8289     90.5353      6.7769   4.2587287101e+01   5.9946905846e+01    0.4706906    0.1682944  53.91  0.002028831    2.184    0.542
        44 -11.6129    234.3286      5.3330   2.5240848566e+01   2.7350109098e+01    0.1806048    0.1625141 -82.07  0.001129033    1.284    0.221
        45 -11.1664     20.6072      2.6443   6.7548972164e+01   7.3764093116e+01    0.4412256    0.2576683   8.06   0.00212742    1.796    0.443
        46 -10.7713    179.1751      4.2067   2.8892209592e+01   3.9164274157e+01    0.2205762    0.1687886 -74.68 0.0002717468    1.131    0.116
        47  -9.5882     61.6994      5.0951   5.0001197523e+01   6.6352632584e+01    0.1669451    0.1355787  23.56 0.0003701884    1.101    0.092
        48 -10.3624    223.3170      3.9728   2.5615554863e+01   2.9665781134e+01    0.1583428    0.1255638 -63.19 0.0005100542    1.070    0.065
        49 -10.1385    118.6009      3.8866   3.6013977355e+01   5.3576738287e+01    0.2746431    0.1555992  79.14 0.0009778376    1.734    0.423
        50 -10.5976     67.9770      3.6822   4.7276711569e+01   6.5175658940e+01    0.2417061    0.1689704  43.60  0.001089332    1.187    0.157
        51 -11.1643    242.7761      2.6672   2.4265796256e+01   2.6010729080e+01     0.254926    0.1166501 -66.69  0.001461368    1.912    0.477
        52 -10.1979    126.4901      2.6642   3.4393924501e+01   5.1778040010e+01     0.207545    0.1624946  32.74 0.0005054256    1.443    0.307
        53 -10.0560    230.7497      1.4052   2.4665299998e+01   2.8445217627e+01    0.1394355   0.09158351  73.91 0.0003103616    1.550    0.355
        54  -9.4945    158.5042      1.6054   3.0167072117e+01   4.4202302604e+01    0.1250476    0.1034711  85.68 0.0001049364    1.025    0.024
        55  -9.3578     82.3564      1.2355   4.2197442945e+01   6.2240185266e+01    0.1337785   0.07473417  42.24 0.0004930358    1.579    0.367
        56 -11.8422     27.6790      3.2898   6.3862278308e+01   7.2658534570e+01    0.2980029    0.2287271  43.36 0.0007396755    1.555    0.357
        57 -10.7844     46.5901    177.8742   1.0491803726e+02   3.1541424232e+01    0.3084767    0.2491678 -70.53 0.0009572146    1.192    0.161
        58 -10.2580    247.5155    250.0034   7.1186930325e+01  -9.7121698917e+00    0.1713844    0.1149615   9.80 0.0007556177    1.214    0.176
        59 -12.4200    226.6444    245.2020   7.3988247802e+01  -6.8845718573e+00    0.6453832    0.3163464  -4.43   0.00316171    2.700    0.630
        60 -11.4514    237.6926    246.3195   7.2255309095e+01  -8.2387919555e+00    0.1977744    0.1500636  27.16  0.001059903    1.600    0.375
        61 -12.3437    232.4861    245.1285   7.2959817317e+01  -7.5238285640e+00    0.5759559    0.2222543 -29.45   0.00293899    2.455    0.593
        62 -11.6684     88.9685    249.4864   1.0239260443e+02   1.0394874481e+01    0.3423278    0.2312167  32.17 0.0008736146    1.274    0.215
        63 -10.2162     72.4825    250.1681   1.0596759221e+02   1.2370963508e+01    0.2122318    0.1584209  13.36  0.001005663    1.601    0.375
        64 -13.1674     19.1803    237.2133   1.1622221457e+02   2.0940052411e+01     1.413116    0.3954797  51.00  0.006138386    2.866    0.651
        65 -11.6464      4.9399    235.9239   1.1904418635e+02   2.2547457147e+01    0.4324068    0.2912776  40.27  0.002453981    1.340    0.254
        66 -13.1322      6.2188    245.1962   1.1918637800e+02   2.0585780462e+01     0.790468    0.5605552  42.95  0.003839284    1.249    0.199
        67 -12.6917     22.0133    248.9293   1.1626650497e+02   1.8332985625e+01    0.8938116    0.2313189  32.23  0.003929048    3.028    0.670
        68 -11.9945     15.8761    246.4927   1.1735730387e+02   1.9416086773e+01    0.5385568    0.2282167  62.42   0.00217217    2.122    0.529
        69 -10.8024     34.0388    174.0647   1.0791501506e+02   3.3868615184e+01    0.1983047    0.1766211  87.01 0.0003268205    1.015    0.015
        70 -10.8790     17.9568    173.1780   1.1216787649e+02   3.5621273089e+01    0.3595952     0.196161  56.75  0.001642684    1.815    0.449
        71 -13.1102     49.9374    161.6288   1.0192725286e+02   3.5270628863e+01    0.5026243    0.3612862  62.97 0.0008872091    1.463    0.316
        72 -11.2134     35.4913    161.9935   1.0616721784e+02   3.6783765623e+01    0.4313202    0.3002613 -23.36  0.001656098    1.925    0.481
        73  -9.3918    176.7307    168.6842   6.9955037777e+01   1.2783617083e+01    0.1446667    0.1053739 -10.91 0.0002385292    1.554    0.357
        74  -9.9321      4.5209    168.5591   1.1536725550e+02   3.7846455495e+01    0.1279199    0.1080258  86.32 9.037818e-05    1.010    0.010
        75 -11.9403     44.2461    162.5472   1.0370432209e+02   3.5694765745e+01     0.625653     0.350998  42.12    0.0029198    1.766    0.434
        76 -12.1065     36.5605    166.3759   1.0637170271e+02   3.5551359420e+01    0.5545673    0.4760911  70.68  0.003267524    1.105    0.095
        77  -9.3955    111.5355    164.4880   8.4887811935e+01   2.5376284109e+01    0.1492609    0.1468033   7.29 0.0001618948    1.009    0.009
        78  -9.1057     99.2761    164.6821   8.8271974704e+01   2.7403561345e+01    0.1504356    0.1164846  73.95 0.0002689049    1.571    0.363
        79  -9.1463    200.5233    162.4911   6.3880131205e+01   9.8562394683e+00    0.1384648    0.1233177 -23.14 0.0008096499    1.050    0.048
        80 -12.8580     21.1294    157.4826   1.0981360030e+02   3.9308394462e+01    0.6655906     0.453688  13.16 0.0009416245    1.781    0.439
        81  -9.6357    216.2334    155.1746   5.9509470552e+01   8.5498957162e+00    0.1729564    0.1472327 -49.16 0.0003565103    1.310    0.237
        82 -10.3594     10.9623    153.3544   1.1234534010e+02   4.1187294926e+01    0.2931083    0.1888709  35.46  0.001405315    1.630    0.387
        83 -10.0879    177.2861    150.8000   6.6042694143e+01   1.6233002219e+01    0.2667874     0.202591  68.99  0.001274324    1.895    0.472
        84 -10.4921    207.0706    146.6897   5.9347444930e+01   1.1611445916e+01    0.1869115    0.1727881  -0.52 0.0005655856    1.111    0.100
        85  -9.5435     41.1469    146.1379   1.0240256805e+02   4.0297633271e+01    0.1888372    0.1540394  67.90 0.0002448991    1.264    0.209
        86 -10.0515    220.4684    143.9768   5.6461488730e+01   9.7979042188e+00    0.2064774    0.1160432 -38.47 0.0007392253    1.535    0.348
        87  -9.5199     10.8232    144.3439   1.1152149723e+02   4.3503909505e+01    0.3077323     0.126004   0.91   0.00109423    4.318    0.768
        88  -9.2634     49.2964    142.3015   9.9254390736e+01   4.0372768754e+01    0.1469325    0.1048198 -35.82 0.0004195313    1.577    0.366
        89 -10.5724     59.2976    140.2756   9.5729604915e+01   3.9645627884e+01    0.4666571    0.2635589  64.78            0    2.561    0.610
        90 -10.4796     17.5930    137.3004   1.0865775807e+02   4.4813891733e+01    0.3251618    0.2004031  53.66   0.00142476    1.755    0.430
        91  -9.8600     20.8139    134.8411   1.0732538227e+02   4.5194841769e+01    0.2056982    0.1570357 -75.64 0.0007935857    1.163    0.141
        92 -10.7211      9.1254    136.8190   1.1127279231e+02   4.5559625945e+01    0.2586015    0.1594279 -70.46 0.0003860308    1.375    0.273
        93 -10.3413      2.4858    136.7434   1.1332722770e+02   4.6006869412e+01    0.3312127    0.1038902 -72.70  0.001292375    2.552    0.608
        94  -9.3065    143.5544    137.4747   7.0715325977e+01   2.5619018868e+01    0.1528013    0.1485242 -32.70 0.0001551213    1.029    0.028
        95 -10.0071    249.1336    134.1649   5.0119075085e+01   6.8289455333e+00    0.1872279    0.1480837 -21.66 0.0004651914    1.189    0.159
        96 -11.5278     54.8962    132.7338   9.5796855556e+01   4.2184999976e+01    0.5090613    0.2570135  31.81  0.002067125    2.038    0.509
        97  -9.8214    112.2262    132.0217   7.7763079372e+01   3.3054420134e+01    0.2170811    0.1277343 -49.64 0.0008812431    1.674    0.403
        98 -11.4307     36.4345    130.4884   1.0155842033e+02   4.4895695294e+01      0.52118    0.2852911 -41.76  0.002113662    1.958    0.489
        99 -11.1138     73.8353    129.2055   8.8882329444e+01   4.0435640588e+01    0.3283131    0.3210504 -78.91 0.0008888085    1.037    0.036
       100 -11.3139     24.1237    126.0018   1.0503240271e+02   4.7222377219e+01     0.281414    0.2012355  21.94 0.0007407364    1.570    0.363
       101 -11.2843     10.8668    123.0865   1.0914018403e+02   4.8985559046e+01    0.3254496    0.2653424 -66.28  0.001148068    1.059    0.056
       102 -11.2791     17.8490    125.5067   1.0709012329e+02   4.7858247237e+01    0.6621475    0.1935217 -47.32   0.00227654    3.385    0.705
       103  -9.7727    220.0301    124.2626   5.2325413469e+01   1.3285287535e+01    0.1839041     0.164957 -34.98 0.0004610403    1.044    0.043
       104  -9.1809     32.4654    121.5536   1.0146477869e+02   4.7624885959e+01    0.1419457    0.1260529 -57.19 4.520426e-05    1.038    0.037
       105 -10.3672     73.2892    118.4009   8.6664285925e+01   4.3263135880e+01    0.3408716    0.2217595  82.92  0.001135706    2.570    0.611
       106  -9.8633      1.4246    118.9347   1.1185424667e+02   5.0620849755e+01    0.1990591    0.1096283 -73.73 0.0003151211    1.521    0.342
       107 -10.3737     13.9765    125.7605   1.0842693366e+02   4.8079103366e+01    0.2347233     0.218631  53.62 0.0008545846    1.185    0.156
       108  -9.6292    179.4626    116.4792   5.7665385648e+01   2.2573256279e+01    0.1472041     0.137085 -39.09  0.000297036    1.004    0.004
       109  -9.9570     85.8210    116.4051   8.2036109325e+01   4.1690169451e+01    0.2066759     0.149614  19.65 0.0002656869    1.582    0.368
       110 -11.0849     16.2713    115.4742   1.0623918887e+02   5.0572941000e+01    0.3613567    0.2143373 -29.11  0.001070884    1.962    0.490
       111  -9.7949    214.0135    115.4871   5.1341454730e+01   1.5902867716e+01    0.1812923     0.137411  49.40 0.0004426701    1.507    0.337
       112 -11.1711    249.4584    112.4399   4.5705867195e+01   1.0196185012e+01    0.2470631    0.1816903 -51.56 0.0006699845    1.280    0.219
       113 -11.5653     37.1854    110.4256   9.7759061689e+01   5.0031003900e+01    0.4552529    0.3205544  61.18  0.002245357    1.743    0.426
       114 -10.2793     36.7812    103.6361   9.6541398459e+01   5.1803382698e+01    0.3840212    0.2426391  45.67  0.001832759    1.836    0.455
       115 -11.5118     55.1909    109.3850   9.0925436578e+01   4.8162543319e+01    0.4766342    0.2728041 -50.05  0.001538913    1.606    0.378
       116 -12.0688     13.7753    109.2722   1.0622699105e+02   5.2341987960e+01    0.4850861    0.3034945   2.84  0.002481879    1.933    0.483
       117 -10.3652      1.2414    108.7099   1.1072106307e+02   5.3231081273e+01    0.3626378    0.1602265 -80.21  0.001026289    2.130    0.531
       118 -10.2503      2.4739    105.4583   1.0985717858e+02   5.3990552442e+01    0.2070085    0.1405899  82.47 4.471185e-05    1.567    0.362
       119  -9.3386     99.5087    107.4149   7.5347910363e+01   4.1325355619e+01    0.1517434    0.1514201  44.58 9.598101e-05    1.045    0.043
       120 -10.9290     19.5201    100.9543   1.0269014150e+02   5.4043168510e+01    0.2670454    0.1742502 -31.87  0.001370668    1.600    0.375
       121  -9.8392     24.0322     99.2152   1.0060407022e+02   5.4120182591e+01    0.2198843    0.1692959  19.39 0.0004565507    1.442    0.307
       122 -11.1734     23.4637    106.2014   1.0210834306e+02   5.2395578824e+01    0.3405253    0.2514704 -72.92  0.001224445    1.280    0.219
       123  -9.5828     25.9565    102.4537   1.0047078023e+02   5.3137663528e+01    0.1836308    0.1713416 -46.06 0.0002964437    1.063    0.060
       124  -9.1374     82.6609    108.2685   8.1021623347e+01   4.4218686906e+01    0.1522269    0.1202946  69.20 0.0006984357    1.600    0.375
       125 -10.2839     95.0193    112.2076   7.8023791870e+01   4.1050423047e+01    0.2757297    0.2283446 -46.94 0.0009615934    1.180    0.153
       126 -10.2239     51.9636    103.9982   9.0872688871e+01   4.9938922007e+01    0.2452028    0.1618814 -30.48 0.0007933038    1.683    0.406
       127 -11.0973    120.3920    100.7896   6.7368550039e+01   3.8535005243e+01    0.6763096    0.2951359 -29.63  0.001902324    4.151    0.759
       128  -9.9608     77.6600    102.3261   8.1160235217e+01   4.6502007949e+01    0.1554123    0.1211375  75.54 0.0007051413    1.730    0.422
       129 -11.5046    143.2693     98.4741   6.0841775865e+01   3.3985232929e+01    0.6392709    0.4209816  55.59  0.002844145    1.619    0.382
       130 -12.1262     62.9690     98.7028   8.5464242400e+01   4.9713160263e+01    0.5291996    0.5024366   9.16  0.002706042    1.082    0.076
       131 -10.6422     66.1961     94.1458   8.3047935439e+01   5.0311872744e+01    0.3950205    0.2688594  37.94  0.001872344    1.533    0.348
       132 -10.9483     50.6620     99.3156   9.0248979880e+01   5.1270041639e+01    0.3153527    0.2315055  -2.90  0.001042369    1.603    0.376
       133 -11.6153     14.6261     97.8266   1.0405701928e+02   5.5187187725e+01    0.4294274    0.2205565 -67.26  0.002027035    1.694    0.410
       134 -11.6559     10.9639     90.5281   1.0424581984e+02   5.7247374387e+01    0.4220981    0.3278972  41.50 0.0009390712    1.513    0.339
       135 -12.1495     37.0503    243.7469   1.1291991917e+02   1.7770834982e+01    0.6546432    0.3213282  88.74  0.002889761    2.293    0.564
       136 -10.8042     37.2742     94.7288   9.4397645439e+01   5.3979748138e+01    0.2633346    0.2404037 -85.46 0.0006033983    1.218    0.179
       137  -9.0302     31.2914     93.3174   9.6486928497e+01   5.4937925247e+01    0.1477147   0.09245337 -35.47 0.0004305225    1.599    0.375
       138 -12.1149    166.5973     83.6961   5.1806678108e+01   3.1467104201e+01    0.8616714    0.4464392  58.80  0.003587699    2.062    0.515
       139 -10.3276     56.5991     90.2230   8.5613710474e+01   5.2669016527e+01    0.3866413    0.2564541 -59.88  0.001826721    1.559    0.359
       140 -10.7018     59.6768     89.6721   8.4271138843e+01   5.2354086620e+01    0.2657169    0.2208454  -9.25 0.0007826761    1.268    0.211
       141  -9.4240     46.5234     92.5061   9.0175031904e+01   5.3458697829e+01    0.1431514    0.1325639 -41.86 2.199743e-06    1.033    0.032
       142 -10.6920     25.5126     91.3158   9.8410762748e+01   5.5963944931e+01    0.2906406    0.2155652 -61.04 0.0006948941    1.220    0.180
       143 -11.7386     22.2276     87.4035   9.8939177894e+01   5.7202703812e+01    0.5295981     0.237401 -53.04  0.001972049    1.831    0.454
       144  -9.2718    113.3066     93.3519   6.7237717362e+01   4.1634867779e+01    0.1603017    0.1225178  -3.45  0.000425863    1.711    0.416
       145 -10.5446     96.5784     89.3366   7.1119687202e+01   4.5957627526e+01    0.3053336    0.1940517  37.57  0.001170613    1.597    0.374
       146  -9.9187     83.0378     88.7185   7.5437253863e+01   4.8693817514e+01    0.2064399    0.1924804   7.61 0.0005092982    1.064    0.060
       147 -10.4768     78.6370     87.8155   7.6707680345e+01   4.9690450075e+01    0.3583188    0.2438892 -57.36  0.001639189    1.615    0.381
       148 -10.6319     65.1798     87.6422   8.1592351126e+01   5.1987903805e+01    0.2586745    0.2352261 -19.42 0.0008282535    1.055    0.052
       149 -11.1836     67.2184     83.3921   7.9562482011e+01   5.2626671127e+01    0.3819579    0.2203124  27.78  0.001656629    1.866    0.464
       150 -11.8808      4.7897     84.3424   1.0572457754e+02   5.9121628861e+01    0.6030993    0.2973922 -46.91  0.001372088    1.701    0.412
       151  -9.6865    120.8617     86.8321   6.3197353824e+01   4.1328955930e+01    0.2044071    0.1837809 -81.49 0.0008389772    1.257    0.204
       152  -9.6497    116.5234     83.8177   6.3479976368e+01   4.2889133408e+01    0.3008247     0.112619  44.40  0.001003204    2.678    0.627
       153 -10.9728     62.4016     82.9100   8.1264602044e+01   5.3500548019e+01    0.2526198    0.2306161  12.75 0.0002956777    1.100    0.091
       154 -11.2106     30.8285     81.8195   9.3973738157e+01   5.7774437272e+01    0.3720571    0.2539073 -10.80  0.001438667    1.648    0.393
       155  -9.6039     79.7273     82.4505   7.4682536726e+01   5.0673203374e+01    0.1983195    0.1422269  22.97 0.0005529399    1.519    0.341
       156 -10.3859     41.6143     81.4912   8.9288419465e+01   5.6678911577e+01    0.3736576    0.2249254 -77.33 0.0009970679    2.523    0.604
       157 -11.4876      6.7303     41.4607   9.4333397429e+01   6.8699554767e+01     1.291324          nan -51.76  0.003726223    5.558    0.820
       158 -11.3808     14.5558     59.4975   9.5620918101e+01   6.4313155141e+01    0.8641977    0.2756479  37.40  0.003174223    4.064    0.754
       159 -13.0733     10.2438     74.9381   1.0148973888e+02   6.1068498892e+01     1.500171    0.5590954  28.49  0.006443465    2.880    0.653
       160 -14.1013     16.6041     67.6659   9.6812860625e+01   6.2321935943e+01    0.5331783    0.4407856 -29.78  0.001667966    1.084    0.077
       161 -11.7665      9.9706     63.5538   9.8971403319e+01   6.3724674836e+01    0.6519244    0.3965485  71.58  0.002554673    2.939    0.660
       162 -11.7240     12.8610     51.4610   9.4139260635e+01   6.6182092805e+01    0.7063325    0.4651425   5.25  0.003421259    1.566    0.361
       163 -10.9502     11.0971     44.7546   9.2958961866e+01   6.7715032791e+01    0.3208566    0.2490148 -52.66  0.001131986    1.280    0.219
       164 -11.7908      6.3550     67.7703   1.0171963004e+02   6.2977550123e+01    0.3103744    0.1721174 -52.49 0.0008146785    1.445    0.308
       165 -12.6511      2.9402     62.5977   1.0219973455e+02   6.4348760826e+01    0.6678898    0.3143262 -66.91  0.001727344    1.955    0.489
       166 -10.9348     61.0474     78.0514   8.0314829123e+01   5.4795467121e+01    0.6032544    0.3390828  61.60  0.002047152    3.927    0.745
       167 -11.2261     51.5602     62.6887   7.9194561347e+01   5.9500391241e+01     0.413535    0.3557283  60.60  0.002322128    1.543    0.352
       168 -10.7480     54.0253     74.3429   8.1995125015e+01   5.6665908457e+01     0.304473    0.2913542  47.79  0.001015257    1.223    0.182
       169 -12.1207     50.1538     68.6033   8.1787687447e+01   5.8463957251e+01    0.4292631     0.334663 -35.46 0.0007601046    1.189    0.159
       170 -10.3370     42.5530     68.5389   8.5076737136e+01   5.9495065115e+01    0.2819323    0.2118031 -26.08 0.0007584047    1.278    0.218
       171 -12.8130     44.6014     75.0757   8.6186720702e+01   5.7785252146e+01     0.326513    0.2865537  48.73 0.0004586023    1.363    0.267
       172 -10.8309     36.1533     68.6010   8.7964527440e+01   6.0251796627e+01    0.4808307     0.263234  49.94  0.001222904    2.763    0.638
       173 -10.3473     74.5603     75.2289   7.4247199614e+01   5.3142821425e+01    0.2841988    0.2059292 -15.77 0.0008952826    1.624    0.384
       174  -9.4518     70.1880     76.5717   7.6312894156e+01   5.3623953584e+01    0.1893166    0.1380015  20.07  0.000915407    1.472    0.321
       175 -11.2309     92.8268     74.0680   6.7524134840e+01   4.9873462148e+01     0.476425    0.2784207  33.71 0.0009187648    1.834    0.455
       176 -10.6016    207.4622     73.4453   4.2638504037e+01   2.4153721674e+01     0.216741    0.1974192 -58.86 0.0003588499    1.048    0.046
       177 -10.1178      5.1562     98.0938   1.0780898155e+02   5.5702153351e+01     0.211679    0.1545023 -42.76 0.0008526472    1.274    0.215
       178 -10.9550    164.8983     88.3065   5.3371764833e+01   3.1031094463e+01    0.3849725    0.2589253  35.95 0.0009898752    1.785    0.440
       179  -9.9226     61.6851     73.4579   7.8605538395e+01   5.5694019032e+01    0.2700043    0.1265876 -47.96  0.001094519    2.063    0.515
       180 -10.8642    102.5113     73.0441   6.4145988920e+01   4.8043078845e+01      0.57323    0.2805612  63.55  0.001757644    3.991    0.749
       181  -9.5091      1.1679     95.6550   1.0900578565e+02   5.6515463161e+01    0.2473599   0.08688636 -74.85    0.0007666    2.598    0.615
       182 -11.7335     78.2063     69.9826   7.1170457645e+01   5.3548602534e+01    0.4184408    0.2662307  36.62  0.001948819    1.563    0.360
       183 -10.1195    195.0301     70.0036   4.3533602015e+01   2.7346368128e+01    0.2005481    0.1838166 -60.50 0.0003809535    1.033    0.032
       184 -10.6365    167.8779     69.8686   4.7832536114e+01   3.3510176700e+01    0.2043285    0.1952627 -74.78   0.00033885    1.023    0.022
       185 -12.3922    122.5644     63.9945   5.5651750053e+01   4.5163118948e+01    0.5014413    0.3337575 -52.19 0.0004139557    1.689    0.408
       186 -12.0271     44.7377     38.5971   7.2991953374e+01   6.5040528535e+01     0.615765    0.3121616  47.82  0.001025146    2.646    0.622
       187 -11.3955     52.6103     40.5366   7.0231773138e+01   6.3468759468e+01    0.4378074     0.260833  42.68  0.001192191    1.753    0.429
       188 -12.9477     57.4445     34.4717   6.5543392121e+01   6.3607660085e+01     0.362601    0.3163119 -11.68  0.002241898    1.115    0.104
       189 -11.2598     29.0385     66.0114   9.0469843367e+01   6.1592726447e+01    0.3378153    0.2916452 -79.07 -0.002661949    1.450    0.310
       190 -11.5494     33.1371     64.0712   8.7958817862e+01   6.1585090493e+01    0.7371103    0.3737506  48.48   0.00297575    3.102    0.678
       191 -11.3478     26.8050     55.9132   8.8394165203e+01   6.4003593548e+01    0.4778273    0.2383865 -51.52 0.0004038249    1.815    0.449
       192 -11.9331     26.9700     49.7663   8.6208457840e+01   6.5253473110e+01     0.525417    0.3959832 -58.29  0.002179323    1.516    0.340
       193 -13.3226     37.5946     49.7436   8.0903920727e+01   6.4009545719e+01    0.8757766    0.7041861 -19.55  0.004685055    1.110    0.099
       194 -11.2141     94.4535     66.0864   6.4318242976e+01   5.1062321231e+01    0.4539571    0.3140239  13.40 0.0008513972    1.929    0.482
       195  -9.7007    103.9483     67.6852   6.1944438013e+01   4.8732047712e+01    0.2042718     0.185454  46.28 0.0003856957    1.090    0.083
       196  -9.4625    143.9539     64.5017   5.0907670498e+01   4.0027010034e+01    0.2115302    0.1401335  56.78 0.0003864779    1.476    0.322
       197 -10.8767     76.4281     63.4902   6.9563739496e+01   5.5149485977e+01    0.3291414    0.2832317  13.92  0.001808535    1.141    0.124
       198  -9.3408    202.5183     61.4667   4.0442892244e+01   2.7004645930e+01    0.1324392    0.1178696 -61.95 3.182527e-05    1.023    0.023
       199  -9.5636    113.3976     61.2646   5.7131219795e+01   4.7741466716e+01    0.1996517    0.1359566 -48.12 0.0009308967    1.598    0.374
       200 -10.5804     84.7885     61.5736   6.5928263931e+01   5.3878714645e+01    0.2880969    0.1343392  40.03  0.001142142    2.124    0.529
       201 -10.7541     69.2471     59.1364   7.0687904044e+01   5.7296856304e+01    0.4494736    0.2503451 -44.51  0.002028645    1.842    0.457
       202 -10.1369     55.5475     53.9360   7.4309151991e+01   6.0609212984e+01    0.2990231    0.1989809   4.96  0.001437299    1.829    0.453
       203 -11.4889     59.3240     57.8230   7.4169704493e+01   5.9256750351e+01    0.5308101    0.3519367 -18.42  0.002559985    1.744    0.427
       204  -9.4259    183.5048     60.4079   4.2792491295e+01   3.1378881065e+01    0.1369458    0.1233655 -73.49 9.164424e-05    1.026    0.025
       205  -9.8234     98.0248     60.2450   6.1181472526e+01   5.1346905692e+01      0.19861    0.1825722  37.70 0.0001885324    1.049    0.047
       206  -9.7660    124.4832     58.1028   5.3275346935e+01   4.5682161497e+01    0.2027821    0.1446288 -34.71 0.0003225213    1.462    0.316
       207  -9.6062    146.8537     56.7726   4.8008631806e+01   4.0550025137e+01    0.1960254    0.1600154 -71.39 0.0003859551    1.317    0.241
       208  -9.9365    231.1385     55.4737   3.5853936837e+01   2.1969353591e+01    0.2222858    0.1391144 -55.84  0.001277265    1.399    0.285
       209 -12.9692    105.4784     52.5216   5.6292795750e+01   5.0973580235e+01    0.4550073    0.3972224  53.74 0.0005516633    1.122    0.109
       210 -10.5911     75.0992     55.9458   6.7308542399e+01   5.6796177551e+01    0.2223224    0.1941975 -27.68 0.0003420856    1.146    0.127
       211  -9.1624     48.6150     55.7399   7.8008774026e+01   6.1324994435e+01    0.1431494   0.09805141  -4.39 0.0002473312    1.682    0.406
       212  -9.1846     82.4396     54.5348   6.4172954520e+01   5.5601601820e+01    0.1434013    0.1310533  12.17 2.278662e-05    1.028    0.027
       213  -9.9999    120.3387     52.5902   5.2458515361e+01   4.7521583044e+01    0.2809487    0.1821785  24.55 0.0008911407    2.107    0.525
       214 -10.6699     87.8327     51.6124   6.1277870695e+01   5.4982517961e+01    0.3237739    0.1938125 -32.52   0.00149808    1.755    0.430
       215  -9.8183    237.3726     51.2213   3.4361068053e+01   2.1340666252e+01    0.1815204   0.08796462 -45.32 0.0009509653    1.663    0.399
       216  -9.3249    250.4609     95.5379   4.2155695061e+01   1.2625596002e+01    0.1246941    0.0997092 -44.14 0.0001748988    1.003    0.003
       217 -11.8198    128.7962     49.3129   4.9425296029e+01   4.5999531425e+01    0.4776813    0.3930559  13.78  0.001923272    1.460    0.315
       218 -10.7048    131.1935     42.0567   4.6557859314e+01   4.6440475402e+01    0.3641968     0.218862 -45.66 0.0007862116    1.783    0.439
       219  -9.9507     77.9062     50.9074   6.4391836613e+01   5.7126206763e+01    0.2858303    0.2628437  28.70    0.0011957    1.071    0.067
       220 -10.7782     78.6702     47.0612   6.2637424857e+01   5.7608510703e+01    0.2326422    0.1864747  31.95 0.0004589544    1.171    0.146
       221 -11.5546     35.0100     42.5129   7.9366530428e+01   6.5711284257e+01    0.6498156    0.3276168  11.68  0.002743315    2.736    0.635
       222 -10.8122    200.0462     49.5855   3.7893944538e+01   2.9222933043e+01     0.226862     0.172493 -45.33 0.0003000739    1.214    0.176
       223 -10.4171     52.9500     50.0301   7.3932536639e+01   6.1749188292e+01    0.2134475    0.1873946  -2.20 0.0005770093    1.011    0.011
       224  -9.1620    205.9815     48.7556   3.7007709616e+01   2.8047497512e+01     0.148483    0.1042493  72.70 0.0002056761    1.446    0.309
       225 -10.2009    151.4279     46.1654   4.4003774245e+01   4.0985297472e+01    0.2148105    0.1971383 -33.74 0.0003940405    1.177    0.150
       226 -10.2247    142.9327     45.4288   4.5320786693e+01   4.3140361076e+01    0.2591894    0.1982938 -69.20 0.0007107821    1.447    0.309
       227 -10.3991    139.1369     43.1436   4.5331705449e+01   4.4371570707e+01    0.2420893    0.2026062 -38.83 0.0006865059    1.254    0.202
       228 -10.5100     95.0967     43.6926   5.6050473025e+01   5.4648286831e+01      0.34695    0.1961673  -9.39  0.001109882    2.956    0.662
       229 -11.0615     91.0574     41.9928   5.6615817963e+01   5.5785315312e+01    0.6189837    0.2918674 -48.51  0.002421075    2.858    0.650
       230 -10.2619     83.1066     44.8475   6.0258188418e+01   5.7050934839e+01    0.1939552    0.1857743  84.85 0.0004370041    1.256    0.204
       231 -11.3581     81.0066     35.8073   5.7349492896e+01   5.8822255559e+01    0.7362506    0.3344626 -46.70  0.002918728    2.962    0.662
       232 -11.6558     74.4062     36.4160   5.9850317662e+01   6.0095383007e+01    0.3864973    0.2658984  19.63  0.000632024    1.598    0.374
       233 -11.1226     72.7552     43.0413   6.3161578869e+01   5.9422803067e+01    0.4010744    0.3137727 -83.50  0.001455688    2.161    0.537
       234 -11.0178     67.5174     41.5351   6.4512406503e+01   6.0666888716e+01    0.2604136    0.2242925  28.09  0.001150388    1.084    0.078
       235  -9.5009    187.2713     42.9914   3.7824453374e+01   3.2962290373e+01    0.1640534    0.1093584 -38.14 0.0005989565    1.464    0.317
       236 -10.1386    108.0218     42.3346   5.1983561694e+01   5.1909485915e+01     0.386324    0.1733558  37.91  0.001425529    2.713    0.631
       237  -9.8288     18.4359     42.5179   8.8118110546e+01   6.7549161931e+01    0.2600847    0.1570912 -37.98 0.0005561436    1.422    0.297
       238 -11.1904     23.6432     41.3403   8.4835736782e+01   6.7262473356e+01    0.6272596    0.4102521  61.85  0.002808536    3.484    0.713
       239 -12.8681     27.6309     38.0924   8.1395570488e+01   6.7428840708e+01    0.5931714    0.3470596 -21.08 0.0003648319    1.810    0.448
       240 -11.7192     24.4783     34.9871   8.1817862514e+01   6.8354305567e+01     0.396615    0.2353668  -1.28 0.0009051289    1.910    0.476
       241 -10.1904    148.1438     41.2872   4.3120139785e+01   4.2436590468e+01    0.3118759    0.1934707 -19.76  0.001464136    2.026    0.506
       242  -9.9407     61.1032     41.2900   6.6949372001e+01   6.1885247284e+01    0.3467032    0.1507258  28.39  0.001274974    3.069    0.674
       243 -10.4957    112.4328     45.9600   5.2144868782e+01   5.0365216583e+01      0.31638    0.1921173  52.30 0.0008476568    1.528    0.346
       244 -11.0161    225.2540     38.1984   3.2693202903e+01   2.5405911976e+01    0.2201807     0.176858 -75.25 0.0003289439    1.110    0.099
       245 -10.3188    152.6498     39.0412   4.1692471731e+01   4.1638827916e+01    0.2248043    0.1848357  70.85 0.0004666697    1.136    0.120
       246 -10.3409    100.9654     36.3999   5.1656460200e+01   5.4346208873e+01    0.2801492    0.2782784  64.43  0.001736888    1.104    0.094
       247  -9.6416     85.8844     38.8596   5.7001701425e+01   5.7356205974e+01    0.1679719    0.1579793  68.11 -0.0006383859    1.218    0.179
       248  -8.7762    160.2859     38.2796   4.0270585391e+01   3.9897538190e+01    0.1289238     0.101516  36.82 0.0001862065    1.517    0.341
       249  -9.9101      1.4470     37.9174   9.6252493163e+01   6.9749780471e+01    0.1781836    0.1004496 -53.21 0.0003768846    1.516    0.340
       250  -9.6985    171.9794     36.0529   3.7988719320e+01   3.7396778380e+01    0.2072012    0.1494101  41.22 0.0006757544    1.689    0.408
       251  -9.7563    134.4812     35.9677   4.3942680950e+01   4.6436894254e+01    0.2042545    0.1372463 -31.39   0.00103644    1.602    0.376
       252 -10.1937      1.5124     25.7343   9.1815167122e+01   7.2114587727e+01    0.2115259    0.1072998 -42.19 0.0005559469    1.582    0.368
       253 -10.3946    250.2328    246.7315   7.0232858102e+01  -9.5925414139e+00    0.1841962    0.1125386 -26.64  0.001264743    1.418    0.295
       254 -11.0560      8.2734     33.4910   9.0599300061e+01   7.0165131055e+01    0.4510631     0.261317 -59.23  0.002470833    1.904    0.475
       255 -11.5151     16.9305     31.6389   8.4702858279e+01   6.9755371642e+01    0.6189657    0.2791169  13.02  0.002846312    2.564    0.610
       256 -11.5818     11.4227     23.8780   8.4665676228e+01   7.1660670565e+01    0.8139612    0.2977125  12.48  0.002625042    3.888    0.743
       257 -10.0944     72.4854    245.5064   1.0555466692e+02   1.3257452494e+01    0.2220747    0.1525352  42.52 0.0006900426    1.203    0.169
       258 -10.1863     24.3777     21.1902   7.5556102518e+01   7.0690570956e+01    0.2594059    0.2166054 -61.09  0.001606629    1.941    0.485
       259 -13.1926     74.7883    237.4157   1.0429963872e+02   1.4548867039e+01     0.788695    0.6544112  61.05  0.005127837    1.138    0.121
       260 -11.2419      5.9260     20.8621   8.6844740982e+01   7.2666017047e+01    0.2825172    0.1915209  -2.83 0.0006527525    1.325    0.245
       261  -9.8641    109.5212    242.6917   9.7208098585e+01   8.8929073928e+00    0.2191852    0.1249777  47.77 0.0007000868    1.719    0.418
       262 -10.2661    108.5919     34.2805   4.8927472674e+01   5.2852955185e+01    0.2250863    0.2046766 -81.88 0.0006260715    1.228    0.185
       263 -11.2794    221.7439     32.2162   3.1706298899e+01   2.6857033296e+01    0.2275018    0.1700211 -54.38 0.0002930875    1.121    0.108
       264 -11.2148     70.0203     36.7563   6.1578463145e+01   6.0916673106e+01    0.4841287    0.2708801 -21.97  0.001943588    2.102    0.524
       265  -9.6386    247.6677     33.2862   2.9886407349e+01   2.1684916811e+01    0.1217915   0.06680807 -62.66 0.0003292981    1.620    0.383
       266  -9.9622    205.7811     32.2267   3.3168566290e+01   3.0211893300e+01    0.1496779    0.1440084  62.47 0.0002803971    1.302    0.232
       267  -9.9010    189.5142     32.4049   3.4903390388e+01   3.3790297037e+01    0.1286828    0.1104378 -77.89 0.0001119811    1.019    0.018
       268  -9.7088    166.5241     32.5169   3.7759939023e+01   3.9121781250e+01     0.131929    0.1202066  86.03 0.0008094459    1.050    0.048
       269 -10.2814     90.2582     20.5646   4.8330687831e+01   5.8686751212e+01    0.3147659    0.1336305  49.90  0.001371381    2.000    0.500
       270 -10.7348     88.5086    241.4151   1.0167421273e+02   1.1975441988e+01     0.233824    0.1576073 -29.73  0.001257548    2.124    0.529
       271 -10.5168     93.9949     22.4902   4.8116863482e+01   5.7629745514e+01    0.2858502    0.2327583  59.31 0.0009638984    1.168    0.144
       272 -10.9291     97.9914     30.9862   5.0392145524e+01   5.5721297281e+01    0.3286277    0.2395444  54.94  0.001299602    1.264    0.209
       273 -11.9612    102.2683     28.6793   4.8407330602e+01   5.5017216192e+01    0.4569327    0.2994618  77.71  0.000637038    1.911    0.477
       274 -10.3931     44.3905     30.5366   6.9581873202e+01   6.6401894491e+01    0.2452737    0.1861068  -9.55  0.000764581    1.247    0.198
       275 -11.0264     48.3537     31.6870   6.8267077900e+01   6.5586993246e+01    0.2630195    0.1967113  -3.68  0.000136528    1.314    0.239
       276 -10.2009     50.2695     27.7507   6.5593642744e+01   6.5852584933e+01    0.2613604    0.1646318  21.55  0.001368996    1.618    0.382
       277 -10.1163    237.3700     29.3359   2.9851098083e+01   2.4100693402e+01    0.1558724    0.1391066  28.26  0.001099117    1.696    0.410
       278 -10.4691    111.6680     27.1727   4.5629735850e+01   5.2985670093e+01    0.3584076    0.1965588 -21.42  0.001293868    2.158    0.537
       279 -10.7539     69.8324     26.4524   5.7195996109e+01   6.2374139748e+01    0.4276742    0.2259468  36.08  0.002022846    1.830    0.454
       280 -10.4093     60.0994     27.1541   6.1178543889e+01   6.4174920444e+01    0.2054897    0.1857002 -30.05 0.0007493934    1.286    0.222
       281 -10.1764    174.9986     26.9798   3.5185568519e+01   3.7774637054e+01    0.1925178    0.1651209 -73.36   0.00120224    1.051    0.049
       282  -9.8727    132.5859     26.0696   4.1091246655e+01   4.8071918829e+01    0.2313691    0.2065836 -24.73  0.001356651    1.259    0.206
       283 -10.5870     61.1439    241.8721   1.0768186573e+02   1.5367047458e+01    0.4230368   0.07567704  40.40  0.001504206    3.577    0.720
       284  -9.9874    195.4687    238.8526   7.8732876057e+01  -2.2463587391e+00    0.2087834    0.1425947   3.57  0.001275748    1.323    0.244
       285  -9.9335    214.3634     25.8735   3.0946831826e+01   2.9139610205e+01    0.1660568    0.1366596 -51.85 0.0006500355    1.145    0.127
       286 -10.1496    204.0457     26.0692   3.1906823048e+01   3.1318355723e+01    0.2115345    0.1191106 -61.72 0.0007533483    1.685    0.407
       287 -11.1746    192.8945     24.1997   3.2532723822e+01   3.3991927547e+01    0.5198186    0.1276144 -45.05   0.00192696    3.441    0.709
       288  -9.2443    143.6777     26.3019   3.9305178270e+01   4.5349336243e+01    0.1389526   0.09543247 -71.08 0.0002940024    1.631    0.387
       289 -12.0244    165.1246     22.9722   3.5310773976e+01   4.0553746181e+01    0.3200239    0.2169664  68.52  0.001785068    1.350    0.259
       290 -10.9931    244.3101    237.1496   6.9688000861e+01  -7.7847489522e+00    0.2002909    0.1472678 -13.18  0.001094405    1.110    0.099
       291 -10.8011    185.7800     22.6430   3.2871573559e+01   3.5774903443e+01    0.2420697    0.1710789 -59.94 0.0007712716    1.300    0.231
       292  -9.9891    106.3266     23.0660   4.5325201541e+01   5.4708082654e+01    0.2328557      0.17881 -85.75 0.0006454955    1.579    0.367
       293  -9.6473    226.0872     22.4524   2.9271318415e+01   2.7125114390e+01    0.1626185    0.1043541  78.53  0.000909589    1.529    0.346
       294 -10.5336     59.3107     20.9430   5.8600926982e+01   6.5129262226e+01    0.3716742    0.2034773 -15.07  0.001150554    2.227    0.551
       295  -9.5508    120.4843     20.9503   4.1601727872e+01   5.1555874540e+01    0.1752002    0.1344614 -25.12 0.0003493393    1.465    0.317
       296 -10.1912     67.2392     21.3661   5.5831923251e+01   6.3525334579e+01    0.2875745    0.1471089  53.45  0.001358554    1.932    0.482
       297  -9.6227    135.0000    238.0275   9.1062792965e+01   6.1697295176e+00    0.1896904   0.07425077 -52.14   0.00080509    2.961    0.662
       298 -11.3744     29.8074    232.9784   1.1375251072e+02   2.0728140420e+01    0.3119089    0.2584687 -81.98  0.002156217    1.266    0.210
       299 -10.2603    160.1022    235.8657   8.5396315161e+01   2.9929670216e+00    0.1785672    0.1337702   0.09 0.0004699715    1.319    0.242
       300 -11.8397    237.9675     17.7904   2.7487042839e+01   2.5314580919e+01    0.2674893    0.1698953 -77.39 0.0003301208    1.407    0.289
       301  -9.5853    139.4941     19.5575   3.7870874601e+01   4.7091671330e+01     0.132811    0.1167907  68.89 0.0003574305    1.045    0.043
       302 -11.2990    108.0128     17.6950   4.2953072274e+01   5.4870855814e+01    0.3284532    0.2213324  40.76  0.001770091    1.453    0.312
       303  -9.7640    177.3148    235.3380   8.1770942383e+01   6.9621350514e-01    0.1320865   0.08527184  -3.96 0.0007047409    1.697    0.411
       304  -9.7684     82.5014     17.8425   4.9355228023e+01   6.0703498316e+01    0.1716643    0.1290932 -18.62 0.0004225884    1.453    0.312
       305 -10.1345    221.2516    234.6027   7.3258263541e+01  -4.8342238058e+00    0.1637393   0.09303859  16.28 0.0007092175    1.634    0.388
       306 -10.7668     86.8431    233.3544   1.0119121386e+02   1.3776720597e+01    0.2701405     0.085918  39.30  0.001075896    2.530    0.605
       307 -10.1987     38.2292    232.8205   1.1193518390e+02   1.9857544230e+01    0.1794046     0.136055  62.28 0.0005243312    1.121    0.108
       308 -10.1135     23.9597    232.5112   1.1496310594e+02   2.1427231491e+01    0.1972007    0.1504763 -65.83 0.0006576943    1.487    0.328
       309  -9.7568    152.2077    229.7908   8.6168177120e+01   5.1575192665e+00    0.2064944    0.1376102  64.86 0.0009538013    2.805    0.643
       310 -10.0027    194.9527     16.9654   3.0600616217e+01   3.4331327088e+01    0.1794843    0.1510892 -75.74 0.0003033271    1.018    0.018
       311  -9.5816    165.2881     17.3251   3.3740985335e+01   4.1116636344e+01    0.1241094   0.09359328  40.46 0.0007010435    1.609    0.378
       312  -9.6105    169.8734    228.8664   8.2290091026e+01   2.7849153033e+00    0.1648283    0.1493075  37.14 0.0005796997    1.337    0.252
       313  -9.2363    114.2658     12.6523   3.9860704411e+01   5.3864964170e+01    0.1290017   0.09431181 -64.45  0.000296555    1.613    0.380
       314  -9.9013    115.8353     15.6020   4.0615055882e+01   5.3210984463e+01    0.2842674    0.2121544  75.56  0.001589399    1.293    0.226
       315 -11.1375      4.5284    226.3751   1.1870147549e+02   2.4552965945e+01    0.3137798    0.1947767  66.28  0.001982222    1.325    0.246
       316 -11.2525    120.9434    226.4641   9.2609921003e+01   1.0336386093e+01    0.2299558    0.1922301 -89.33 0.0008863144    1.542    0.352
       317 -10.1433    184.6351     15.1091   3.1108482732e+01   3.6847439756e+01    0.1609354    0.1196333 -13.96 0.0009446465    1.788    0.441
       318  -9.7429     66.0165    226.4740   1.0521696466e+02   1.7908425132e+01    0.1935114    0.1141458  32.81 0.0008753582    1.541    0.351
       319 -10.5556     21.1743    221.7294   1.1491194883e+02   2.3987310363e+01    0.2388159     0.118108  79.70  0.001037998    2.060    0.514
       320  -9.8012     31.0953     12.6770   6.7358224340e+01   7.0991076955e+01    0.1670959    0.1288523  16.52 0.0006210611    1.092    0.085
       321  -9.2353    190.3460    226.3267   7.7731168510e+01   3.4863966040e-01    0.1354106   0.08501744  -3.14 0.0007050218    1.748    0.428
       322  -9.3442    176.3327    219.3207   7.9412573090e+01   3.4715676448e+00    0.1379787   0.09100296  -3.64 0.0007049402    1.699    0.411
       323 -11.6702      9.9618    217.3157   1.1709995034e+02   2.6003750163e+01    0.3238543    0.2119668  43.71  0.001697722    1.352    0.260
       324  -9.9367     38.0653    217.5180   1.1083726032e+02   2.3150262045e+01    0.1853322    0.1124493  33.93 0.0007398155    1.544    0.352
       325 -11.0310     29.3677    215.9476   1.1270340007e+02   2.4423961038e+01    0.2962982    0.2557573  -7.20  0.001087414    1.573    0.364
       326  -9.3579     65.6567     11.7144   5.1874878573e+01   6.4911974345e+01    0.1364996   0.08214717  29.08 0.0007018698    1.643    0.391
       327  -9.1321    107.4912     10.5215   4.0392963946e+01   5.5671535496e+01    0.1315972    0.1134159  57.08 2.479826e-05    1.012    0.012
       328 -11.4304     22.5381     25.5338   7.8715670213e+01   7.0214758955e+01    0.3163359    0.2162464 -22.97 0.0009512427    1.300    0.231
       329  -9.8476     73.9815    216.0136   1.0227558225e+02   1.9123218222e+01     0.161063    0.1429139  51.72 0.0004783938    1.002    0.002
       330 -10.4202     23.9562    216.4854   1.1396170220e+02   2.4855333510e+01    0.1799971    0.1113698  32.33 0.0005685814    1.575    0.365
       331 -11.4456    235.9243    214.3397   6.7295085353e+01  -3.7371047811e+00    0.2785513    0.1588686 -19.01 0.0007549221    1.608    0.378
       332 -11.6352    238.4504    210.5792   6.6215587167e+01  -3.5033598921e+00    0.3689705    0.3003741  48.14  0.002396445    2.035    0.509
       333  -9.6174    169.7044    213.6270   7.9851372426e+01   5.4399377226e+00    0.1412368   0.09398168  -9.10 0.0007026666    1.737    0.424
       334 -10.5784     21.2511    212.6835   1.1432080017e+02   2.5965072401e+01    0.2591224    0.1415204  54.44  0.001078563    1.604    0.376
       335  -9.6610    208.5153    211.9656   7.1788174155e+01   1.4431123932e-01    0.1849339     0.110244 -32.76  0.001013056    1.549    0.354
       336 -10.4175     10.7653    208.3319   1.1642061633e+02   2.7918253304e+01    0.2288955    0.1816758 -56.50 0.0005264095    1.490    0.329
       337 -10.5027      1.5761    211.2397   1.1861134890e+02   2.8063903619e+01    0.2166351    0.1005352 -87.55 0.0007295826    1.956    0.489
       338 -12.1178      4.8676    207.8571   1.1771493592e+02   2.8537981504e+01    0.5580974    0.3087488  80.35   0.00313201    1.621    0.383
       339  -9.6026    136.6405    215.6954   8.7474745246e+01   1.0080576500e+01    0.1418777    0.1003154  -3.27 0.0007039158    1.725    0.420
       340  -9.1236    188.2841    205.3058   7.4556873114e+01   4.1241336713e+00    0.1346002   0.09176684  -6.82 0.0003018535    1.562    0.360
       341 -11.2464     16.7980    193.0997   1.1402403379e+02   3.0888075330e+01    0.3907642    0.2932636  43.55  0.002261827    1.283    0.220
       342 -10.9616     20.1811    199.9731   1.1370055622e+02   2.8962805623e+01    0.3296933    0.1174334 -62.36  0.001423765    2.654    0.623
       343 -10.8418    245.8321    203.0128   6.3667750251e+01  -3.3078483669e+00     0.309343    0.2240153  51.72  0.001843864    2.506    0.601
       344 -10.4312    206.0000    201.9888   7.0488435751e+01   2.1027998134e+00    0.2072693   0.06702662 -41.01  0.000614311    2.935    0.659
       345  -9.3266    117.3372    201.6996   8.9847923571e+01   1.5939338341e+01    0.1444325     0.105076  61.09 0.0007035424    1.662    0.398
       346 -10.5075    175.4119    202.5710   7.6728362443e+01   6.5602735359e+00    0.2316044    0.2015314   5.65 0.0004798065    1.025    0.024
       347 -10.2285    244.8250    188.6104   6.1236981517e+01  -1.0628456450e+00     0.214528    0.1334068 -24.67  0.000524329    1.336    0.252
       348  -9.4181    212.4600    188.4593   6.6774786457e+01   3.4148362875e+00    0.1311249    0.1103629 -13.20 0.0001629334    1.029    0.028
       349  -9.4828      2.1941    187.6005   1.1720016082e+02   3.3416743897e+01    0.1496593    0.1197661   1.65  0.000783923    1.670    0.401
       350 -10.8022     16.5371    183.9841   1.1341313629e+02   3.3093605835e+01    0.3306091    0.2047367 -80.93   0.00152961    1.453    0.312
       351 -10.0467     15.2969    180.6574   1.1347232266e+02   3.4010779480e+01    0.2415098    0.1844141  16.31 0.0007752047    1.578    0.366
       352 -10.3974    168.1005    183.6936   7.4808487721e+01   1.1312501633e+01    0.2225532    0.1774807  47.26 0.0007907581    1.439    0.305
       353  -9.8469     58.7140    182.0223   1.0213925242e+02   2.9042337715e+01    0.1985135    0.1777803 -79.22 0.0009013865    1.090    0.082
       354  -9.2033      1.7009    180.6653   1.1690027242e+02   3.5105995990e+01     0.123762   0.08429701 -51.84 0.0005561403    1.653    0.395
       355  -9.9161    244.4617    178.4828   5.9417393675e+01   5.2519651837e-01    0.2265395   0.09475442 -29.25  0.001005927    2.275    0.561
