#   1 NUMBER                 Running object number                                     
#   2 MAG_AUTO               Kron-like elliptical aperture magnitude                    [mag]
#   3 X_IMAGE                Object position along x                                    [pixel]
#   4 Y_IMAGE                Object position along y                                    [pixel]
#   5 X_WORLD                Barycenter position along world x axis                     [deg]
#   6 Y_WORLD                Barycenter position along world y axis                     [deg]
#   7 A_WORLD                Profile RMS along major axis (world units)                 [deg]
#   8 B_WORLD                Profile RMS along minor axis (world units)                 [deg]
#   9 THETA_WORLD            Position angle (CCW/world-x)                               [deg]
#  10 FWHM_WORLD             FWHM assuming a gaussian core                              [deg]
#  11 ELONGATION             A_IMAGE/B_IMAGE                                           
#  12 ELLIPTICITY            1 - B_IMAGE/A_IMAGE                                       
         1  -8.9630    119.1287     32.5983   8.8603873230e+01   5.1573433961e+01    0.4132302    0.1755753 -37.93  0.001342587    2.329    0.571
         2  -8.1011     17.0608     14.0381   1.2300438358e+02   7.2866830419e+01    0.1737588    0.1499778  85.71 0.0006406053    1.659    0.397
         3  -8.5733     55.8081     10.1607   9.8968658905e+01   6.8352713267e+01    0.1930519    0.1730326 -32.87 0.0006387562    1.258    0.205
         4  -8.5160     90.6181      8.8668   8.5404708393e+01   6.1358498949e+01    0.1952375    0.1210168 -33.70 0.0005767509    1.639    0.390
         5  -7.3014    101.3056      8.2835   8.2202062781e+01   5.8910080675e+01    0.1489994   0.09821244  27.93 0.0002456263    1.560    0.359
         6  -7.9697     69.0078      7.9535   9.2143543677e+01   6.6150448020e+01    0.1690297    0.1415022  -9.50 0.0004831496    1.079    0.073
         7  -7.9454      5.3455      8.2933   1.2846002578e+02   7.4925062699e+01    0.1301563   0.06988718 -33.56 0.0007029831    1.664    0.399
         8  -8.7960     33.3308      5.1113   1.0769643825e+02   7.2709307669e+01    0.3046124     0.191378 -52.62  0.001573473    2.063    0.515
         9  -8.4132     79.0241      3.6265   8.6138056767e+01   6.4554634817e+01    0.2660876    0.1720371 -37.62  0.001328785    1.679    0.404
        10  -7.7155     44.6875      3.3167   1.0018481003e+02   7.1271863224e+01    0.1191284     0.103021 -56.04 0.0005329065    1.642    0.391
        11  -7.8140     16.1255      3.3814   1.1799926638e+02   7.5041679344e+01    0.1509293    0.1103953  33.74 0.0005984432    1.696    0.410
        12  -8.3786     62.1656      1.5977   9.1039246111e+01   6.8319887781e+01    0.1817275    0.1641528  56.75 0.0004994038    1.378    0.275
        13  -7.6083     39.4803      1.5053   1.0179672321e+02   7.2375896018e+01    0.1305045    0.1085872 -11.37  -3.2516e-05    1.024    0.023
        14  -8.7726    139.5815    243.8272   1.3045960003e+02   1.1262342267e+01    0.2373639    0.1025631 -48.63  0.001411093    3.044    0.671
        15  -9.1759    241.6589    238.0591   1.1287899194e+02  -9.1787873230e-01    0.4175635    0.1763876  -7.33  0.002081498    3.627    0.724
        16  -9.7763    246.5879    228.8624   1.1081197990e+02  -7.0368261179e-01    0.4618036    0.1895681 -19.81   0.00228346    2.560    0.609
        17  -8.8283    248.7437    249.4359   1.1338975624e+02  -2.6703812392e+00    0.2986403    0.1393158  -9.74  0.001933751    2.303    0.566
        18  -9.4222    248.5449    242.4604   1.1246408741e+02  -2.0859662214e+00    0.2263416    0.1724668 -22.78   0.00119567    1.807    0.447
        19  -9.1175    247.9795    235.5541   1.1157413371e+02  -1.4453535972e+00     0.239451    0.1963797 -39.38  0.001633892    2.500    0.600
        20  -9.4043    233.4263    246.8272   1.1532952817e+02  -7.0402795717e-01    0.3979609    0.2162492 -13.76  0.002329207    1.881    0.468
        21  -9.2337    211.1574    247.1528   1.1883588078e+02   1.9243987355e+00    0.2350052    0.2102147 -64.92   0.00185653    2.510    0.602
        22  -8.5629    191.4567    249.5332   1.2230384320e+02   4.1110466417e+00    0.1904492    0.1370672  54.47 0.0007177612    2.313    0.568
        23  -7.9572    184.0161    250.2216   1.2360486431e+02   4.9621995539e+00    0.1435321   0.06276806  34.12 0.0007421882    1.673    0.402
        24  -8.8810    132.3286    248.1895   1.3215302045e+02   1.1622794208e+01    0.2309369    0.1633079  69.69  0.001361951    2.099    0.524
        25  -8.7453     93.6443    249.1258   1.3896199459e+02   1.6092143535e+01    0.2211225    0.1401098  80.19  0.001571262    2.154    0.536
        26  -7.4410     86.2881    250.6681   1.4034495915e+02   1.6709330933e+01    0.1012187   0.05755043  55.70 0.0003609381    1.623    0.384
        27  -8.8587    201.9713    243.4974   1.1984459816e+02   3.4071851357e+00    0.1564258    0.1393811 -27.76 0.0008469481    1.694    0.410
        28  -8.6157    169.3080    243.7146   1.2531065779e+02   7.5096969304e+00    0.1891544    0.1342481  44.35 0.0007228826    1.488    0.328
        29  -9.4411     78.1060    243.3685   1.4127270481e+02   1.8629132087e+01    0.2875618    0.1234204  57.67  0.001652717    2.508    0.601
        30  -7.8003     34.6723    244.3172   1.4883134771e+02   2.2891232969e+01    0.1039185   0.04740856  55.23 0.0007045838    1.678    0.404
        31  -9.0316    194.5049    240.6491   1.2070612420e+02   4.6337397340e+00    0.2560234     0.180156 -47.55  0.001091964    2.342    0.573
        32  -9.5772    160.3908    240.5698   1.2648216621e+02   9.0109768653e+00    0.2898686    0.2177184 -87.63  0.001442335    2.866    0.651
        33  -7.8265     49.7721    243.0573   1.4619738819e+02   2.1633656356e+01    0.1104674   0.07383146 -88.22  0.000875032    1.648    0.393
        34  -8.1161    214.1162    241.8698   1.1767899227e+02   2.0603138886e+00    0.1482362     0.112938  22.97 0.0005007247    1.230    0.187
        35  -9.3715    183.1770    240.4188   1.2256820704e+02   6.1017424625e+00    0.3195687    0.2043042  52.37  0.001852021    2.320    0.569
        36  -8.1340    153.1237    242.3112   1.2793767051e+02   9.7341609773e+00    0.1542379    0.1046261  33.35  0.000751823    1.102    0.093
        37  -8.2105     88.2122    242.1964   1.3940324463e+02   1.7666161519e+01    0.1401777   0.09359327  56.63 0.0008933257    1.375    0.273
        38  -8.9925    135.7712    239.0341   1.3064148812e+02   1.2346476261e+01     0.158509    0.1163575  47.05 0.0008147827    1.307    0.235
        39  -8.7609    129.3292    239.1488   1.3180057774e+02   1.3144217534e+01    0.2105651     0.103731  50.69   0.00122489    2.159    0.537
        40  -9.1177    230.9785    237.3404   1.1441338366e+02   4.2047173650e-01    0.1762456    0.1581667 -27.50  0.001107262    1.951    0.487
        41  -7.7904    209.2899    238.6677   1.1802982509e+02   2.9688067438e+00   0.09008285   0.07490263  37.53 0.0004446834    1.628    0.386
        42  -7.7087    105.5137    238.4922   1.3601189184e+02   1.6162579577e+01    0.1051829   0.08064748  38.63 0.0008102819    1.031    0.030
        43  -7.4369    190.2930    237.6724   1.2102856603e+02   5.4838222631e+00   0.09406939    0.0750268  44.67  0.000702035    1.624    0.384
        44  -8.3892     25.6290    237.2794   1.5009376208e+02   2.4768851394e+01    0.1648341   0.07114436  56.91  0.001105622    1.787    0.440
        45 -10.0148    215.0724    233.3797   1.1638004164e+02   2.7609289907e+00    0.3934468    0.3275124  78.55  0.002484204    3.587    0.721
        46  -8.8631    203.2563    234.8935   1.1851168654e+02   4.1114638314e+00    0.1906694    0.1775807 -70.90  0.001210369    2.123    0.529
        47  -9.8067    175.6844    233.3173   1.2296590712e+02   7.8666536696e+00    0.3380786    0.2378585 -59.41  0.002249323    2.607    0.616
        48  -8.2283    170.2044    235.3549   1.2416669375e+02   8.3491513492e+00     0.197718    0.1176688 -27.68  0.001036998    2.105    0.525
        49  -9.5050    109.4214    234.8387   1.3498092478e+02   1.6198854428e+01    0.4367401    0.1575595  47.33  0.001562078    2.534    0.605
        50  -9.2520     78.9824    234.8510   1.4052308925e+02   1.9770966375e+01    0.2257293    0.1322884  60.96 0.0008951599    1.697    0.411
        51  -7.7404     57.9372    237.0000   1.4444232668e+02   2.1712296119e+01    0.1649928   0.04482805  33.03 0.0008006924    2.930    0.659
        52  -7.8599    153.3353    235.6647   1.2715974199e+02   1.0513591050e+01    0.1049167   0.07253923  53.18 0.0004399279    1.743    0.426
        53  -8.5242    122.9630    234.3274   1.3246879686e+02   1.4587342000e+01    0.1809028    0.1292856  60.47 0.0007650874    1.625    0.385
        54  -8.3072     99.8054    234.6964   1.3672101222e+02   1.7381813906e+01      0.19074    0.1141471  66.59  0.001216745    2.117    0.528
        55  -9.5269     68.4104    232.5178   1.4228249695e+02   2.1285359761e+01    0.3760762    0.1358226  58.02  0.001837499    3.296    0.697
        56  -8.4194    144.8033    233.2008   1.2840303221e+02   1.1934299741e+01     0.220783     0.107646  55.80  0.001047291    3.543    0.718
        57  -8.7692    140.1066    230.3054   1.2892993667e+02   1.2924210733e+01    0.2208185    0.1360205  53.23 0.0008064623    1.863    0.463
        58  -8.8935    132.8775    232.9022   1.3052338399e+02   1.3517154574e+01    0.1661017    0.1103921  55.48  0.001097397    1.715    0.417
        59  -8.7373     92.9237    232.2310   1.3777477051e+02   1.8555919815e+01    0.2958176    0.1428294  56.72  0.001443375    2.263    0.558
        60  -7.9554     37.5038    233.0023   1.4785432450e+02   2.4341718140e+01    0.1384561     0.057611  67.11 0.0008095522    2.455    0.593
        61  -9.2499    186.5212    230.7716   1.2077513533e+02   6.7282278577e+00    0.2314065    0.2061831 -87.38  0.001290588    2.145    0.534
        62  -8.1592    157.7421    232.1573   1.2597173770e+02   1.0369521183e+01    0.1456403    0.1306409  53.12 0.0007113951    1.439    0.305
        63  -8.9593    236.0171    230.8857   1.1272009833e+02   3.9324208868e-01    0.1666944    0.1180467  -0.14 0.0003990881    1.202    0.168
        64  -9.1080    151.4978    229.0158   1.2671933201e+02   1.1590794434e+01    0.2455681    0.1849796  73.31  0.001635955    2.234    0.552
        65  -9.3798    148.8281    224.7053   1.2669408864e+02   1.2507659349e+01    0.2595085    0.2034466  72.60  0.001257612    1.961    0.490
        66  -8.2604    229.7679    228.9890   1.1342005504e+02   1.3393941342e+00    0.1285849    0.1216537 -22.57 0.0007742187    1.937    0.484
        67  -8.6726    162.6652    228.3610   1.2463723465e+02   1.0185293167e+01    0.2872069    0.1432141  51.70 0.0009855333    2.852    0.649
        68  -8.9195    128.0648    227.3817   1.3082097589e+02   1.4889155323e+01    0.2390177    0.1625851  56.72  0.001068638    1.663    0.399
        69  -8.2983    120.0383    227.5203   1.3232373774e+02   1.5902976116e+01    0.2043015    0.1415792 -70.17  0.001409814    2.012    0.503
        70  -8.3793    194.5018    232.9560   1.1971006622e+02   5.4438765568e+00    0.1303588    0.1004928 -22.77 0.0005658059    1.517    0.341
        71  -8.3314    223.6859    226.4912   1.1402310154e+02   2.3445670671e+00     0.207451    0.1084057 -12.21 0.0009755012    2.128    0.530
        72  -8.7981    206.0097    226.2935   1.1687774448e+02   4.6490588590e+00     0.159014    0.1426022  27.54 0.0006917608    1.518    0.341
        73  -8.9839     48.0677    225.2124   1.4555743373e+02   2.4545495606e+01    0.3734176     0.143082  63.68  0.001474203    2.951    0.661
        74  -8.0418    199.8746    225.8253   1.1783916835e+02   5.5075457913e+00    0.1670617    0.1232859 -38.72 0.0009226708    1.877    0.467
        75  -8.9244    141.1909    224.3436   1.2805608725e+02   1.3578318674e+01    0.3928893    0.2304912  65.43   0.00196183    3.526    0.716
        76  -9.1306     94.3040    224.6078   1.3687142541e+02   1.9530521202e+01    0.3308438    0.1611383  58.82  0.001795045    2.466    0.595
        77  -7.7261     78.6506    226.3254   1.3995345250e+02   2.1099755463e+01    0.1140624   0.06140413  56.31 0.0007048976    1.754    0.430
        78  -8.9542    180.5558    224.3575   1.2095922145e+02   8.2613618703e+00    0.2199681    0.1825706  46.88 0.0005599286    1.546    0.353
        79  -8.7122    104.8254    223.7157   1.3480212081e+02   1.8376695937e+01    0.2683506    0.1677981  69.44  0.001667166    2.140    0.533
        80  -8.9696    216.4686    223.6188   1.1477268680e+02   3.5600893869e+00    0.1830664    0.1563984   8.49 0.0006596922    1.344    0.256
        81  -8.3493    173.0161    223.3866   1.2216099336e+02   9.4002722773e+00    0.1638732    0.1583219 -76.02 0.0006472652    1.589    0.371
        82  -9.3703    160.3261    221.3644   1.2418230049e+02   1.1385024186e+01    0.5169143    0.2129309  49.99  0.002270437    3.552    0.719
        83  -7.7997    113.8601    224.3382   1.3315812329e+02   1.7147988289e+01    0.1446079    0.1172282  52.48 0.0006638969    1.199    0.166
        84  -9.0450      2.2440    231.8743   1.5389306557e+02   2.7555656853e+01    0.2754566   0.08489714  65.45  0.001602837    2.687    0.628
        85  -8.0603     38.2160    224.3069   1.4731365805e+02   2.5651661376e+01    0.1402229   0.06690963  83.51 0.0005583923    2.300    0.565
        86  -9.3801    192.4037    221.3066   1.1848215301e+02   7.0108705638e+00    0.2463688    0.2255441 -84.40  0.001024738    2.033    0.508
        87  -9.1194    239.1601    220.9050   1.1075994415e+02   9.2728996443e-01    0.2790055    0.1454619 -15.80  0.001523659    1.894    0.472
        88  -9.1485    225.4049    221.6913   1.1304477412e+02   2.5973590631e+00    0.1797646    0.1467294  10.42 0.0003045751    1.272    0.214
        89  -8.6835    202.7943    220.4678   1.1658880927e+02   5.7024589608e+00    0.2104549    0.1412027 -22.83  0.001352778    1.609    0.378
        90  -9.0906    120.5320    219.3485   1.3137624578e+02   1.7018625334e+01    0.3588919    0.1777712  56.06  0.001714436    2.671    0.626
        91  -8.3898     82.9662    220.7724   1.3869877163e+02   2.1469669295e+01    0.2382148    0.1153344  58.66  0.001222156    2.278    0.561
        92  -8.4957     73.0178    220.8129   1.4059882916e+02   2.2603012875e+01    0.1820408    0.1180941  72.94 0.0009263336    1.663    0.399
        93  -7.7369     27.5295    221.4977   1.4913051011e+02   2.7097257828e+01   0.09989676   0.07474817  56.69  0.000809918    1.012    0.012
        94  -8.1452    221.3115    220.2955   1.1349717167e+02   3.2677246369e+00    0.1126729   0.06497242  11.54 0.0003315436    1.595    0.373
        95  -8.3544    209.9916    219.2474   1.1520331559e+02   4.8708704960e+00     0.157525     0.146661   9.90  0.000496778    1.538    0.350
        96  -9.2969    248.3331    217.3400   1.0880899846e+02   1.1787155673e-01    0.2894065    0.2636015 -59.28  0.001917134    2.797    0.643
        97  -9.3375    132.8996    216.1185   1.2865412203e+02   1.5843053223e+01    0.3790884    0.2434872  72.61  0.002068989    2.876    0.652
        98  -8.0097    112.2110    217.7990   1.3280635620e+02   1.8330829213e+01    0.1868079   0.09709258  60.76 0.0009483525    2.783    0.641
        99  -8.5749     62.1029    217.4057   1.4243682431e+02   2.4356263326e+01    0.2870858    0.1078958  52.70  0.001510579    2.420    0.587
       100  -8.8673     51.6596    216.9802   1.4440281211e+02   2.5523781857e+01    0.2397966    0.1420525  62.85  0.001049527    1.521    0.343
       101  -8.7690    169.4767    216.3846   1.2186382635e+02   1.0760781772e+01    0.2148234    0.1678556  64.90 0.0009107714    2.053    0.513
       102  -8.5329    142.8757    216.6140   1.2682186384e+02   1.4414090639e+01    0.1809794    0.1668541 -82.42 0.0008401123    1.469    0.319
       103  -8.0345     18.5404    216.0622   1.5055105958e+02   2.8784595829e+01    0.1395522   0.08442804 -89.01  0.001032313    1.598    0.374
       104  -8.4440    232.1931    214.7495   1.1091112772e+02   2.4088464572e+00    0.1678193    0.1290351 -15.85 0.0008143366    1.418    0.295
       105  -8.4407    185.9160    214.5160   1.1865436215e+02   8.6997931738e+00    0.1693779    0.1649425 -49.13 0.0008956161    1.590    0.371
       106  -8.3408    154.3946    215.2346   1.2448824625e+02   1.3013071876e+01    0.1842727    0.1206916  49.35  0.001004675    1.659    0.397
       107  -9.1366     93.1151    214.1893   1.3615876413e+02   2.1299814277e+01    0.3072016    0.1455892  57.10  0.001228214    2.456    0.593
       108  -7.7033     41.3384    215.6823   1.4628570977e+02   2.6770408368e+01    0.1133193   0.05586053  56.87 0.0007048956    1.705    0.414
       109  -9.4341     73.2117    212.0709   1.3988210308e+02   2.4006567432e+01    0.5189593    0.1734383  54.87  0.002223177    3.646    0.726
       110  -8.2662    224.9520    212.9375   1.1179222755e+02   3.5422181575e+00    0.1426411    0.1315791  26.57  0.000683848    1.680    0.405
       111  -9.4596    213.8276    212.1966   1.1350766388e+02   5.1144870301e+00    0.2636566    0.2134885  35.89  0.001308292    1.506    0.336
       112  -8.6338    161.7064    212.5373   1.2277107244e+02   1.2352018137e+01    0.1922828    0.1689423  48.73 0.0008585491    1.380    0.275
       113  -8.0355    106.3966    213.1418   1.3345402870e+02   1.9795988177e+01    0.1369496    0.1032825  89.67   0.00093112    1.699    0.412
       114  -7.6739    242.6396    212.2504   1.0888517665e+02   1.3090894043e+00   0.09301512   0.07638042  30.31 0.0003428229    1.611    0.379
       115  -8.7159    204.4005    211.0244   1.1492173219e+02   6.5378806793e+00    0.1951683    0.1744575 -48.05 0.0009657528    1.854    0.461
       116  -9.3784    175.6093    210.1920   1.1988699523e+02   1.0689660829e+01    0.3156906     0.217965  58.20  0.001305537    2.295    0.564
       117  -9.3514      6.8823    209.9298   1.5247835929e+02   3.0777656250e+01    0.3918954   0.08100175  63.94  0.001546234    5.137    0.805
       118  -8.1761    192.1311    210.5974   1.1698651092e+02   8.3006199250e+00    0.1675811    0.1483525 -18.47 0.0007330264    1.392    0.281
       119  -8.8385    148.0479    210.5782   1.2508038440e+02   1.4544707297e+01    0.2117134    0.1675951  67.84  0.001064417    1.782    0.439
       120  -8.8873    116.4275    210.5287   1.3120432744e+02   1.8891561848e+01    0.2727783     0.146117  55.28 0.0009091712    2.179    0.541
       121  -8.7287     85.5869    209.7760   1.3723776256e+02   2.2934397837e+01    0.2196111    0.1364002  65.15 0.0009864724    1.768    0.434
       122  -8.2164     47.1444    210.1647   1.4485118631e+02   2.7131212803e+01    0.2754343   0.04888623  48.36  0.001080608    4.172    0.760
       123  -7.8631     32.3077    210.6280   1.4773728449e+02   2.8484123341e+01    0.1143604   0.05503261  59.54  0.000703301    1.767    0.434
       124  -9.2389    236.5708    207.4916   1.0907651962e+02   2.5616103756e+00    0.3084091    0.1763943 -27.74  0.001986939    1.833    0.454
       125  -9.4884    124.6829    206.7496   1.2913893866e+02   1.8361111069e+01    0.3583232    0.2166894  67.09            0    2.718    0.632
       126  -9.4112    246.2836    207.3576   1.0754410496e+02   1.3135845932e+00    0.2197583    0.1532476  -9.87 0.0005271782    1.273    0.215
       127  -8.1723    156.4151    208.2238   1.2317840165e+02   1.3689713932e+01     0.133861    0.1145331 -59.32 0.0005820383    1.622    0.384
       128  -8.4574    139.2821    207.9114   1.2642209034e+02   1.6160163530e+01    0.2018294    0.1585877  61.41 0.0007819718    1.567    0.362
       129  -9.2107     99.4398    206.3304   1.3413175664e+02   2.1779695477e+01    0.3001276    0.1876362  70.05  0.001497494    2.088    0.521
       130  -8.6965     56.6028    205.8911   1.4270441291e+02   2.6890074893e+01     0.287154    0.1322834  57.50   0.00159475    2.074    0.518
       131  -8.9757     11.7065    206.9937   1.5148399964e+02   3.0898314456e+01    0.1427185    0.1040773  65.99 0.0007651322    1.067    0.063
       132  -9.3620    192.4620    197.3569   1.1489157060e+02   9.8833257382e+00    0.3180255    0.2452955 -43.89  0.001360129    1.779    0.438
       133  -9.1676    183.9302    203.9191   1.1745206332e+02   1.0296940140e+01    0.2480262    0.2256592  60.07  0.001067547    1.644    0.392
       134  -8.5335    131.3889    204.2356   1.2750303040e+02   1.7818349741e+01    0.2497655    0.1428051  58.70  0.001092929    2.456    0.593
       135  -8.0122    109.1684    205.2449   1.3205936627e+02   2.0690193560e+01    0.1543142    0.1182988  60.77 0.0005533033    1.369    0.270
       136  -9.3563    250.1548    202.0762   1.0609116459e+02   1.3256799016e+00    0.2991379    0.1375944 -25.99  0.001204563    2.085    0.520
       137  -9.6229    163.9479    203.1398   1.2104087734e+02   1.3307919228e+01    0.3830333    0.2088071  49.87  0.001117809    2.190    0.543
       138  -8.3490     48.8327    202.7226   1.4404132991e+02   2.8255212906e+01    0.2113369    0.1049165  66.79  0.001141734    2.086    0.521
       139  -8.0263     41.3748    203.1917   1.4556122294e+02   2.8917697728e+01    0.1479241   0.08418341  81.19 0.0009436396    1.778    0.438
       140  -9.2446    243.0539    200.5677   1.0693265406e+02   2.4016332070e+00    0.2622641    0.1420157 -23.74 0.0009648877    1.772    0.436
       141  -8.3107    211.0189    202.0037   1.1238635114e+02   6.6415652875e+00    0.1503856    0.1422638  48.29 0.0006219619    1.728    0.421
       142  -9.0057    140.4962    201.0766   1.2529104369e+02   1.7006862248e+01    0.2986186    0.2023752  66.65   0.00108699    2.297    0.565
       143  -8.4952     79.9910    201.3414   1.3759529897e+02   2.5034635480e+01    0.2831459     0.147293  69.26   0.00145511    2.638    0.621
       144  -9.4202    194.9006    203.5969   1.1543684796e+02   8.7531764459e+00    0.3131369    0.2472358 -23.41  0.001023912    1.405    0.288
       145  -7.6797    221.7883    201.0806   1.1042917404e+02   5.2347087961e+00    0.1351047   0.08298951 -25.64   0.00085533    1.668    0.400
       146  -9.4695    149.6541    198.7623   1.2317019662e+02   1.6024311932e+01    0.3361952    0.2446427  72.84  0.001742239    2.329    0.571
       147  -8.9073    124.1000    199.2613   1.2833624315e+02   1.9617652261e+01     0.259424    0.1916288  78.63  0.001219367    1.927    0.481
       148  -9.2338    113.0956    198.8237   1.3052490314e+02   2.1209619429e+01    0.3747282    0.2079515  61.36  0.001830523    2.517    0.603
       149  -9.0944     88.5842    198.5219   1.3554984047e+02   2.4469936367e+01    0.3045674    0.1843033  70.39  0.001465984    2.075    0.518
       150  -8.9288    237.0006    198.2123   1.0749099078e+02   3.4523844046e+00    0.2280196    0.1442338 -29.89  0.001015528    1.762    0.433
       151  -8.4069    177.1636    198.9825   1.1794401466e+02   1.1932162076e+01     0.165853    0.1457638  38.16 0.0006019947    1.320    0.242
       152  -8.2528    202.1669    197.7057   1.1322412960e+02   8.4185281154e+00    0.1749611    0.1477529 -21.25 0.0006600219    1.381    0.276
       153  -9.2753     61.5920    197.3085   1.4104196155e+02   2.7865832503e+01     0.371669    0.1742186  59.99  0.001602489    2.251    0.556
       154  -8.4900     12.8043    197.5487   1.5092099477e+02   3.2478866347e+01    0.2139175   0.07890985  60.92  0.001184273    2.303    0.566
       155  -8.4491    215.8816    195.7663   1.1054333738e+02   6.6660765378e+00    0.1731536     0.150149 -50.74 0.0006753476    2.000    0.500
       156  -8.0301    133.0409    196.0601   1.2610906513e+02   1.8855405045e+01    0.1766879    0.1349516  65.84 0.0005882141    1.671    0.402
       157  -9.3422    245.8306    192.4414   1.0513169034e+02   2.8541199714e+00    0.3814421    0.2064893 -19.21  0.001660906    1.694    0.410
       158  -7.5788    209.3132    195.6237   1.1164149398e+02   7.6297204455e+00    0.1000469   0.09507349  63.92 0.0007029468    1.794    0.443
       159  -9.0520    185.1855    194.7376   1.1579721789e+02   1.1302066375e+01     0.207145    0.1914049 -16.29 0.0007667042    1.337    0.252
       160  -8.7539    161.0572    194.4531   1.2031654105e+02   1.4964644291e+01    0.2060788    0.1803813  64.28 0.0008087092    1.543    0.352
       161  -8.9356     43.8927    193.6314   1.4444136110e+02   3.0393792193e+01    0.3298594    0.1520306  62.03  0.001819177    2.149    0.535
       162  -8.0497    230.7500    193.9469   1.0777525084e+02   4.7652618743e+00    0.1988802    0.1240609 -25.91  0.001037538    1.623    0.384
       163  -8.6991     77.1382    193.9644   1.3749634016e+02   2.6676851888e+01    0.2139196    0.1511964  59.81 0.0008609554    1.325    0.245
       164  -8.4738    224.7469    194.4773   1.0884641866e+02   5.5502013486e+00    0.1912575    0.1375237 -36.80  0.000911456    1.857    0.461
       165  -8.1498    198.8107    191.7839   1.1284766059e+02   9.6448154710e+00    0.1466136    0.1317713  24.21   0.00055967    1.326    0.246
       166  -8.2031    179.1209    191.8763   1.1646641508e+02   1.2599445145e+01    0.1726386    0.1494605  37.33 0.0005435616    1.295    0.228
       167  -8.6759    172.1979    191.5467   1.1772370743e+02   1.3696345192e+01    0.2259589    0.1682786 -32.20  0.001059834    1.496    0.332
       168  -9.1265    139.5358    190.6015   1.2403294100e+02   1.8768620660e+01     0.312683     0.229105  75.37  0.001024599    2.159    0.537
       169  -7.5014    205.3024    191.6750   1.1168206615e+02   8.6931480188e+00    0.1011283   0.09447435  49.13 0.0003495557    1.639    0.390
       170 -10.3482     92.1493    188.3891   1.3371692937e+02   2.5802569342e+01    0.8550184    0.3197234  48.28  0.003533727    2.629    0.620
       171  -8.6323    148.4702    189.1641   1.2201240704e+02   1.7654389516e+01    0.2119219    0.1712917 -64.81 0.0008942719    1.693    0.409
       172  -8.9443    129.4904    188.8075   1.2584752283e+02   2.0541289707e+01    0.2892425    0.1878143  61.38  0.001018649    2.044    0.511
       173  -8.4133    237.2552    188.2198   1.0574587325e+02   4.4754054420e+00    0.2203907    0.1178026 -20.94 0.0007208938    1.765    0.433
       174  -9.2706    155.7700    187.1904   1.2024817349e+02   1.6845362169e+01    0.3062861    0.2156173 -62.56  0.001159745    2.150    0.535
       175  -9.9034    121.0018    186.9307   1.2737000687e+02   2.2090152838e+01    0.4373159    0.2688701 -79.55  0.002168339    2.864    0.651
       176  -8.5145     34.3907    188.4213   1.4608840550e+02   3.2281806296e+01    0.2636418    0.1061721  60.05  0.001032005    2.407    0.585
       177  -7.8663    242.6082    188.1778   1.0489445566e+02   3.7359033447e+00    0.1536242   0.08912244 -11.65 0.0006195581    1.575    0.365
       178  -8.7452    216.4869    187.8767   1.0910465285e+02   7.4989928102e+00    0.1951923     0.173372  31.15  0.000839638    1.465    0.318
       179  -8.8451    191.3040    187.2292   1.1344386122e+02   1.1367361144e+01    0.2195118    0.2120944 -78.32 0.0008974858    1.619    0.382
       180  -8.9913     54.9023    187.2404   1.4164316990e+02   3.0444655644e+01    0.3532641    0.1526281  58.58  0.001582708    2.441    0.590
       181  -8.1364    230.3134    186.9473   1.0664115588e+02   5.5978619709e+00    0.1652626    0.1295658 -26.58  0.000975787    1.515    0.340
       182  -8.7263    164.8751    186.7400   1.1837667940e+02   1.5510685998e+01    0.2021996    0.1812481 -45.57 0.0006695319    1.412    0.292
       183  -9.1712    109.6042    186.1743   1.2969812113e+02   2.3840380868e+01    0.3166227    0.2020447  64.25  0.001116739    1.989    0.497
       184  -8.6229    249.2132    185.4826   1.0340043910e+02   3.1105065052e+00    0.2311214    0.1324726 -20.58   0.00141615    1.572    0.364
       185  -8.8557    182.8795    184.9755   1.1462923530e+02   1.2970784916e+01    0.2456118    0.1722225 -34.38 0.0008998462    1.581    0.367
       186  -8.6113    210.3588    184.5171   1.0957532630e+02   8.8167254727e+00     0.196721    0.1606503  -4.99 0.0005872484    1.160    0.138
       187  -8.4985    202.8566    184.5856   1.1090653274e+02   9.9450620719e+00    0.1965834    0.1590053 -46.35 0.0007802044    1.812    0.448
       188  -9.0030     66.7231    184.4485   1.3883482641e+02   2.9655399554e+01    0.3486137     0.176081  57.82   0.00126117    2.037    0.509
       189  -8.2115    224.1375    183.8479   1.0711309036e+02   6.8461696579e+00    0.1634895     0.141992  12.03 0.0004952923    1.289    0.224
       190  -8.0875    197.3564    184.1597   1.1181942744e+02   1.0841934288e+01    0.1523997    0.1093126 -39.95 0.0006422031    1.731    0.422
       191  -8.8944    174.2846    183.6987   1.1605252526e+02   1.4490321490e+01    0.2210236    0.1926245  63.58 0.0007237522    1.630    0.387
       192  -8.1336      1.9418    183.9109   1.5258368212e+02   3.5823367919e+01    0.1802091   0.08196311  57.19   0.00112185    1.730    0.422
       193  -8.9293     44.3384    182.4119   1.4355482286e+02   3.2460592474e+01    0.3058772    0.1548429  65.12  0.001137957    1.998    0.500
       194  -8.4193     19.3939    182.5698   1.4891542344e+02   3.4720593762e+01    0.2104085   0.07365571  81.03 0.0009513254    3.318    0.699
       195  -8.2491    240.5917    181.4013   1.0401142660e+02   4.7434610026e+00    0.1888893    0.1343245 -45.53  0.001131029    2.437    0.590
       196  -9.2253    147.6486    180.7183   1.2088437025e+02   1.9112227772e+01    0.3165881    0.2504745 -86.69  0.001063733    1.999    0.500
       197  -9.4983     25.7394    179.1238   1.4737428911e+02   3.4843815372e+01    0.5458795    0.1721559  69.18  0.002087318    4.568    0.781
       198  -8.6458    137.6568    179.5985   1.2279350171e+02   2.0841263318e+01    0.2245699    0.1895911  81.35   0.00101438    1.581    0.368
       199  -9.3586    191.2661    178.0244   1.1186445699e+02   1.2611483354e+01    0.2709984    0.2417184  71.09  0.001127316    1.793    0.442
       200  -8.1080    169.4585    178.5032   1.1612100066e+02   1.6013722652e+01    0.1888486    0.1207019 -52.28 0.0006570356    2.153    0.536
       201  -9.1016     35.8847    176.9057   1.4501480513e+02   3.4355554409e+01    0.4687481     0.181316  72.96  0.002024829    3.481    0.713
       202  -9.5334    248.5990    176.4686   1.0187436235e+02   4.1423752600e+00    0.3696598    0.2135652 -31.32  0.002245245    1.829    0.453
       203  -8.5417    250.5216    172.9315   1.0093034386e+02   4.2488015146e+00    0.1680793    0.1191266 -20.73 0.0005095361    1.357    0.263
       204  -8.2125    205.0982    177.8743   1.0932437538e+02   1.0458790113e+01    0.1716565    0.1587142  12.89 0.0006809647    1.330    0.248
       205  -8.5624    129.1851    177.4510   1.2427209022e+02   2.2500529126e+01     0.247714    0.1787323  70.80 0.0009903315    1.958    0.489
       206  -8.2546     97.2210    177.9735   1.3136629682e+02   2.7031346308e+01    0.1910529    0.1360784 -24.86  0.001076068    2.022    0.505
       207  -8.2600    231.0880    177.0556   1.0474716207e+02   6.6069362528e+00    0.1558502    0.1422094 -30.35 0.0006024403    1.638    0.389
       208  -8.1177    217.2654    177.2058   1.0708194340e+02   8.6666250462e+00    0.1478846    0.1346337  -7.58 0.0005259253    1.370    0.270
       209  -9.5825    183.2888    175.4942   1.1291731934e+02   1.4237716981e+01    0.4210422    0.2311225 -26.53 0.0008066359    2.037    0.509
       210  -8.4750     89.0603    176.9416   1.3306835335e+02   2.8318109375e+01    0.2541101    0.1445445  62.56  0.000990439    2.139    0.533
       211  -9.9181     57.2437    173.2096   1.3990492324e+02   3.2902294741e+01    0.7089453     0.298784  72.72  0.002702859    4.287    0.767
       212  -8.5667     12.8387    176.9377   1.5003346189e+02   3.6337799490e+01     0.202133    0.1117962  68.77 0.0006783133    1.541    0.351
       213  -7.6765    211.5258    176.5020   1.0794480542e+02   9.6359742642e+00    0.1241549   0.09887414  10.23  0.000117793    1.011    0.011
       214  -9.2685    158.8401    175.0380   1.1766223536e+02   1.8245490371e+01    0.3181879    0.2555811  83.95 0.0009852001    2.053    0.513
       215  -9.1374    104.4558    174.8820   1.2934419710e+02   2.6600120420e+01    0.4384511    0.2150595  58.49  0.001886749    2.930    0.659
       216  -8.4718     79.2226    158.5615   1.3307701537e+02   3.3231776580e+01    0.2560484    0.1208329  28.92  0.001185223    2.259    0.557
       217 -10.5860     75.9608    171.0880   1.3537443969e+02   3.1126826190e+01     0.884288    0.3838682 -84.53  0.003209106    4.706    0.787
       218  -8.2296    224.3973    174.2228   1.0533053455e+02   7.9419740282e+00    0.1530518    0.1045035 -32.21  0.000496776    1.623    0.384
       219  -9.7496    175.8581    172.1382   1.1375654300e+02   1.5930637801e+01    0.3263938    0.2273894 -31.81  0.001177999    1.523    0.343
       220  -8.4443    143.2435    172.9584   1.2056078888e+02   2.1078492390e+01    0.2315415     0.162321  56.37 0.0008944591    1.716    0.417
       221  -8.4406    134.7945    171.7350   1.2217445317e+02   2.2621658766e+01     0.226757    0.1807974 -67.63 0.0007905547    1.603    0.376
       222  -9.5074    121.4126    170.5886   1.2493439285e+02   2.4894660499e+01    0.3147747    0.2398187  87.39  0.001150193    1.814    0.449
       223  -8.9151     45.1094    171.1595   1.4250290357e+02   3.4595275694e+01    0.3159463    0.1656923  77.88  0.001131654    2.118    0.528
       224  -8.9884    230.5303    170.3629   1.0359833438e+02   7.4701007725e+00    0.2375034    0.1842192 -20.29  0.000866689    1.314    0.239
       225  -8.4532    205.8403    170.2975   1.0780539362e+02   1.1328829440e+01    0.2000434    0.1591264 -32.09 0.0008147224    1.451    0.311
       226  -8.9944     74.8016    160.3923   1.3438277378e+02   3.3421541001e+01    0.2239385    0.1682188  -7.05 0.0008560716    1.949    0.487
       227  -8.5445    198.4239    170.2982   1.0914564455e+02   1.2520719582e+01    0.1861044    0.1485032  50.68 0.0005520433    1.645    0.392
       228  -9.1932    167.1322    168.8040   1.1489570336e+02   1.7871540682e+01    0.2950699    0.2206433  56.10  0.001078332    1.715    0.417
       229  -8.9095    149.8602    169.4072   1.1856715604e+02   2.0607779913e+01    0.2592566    0.1741451 -55.91  0.001053162    1.915    0.478
       230  -8.1592    237.0143    169.3694   1.0236475196e+02   6.6099204300e+00    0.1664391    0.1301011  14.75 0.0005781698    1.117    0.105
       231  -8.1860    218.7090    168.3887   1.0519999847e+02   9.5340670512e+00    0.1952988    0.1344259 -31.07 0.0004980976    1.544    0.352
       232  -8.7089    111.7192    167.8442   1.2670441137e+02   2.6857661058e+01    0.3110684    0.2009002  69.95     0.001113    2.247    0.555
       233  -8.0811     88.8501    169.0712   1.3214171907e+02   2.9857887336e+01    0.1954488    0.1503494  64.79   0.00120304    1.328    0.247
       234  -9.0830    184.9062    166.7782   1.1102431104e+02   1.5231301323e+01    0.2481276    0.1744074 -37.20 0.0007256183    1.567    0.362
       235  -9.0937    191.8822    166.4512   1.0963912777e+02   1.4123516636e+01    0.2736501    0.1747983 -38.35 0.0008001496    1.737    0.424
       236  -9.1001     20.6924    166.3256   1.4774035266e+02   3.7816948277e+01    0.3379724    0.1046487  52.08  0.001567335    2.824    0.646
       237  -8.7654     12.8546    167.0701   1.4954999617e+02   3.8290352636e+01    0.1984455   0.08698732  65.28  0.001078227    2.084    0.520
       238  -9.9296    136.6637    164.4602   1.2056821157e+02   2.3595668800e+01    0.5487588    0.2664033  53.83  0.002271319    2.838    0.648
       239  -9.9594     94.8314    162.2542   1.2982300323e+02   3.0376941471e+01    0.7651299    0.4753913  87.11  0.003166544    2.426    0.588
       240  -8.5128    233.8587    164.9296   1.0202552013e+02   7.6039509195e+00    0.2070455    0.1445856 -25.10 0.0007509867    1.408    0.290
       241  -8.7927    159.3609    164.4876   1.1571165376e+02   1.9850807158e+01    0.2369668    0.2190999  87.23 0.0007819704    1.458    0.314
       242  -8.2936     56.5997    164.5384   1.3921774002e+02   3.4722586895e+01    0.3019963    0.1623206  10.40  0.001351431    3.345    0.701
       243  -9.3677     33.6208    163.4634   1.4455840672e+02   3.7274428338e+01      0.50994    0.1393033  49.62  0.002118929    3.328    0.700
       244  -8.0884    239.9497    164.3439   1.0094271974e+02   6.7470616810e+00    0.1666583    0.1292931  11.64 0.0004702154    1.084    0.077
       245  -8.6099    212.9101    163.6676   1.0529802940e+02   1.1060175286e+01    0.2189174    0.1660933 -27.06 0.0005954919    1.372    0.271
       246  -8.6311    246.0249    162.8670   9.9714010564e+01   6.0056994860e+00    0.2038478    0.1437912 -15.19 0.0006494925    1.226    0.184
       247  -8.3691    204.8664    163.0376   1.0660147342e+02   1.2455196803e+01    0.1765224    0.1627917  -1.91 0.0005131081    1.268    0.211
       248  -9.4517      3.5147    162.4043   1.5142566708e+02   3.9915039325e+01     0.397208    0.1233911  48.36   0.00202223    2.524    0.604
       249  -8.1296    200.2884    162.6552   1.0735774983e+02   1.3263222640e+01    0.1111695    0.1046044 -70.12 0.0003373468    1.652    0.395
       250  -9.3532    177.4907    160.6983   1.1132319405e+02   1.7386933574e+01    0.3356036    0.2178506 -48.36  0.001046391    1.956    0.489
       251  -8.7552    151.9469    161.2006   1.1667920818e+02   2.1638688100e+01    0.2877992    0.2187097  73.76 0.0009093461    2.069    0.517
       252  -8.6500     61.0021    160.4808   1.3773828821e+02   3.5063257656e+01    0.3126364    0.1595225  57.56  0.001566077    2.082    0.520
       253  -7.7522    242.0475    160.0172   9.9775857334e+01   6.9278470637e+00    0.1484711    0.1118135  -4.32 0.0003573498    1.072    0.067
       254  -8.4499    227.2006    158.9160   1.0194126096e+02   9.3692950167e+00    0.2299713    0.1525299 -35.75  0.000957263    1.708    0.415
       255  -9.5589    105.7132    158.0772   1.2661917534e+02   2.9624097318e+01    0.3853932    0.2655342  77.58  0.001202886    2.024    0.506
       256  -9.4595    250.1982    157.8706   9.8108934827e+01   5.9446944659e+00    0.2594644    0.1418764 -26.04 0.0007991373    1.642    0.391
       257  -8.3005    236.6228    158.7677   1.0038452682e+02   7.9067060358e+00    0.1621792    0.1011775 -31.51 0.0005021388    1.643    0.391
       258  -8.1818    128.2629    159.1452   1.2154341788e+02   2.5911144692e+01    0.2400571    0.1585207  60.36 0.0008161836    1.950    0.487
       259  -8.3679    196.5138    158.0690   1.0715861000e+02   1.4538483373e+01    0.1831889    0.1753793  16.15 0.0006784925    1.314    0.239
       260  -8.2567    188.0919    157.8906   1.0871321358e+02   1.5998846443e+01    0.2144757    0.1634301 -45.54 0.0006745635    1.647    0.393
       261  -9.2938    167.5730    157.3545   1.1268384915e+02   1.9612456511e+01    0.2698446    0.2413665  83.45  0.001049842    1.603    0.376
       262  -8.3829    217.9971    156.5339   1.0301673619e+02   1.1158156073e+01     0.226644    0.1589442 -38.43 0.0007892784    1.696    0.410
       263  -9.4568    119.6089    155.2863   1.2288383757e+02   2.8021671201e+01    0.3885993    0.2698182 -87.59  0.001766305    2.274    0.560
       264  -8.9125    157.4848    156.0188   1.1453695564e+02   2.1571374420e+01    0.2241692    0.1920951 -60.80  0.001091713    1.503    0.335
       265  -9.1705     81.7018    154.8288   1.3197112022e+02   3.3675313141e+01    0.4146238    0.2264019  65.46  0.001400831    2.523    0.604
       266  -9.4021     49.7548    155.5648   1.3997691258e+02   3.7333213168e+01    0.3736821    0.1833487  57.14  0.001875501    2.109    0.526
       267  -8.5779     23.4774    155.9983   1.4642753694e+02   3.9721274615e+01    0.2165352    0.1161061 -32.23  0.001032246    3.484    0.713
       268  -9.1830    241.8307    154.3442   9.8689603605e+01   7.6201560879e+00     0.312107    0.2199985  67.16  0.001565643    3.358    0.702
       269  -8.3654    144.5353    154.9576   1.1714455632e+02   2.3971100952e+01    0.2434257    0.1756739  53.76 0.0007917154    1.573    0.364
       270  -9.6560    132.8219    152.9674   1.1941442777e+02   2.6304380106e+01    0.3853739    0.3225065  80.94   0.00118983    1.555    0.357
       271  -9.3982    133.3199    148.3339   1.1844349907e+02   2.7082648591e+01    0.3431411    0.2067272 -38.81  0.001690008    1.808    0.447
       272  -9.5801     67.9674    153.8518   1.3525728170e+02   3.5627291878e+01    0.4050716    0.2076375  65.63  0.001348426    2.604    0.616
       273  -8.3092    151.5986    152.8176   1.1519201905e+02   2.3134696362e+01    0.1763057    0.1283229 -55.13  0.000776451    1.696    0.410
       274  -9.1788     20.1242    152.5223   1.4700159602e+02   4.0730141456e+01    0.2423966    0.1257407  45.54 0.0008977245    1.721    0.419
       275  -9.4874     29.3471    150.7137   1.4460094333e+02   4.0342528922e+01    0.4197243    0.1615447  62.23  0.001833275    2.993    0.666
       276  -9.3728    248.8972    149.3647   9.6612228711e+01   7.1055002637e+00    0.2853897    0.1554645 -23.77 0.0007781221    1.604    0.376
       277  -8.5575    247.0294    144.0287   9.5803492249e+01   8.0146728095e+00    0.2109445    0.1439942 -14.16 0.0005815953    1.227    0.185
       278  -8.4434    243.2497    150.3425   9.7666509842e+01   7.8683142759e+00    0.2560657    0.1194253 -32.49  0.001251926    2.053    0.513
       279  -8.8506    189.4712    150.2854   1.0692503041e+02   1.6889556570e+01    0.2695546    0.2017505 -49.02 0.0008062573    1.756    0.431
       280  -8.1859    182.6010    151.3132   1.0846809381e+02   1.7942698815e+01    0.1795148    0.1623162 -80.22 0.0005523492    1.659    0.397
       281  -8.1874    162.7425    150.9433   1.1243938320e+02   2.1506431848e+01    0.1961827    0.1581311 -74.60  0.001048891    1.923    0.480
       282  -8.5786     98.1639    150.6583   1.2728520211e+02   3.2227577385e+01    0.2692834    0.1923631  80.13  0.001029276    1.807    0.447
       283  -7.7769    204.8134    155.5909   1.0514587644e+02   1.3480666991e+01    0.1609288    0.1168373  44.92  0.000449424    1.548    0.354
       284  -8.2269    212.9821    149.9905   1.0255831856e+02   1.2859819727e+01    0.1743286    0.1586073 -51.42 0.0005018534    1.613    0.380
       285  -9.8208     39.8653    147.3968   1.4165852612e+02   4.0088777683e+01    0.5940282    0.3056956  77.66  0.002206552    2.216    0.549
       286  -8.3439    198.8441    149.0834   1.0491269562e+02   1.5422704052e+01    0.1814843    0.1734369 -14.79 0.0004813583    1.307    0.235
       287  -9.8595     89.1352    146.1994   1.2884773222e+02   3.4455118786e+01    0.5988743    0.3401313  79.19  0.002416353    3.257    0.693
       288  -8.8549    233.3594    147.9692   9.8733325494e+01   9.7306765303e+00    0.1798143    0.1324596 -14.34 0.0004039155    1.178    0.151
       289 -10.7108     54.9404    143.3866   1.3732099214e+02   3.9398242721e+01    0.9254009    0.5119163 -84.04  0.003104456    1.990    0.498
       290  -7.9308    223.3073    146.7891   1.0013259745e+02   1.1539406554e+01    0.1678846    0.1411514  17.46 0.0004892542    1.146    0.127
       291 -10.2407    149.1833    145.1479   1.1422109614e+02   2.4907756372e+01    0.4904726    0.3538468  75.90  0.001975311    2.393    0.582
       292  -9.6733    139.0653    144.9263   1.1646448090e+02   2.6728406795e+01    0.4785205    0.3011121 -62.49  0.001474377    2.240    0.554
       293  -8.8879    140.0340    137.4839   1.1474172491e+02   2.7943156681e+01    0.3032144    0.1956377  12.51  0.001355903    2.183    0.542
       294 -10.1303    106.6309    144.0322   1.2408015343e+02   3.2294120004e+01    0.6635308    0.4465232 -85.10   0.00218957    2.195    0.544
       295  -8.5279     77.9882    147.0389   1.3181792608e+02   3.5802533048e+01    0.2104435    0.1401446  67.38  0.000599222    1.719    0.418
       296  -9.4583     13.5928    146.4470   1.4821131049e+02   4.2530640709e+01    0.3754746    0.1268358  50.59  0.001245741    2.649    0.622
       297  -9.4280    240.7531    144.8440   9.6926662266e+01   8.9166519587e+00     0.342002    0.1846951  13.72  0.001307472    2.201    0.546
       298  -8.4230    175.5199    146.2045   1.0883589016e+02   2.0005072148e+01    0.2052806    0.1801946  52.22 0.0006809436    1.374    0.272
       299  -9.8697    125.1751    142.8450   1.1932282072e+02   2.9509703761e+01    0.5021868    0.3536873  87.16  0.001749068    2.380    0.580
       300 -10.6980     68.8185    141.9365   1.3348270326e+02   3.8079488704e+01    0.5050074    0.4018013 -71.62  0.002313186    1.232    0.188
       301  -9.5341     70.2036    134.1256   1.3198172634e+02   3.9625222738e+01    0.3362933    0.2019083   2.01  0.001420646    3.168    0.684
       302  -7.6781    218.2860    144.6447   1.0053155947e+02   1.2671000726e+01    0.1174675    0.1012983 -49.42 0.0007021964    1.671    0.402
       303  -7.7740    194.4024    144.1725   1.0471604977e+02   1.6924876429e+01    0.1784377    0.1194992 -42.79 0.0005700517    1.742    0.426
       304  -8.6898    165.5719    144.1365   1.1046369617e+02   2.2140623143e+01    0.2356554    0.1818062  39.76 0.0006574805    1.264    0.209
       305  -9.8285      2.5426    141.2915   1.5066665703e+02   4.4397224835e+01    0.4352407    0.1591863  78.77  0.002027124    2.707    0.631
       306  -8.3615    182.0786    141.7543   1.0658546086e+02   1.9522602696e+01    0.2194945    0.1810218 -42.04 0.0005820716    1.405    0.288
       307  -7.6495    250.3849    141.1210   9.4704376097e+01   7.8246942785e+00     0.162606   0.09778296 -31.23 0.0005259897    1.612    0.380
       308  -9.5618    134.1452    138.5507   1.1634130342e+02   2.8788763807e+01    0.3224817    0.2296612 -51.54 0.0004855227    1.531    0.347
       309  -7.9121    206.7554    146.5698   1.0295023820e+02   1.4399137622e+01    0.1619694     0.121584  45.37  0.000435963    1.512    0.339
       310  -9.8398     23.5180    138.1354   1.4507331493e+02   4.3580157725e+01    0.5516216    0.2322182  64.43  0.002206258    2.641    0.621
       311  -8.5462    172.4480    138.3184   1.0779719646e+02   2.1848142338e+01     0.256307    0.2114336 -73.04 0.0006083998    1.853    0.460
       312  -7.6926    218.5072    138.5468   9.9196263697e+01   1.3447251149e+01     0.131293    0.1109493   0.79 8.908582e-05    1.044    0.042
       313  -8.1668    207.1004    138.0062   1.0106311567e+02   1.5541598686e+01    0.1852181     0.164153 -58.27 0.0007136753    1.645    0.392
       314  -8.6352    197.5764    137.5247   1.0269309477e+02   1.7335251318e+01    0.2485009    0.1914012 -43.57 0.0008107621    1.561    0.359
       315  -8.9779    150.8483    136.3433   1.1202904668e+02   2.6187259933e+01    0.3766216    0.2449687  14.26  0.001732344    2.015    0.504
       316 -10.2384     83.4374    132.9082   1.2818997150e+02   3.8113907423e+01    0.4937152     0.308055 -73.30  0.001171432    1.830    0.453
       317  -8.3952    162.6937    136.5284   1.0946538866e+02   2.3962129592e+01    0.2160517    0.1715563 -62.43 0.0006713193    1.719    0.418
       318  -9.3358     39.0836    136.0672   1.4071989612e+02   4.2666931937e+01    0.2711179    0.1735283  83.75 0.0007534473    1.552    0.356
       319  -8.8162    248.3816    135.3073   9.3780922310e+01   8.8238781278e+00    0.2373329    0.1713859 -23.74 0.0006437372    1.274    0.215
       320  -8.2658    246.9425    130.3855   9.2941135921e+01   9.6433232665e+00    0.2088278    0.1436044 -26.71 0.0006457946    1.340    0.253
       321  -7.7490    187.8752    135.8146   1.0416070032e+02   1.9381427490e+01     0.171177     0.161276 -38.40 0.0004534895    1.305    0.234
       322  -8.6411    179.6251    134.2571   1.0544547815e+02   2.1169421260e+01    0.2178022    0.2092282 -50.38 0.0007503946    1.310    0.237
       323  -7.6208    231.4919    133.9813   9.6076826888e+01   1.1797147050e+01     0.185599    0.1118884 -24.99 0.0004432039    1.487    0.327
       324  -9.2159    112.9063    133.2159   1.2049058323e+02   3.3496646102e+01    0.3287394    0.2492474  81.13 0.0009275693    1.787    0.441
       325  -7.5140    237.2761    133.6374   9.5096610703e+01   1.0857865868e+01    0.1190889    0.0939978 -42.82  0.000700759    1.666    0.400
       326 -10.1402    132.1923    131.0271   1.1524760302e+02   3.0586469766e+01    0.5484594    0.3541592 -67.14  0.001695445    2.308    0.567
       327 -10.9734    131.6446    118.9805   1.1270540153e+02   3.3050918619e+01    0.8227346    0.5233383 -70.45  0.002883146    2.709    0.631
       328 -10.0605    133.6011    109.3685   1.0990376361e+02   3.4571420219e+01    0.6036639    0.3259508 -51.08  0.001839838    2.065    0.516
       329 -10.6288     98.5546    130.8552   1.2376954945e+02   3.6309726441e+01    0.6049224    0.3086405 -61.98   0.00183592    2.218    0.549
       330  -8.7509     98.8703    120.7575   1.2169946378e+02   3.8435450757e+01    0.4852511    0.3085364  -0.45   0.00194545    2.992    0.666
       331  -8.9856    142.9380    131.6235   1.1282391305e+02   2.8512498472e+01    0.2678412    0.2327944 -82.99 0.0007404994    1.503    0.335
       332  -8.5489    250.7495    130.2242   9.2354000349e+01   9.0392564950e+00    0.3529979   0.09604703 -25.54  0.001280495    3.518    0.716
       333 -10.1209     73.4905    128.3862   1.3017134511e+02   4.0478885747e+01    0.6383175    0.3039363 -60.00  0.001829088    2.018    0.505
       334 -10.0851     12.8504    128.8749   1.4720633957e+02   4.6451858915e+01    0.5638592    0.2350401  77.70  0.002602583    2.574    0.612
       335  -8.0198    204.6760    130.2248   9.9775685251e+01   1.7096545549e+01    0.1987168    0.1567087 -35.84 0.0006152266    1.378    0.274
       336  -8.3208    192.9646    130.2951   1.0195206061e+02   1.9276294848e+01    0.1875281    0.1653355  15.97 0.0003737318    1.073    0.068
       337  -9.3659    168.2892    129.3867   1.0669011122e+02   2.4127225110e+01    0.2886327    0.2355248 -57.79 0.0008235085    1.583    0.368
       338  -9.4675    152.9316    129.0250   1.0996097457e+02   2.7120954278e+01    0.3419146    0.2332972 -56.43 0.0006746089    1.875    0.467
       339  -8.5139     26.1026    129.8687   1.4365043973e+02   4.5223354778e+01    0.2501824     0.150706   3.62  0.001329578    2.460    0.594
       340  -7.8689      1.4434    130.2027   1.5035528019e+02   4.6887277366e+01    0.1658192   0.08692957  81.57 0.0009411342    1.656    0.396
       341  -7.8199    220.6874    129.7074   9.6892777329e+01   1.4249628897e+01    0.1364816   0.09011085   9.61 0.0005297428    1.592    0.372
       342  -7.9235    211.5761    128.8746   9.8253658514e+01   1.6016286453e+01    0.1859072    0.1152276 -39.53 0.0007209417    1.753    0.430
       343 -10.6865     44.9441    123.6826   1.3761795614e+02   4.4907768404e+01     1.050027    0.4718206  72.43  0.003870683    3.820    0.738
       344  -9.8918    117.9010    125.3463   1.1760089659e+02   3.4261136162e+01    0.5125632    0.3475765  73.69  0.001293086    2.366    0.577
       345 -10.3721     60.0425    125.1820   1.3347363138e+02   4.2895820368e+01    0.6874129    0.3668733  73.85  0.002469783    2.851    0.649
       346  -8.0916    228.5605    125.7329   9.4724221195e+01   1.3371679406e+01    0.1754069    0.1109963 -34.01 0.0008952985    1.565    0.361
       347  -9.0882    179.3521    124.6856   1.0332344947e+02   2.2770776331e+01    0.2552721    0.2531309  30.20 0.0006835549    1.237    0.192
       348 -10.2617     28.2170    122.2707   1.4229843770e+02   4.6786808667e+01    0.7922038    0.3233462  73.53  0.003034095    3.640    0.725
       349  -8.5605     27.0135    114.0000   1.4175179126e+02   4.8810776013e+01    0.2006516    0.1507268  12.65  0.001228115    1.654    0.395
       350  -7.8232    188.4131    124.1535   1.0141145169e+02   2.1094716401e+01    0.1891701    0.1249797 -42.37 0.0005614739    1.662    0.398
       351  -8.3805     85.4111    122.6511   1.2581848556e+02   4.0094912373e+01    0.3543925    0.1903046  14.87  0.001332567    3.364    0.703
       352  -7.7759    202.9930    122.2224   9.8243406237e+01   1.8578596806e+01    0.1912901    0.1391785 -43.89  0.000551779    1.610    0.379
       353  -8.4528    172.0238    121.5475   1.0408746995e+02   2.4727054056e+01    0.2417353    0.1909242 -46.99 0.0004562957    1.447    0.309
       354  -9.1756    158.6651    121.4084   1.0692627079e+02   2.7382547883e+01    0.3244856    0.2458678 -74.01  0.001192083    2.109    0.526
       355  -9.9478    141.5345    118.7280   1.1023542353e+02   3.1216182593e+01    0.4233133     0.290089 -60.79  0.001316992    1.925    0.480
       356  -9.4963    245.1169    118.5781   9.0614185746e+01   1.1376910598e+01    0.2655772     0.220998 -13.19  0.001412914    1.107    0.097
       357  -9.7469      2.9505    117.1588   1.4914061038e+02   4.9732403383e+01    0.5034478    0.1981246  70.94  0.002305404    2.681    0.627
       358  -7.6159    231.5047    117.5101   9.2398594511e+01   1.3912209414e+01     0.132892     0.111625  -7.45 0.0008102476    1.041    0.039
       359  -7.8431    219.4359    116.5251   9.4086912372e+01   1.6266769546e+01     0.135978    0.1155625  -5.75  0.000117938    1.021    0.020
       360  -9.7432    109.1478    114.2943   1.1748666006e+02   3.8099794562e+01    0.4472626    0.3240202 -82.06  0.001460454    1.966    0.491
       361  -8.7110     58.6444    115.6837   1.3238945017e+02   4.5253132389e+01    0.2081779    0.1464921 -34.24  0.001077771    1.734    0.423
       362  -7.9722    193.1465    115.1644   9.8370013250e+01   2.1559008662e+01    0.1837734    0.1584562 -41.15 0.0004032002    1.320    0.242
       363  -9.5452     71.1796    119.8878   1.2939099811e+02   4.2708165184e+01    0.3860531     0.229875 -81.16  0.001328728    2.100    0.524
       364  -9.9291     92.6993    112.5982   1.2171938811e+02   4.1215038801e+01    0.4806266    0.3085074 -71.95  0.001258028    1.952    0.488
       365  -9.0840     93.5135    104.9721   1.1977963987e+02   4.2776395357e+01    0.5290076    0.3115582   7.11  0.001877969    3.640    0.725
       366  -9.9206     78.8085    112.5672   1.2577761136e+02   4.3326250953e+01    0.5597986    0.3827125 -85.13  0.001978161    1.850    0.459
       367  -8.4356     78.2629    105.6628   1.2452316240e+02   4.4983138029e+01    0.3594304    0.2268996 -14.77  0.001359862    2.797    0.642
       368  -8.0955    167.0827    114.2995   1.0337651543e+02   2.6949315008e+01    0.1983842    0.1846426  18.86 0.0006240145    1.067    0.063
       369  -8.7857    174.5043    111.9673   1.0124253752e+02   2.5835043068e+01    0.2726815    0.2324879 -61.84 0.0008809604    1.524    0.344
       370  -9.9787    121.6093    112.1798   1.1366369209e+02   3.6295693450e+01    0.4155515    0.3106564 -82.07  0.001305234    1.969    0.492
       371  -8.4932    159.2899    111.8666   1.0446766302e+02   2.8956980742e+01    0.2509487    0.2164416 -67.08  0.000712776    1.490    0.329
       372  -9.9235     66.5073    109.6074   1.2892616415e+02   4.5690546169e+01    0.6235071    0.2973037 -56.44  0.002441001    1.926    0.481
       373  -9.9513     14.3541    111.2895   1.4531110394e+02   5.0384207374e+01    0.3723014    0.1955745  65.81  0.001209291    1.975    0.494
       374 -10.1652    248.9471    107.8478   8.7650351337e+01   1.2011801074e+01    0.4158551    0.1943011 -24.84  0.001631578    1.831    0.454
       375  -7.9139    182.8617    109.3668   9.8911113163e+01   2.4549165697e+01    0.1950041    0.1686897 -33.11 0.0004994695    1.195    0.163
       376  -8.7299     43.4484    109.4561   1.3608046583e+02   4.8386250594e+01    0.3107227    0.1338867  22.89  0.001344292    2.784    0.641
       377  -8.1619    189.3132    108.0484   9.7334821095e+01   2.3434847913e+01    0.2043742    0.1667846 -26.33 0.0005290701    1.171    0.146
       378  -9.0093    109.4461    107.4030   1.1579558304e+02   3.9513242204e+01    0.3207533    0.2254892 -16.63  0.001181489    1.939    0.484
       379  -9.2030    139.9855    104.7767   1.0715554943e+02   3.4192385970e+01    0.3472238    0.2805984  89.89  0.001044726    1.772    0.436
       380 -10.5016     45.8229    102.6465   1.3424491196e+02   4.9758695111e+01    0.7730954    0.3855543  67.05  0.003081866    3.143    0.682
       381 -10.6574     22.9626    102.6511   1.4168953911e+02   5.1810300997e+01     0.762908    0.3485388  70.55  0.002921454    2.882    0.653
       382  -8.6543    166.8760    104.4218   1.0091605261e+02   2.8691456850e+01    0.2676463    0.1958087 -49.55   0.00070741    1.574    0.365
       383  -9.5707    150.6479    103.3160   1.0423494623e+02   3.2279407275e+01    0.4043677    0.2821801 -61.03  0.001166419    1.971    0.493
       384  -9.3477      7.1068    103.3582   1.4683045826e+02   5.2691605583e+01    0.3030789    0.1555087  59.06  0.001307702    2.009    0.502
       385  -9.3511    128.5337    102.1818   1.0935975938e+02   3.6991774459e+01    0.3252553    0.2637255 -86.39 0.0007558453    1.702    0.412
       386 -10.5770    108.8711     98.7696   1.1380514968e+02   4.1453934624e+01    0.9366589    0.5320641  66.69  0.001433183    3.650    0.726
       387  -8.0391    175.5160    102.1006   9.8513311789e+01   2.7262610516e+01    0.2172237    0.1372549 -34.08 0.0005324698    1.530    0.346
       388  -8.3383    159.8005    101.2920   1.0162765250e+02   3.0725669666e+01    0.2455338    0.1902113 -45.41  0.000496934    1.382    0.276
       389  -9.1083     82.1240    100.0723   1.2209552028e+02   4.5684265672e+01    0.3388293    0.2434479 -84.58 0.0008236382    1.801    0.445
       390  -9.0109     94.9574     97.0492   1.1743781572e+02   4.4290058457e+01    0.3106115    0.2024626 -59.75 0.0005526688    1.636    0.389
       391  -9.9141     63.9716     96.0103   1.2701410381e+02   4.9201554782e+01     0.507816    0.3102908  82.49  0.001610099    2.597    0.615
       392  -8.2914    164.9190     94.3095   9.8627872354e+01   3.0841411700e+01    0.2499237     0.188982 -42.33 0.0004915238    1.372    0.271
       393  -8.1744    176.5905     93.5825   9.6022691455e+01   2.8426286919e+01     0.279476    0.2032178 -63.80 0.0008456144    2.010    0.503
       394  -9.1710     45.8356     92.9017   1.3251853756e+02   5.2085258541e+01    0.4149513    0.2280335   7.39  0.001818701    2.827    0.646
       395  -7.6132    188.4993     93.5301   9.3720855497e+01   2.5859168992e+01    0.1446476    0.1331474 -11.01  0.000396197    1.049    0.047
       396  -9.2981    138.8747     92.1085   1.0400370383e+02   3.6837261259e+01    0.3782029    0.2705947 -62.67 0.0009146591    1.874    0.466
       397 -10.1689    123.8315     91.3001   1.0765033605e+02   4.0107109211e+01    0.5906398    0.4997572   8.56  0.001314347    1.290    0.225
       398  -8.2160    157.6814     91.5200   9.9428334805e+01   3.2898632034e+01    0.2569844    0.1328721 -35.89 0.0005704136    1.881    0.468
       399  -9.4954     34.9230     90.0862   1.3582151994e+02   5.3834387709e+01    0.4519681    0.2439934  78.64  0.001485575    2.578    0.612
       400  -8.8792     23.3200     90.1487   1.3991985582e+02   5.4778125500e+01    0.2476371    0.2242537   6.42  0.001577279    1.333    0.250
       401  -9.0846    108.1857     92.4910   1.1233762682e+02   4.2911773899e+01     0.501686    0.2898747  21.35  0.001945622    2.607    0.616
       402  -8.2680    150.8739     89.1416   1.0029454785e+02   3.4805302258e+01    0.2220337    0.2026508 -55.54 0.0005428565    1.238    0.192
       403  -9.8598     86.3924     86.5190   1.1737036275e+02   4.8065506996e+01    0.5563412    0.3567684 -68.68  0.001356663    1.986    0.496
       404  -8.9443     66.7730     87.2696   1.2409146664e+02   5.0872504651e+01    0.5390477    0.2320163  18.61  0.001704533    4.622    0.784
       405  -9.8363     48.3985     84.0751   1.2984198518e+02   5.3918568277e+01    0.6048686    0.3574819 -89.78  0.002181761    2.380    0.580
       406  -9.6774    104.8244     83.2266   1.1071389695e+02   4.5498223604e+01    0.4091586    0.3001501 -69.80  0.001023873    1.799    0.444
       407  -8.3785    157.9149     84.1199   9.7259186171e+01   3.4130192147e+01    0.2196335    0.1998675 -52.18 0.0004268825    1.228    0.186
       408  -9.0072    140.5966     82.7978   1.0087900504e+02   3.8203734893e+01    0.2857206    0.2376225 -55.27 0.0006265632    1.364    0.267
       409  -9.5176      5.4136     92.4477   1.4637494970e+02   5.5360910708e+01    0.3423357    0.1726078  50.72  0.001108055    2.112    0.526
       410  -9.5220     10.0519     81.4247   1.4351886680e+02   5.7744767784e+01    0.4090043    0.1862623  62.13  0.001568096    2.750    0.636
       411  -9.6576     24.7804     80.6665   1.3792283912e+02   5.6955817581e+01    0.4432376    0.2479444  79.63  0.001289558    2.228    0.551
       412  -8.2551    150.4623     80.9698   9.7999320064e+01   3.6344987527e+01    0.2287259    0.1430181 -37.06  0.000907116    1.555    0.357
       413  -8.7226    119.4395     80.3290   1.0563878323e+02   4.3188420642e+01    0.3430572    0.2284201 -57.68 0.0008949117    1.837    0.456
       414  -8.8325     74.6542     80.5757   1.1967217164e+02   5.1272034524e+01    0.3166579    0.2109272 -68.96  0.001042522    1.760    0.432
       415  -8.2303    166.8185     79.7167   9.4077394325e+01   3.2857986110e+01    0.2500677    0.1896708 -19.28 0.0004288225    1.311    0.237
       416  -9.0554     65.4782     77.9706   1.2219927246e+02   5.3211149272e+01    0.2785068    0.2235318 -80.57  0.001216049    1.424    0.298
       417  -9.8218     63.2828     73.4576   1.2177905639e+02   5.4557469574e+01    0.4714483    0.2686895 -66.93  0.001353055    2.029    0.507
       418  -7.9415    183.7030     78.6727   9.0497790310e+01   2.9188449990e+01    0.1525922     0.108983  12.04 0.0002854926    1.632    0.387
       419  -7.7882    174.5741     78.5281   9.2179126959e+01   3.1282436570e+01    0.1486059    0.1372136 -10.74 0.0001393494    1.014    0.014
       420  -8.5091    105.0076     77.0387   1.0880203548e+02   4.6750552043e+01    0.2342395    0.1788697  -5.11  0.000543529    1.627    0.386
       421  -7.7741    157.1717     76.4327   9.5134609161e+01   3.5602827386e+01    0.1968506    0.1487794  66.95 0.0004713368    1.620    0.383
       422  -8.7614    140.3637     75.4202   9.8683754569e+01   3.9593244771e+01    0.2850784    0.1779272 -39.69 0.0006609882    1.573    0.364
       423  -9.2700    128.0408     75.3878   1.0178607515e+02   4.2320147070e+01    0.3550552    0.2609403 -53.12   0.00085406    1.533    0.348
       424  -9.6070     82.4107     72.8177   1.1477497437e+02   5.1761093082e+01    0.4156555    0.2937247 -73.06  0.001093778    1.914    0.477
       425  -8.3971    163.1908     73.6551   9.3013844040e+01   3.4674472830e+01    0.2653134    0.1897556 -39.64 0.0007172077    1.396    0.284
       426  -8.0647    151.4996     73.5081   9.5489179230e+01   3.7396751077e+01    0.1510039     0.143561 -11.70 0.0008104718    1.029    0.028
       427  -8.7148    115.7136     72.5170   1.0423958374e+02   4.5497054305e+01    0.3827496    0.1934768 -45.18   0.00113721    1.982    0.496
       428  -8.4307     42.4449     72.8092   1.2955785328e+02   5.7250098102e+01    0.2512442    0.1228851 -67.52 0.0007997723    1.998    0.499
       429  -7.6979    175.5288     72.5258   9.0229188676e+01   3.1993659512e+01    0.1493635    0.1381517  -5.51 0.0001342065    1.009    0.009
       430  -8.8117    105.9057     71.6859   1.0684358861e+02   4.7665133256e+01    0.2820703    0.2080652 -51.77 0.0006855639    1.426    0.299
       431  -9.1083     95.1676     71.2159   1.1003871272e+02   4.9836777566e+01     0.350327    0.2389213 -61.81 0.0008882408    1.799    0.444
       432  -9.3088     51.4544     69.6898   1.2525384991e+02   5.6968644642e+01    0.4782524    0.2589744 -75.70  0.001384763    2.587    0.613
       433  -7.4832    170.4709     71.5002   9.0895390233e+01   3.3325906125e+01    0.1495519    0.1400892 -11.32 0.0008098908    1.020    0.019
       434  -8.6752     28.6315     70.8636   1.3461831551e+02   5.9013927879e+01    0.2705095    0.1699695 -32.15  0.001002122    1.813    0.448
       435  -8.3744     32.2728     67.9939   1.3252971479e+02   5.9388541255e+01    0.2089997    0.1946878   5.37 0.0008420073    1.238    0.192
       436  -8.9330     16.8946     70.2664   1.3924228177e+02   6.0022664038e+01    0.3045989    0.1865714  64.74 0.0009760531    1.960    0.490
       437  -8.7677    147.0240     68.4563   9.4908004447e+01   3.9284702368e+01    0.2808577     0.198316 -46.33 0.0004658926    1.512    0.339
       438  -8.7999    138.8185     66.3317   9.6145148071e+01   4.1543350216e+01    0.3287947    0.1944669 -47.21 0.0007919189    1.861    0.463
       439  -8.8610    121.6103     66.1814   1.0051186009e+02   4.5440187927e+01    0.3315654     0.232076 -57.96 0.0008052107    1.790    0.441
       440  -8.8672    110.1891     63.7767   1.0292955108e+02   4.8342909050e+01    0.3193565    0.2230179 -59.62 0.0007928125    1.823    0.452
       441  -7.6760     83.2904     65.3562   1.1210933806e+02   5.3220296194e+01    0.1512232    0.1091473 -17.19 0.0007027476    1.683    0.406
       442  -8.6964     64.8175     63.4686   1.1826232926e+02   5.6604770304e+01    0.4541351    0.2705915 -10.24  0.001743114    3.149    0.682
       443  -8.7992     37.1786     64.2747   1.2962504231e+02   5.9812600728e+01    0.3200247    0.2112929 -88.38   0.00105584    1.915    0.478
       444  -7.9728    158.3374     62.0968   9.0398270013e+01   3.7651821125e+01    0.2151044     0.127678 -40.06 0.0004020675    1.680    0.405
       445  -9.2313     97.4015     60.7609   1.0581441370e+02   5.1536426981e+01    0.2775851    0.2583914  34.86 0.0008710248    1.130    0.115
       446  -9.5199     73.3109     59.7643   1.1383481654e+02   5.6100280421e+01    0.3776644    0.2406489 -60.07 0.0009672301    1.795    0.443
       447  -7.7683    164.4235     59.8258   8.8446596954e+01   3.6541383092e+01    0.2053462     0.140247 -12.33 0.0004509858    1.602    0.376
       448  -8.0822    146.8542     59.5698   9.2030829321e+01   4.0789146143e+01    0.1962835    0.1499422  70.83 0.0004687999    1.593    0.372
       449  -8.1183     88.9838     59.3441   1.0809772702e+02   5.3439227574e+01    0.1971515    0.1889231  -9.43 0.0004818286    1.049    0.047
       450  -9.8197     23.5738     56.6682   1.3367128057e+02   6.2810589298e+01    0.4736639     0.264629  82.47  0.002060527    2.730    0.634
       451  -9.4581      7.4534     57.3309   1.4102849292e+02   6.3667381508e+01    0.3207462     0.191465  80.18  0.001087698    1.904    0.475
       452  -7.7924    174.3527     57.9586   8.5996443853e+01   3.4427700364e+01     0.249052    0.1223416  -3.11 0.0007044757    4.410    0.773
       453  -8.0516    130.7968     58.0297   9.5306015276e+01   4.4817884112e+01    0.2299364     0.197717 -55.38 0.0005559237    1.314    0.239
       454  -8.9307    119.2304     56.1448   9.7669489219e+01   4.7781218717e+01    0.3341625    0.2399175 -62.56 0.0008412937    1.887    0.470
       455  -9.5393     54.3328     55.7564   1.1998976528e+02   5.9795054748e+01    0.3601971    0.2316789 -67.10 0.0009859418    1.815    0.449
       456  -7.4114    197.3380     56.2847   8.1721908807e+01   2.9203611135e+01    0.1484355     0.104322  23.48 0.0004189051    1.629    0.386
       457  -8.0017    139.8587     56.5742   9.2606634893e+01   4.2934746134e+01    0.1981609    0.1497556  70.27 0.0004816662    1.615    0.381
       458  -8.8088     44.0409     55.3942   1.2425415328e+02   6.1152147403e+01     0.290123    0.1771241 -66.44  0.001044436    1.717    0.418
       459  -8.3780    105.6792     53.2587   1.0050880555e+02   5.1264951283e+01    0.2502533    0.2250709 -65.58 0.0006528732    1.314    0.239
       460  -9.4218     92.3191     50.7432   1.0380668288e+02   5.4485369762e+01    0.3928754    0.2405971 -49.95 0.0009889973    1.780    0.438
       461  -7.8644    149.9976     48.9430   8.7723838682e+01   4.1665698486e+01    0.1822098    0.1690802 -12.64 0.0004457264    1.033    0.032
       462  -8.1706    144.5761     48.9795   8.8889554812e+01   4.2986108188e+01    0.2319499    0.1424022 -30.54 0.0004602891    1.573    0.364
       463  -8.0984    129.9701     49.2830   9.2380321175e+01   4.6454935094e+01     0.206936    0.2013958  19.23 0.0004256803    1.062    0.059
       464  -8.6417    120.9118     47.5811   9.4055752721e+01   4.8854162146e+01    0.2658137     0.207834 -35.45 0.0005451881    1.255    0.203
       465  -8.4232    112.0289     47.1643   9.6330503626e+01   5.0949989030e+01    0.2251946    0.1975751 -60.70  0.000657497    1.341    0.254
       466  -8.8606     82.1035     46.6411   1.0576114583e+02   5.7239671832e+01      0.27515    0.2213002 -55.58 0.0005904689    1.411    0.291
       467  -8.6841     44.9655     44.7301   1.2033353128e+02   6.3434069565e+01    0.2509646    0.1799816 -58.75 0.0004098777    1.373    0.272
       468  -8.8206     16.7606     44.7710   1.3396999291e+02   6.6101089528e+01    0.2435924    0.1554271 -76.58 0.0006252194    1.570    0.363
       469  -8.6857    132.9143     43.6292   8.9579057222e+01   4.6626985255e+01    0.2948958     0.208059 -41.24 0.0008636766    1.456    0.313
       470  -8.7693     58.1336     42.7369   1.1370501960e+02   6.2066950640e+01    0.3002972    0.1873672 -60.82 0.0009763615    1.962    0.490
       471  -7.5795    101.6442     43.2947   9.7875277418e+01   5.3898666693e+01    0.1458604    0.1193272 -76.15  0.000332072    1.692    0.409
       472  -8.2760     92.8534     42.6767   1.0043284876e+02   5.5861497650e+01    0.2360591    0.1793541  18.62  0.000800207    1.459    0.315
       473  -9.3183     69.6251     41.7969   1.0854967491e+02   6.0415357151e+01    0.3907858    0.2690503 -65.83  0.001150769    2.136    0.532
       474  -9.5176      5.1394     41.9491   1.3917054711e+02   6.7420128001e+01    0.3763391    0.1903086 -87.56  0.001677137    2.276    0.561
       475  -8.7122    250.6371     41.7759   7.1507390450e+01   1.9263823570e+01    0.2113617    0.1067222 -21.18 0.0002932134    1.745    0.427
       476  -8.5828    105.9740     41.4821   9.5837095126e+01   5.3255339522e+01    0.2756998    0.1946058 -46.41 0.0005182488    1.536    0.349
       477  -7.8233    140.4158     41.4853   8.7091678068e+01   4.5106697141e+01    0.1494112    0.1416925  -9.60 0.0008042996    1.024    0.023
       478  -8.3463     36.9148     41.0743   1.2284652641e+02   6.5171336704e+01    0.1951935    0.1707307 -76.82 0.0005111666    1.336    0.252
       479  -8.7873     95.5109     38.1121   9.7663550135e+01   5.6096098203e+01    0.3129098    0.1877999 -49.27 0.0007464866    1.959    0.490
       480  -7.9631     80.6342     36.8255   1.0222108145e+02   5.9342997407e+01    0.2022317    0.1260108 -45.24 0.0004373281    1.649    0.394
       481  -7.7865    133.5127     36.4730   8.6728648597e+01   4.7519647382e+01    0.1499278     0.141736   6.66 0.0002071948    1.005    0.005
       482  -8.1546    125.9275     35.6998   8.8185677397e+01   4.9487276909e+01     0.204779    0.1881657  45.02 0.0003753694    1.108    0.098
       483  -8.5089    111.8279     34.7157   9.1392182689e+01   5.2992303319e+01    0.2722131    0.1766444 -52.23 0.0006995987    1.924    0.480
       484  -8.5971    104.5816     34.7577   9.3456346684e+01   5.4648924820e+01    0.2109298    0.1315116 -40.66  0.000536735    1.639    0.390
       485  -9.2756    243.1566    246.6953   1.1384588726e+02  -1.8176255047e+00     0.326125     0.163655 -17.43  0.001964671    2.017    0.504
       486  -8.7934     48.4733     33.5648   1.1431966317e+02   6.5335851957e+01    0.2450164    0.2074253 -57.05 0.0007700683    1.316    0.240
       487  -8.7907     60.4965     32.6008   1.0840855048e+02   6.3713514281e+01    0.2674047    0.2225779 -62.89 0.0006675923    1.523    0.343
       488  -9.0037     72.1075     31.3314   1.0300586648e+02   6.1929811488e+01    0.2645249    0.1916326 -43.85 0.0004673467    1.405    0.288
       489  -9.1657     12.9431     30.5509   1.3195403767e+02   6.9615340733e+01    0.2748823    0.1665958 -73.70  0.001153982    1.711    0.415
       490  -7.6949    192.1775     29.8449   7.4453276391e+01   3.3619899986e+01    0.1863944    0.1561769  25.72 0.0002676454    1.269    0.212
       491  -7.8457     42.0068     30.0060   1.1595209420e+02   6.6920614997e+01     0.168946    0.1324428 -39.30 0.0004956678    1.102    0.093
       492  -8.1916    101.4660     29.1126   9.1920959085e+01   5.6211969336e+01    0.2215015    0.1373964 -31.32 0.0006629323    1.552    0.356
       493  -8.7865     81.4626     27.5890   9.7733133851e+01   6.0752335484e+01     0.282476    0.2075788 -59.07 0.0007793386    1.879    0.468
       494  -8.9158      3.4740     27.5176   1.3655694394e+02   7.0827395173e+01    0.2812989    0.1779202  86.48  0.001467761    1.982    0.495
       495  -8.7447     91.7899     26.4552   9.3691529398e+01   5.8758807159e+01    0.3185877    0.1894582 -39.79 0.0008109866    1.716    0.417
       496  -9.7951    145.2483     22.9627   7.9165217951e+01   4.6272269062e+01    0.3311105    0.2359946 -21.82 0.0004027212    1.387    0.279
       497  -8.2424    104.3111     22.9229   8.8328244353e+01   5.6430890374e+01    0.2037176    0.1779166 -17.99 0.0004884829    1.107    0.097
       498  -8.9829     63.6249     21.2942   1.0161086124e+02   6.5195875233e+01      0.29175    0.2129694 -48.77 0.0008947143    1.591    0.371
       499  -8.7671     48.3064     21.7080   1.0888116984e+02   6.7651454249e+01    0.2412802    0.2074055 -64.75 0.0006995649    1.563    0.360
       500  -8.1802     19.7704     21.7684   1.2473177109e+02   7.1025080434e+01    0.1589331    0.1446667 -78.39 0.0007080409    1.364    0.267
       501  -7.7450     88.5479     34.5110   9.8411410359e+01   5.8162244315e+01    0.1446155    0.1342256 -18.33 0.0001997483    1.064    0.060
       502  -8.8760     74.0392     19.5532   9.6520528825e+01   6.3501355719e+01    0.2638127    0.1795527 -43.71 0.0006982737    1.615    0.381
       503  -8.0817     87.8520     17.7640   9.0777972195e+01   6.0865648109e+01    0.1846591    0.1623445 -45.03 0.0004177955    1.309    0.236
       504  -7.7242     38.8270     18.6196   1.1222871005e+02   6.9565524366e+01    0.1604704    0.1221181  40.45 0.0004653967    1.599    0.374
       505  -7.2559    112.6831     16.7379   8.3365410104e+01   5.5202497064e+01    0.1503837    0.1017138  29.45 0.0002463137    1.544    0.352
       506  -8.0095     30.1723     16.2247   1.1590871382e+02   7.1100502193e+01    0.1628374    0.1494936 -62.01 0.0006698557    1.387    0.279
       507  -7.8602      7.5147     15.5191   1.3000096482e+02   7.3265124559e+01    0.1222955   0.09969932 -48.15 0.0001229676    1.062    0.059
       508  -9.2108    175.6852    247.4281   1.2466298549e+02   6.2956537813e+00    0.2199658    0.2088236 -79.82  0.001148669    1.766    0.434
       509  -8.9362    156.1289    248.1810   1.2805428475e+02   8.6670643471e+00    0.1610798    0.1348188  40.90 0.0005285927    1.305    0.234
       510  -9.2789    147.3057    246.3230   1.2937342724e+02   9.9902779456e+00    0.2710734     0.162778  58.69  0.001415801    2.543    0.607
       511  -7.4528     83.6502     11.3137   8.8829479906e+01   6.2630817341e+01    0.1381527    0.1098595 -61.65 0.0007046482    1.724    0.420
       512  -9.5186    146.9948    240.6817   1.2883163124e+02   1.0712606217e+01    0.2908926    0.1865827  70.76  0.001397627    3.422    0.708
       513  -8.0210    113.1087    248.6846   1.3553991517e+02   1.3885463324e+01    0.1520875    0.1222838  63.89 0.0007597741    1.410    0.291
       514  -9.3172    103.6763    246.6513   1.3701975973e+02   1.5267377901e+01    0.3150437     0.182978 -88.99  0.001880125    2.982    0.665
       515  -9.9694    223.9340    244.3341   1.1645875593e+02   6.3897577094e-01    0.3476823    0.1853172 -37.07  0.002175587    2.628    0.619
       516  -8.5894    218.7001    246.8497   1.1760706544e+02   1.0402308497e+00    0.2793002    0.1038979 -25.54  0.001550737    3.320    0.699
       517  -9.3354    120.3095    245.6517   1.3401451374e+02   1.3413011752e+01    0.2898996    0.1646108  60.99  0.001793073    2.418    0.586
       518  -8.6122      9.6006    243.8049   1.5297458111e+02   2.5150222506e+01    0.1752529   0.06573929  82.40  0.001111675    2.686    0.628
       519  -8.7959     67.5043    245.4913   1.4326180609e+02   1.9467268212e+01    0.1627122    0.0946352 -75.26  0.001190642    2.096    0.523
