#   1 NUMBER                 Running object number                                     
#   2 MAG_AUTO               Kron-like elliptical aperture magnitude                    [mag]
#   3 X_IMAGE                Object position along x                                    [pixel]
#   4 Y_IMAGE                Object position along y                                    [pixel]
#   5 X_WORLD                Barycenter position along world x axis                     [deg]
#   6 Y_WORLD                Barycenter position along world y axis                     [deg]
#   7 A_WORLD                Profile RMS along major axis (world units)                 [deg]
#   8 B_WORLD                Profile RMS along minor axis (world units)                 [deg]
#   9 THETA_WORLD            Position angle (CCW/world-x)                               [deg]
#  10 FWHM_WORLD             FWHM assuming a gaussian core                              [deg]
#  11 ELONGATION             A_IMAGE/B_IMAGE                                           
#  12 ELLIPTICITY            1 - B_IMAGE/A_IMAGE                                       
         1 -12.3772     60.6305     45.9031   2.9135157516e+02   6.8883576095e+00   0.05517055   0.02450616 -61.45  0.004798417    2.165    0.538
         2 -10.9660    136.8841     34.4417   2.9041271230e+02   6.5802584237e+00   0.05463075   0.02752047 -33.07  0.004469599    2.778    0.640
         3 -11.1401    120.1598     18.1610   2.9050626827e+02   6.8649201515e+00   0.04471978   0.01723297  39.65  0.003626668    2.581    0.613
         4 -12.2247    130.9968     13.8449   2.9035678808e+02   6.8520222099e+00   0.07481721    0.0209467  39.19  0.005256318    3.435    0.709
         5 -12.4151    104.9834     12.9659   2.9064847729e+02   7.0126153555e+00   0.03830699   0.02218733 -67.11  0.003735202    1.773    0.436
         6 -11.5036    139.6635     22.4718   2.9030946922e+02   6.7023149544e+00   0.05697538   0.03348763  15.13  0.005443702    2.005    0.501
         7 -10.0354    147.2438     15.6107   2.9018197038e+02   6.7375848450e+00   0.02592467   0.01342731  11.18  0.001521091    2.680    0.627
         8 -12.2571    124.9909     27.6611   2.9050789925e+02   6.7273371534e+00   0.04304359    0.0256617  24.16  0.004061316    1.753    0.429
         9 -13.4773    118.9029     40.8079   2.9065589964e+02   6.6107845043e+00   0.05416504   0.04579675   8.13  0.001951894    1.273    0.215
        10 -12.8246    112.8482     24.8981   2.9062997856e+02   6.8294485830e+00   0.05989987   0.02899992  20.58  0.005211425    2.353    0.575
        11 -11.5998    178.2516     21.0735   2.8986104776e+02   6.4948497751e+00   0.02514677   0.01660456 -27.23  0.001591773    1.862    0.463
        12 -11.4691    163.7992     27.8087   2.9006609510e+02   6.5009309063e+00   0.02346509   0.01784375  -4.02  0.001874328    1.555    0.357
        13 -10.3917     60.7142     25.0960   2.9122652385e+02   7.1281414794e+00    0.0303888     0.014869 -67.50  0.002687452    2.161    0.537
        14 -11.4369     26.1712     27.7701   2.9163719924e+02   7.2961846286e+00   0.04224132   0.02532301  44.49  0.003403026    1.751    0.429
        15 -10.8805     22.7178     10.9660   2.9157649696e+02   7.5100441484e+00   0.04753115   0.02484258   6.56  0.003860114    2.943    0.660
        16 -11.7415     19.8628     22.8254   2.9167983626e+02   7.3895590002e+00   0.02770488   0.01730342 -55.87  0.001515676    1.533    0.348
        17 -12.0336     15.0506     21.7399   2.9172837812e+02   7.4297569522e+00   0.04501568   0.02993024  71.45  0.002800769    1.975    0.494
        18 -11.5846     16.8699     13.5468   2.9165874387e+02   7.5138816607e+00    0.0221686    0.0123633 -54.96 0.0008733723    1.704    0.413
        19 -11.4537     14.2791      9.3838   2.9166354838e+02   7.5768280056e+00   0.02405605   0.01297445  24.72   0.00227212    1.935    0.483
        20 -10.8832    153.1304     25.7741   2.9017559376e+02   6.5862224381e+00    0.0362715   0.01432297 -49.79  0.002968542    2.454    0.592
        21 -10.0708     87.1481      7.1581   2.9081746134e+02   7.1826676841e+00   0.03108343   0.01840645  27.38  0.002820828    1.716    0.417
        22 -11.6006     90.7388     20.3894   2.9085547825e+02   7.0092380224e+00   0.02983335   0.02023314 -55.51  0.002441389    1.420    0.296
        23 -11.2532     85.1296     15.3581   2.9088949401e+02   7.0996948992e+00   0.04078287   0.02173432 -34.29  0.003336657    2.410    0.585
        24  -9.5722     32.1833     12.2285   2.9147581564e+02   7.4410141925e+00   0.01577522  0.008351309  43.43 0.0004100316    1.978    0.494
        25 -12.5316     48.8123     13.3657   2.9129253224e+02   7.3321382155e+00   0.04032399   0.03265857 -28.28  0.004660075    1.340    0.254
        26 -11.1954     40.5637     14.3891   2.9139291211e+02   7.3678341452e+00   0.03276692   0.01102604  27.52  0.002475979    2.985    0.665
        27 -11.3026     38.6677     19.8303   2.9144703660e+02   7.3159392576e+00    0.0279591   0.01050968 -61.31  0.001521678    2.533    0.605
        28 -11.4694     35.5599     18.7296   2.9147599277e+02   7.3465368998e+00   0.02093729   0.01185363 -52.68  0.001168023    1.693    0.409
        29 -10.3005    206.6466     20.3415   2.8953310784e+02   6.3385186670e+00   0.02553528   0.01316664 -63.24  0.002081612    1.914    0.477
        30 -11.9038     68.8518     18.2527   2.9109271760e+02   7.1602155796e+00   0.04298673   0.02979582  35.66  0.004655196    1.446    0.308
        31 -10.8545     71.7573      3.2333   2.9096984628e+02   7.3167879082e+00   0.02808337   0.01647953 -56.34  0.002805427    1.625    0.385
        32 -10.6660     66.2488     10.5848   2.9107668419e+02   7.2637287986e+00   0.02319834   0.01347735  19.91  0.002240863    1.895    0.472
        33 -10.7538     63.3071      6.1406   2.9108376322e+02   7.3319800517e+00   0.02264515   0.01234673 -49.15  0.001497121    1.800    0.445
        34 -12.3334    239.1117     16.0735   2.8913791269e+02   6.1991057470e+00   0.04487114   0.02737795  23.44  0.003432132    1.725    0.420
        35 -11.6717    245.7250      8.0799   2.8901478208e+02   6.2527880898e+00   0.02532173   0.01582656 -53.14  0.001607252    1.541    0.351
        36 -11.8060    239.3794      7.4504   2.8908322589e+02   6.2969453114e+00   0.02911215   0.01487902  51.14  0.001632151    2.369    0.578
        37 -10.9778    241.6090      4.2625   2.8903875532e+02   6.3207205976e+00   0.02022863    0.0112975  37.94  0.001833854    1.784    0.439
        38 -10.9391    165.1859     17.3124   2.8998751166e+02   6.6139926289e+00   0.01989247   0.01342518 -21.67  0.001228138    1.877    0.467
        39  -9.4415    194.0010      1.4662   2.8956420282e+02   6.6295845429e+00   0.01063868  0.009158519  78.78 0.0005645514    1.264    0.209
        40 -10.7786    186.5049     15.1142   2.8973132218e+02   6.5157119320e+00   0.01908451   0.01335062  -7.89  0.001542969    1.822    0.451
        41 -11.4136    192.2616      7.5459   2.8962041991e+02   6.5695840611e+00   0.02735322   0.01467845 -43.86  0.001532817    1.966    0.491
        42  -9.9197    219.1074     12.6045   2.8934487570e+02   6.3553601114e+00   0.01518903    0.0100951  17.03   0.00112075    1.664    0.399
        43 -11.7852    211.4496      9.9161   2.8941599471e+02   6.4308413886e+00   0.02787643   0.01556551 -41.26  0.001855045    1.957    0.489
        44  -9.1991     95.1034     11.8581   2.9075467919e+02   7.0824879416e+00   0.01361617  0.008483403 -16.07   0.00124784    2.289    0.563
        45  -9.6737      4.0989     10.7897   2.9178833786e+02   7.6190989790e+00   0.01871825    0.0127854 -36.68  0.001373822    1.597    0.374
        46  -9.9107    169.1909      9.6536   2.8989602664e+02   6.6791163516e+00   0.01640082   0.01072514  -6.26  0.001582146    2.077    0.519
        47  -9.1047    162.7841     10.2290   2.8997252918e+02   6.7096225239e+00   0.01279227  0.007270321 -53.09 0.0007490494    1.685    0.407
        48  -9.6438    157.6246      2.5743   2.8998557806e+02   6.8278133479e+00    0.0151411   0.01270992  -6.63  0.001479813    1.324    0.245
        49 -10.0647    162.8442      5.7301   2.8994492760e+02   6.7611634577e+00   0.01948662  0.009701604 -46.81  0.001758839    2.037    0.509
        50  -9.4801    162.6681      1.2963   2.8992040544e+02   6.8133171308e+00   0.01148715   0.00583496  38.20 0.0006257137    1.955    0.488
        51 -10.1461    151.0982      7.4950   2.9008946276e+02   6.8088787166e+00   0.01918546   0.01236708  21.72  0.001122396    1.648    0.393
        52 -10.3284      1.3107      7.2661   2.9179922250e+02   7.6757833977e+00   0.01101936  0.005732822 -60.08 0.0002409497    1.839    0.456
        53 -11.0569     77.2663      4.7638   2.9091604438e+02   7.2673392253e+00   0.02907557    0.0163518 -55.40  0.002841973    1.691    0.409
        54 -10.5819    174.3558      4.5496   2.8980659379e+02   6.7080273813e+00   0.03388459   0.01144881  34.83  0.002638102    2.761    0.638
        55 -10.8880     42.6291      3.5798   2.9130480884e+02   7.4806930828e+00   0.02419809   0.01458259 -31.83   0.00218478    2.043    0.511
        56 -10.9026    218.6222      3.2212   2.8929421580e+02   6.4663501520e+00   0.01518148   0.01469366 -52.63 0.0009544564    1.016    0.016
        57 -11.3227    225.0743      2.3437   2.8921548841e+02   6.4389678143e+00   0.03484601    0.0149305  40.70  0.002894805    2.363    0.577
        58 -10.0093    122.3773      1.3729   2.9038060136e+02   7.0457821360e+00   0.03863596   0.01102856  21.51  0.002276262    5.106    0.804
        59 -10.9508    106.0102      1.9750   2.9057106862e+02   7.1334910962e+00   0.05539312  0.009149948  33.63  0.003356641    4.561    0.781
        60 -10.0586    113.0145      2.0000   2.9049124093e+02   7.0927058376e+00   0.01999724  0.008389271  28.25  0.001346838    2.385    0.581
        61 -10.2233    141.7440      3.6161   2.9017298350e+02   6.9078025684e+00   0.01693837   0.01205229  32.55  0.001775855    1.410    0.291
        62 -11.9722    133.7680      2.6616   2.9025829314e+02   6.9649948711e+00   0.01831873   0.01413647  22.96 0.0007273104    1.341    0.254
        63  -9.1377    202.4883      5.9528   2.8949435198e+02   6.5285797847e+00   0.00995068  0.006357861 -62.58 0.0005912362    1.534    0.348
        64  -9.9067     22.9339      2.5900   2.9152407186e+02   7.6054699344e+00   0.01682867   0.01168336 -40.95   0.00179318    1.503    0.335
        65 -10.5510    206.0888      2.3976   2.8943204595e+02   6.5486574611e+00   0.02272016   0.01027508  39.72  0.001983613    2.213    0.548
        66 -10.8528      2.7835      1.8741   2.9175023803e+02   7.7295539302e+00   0.02276474   0.01259013  12.92  0.002053743    2.273    0.560
        67 -10.7401    249.6289    142.9653   2.8977680125e+02   4.6737193269e+00   0.03036962   0.01242814 -64.73  0.002474659    2.496    0.599
        68  -9.6038    239.8034    146.6226   2.8991032345e+02   4.6884523410e+00  0.009385768  0.005810168  38.53 0.0009052647    1.622    0.384
        69  -8.7774    108.6710    146.2579   2.9140108477e+02   5.4513742723e+00  0.006681757  0.004836294  57.79 0.0001469275    1.561    0.359
        70 -10.3051    133.5150    139.7579   2.9107927654e+02   5.3830481093e+00   0.01631125   0.01533742 -21.30  0.001737055    1.098    0.089
        71  -9.3584     69.4770    140.4623   2.9181347345e+02   5.7444273230e+00   0.00650465  0.006327078 -46.26 4.509505e-05    1.019    0.019
        72 -10.8466     81.4470    135.2973   2.9164626729e+02   5.7351658241e+00   0.02709006   0.01686474 -19.21  0.002409232    2.245    0.554
        73 -10.8175     47.6211    134.7879   2.9202904404e+02   5.9359196440e+00   0.01795952   0.01032475 -51.65  0.001054549    1.677    0.404
        74 -10.7794     71.1839    134.3548   2.9175770531e+02   5.8052223646e+00   0.02853801   0.01792032  -4.86  0.002666028    2.244    0.554
        75 -11.2406     92.5998    129.0934   2.9148218954e+02   5.7425812430e+00   0.01935131   0.01268647 -74.25  0.001617033    1.663    0.399
        76  -9.8389     62.4342    132.2508   2.9184499577e+02   5.8799646849e+00   0.01914383  0.008201255 -49.43  0.001618209    2.279    0.561
        77  -9.0948    106.9959    131.2289   2.9133075807e+02   5.6348134643e+00  0.008563858  0.008371521  29.64 0.0002781681    1.043    0.041
        78 -10.6868     79.3420    127.7339   2.9162529507e+02   5.8347603899e+00   0.02260225   0.01117648 -34.25  0.001375592    2.776    0.640
        79 -10.9918     45.7147    120.5107   2.9196596379e+02   6.1120018924e+00   0.02317253   0.01370624  52.13  0.002219962    1.957    0.489
        80  -9.3586     53.2445    125.2127   2.9190799645e+02   6.0142805468e+00   0.02120991   0.01243158  86.40   0.00182761    2.607    0.616
        81 -10.6411     56.4953    122.4163   2.9185428751e+02   6.0278976268e+00   0.01948466   0.01388826  39.62  0.001057104    1.420    0.296
        82 -10.0105     18.5479    124.8986   2.9230203848e+02   6.2175067360e+00   0.01305535   0.00899612 -43.26 0.0004534749    1.487    0.327
        83 -10.7213      2.9000    123.2531   2.9247086215e+02   6.3264252978e+00   0.02440122   0.01828366 -37.90  0.001566651    1.406    0.289
        84 -10.4364    239.7573    124.3100   2.8977769585e+02   4.9464062879e+00   0.01206435  0.009745102 -58.36  0.001393806    1.204    0.169
        85 -11.9186    104.9790    120.7945   2.9129164534e+02   5.7670905391e+00   0.02470382    0.0240192  28.88  0.002482228    1.048    0.046
        86  -9.8689     93.5010    123.9582   2.9144135804e+02   5.7967556520e+00   0.01000992  0.006392467 -63.81 0.0004460798    1.545    0.353
        87  -9.6291    203.6774    121.3248   2.9017035717e+02   5.1900595391e+00  0.006940756  0.004919376  64.14 0.0005646117    1.684    0.406
        88 -10.6220     34.4100    119.8543   2.9209106348e+02   6.1846400869e+00    0.0228018   0.01396016  61.22  0.002151108    2.109    0.526
        89 -11.2508     44.7144     85.1034   2.9176681669e+02   6.5271092380e+00   0.04751238    0.0253108  57.42  0.004066722    2.564    0.610
        90 -12.0750      9.8896     97.8769   2.9224039242e+02   6.5797219673e+00    0.0498129   0.02784381  43.45  0.004794113    1.867    0.464
        91 -12.1449      7.2988     88.7224   2.9221558034e+02   6.7004372002e+00   0.02850119   0.02689861 -45.73   0.00122276    1.048    0.046
        92 -11.5347     23.8087     98.6553   2.9208609462e+02   6.4907262107e+00   0.02949281   0.01824875 -51.00    0.0019092    1.568    0.362
        93 -10.9771     18.9233    106.1160   2.9218620317e+02   6.4325506141e+00   0.01287695   0.01168655   5.77 0.0003156491    1.159    0.137
        94 -12.0156      3.3350    111.4011   2.9239555003e+02   6.4609919429e+00   0.02910472   0.02398058 -34.45  0.002304192    1.272    0.214
        95 -11.6476      3.3299    104.8882   2.9235693573e+02   6.5363318075e+00   0.02295248   0.01803632  11.68  0.001222879    1.387    0.279
        96 -11.9389     20.4086     95.5877   2.9210668099e+02   6.5457387310e+00   0.04475192   0.02764772   2.37  0.003216305    2.187    0.543
        97 -12.2281     18.4649     90.4880   2.9209856104e+02   6.6158663594e+00   0.03685963   0.02255929 -26.65 0.0005479719    2.142    0.533
        98 -11.8211     28.2683    113.1008   2.9212103188e+02   6.2980600446e+00   0.04154741   0.01819895  18.78  0.003318629    2.827    0.646
        99 -12.7119     26.0138    107.0376   2.9211073845e+02   6.3811327591e+00   0.06633133   0.03545832 -23.44  0.005268777    3.108    0.678
       100  -9.4430    221.4697    120.5263   2.8996312480e+02   5.0961538691e+00  0.006486116  0.006352482 -85.55 5.006853e-05    1.026    0.025
       101  -9.7071    148.6450    119.8482   2.9078827997e+02   5.5257161573e+00   0.01082325  0.007779526 -44.48 0.0006817604    1.407    0.289
       102  -8.7945     81.6414    117.7005   2.9153938162e+02   5.9375109700e+00  0.006987424  0.004885586 -25.61 0.0004198807    1.710    0.415
       103  -9.6630    113.9638    116.0021   2.9116066489e+02   5.7706111940e+00  0.009945042  0.009424538 -33.43 0.0003728042    1.067    0.063
       104  -9.8363     87.6605    114.5610   2.9145204357e+02   5.9390925128e+00   0.01256405   0.01052733  45.66  0.001476753    1.227    0.185
       105 -10.6730     66.9886    112.2922   2.9167436292e+02   6.0845076667e+00   0.02188192   0.01535335 -78.19  0.002315567    1.578    0.366
       106 -10.7262    107.5604    112.5193   2.9121293713e+02   5.8478477389e+00   0.02280761    0.0146986  70.23  0.002186377    2.087    0.521
       107 -11.1440    103.2812    109.0350   2.9124098604e+02   5.9128303790e+00   0.02709449   0.02123843 -23.82  0.003051473    1.438    0.304
       108  -9.6951     48.9417    112.3581   2.9188067878e+02   6.1876949786e+00   0.01279979  0.009505466 -55.42  0.001003286    1.302    0.232
       109 -11.3938    170.7620    110.1101   2.9047824501e+02   5.5102670354e+00   0.02250557   0.01907277  -3.34  0.001650492    1.301    0.231
       110 -11.1812     86.0819    105.4259   2.9141567406e+02   6.0538027099e+00   0.01881701    0.0155273  -7.92  0.001595949    1.361    0.265
       111 -10.2401     15.3523    109.3775   2.9224634535e+02   6.4153602754e+00   0.02076865  0.008849662  47.37  0.001648314    2.784    0.641
       112 -12.0631    145.4366    102.8524   2.9072352571e+02   5.7406782647e+00   0.04318392   0.02073812 -47.53  0.003853022    2.092    0.522
       113  -9.7755    130.7957    108.3057   2.9092291959e+02   5.7623164378e+00   0.01436933  0.008511978 -51.80   0.00126994    1.629    0.386
       114 -10.1682    119.8773    108.8924   2.9105089152e+02   5.8186316341e+00    0.0104316  0.008764623 -33.79 0.0006350155    1.245    0.197
       115 -10.8295    158.2039    104.9067   2.9059028044e+02   5.6430756409e+00   0.02364923   0.01226052 -42.42  0.001412155    2.101    0.524
       116 -11.9168     37.8131     86.1437   2.9185180075e+02   6.5548073230e+00   0.05289229   0.03211792  52.05  0.004875888    1.886    0.470
       117 -10.7390     48.5660    103.1021   2.9182992586e+02   6.2968740441e+00   0.01829265   0.01312951  12.88 0.0004029124    1.555    0.357
       118 -10.0138     52.6799     96.4314   2.9174329081e+02   6.3503028213e+00   0.02248644   0.00932166 -53.49  0.001903816    2.244    0.554
       119 -11.0953     79.7430    108.5795   2.9150675995e+02   6.0539068309e+00     0.030939   0.01825168  43.46  0.003057601    1.762    0.432
       120  -9.4537    126.7220    114.0282   2.9100345692e+02   5.7197218472e+00  0.009435596  0.008453053 -61.97 0.0006751543    1.093    0.085
       121  -9.5469     57.6661    102.3366   2.9172151489e+02   6.2533173567e+00   0.01256758  0.006390853 -59.77 0.0009561441    1.875    0.467
       122 -10.4398     57.5112     97.1774   2.9169258661e+02   6.3138515742e+00   0.02249955   0.01432222 -66.89  0.002272882    1.591    0.371
       123 -11.2874     67.5239     97.2086   2.9157850152e+02   6.2557978184e+00   0.03399985   0.01933956 -44.36  0.001837915    1.823    0.451
       124  -9.6597    136.8476    100.2806   2.9080609309e+02   5.8200683784e+00   0.01447425  0.009597947 -14.55  0.001410252    2.014    0.503
       125 -10.3825    211.0845     97.5069   2.8994388202e+02   5.4222150161e+00   0.01869238   0.01382367 -24.21  0.001856673    1.577    0.366
       126  -9.6659    140.4469     96.4733   2.9074236133e+02   5.8432464696e+00   0.01294373    0.0102062 -30.53 0.0007416298    1.379    0.275
       127 -10.0153    139.3004     92.9168   2.9073422104e+02   5.8909704036e+00   0.01521006   0.01143153   0.09   0.00151552    1.566    0.361
       128  -9.8970     67.1761     54.9733   2.9133089550e+02   6.7458580657e+00   0.01443151   0.01056155  51.52 0.0006149276    1.473    0.321
       129 -12.2192     89.8330     59.4266   2.9109878110e+02   6.5637111344e+00   0.04485397   0.03830891 -77.64  0.005352363    1.209    0.173
       130 -11.4809     80.4789     93.6553   2.9140951475e+02   6.2221766015e+00   0.04503626   0.02846431  34.55  0.004663046    1.576    0.366
       131 -11.2368     89.8785     89.2145   2.9127581346e+02   6.2192740308e+00   0.03403534   0.01646675 -43.49  0.002976008    2.237    0.553
       132 -10.5715     93.5290     76.1980   2.9115659258e+02   6.3486188926e+00   0.02583018   0.01790914  -6.74  0.002102999    1.844    0.458
       133 -12.3862     74.6308     50.2941   2.9121787432e+02   6.7569168874e+00   0.05254003   0.03930302 -77.86  0.005807711    1.442    0.307
       134 -11.5893     80.0126     82.4743   2.9134824026e+02   6.3540875974e+00   0.07705943   0.03524734  55.24  0.005797026    3.307    0.698
       135 -11.9264     85.3319     73.4078   2.9123350858e+02   6.4281653493e+00   0.03901379   0.02714665  35.64  0.004229353    1.441    0.306
       136 -11.5180     78.7829     67.0932   2.9127062375e+02   6.5389068029e+00   0.03180695   0.02182619  65.83  0.002971907    1.799    0.444
       137 -11.4455     65.8899     81.8412   2.9150565973e+02   6.4428345112e+00   0.02389533   0.02104504  59.47  0.002084939    1.197    0.164
       138 -11.5544     72.0469     79.7070   2.9142267088e+02   6.4320046475e+00   0.02825827   0.01903541 -58.86  0.001859528    1.432    0.302
       139  -9.1965    190.5279     96.5110   2.9017197547e+02   5.5528779000e+00  0.006488349  0.006359188 -80.31 0.0002511834    1.021    0.021
       140 -11.0864    124.6829     93.6532   2.9090527308e+02   5.9669758360e+00   0.02896838   0.02153031  25.40  0.002378226    1.381    0.276
       141 -11.0412    120.3811     85.2814   2.9090441530e+02   6.0885714036e+00   0.02599279    0.0147298  37.48  0.001814664    1.757    0.431
       142 -10.5496    117.4702     93.0039   2.9098365420e+02   6.0161598324e+00   0.01794778   0.01256796   0.26  0.001208025    1.764    0.433
       143  -9.6367    120.6851     89.6982   2.9092728279e+02   6.0357810622e+00    0.0106518  0.008405632  -6.36 0.0005098491    1.465    0.317
       144  -9.7462    160.5384     93.6226   2.9049636659e+02   5.7599322308e+00   0.01515949  0.008121418  55.72   0.00130919    2.440    0.590
       145 -10.9573    101.4924     90.5340   2.9115117619e+02   6.1369872963e+00   0.03230254   0.02542224 -11.13  0.003571016    1.473    0.321
       146  -9.7715     98.3269     90.7425   2.9118853031e+02   6.1528536418e+00   0.01043311   0.00974501 -39.49  0.000481118    1.073    0.068
       147 -10.8298    153.0506     91.7508   2.9057053312e+02   5.8248932795e+00   0.01931251   0.01519502   5.88  0.002181834    1.424    0.298
       148 -10.0449    212.1528     87.1112   2.8986963345e+02   5.5360569430e+00   0.01152025   0.01007673 -24.48 0.0004568422    1.216    0.177
       149 -10.5393    183.5676     85.8061   2.9018733912e+02   5.7168443214e+00   0.02898807   0.01325108 -71.14   0.00237188    2.591    0.614
       150 -10.3142    104.7548     75.5739   2.9102478367e+02   6.2910120231e+00   0.02078277    0.0154559 -57.22  0.001498964    1.301    0.231
       151 -11.4244    113.4350     83.2056   2.9097126427e+02   6.1526936174e+00   0.03663319   0.01503522 -57.55  0.003076752    2.254    0.556
       152 -11.1270    108.7003     81.0135   2.9101220361e+02   6.2053739255e+00   0.01738972   0.01547669 -37.14  0.001360465    1.143    0.125
       153 -10.8315    164.3145     83.1837   2.9039103952e+02   5.8586536403e+00   0.02208072   0.01757927  59.83   0.00182641    1.378    0.274
       154 -11.6190    143.3230     83.5291   2.9063236418e+02   5.9761584666e+00   0.02103489   0.01593467 -46.64  0.001780702    1.313    0.239
       155 -10.8277    127.0941     83.5041   2.9081725948e+02   6.0703041724e+00   0.01771542   0.01338143  37.90  0.001461314    1.336    0.252
       156 -10.8551    121.2173     79.8322   2.9086238296e+02   6.1466968477e+00   0.02442904  0.008645552  31.45  0.001927536    2.682    0.627
       157  -9.9893     46.5848     73.0327   2.9167361375e+02   6.6558444756e+00    0.0153173  0.009374974 -71.20  0.001046309    1.749    0.428
       158 -11.6130     52.8203     76.5972   2.9162363715e+02   6.5787425398e+00   0.02743554   0.02177941 -84.45  0.002070316    1.378    0.275
       159 -10.9014     58.4108     78.1245   2.9156890554e+02   6.5288870955e+00   0.02110752   0.01600279  53.12  0.001380414    1.423    0.297
       160 -11.9243     34.4814     91.6202   2.9192241636e+02   6.5106729688e+00   0.09698334   0.04657824 -81.95  0.007141949    3.487    0.713
       161  -9.0653     13.6724     53.9754   2.9193611515e+02   7.0653804071e+00   0.03679282   0.01929423 -26.19  0.002921696    3.065    0.674
       162 -12.0456     13.5308     74.9165   2.9206232432e+02   6.8242121157e+00   0.03854604   0.02663148   9.43   0.00403841    1.686    0.407
       163 -11.0877     13.7700     66.3380   2.9200856555e+02   6.9219762024e+00   0.01882516   0.01518322  63.14 0.0009468956    1.370    0.270
       164 -12.1681      2.1515     71.1570   2.9216995831e+02   6.9330306553e+00   0.04214253   0.01243523 -58.18  0.003097812    2.989    0.665
       165 -11.8233      6.5448     62.2476   2.9206677728e+02   7.0107551411e+00   0.04724481   0.01321987 -52.82  0.003385218    3.160    0.684
       166 -11.6934     11.9949     62.2301   2.9200440427e+02   6.9796447167e+00   0.02259777   0.01339774  23.74  0.000757496    1.769    0.435
       167  -9.7596      5.0494     77.7935   2.9217631109e+02   6.8396862703e+00   0.01211652  0.009550048 -45.84  0.000679417    1.264    0.209
       168  -9.3049    134.6629     77.1340   2.9069295001e+02   6.1001284047e+00   0.01056189  0.008370251  85.50 0.0008776172    1.435    0.303
       169  -9.6682    126.8430     76.8128   2.9078021148e+02   6.1490581236e+00  0.009169577  0.007619152  61.38  0.000422108    1.304    0.233
       170  -9.8655    242.1866     76.3809   2.8946374625e+02   5.4856205327e+00  0.009860718  0.005689116  39.03 0.0009550474    1.740    0.425
       171 -12.3014    186.2878     69.9362   2.9006157156e+02   5.8843330311e+00   0.04937783   0.03149906 -67.20   0.00442813    1.595    0.373
       172  -9.7959    192.1724     65.6909   2.8996917428e+02   5.8992291395e+00   0.01406791   0.01003091  61.81  0.001194414    1.642    0.391
       173  -9.1919    197.4729     74.4949   2.8996140677e+02   5.7668545488e+00  0.006582628  0.006261744 -39.00 0.0004010874    1.053    0.050
       174 -11.5136     40.2517     71.8473   2.9173887619e+02   6.7060017348e+00   0.02744436    0.0174347 -42.89  0.002800953    1.636    0.389
       175 -11.1274     32.7752     71.8825   2.9182447025e+02   6.7486202621e+00   0.02511268   0.01389518  27.52  0.002017477    1.833    0.455
       176  -9.6295     61.5513     72.9643   2.9150232078e+02   6.5704219901e+00   0.01295398  0.008152745  43.08  0.000908724    1.641    0.391
       177 -11.6992    122.5002     68.0406   2.9077740978e+02   6.2754990596e+00   0.02845905    0.0216164  15.25  0.002199316    1.423    0.297
       178 -10.4540    129.3960     65.2916   2.9068234978e+02   6.2673774018e+00   0.02764699    0.0164663  80.41  0.002402094    2.601    0.616
       179 -10.4040    161.8814     70.3191   2.9034196656e+02   6.0213174442e+00   0.01780451   0.01330642  48.38   0.00176603    1.408    0.290
       180 -10.6439    172.0500     67.9000   2.9021163163e+02   5.9903527071e+00   0.02034114   0.01532928 -68.09  0.001647346    1.337    0.252
       181 -11.6528    219.4280     66.1926   2.8966181553e+02   5.7353247493e+00   0.02967728   0.01888846  25.49  0.002011043    1.620    0.383
       182 -11.1709     58.7200     63.0865   2.9147580402e+02   6.7008702301e+00   0.04535716   0.02572889 -87.34  0.003894218    2.603    0.616
       183 -10.6521     51.3766     46.1383   2.9145867645e+02   6.9389634513e+00   0.02809971   0.01817304  66.50 0.0009808133    2.017    0.504
       184 -10.9374     27.2400     47.4381   2.9174216736e+02   7.0628907916e+00   0.02282597    0.0144263  -8.51  0.001185738    2.236    0.553
       185 -10.1004     20.5934     47.7539   2.9181999318e+02   7.0974675621e+00    0.0174121   0.01297055 -46.83  0.001939254    1.334    0.250
       186 -11.3891     32.7251     42.2921   2.9164883969e+02   7.0907741447e+00   0.03861859   0.02495062  47.12  0.002334236    1.651    0.394
       187 -11.6346     25.8573     56.0910   2.9180949095e+02   6.9708829337e+00   0.05623137   0.03667197  18.55  0.005805752    1.672    0.402
       188 -11.5258     51.4921     61.5011   2.9154889907e+02   6.7608289064e+00   0.02176813   0.01638567  84.21 0.0007101006    1.571    0.363
       189 -11.2638     46.2412     58.3217   2.9158992903e+02   6.8278023052e+00   0.02576907   0.02093907 -56.81  0.003011482    1.195    0.163
       190 -11.5541     40.4417     56.0154   2.9164243357e+02   6.8878369250e+00   0.03098198   0.02474411  64.04  0.002522475    1.395    0.283
       191 -10.4816    143.5218    249.1643   2.9161555462e+02   4.0601949862e+00   0.01356438   0.01010797  12.25   0.00148467    1.486    0.327
       192 -10.8507     60.9021     36.7852   2.9129410376e+02   6.9920921487e+00   0.01547292   0.01013779 -66.61  0.001001314    1.540    0.350
       193 -11.6183     46.2395     48.9788   2.9153428497e+02   6.9357420378e+00   0.02307704   0.01821116 -16.26  0.001274694    1.455    0.313
       194 -12.4824     41.8226     45.4743   2.9156385953e+02   7.0016550951e+00   0.01848127     0.015186  36.59 0.0003225878    1.231    0.188
       195 -10.6035     21.1599     65.2174   2.9191747691e+02   6.8924458572e+00   0.01133629   0.01077794  30.98 0.0006700157    1.071    0.066
       196 -10.4020    204.7573     63.7299   2.8981412436e+02   5.8488770773e+00   0.01419825   0.01083406 -12.01  0.001552371    1.555    0.357
       197  -9.6623    198.3150     62.9374   2.8988275529e+02   5.8953934580e+00   0.01409523   0.01003516  86.55  0.001205442    1.723    0.420
       198 -10.3167    106.1808     62.7294   2.9093190991e+02   6.4311572837e+00   0.01976782   0.01110582  58.31  0.001754013    2.362    0.577
       199  -9.8681    167.9096     63.0473   2.9022983250e+02   6.0703708548e+00    0.0120024  0.009035678  28.03  0.001184357    1.350    0.259
       200 -10.8537    159.5495     61.5904   2.9031642075e+02   6.1356151599e+00   0.04341115   0.01977651 -62.73  0.003796258    2.151    0.535
       201 -10.7269    157.4686     56.5393   2.9030997368e+02   6.2059870734e+00   0.01494968   0.01232606 -18.33 0.0007107055    1.351    0.260
       202 -11.2245    156.6717     53.3182   2.9029981773e+02   6.2477914341e+00   0.02823508   0.02051058  89.66  0.002565056    1.639    0.390
       203  -9.5360    174.7292    246.6893   2.9124593226e+02   3.9086304135e+00   0.01281827  0.008558881   1.07  0.001270103    1.912    0.477
       204  -9.0949    242.6140    245.8153   2.9046923645e+02   3.5263150890e+00  0.009612367  0.006269028 -79.17 0.0009494172    1.777    0.437
       205  -9.8251    199.0061    244.4995   2.9095691594e+02   3.7936708965e+00   0.01026122  0.006424321  29.01  0.001037447    1.610    0.379
       206 -11.2587    127.6482    242.5798   2.9175709362e+02   4.2279214930e+00   0.02147281   0.01397168 -71.82  0.002199391    1.633    0.388
       207 -10.3318    150.3160    237.5480   2.9146933217e+02   4.1552938711e+00   0.01246183  0.007202853 -43.43  0.001194103    1.814    0.449
       208  -9.4603    199.6822    235.2989   2.9089455298e+02   3.8960967174e+00  0.006803611  0.004916111  62.54 0.0004821222    1.616    0.381
       209  -9.1826     15.4167    233.7841   2.9298274418e+02   4.9757429055e+00   0.00981559  0.005613154 -50.60 0.0009465063    1.698    0.411
       210 -11.0012    113.0508     50.1852   2.9077866354e+02   6.5363392705e+00    0.0230567   0.01588799 -12.96  0.001432085    1.870    0.465
       211 -10.0265    242.5771    231.4483   2.9038418786e+02   3.6924943005e+00   0.01452907  0.008949727  47.74  0.001442226    1.756    0.430
       212 -10.4108    197.9577    231.8243   2.9089350397e+02   3.9462239530e+00   0.01134018  0.007423057 -17.43  0.001088248    2.044    0.511
       213 -10.0461     98.5519     62.3330   2.9101660329e+02   6.4797993509e+00   0.01240007   0.01132066 -14.03  0.001504918    1.156    0.135
       214  -9.9484    147.9764     60.7264   2.9044320496e+02   6.2125974764e+00   0.01979502  0.007888523  30.17  0.001636104    2.445    0.591
       215 -10.3465    207.2133     68.5419   2.8981491814e+02   5.7790841935e+00   0.01885779   0.01122019   8.70  0.001583789    2.177    0.541
       216 -10.9251    139.4463     43.4123   2.9043707731e+02   6.4618779531e+00   0.03229221   0.01657538 -19.41  0.002275384    4.014    0.751
       217 -11.4040    136.4580     55.8518   2.9054545252e+02   6.3355450074e+00   0.03270979   0.02592892 -24.12  0.002911691    1.411    0.291
       218 -10.5372    145.5130     52.0164   2.9041927923e+02   6.3274274101e+00   0.01612539   0.01344639 -78.23  0.001616564    1.251    0.200
       219 -11.6921    145.7902     46.1729   2.9038121442e+02   6.3932876712e+00    0.0354549   0.01772846 -59.45    0.0026425    1.904    0.475
       220  -9.6844    111.5979     67.2609   2.9089713176e+02   6.3475159534e+00   0.01191429  0.007082392  47.88 0.0006612646    1.835    0.455
       221  -9.7148      2.1672     56.0677   2.9208003310e+02   7.1073041965e+00   0.01004438  0.008599222 -30.66 0.0006237384    1.227    0.185
       222  -9.4371    188.1120     55.1318   2.8995232821e+02   6.0446617990e+00   0.01046237  0.008886212 -23.84  0.001075106    1.272    0.214
       223  -9.4043    212.1069     52.9990   2.8966628332e+02   5.9300771461e+00    0.0147523  0.009097752 -84.81  0.001381158    2.102    0.524
       224 -10.7140    231.5182     39.0799   2.8936204712e+02   5.9779461694e+00   0.02073919   0.01340945  85.33  0.001661803    2.097    0.523
       225  -9.9399    249.3149     53.0466   2.8924311438e+02   5.7134405832e+00   0.01687418   0.01022225  47.47  0.001252921    1.783    0.439
       226 -11.4193    239.9993     50.5420   2.8933410916e+02   5.7964597157e+00   0.02040823   0.01723893  43.23 0.0009510515    1.209    0.173
       227 -10.4910    244.4852     50.5055   2.8928285292e+02   5.7708174696e+00   0.01378009    0.0124158 -37.82 0.0008656839    1.125    0.111
       228 -11.3093    201.8158     47.4354   2.8975021165e+02   6.0539985205e+00   0.03463049   0.02460562 -70.61  0.003655392    1.455    0.313
       229  -9.8243    193.4199     46.0060   2.8983730385e+02   6.1192028286e+00   0.01552597  0.008189632  43.29   0.00116056    1.979    0.495
       230  -9.3237    215.8628     52.1569   2.8961848391e+02   5.9179937169e+00  0.009389024  0.007592668 -31.61 0.0008389305    1.325    0.245
       231 -11.2160    173.9055     48.0652   2.9007197799e+02   6.2085863093e+00   0.02983882   0.01650708  32.09  0.002516352    1.789    0.441
       232 -10.3411    177.2639     43.6824   2.9000750452e+02   6.2397045057e+00   0.01942028   0.01596597  76.27  0.002044735    1.362    0.266
       233 -10.4540    175.7526     29.5746   2.8994037957e+02   6.4112651280e+00   0.01833602   0.01267263 -39.93 0.0009659193    1.528    0.346
       234 -10.8662    176.8289     37.3731   2.8997474291e+02   6.3150389497e+00   0.01941997   0.01303839 -55.32  0.001925315    1.434    0.303
       235 -10.9542    172.5536     33.6568   2.9000125565e+02   6.3827087355e+00   0.02122948   0.01288539  25.08  0.002129341    1.706    0.414
       236 -11.6374    182.4874     25.1438   2.8983711491e+02   6.4233280128e+00   0.02771086   0.01814573   5.57   0.00236781    1.911    0.477
       237 -10.0631    247.4788    231.0335   2.9032604100e+02   3.6689203104e+00   0.01026559  0.006327243 -61.79 0.0009285759    1.580    0.367
       238  -9.3903    228.3012     49.3467   2.8946008377e+02   5.8781979927e+00  0.007019891   0.00479635 -31.68 0.0007038437    1.686    0.407
       239 -10.1386     90.5419     48.0453   2.9102280203e+02   6.6910726352e+00   0.01215787    0.0105178  43.27 0.0006542273    1.180    0.153
       240  -9.2957      3.8818     49.0198   2.9201850222e+02   7.1788817271e+00   0.01176571  0.008983023  28.77   0.00129899    1.328    0.247
       241  -9.6483     14.2768     46.4001   2.9188411295e+02   7.1494183391e+00   0.01720847  0.009005898 -39.54  0.001531773    2.196    0.545
       242  -9.4349     18.2617     41.7066   2.9181062653e+02   7.1807259284e+00   0.01585679   0.01011673   5.80  0.001542085    1.984    0.496
       243 -11.5714    105.6625     32.9677   2.9076019838e+02   6.7778323622e+00   0.02894531   0.01338433 -39.11  0.001398102    2.678    0.627
       244 -10.3284    100.7365     43.7334   2.9088069736e+02   6.6819943492e+00   0.02238546   0.01248794  58.47  0.001974217    2.403    0.584
       245 -11.2450     93.8274     41.3060   2.9094507977e+02   6.7499280017e+00   0.02629996   0.01548174  25.88  0.001922811    1.747    0.428
       246 -12.0482    156.2299     41.8242   2.9023618121e+02   6.3830357604e+00   0.03188694   0.01716359  38.15  0.001256977    1.850    0.460
       247 -11.0599    153.4794     36.2876   2.9023445828e+02   6.4628706774e+00   0.01622082   0.01393536  61.34 0.0007324659    1.243    0.196
       248  -9.9145      4.3807     43.9611   2.9198269154e+02   7.2344520768e+00   0.02142918   0.01356461  -0.41  0.002038705    2.136    0.532
       249 -10.3114    189.3369     37.9978   2.8983593706e+02   6.2352952649e+00   0.01308411  0.007372812 -55.08 0.0007503103    1.689    0.408
       250 -10.4527    189.9141     32.9362   2.8979908939e+02   6.2903484070e+00   0.01554279   0.01477406  75.52  0.000984042    1.082    0.076
       251 -10.4562    189.3465     27.7933   2.8977479480e+02   6.3529744929e+00   0.01910731    0.0125905 -47.37  0.001226275    1.511    0.338
       252 -11.8460     70.2938     32.5524   2.9116158020e+02   6.9868172777e+00   0.02490356   0.01511402  20.33   0.00247169    1.789    0.441
       253 -11.2728     81.5204     39.3590   2.9107397916e+02   6.8434543832e+00    0.0241627   0.01528493  36.21  0.001810826    1.578    0.366
       254 -10.6856     77.7271     34.4176   2.9108781322e+02   6.9224001750e+00   0.01970136   0.01205328  30.15  0.001182518    1.638    0.389
       255 -10.6620     82.0527     31.5259   2.9102115698e+02   6.9308253037e+00   0.02251718   0.01783301  31.88  0.002458608    1.275    0.216
       256  -9.3376    218.0137     38.7546   2.8951383164e+02   6.0601340126e+00  0.009365574  0.008800067  31.72  0.001161797    1.082    0.076
       257 -10.6712     22.6736     36.3541   2.9172832400e+02   7.2171758347e+00   0.02398753   0.01463075  50.58  0.002299602    1.840    0.457
       258  -9.6270     17.8085     34.5219   2.9177301103e+02   7.2663101772e+00   0.01167075   0.00917951  83.11 0.0004213922    1.461    0.315
       259 -10.7561      5.3578     36.0150   2.9192421683e+02   7.3206172827e+00   0.02629238   0.02184624  -4.64  0.003071263    1.341    0.254
       260  -3.9333      6.2420     30.8530   2.9188336805e+02   7.3751514580e+00   0.02600901   0.01007932  24.78   0.00205646    2.761    0.638
       261 -10.3311    206.8950     37.0669   2.8963035122e+02   6.1441545788e+00   0.01479093   0.01220734  68.27 0.0008410459    1.341    0.254
       262  -8.7812     13.3158     37.6782   2.9184316041e+02   7.2556827824e+00  0.006881447  0.004921983  64.27  0.000704155    1.661    0.398
       263 -10.1270    160.4616     33.0552   2.9013551840e+02   6.4597290818e+00   0.01374426   0.01196806 -77.59 0.0006611827    1.179    0.152
       264  -9.1710    190.0868    229.8656   2.9097135412e+02   4.0143622917e+00  0.009070451  0.007544667 -30.29 0.0005021842    1.281    0.219
       265 -11.0470    198.0833     28.8216   2.8968140014e+02   6.2904165951e+00   0.02381055   0.01671858 -53.97  0.001953113    1.377    0.274
       266 -10.5073    199.5144     24.9822   2.8964212516e+02   6.3263987686e+00   0.01503001     0.011349 -53.11 0.0007693141    1.287    0.223
       267  -9.2474    182.6704     32.0647   2.8987642385e+02   6.3424202774e+00  0.009242759  0.008245689 -59.39 0.0004478172    1.095    0.087
       268  -9.1941     23.4755    231.5369   2.9287767563e+02   4.9554562890e+00  0.006480375   0.00634519  89.83 0.0004235528    1.029    0.028
       269 -11.8188     47.3818     30.6547   2.9141200564e+02   7.1407870984e+00   0.03693001   0.01722774  20.52  0.002640622    2.467    0.595
       270 -10.8233     57.3740     30.6705   2.9129793798e+02   7.0830338557e+00   0.02098626   0.01488218  12.86  0.001700072    1.581    0.367
       271 -11.7657    120.5119     57.6925   2.9073833984e+02   6.4065126807e+00   0.05480041   0.03374024  23.72  0.005541416    1.701    0.412
       272  -9.6258      9.1353    227.1808   2.9301526098e+02   5.0882188464e+00  0.009803283  0.008712875 -24.34 0.0003042399    1.188    0.158
       273  -9.7261    234.4840    222.5201   2.9042300711e+02   3.8424718348e+00  0.006484843  0.006365818 -65.55 0.0002332659    1.007    0.007
       274  -9.8136      9.8550    217.8182   2.9295171272e+02   5.1924263068e+00   0.01010099  0.008853924 -35.75 0.0005932658    1.171    0.146
       275  -9.5492    166.6698    213.3925   2.9113979652e+02   4.3401254637e+00   0.01621862  0.008937518  71.93 0.0009500465    3.165    0.684
       276  -9.3923    152.8186    207.8048   2.9126420403e+02   4.4847538343e+00  0.009331624  0.007682503  62.86 0.0007738202    1.327    0.246
       277 -10.3410      4.2833    204.6349   2.9293723405e+02   5.3769642264e+00   0.01354646   0.00984518 -48.82  0.001187005    1.355    0.262
       278  -9.3863    230.5289     30.5096   2.8932201992e+02   6.0825385638e+00   0.01300354  0.008566963  49.09 0.0006484213    1.641    0.391
       279  -9.7058    230.4885     26.9840   2.8930137854e+02   6.1234305444e+00   0.01513878  0.009381831 -88.24  0.001405515    2.174    0.540
       280  -9.4893    158.3048     20.3329   2.9008404617e+02   6.6190255586e+00   0.01629288  0.008175564  22.77   0.00119664    2.162    0.537
       281  -9.9050    238.5035    204.0222   2.9026721615e+02   4.0329151117e+00    0.0104234  0.006355246 -62.44  0.001037726    1.604    0.377
       282 -10.0606    156.9416     25.0144   2.9012758557e+02   6.5729096762e+00   0.01366414   0.01210798  28.22 0.0006377962    1.148    0.129
       283  -9.7963    250.5442     25.3963   2.8906364729e+02   6.0251594747e+00   0.01275129  0.006272607 -61.66 0.0005517579    1.971    0.493
       284 -11.1913    214.6404     23.5983   2.8946155397e+02   6.2545393391e+00    0.0209694   0.01651307 -51.09  0.001777374    1.242    0.195
       285 -10.6947    240.9260     30.9946   2.8920659444e+02   6.0165261642e+00   0.02702158   0.01435217 -54.41  0.002572438    1.787    0.440
       286 -10.4680    245.2874    200.9697   2.9017194998e+02   4.0288981052e+00  0.009390352  0.008502889 -59.92 0.0005127393    1.080    0.074
       287 -10.3252    234.1569    197.1423   2.9027564228e+02   4.1375659104e+00   0.01714513   0.01329642 -46.59   0.00128574    1.282    0.220
       288 -12.4843      5.5081    186.3543   2.9281510304e+02   5.5814616619e+00   0.05342084   0.03505604 -74.68  0.005483554    1.664    0.399
       289 -10.4127     17.1576    192.6517   2.9271958965e+02   5.4416934127e+00   0.01198711   0.01140233  14.10 0.0005108221    1.081    0.075
       290  -9.6453    169.5981    191.3722   2.9097554320e+02   4.5777788721e+00   0.01571587  0.009946742  -5.60  0.001131549    2.218    0.549
       291 -10.0164    213.5422    182.3184   2.9042172133e+02   4.4281991827e+00   0.01595622   0.01252796 -78.32  0.001803524    1.355    0.262
       292  -9.6595    250.4654    180.0230   2.8998830246e+02   4.2408663118e+00    0.0158482  0.005283943 -55.97  0.001214634    2.683    0.627
       293  -9.0556     57.4041    175.2218   2.9215752552e+02   5.4119036030e+00  0.008790555  0.006310336 -78.08 0.0005846753    1.526    0.345
       294  -9.5389    223.2104     22.3767   2.8935665678e+02   6.2188461786e+00   0.01217464  0.009323629  27.52 0.0008428261    1.330    0.248
       295 -10.1126    220.9579     19.0653   2.8936248156e+02   6.2701160898e+00   0.01170307   0.01095475  78.12            0    1.107    0.097
       296 -10.0994     52.0309    174.1926   2.9221267007e+02   5.4547390473e+00   0.01237078   0.01008656  89.94  0.001416096    1.351    0.260
       297 -10.4780     39.4995    173.4970   2.9235140451e+02   5.5348864345e+00     0.013553  0.006327991 -62.47 0.0009408271    2.085    0.520
       298  -9.5705    248.1905    173.3354   2.8997428893e+02   4.3312944773e+00   0.01345657  0.006458209  16.06   0.00109713    2.685    0.628
       299 -10.6570     35.1591    170.6574   2.9238405260e+02   5.5927004055e+00    0.0116291  0.009910474 -57.42  0.001379753    1.142    0.124
       300 -11.4564      9.3262    166.7263   2.9265532356e+02   5.7866387928e+00   0.02490471   0.02340601  84.90  0.002206026    1.095    0.087
       301 -11.7472     13.6654    159.0040   2.9256006914e+02   5.8510566174e+00   0.02857778   0.01503166 -58.10  0.001926739    1.802    0.445
       302  -9.0575    197.8657    167.8471   2.9051384375e+02   4.6861785035e+00   0.00903549  0.007637002  72.06 0.0006377385    1.298    0.230
       303  -9.9358      9.1373    156.0699   2.9259432367e+02   5.9110096567e+00   0.01331174  0.009691439  35.60 0.0009630843    1.381    0.276
       304 -10.3642     28.3781    164.3210   2.9242380174e+02   5.7049954192e+00   0.01684351   0.01049979  85.88  0.001552012    2.249    0.555
       305  -9.3101      1.7004     20.4597   2.9187338379e+02   7.5212456973e+00  0.009118611  0.006430352   6.15 0.0009446945    1.675    0.403
       306  -9.9569     18.6009    165.3257   2.9254125434e+02   5.7495652993e+00   0.01316285   0.01156249 -32.18  0.001472397    1.181    0.153
       307  -9.7685    191.6383     16.9328   2.8968370214e+02   6.4649503543e+00   0.01257891   0.01097731 -16.60  0.001103625    1.239    0.193
       308  -9.4555    225.1231     16.6654   2.8930069060e+02   6.2735870494e+00   0.01083186  0.007895862  44.70  0.001180484    1.418    0.295
       309  -8.6186     55.3318     17.2930   2.9124146374e+02   7.2492425963e+00  0.006838816  0.004898318 -26.40 0.0007023297    1.633    0.388
       310  -9.8645    188.7539    164.1309   2.9059539000e+02   4.7818645202e+00   0.01271037  0.008264236 -44.41 0.0008620789    1.571    0.363
       311  -9.5912    204.9997    163.0740   2.9040424228e+02   4.7000367525e+00   0.00995523  0.009486455 -22.28 0.0006568203    1.076    0.071
       312 -10.2736     81.0142    159.9218   2.9179755735e+02   5.4528786725e+00   0.02007968   0.01394949  20.15  0.002144389    1.532    0.347
       313  -8.6191     27.3113     15.3273   2.9154998994e+02   7.4332794945e+00  0.006958394  0.004829088 -30.19 0.0006168103    1.663    0.399
       314 -10.1509    246.4973    157.9627   2.8990186839e+02   4.5186684056e+00   0.01038596  0.006393465 -63.62  0.001036876    1.603    0.376
       315  -9.3556    215.2827    158.3580   2.9025916008e+02   4.6949786236e+00   0.00700835  0.004751965 -33.61 0.0007017514    1.670    0.401
       316  -9.1510    224.4784    156.5143   2.9014357932e+02   4.6630083540e+00  0.006518051  0.006333542 -48.08 0.0001496465    1.018    0.017
       317 -10.5907    104.4372    153.5133   2.9149248867e+02   5.3919085795e+00   0.02182339   0.01253984 -72.66  0.002063574    1.938    0.484
       318  -9.5628     26.4675    127.4950   2.9222707878e+02   6.1419545136e+00   0.01598551  0.008347638 -72.85 0.0006408104    2.217    0.549
       319 -11.5616     30.6280    148.8790   2.9230654325e+02   5.8706962454e+00   0.04568496   0.01948752 -71.42  0.003102335    2.887    0.654
       320 -11.0712     33.2753    144.3413   2.9224941757e+02   5.9079606779e+00   0.02193278   0.01394629 -67.49  0.001644071    1.601    0.375
       321 -11.9729     23.1622    135.8586   2.9231444483e+02   6.0642246403e+00    0.0362807   0.02666062  52.55  0.003982525    1.475    0.322
       322 -11.7581     29.8157    132.7191   2.9221989351e+02   6.0622822005e+00    0.0266792   0.01844154 -78.17 0.0004548713    1.610    0.379
       323 -10.1635     22.7916    154.9489   2.9243193488e+02   5.8455301297e+00   0.01751067  0.009293425   3.19  0.001388046    3.077    0.675
       324 -10.8021     10.8727    126.9611   2.9240187355e+02   6.2377520651e+00   0.03789717  0.009622987 -53.09  0.002613127    3.398    0.706
       325 -11.4948     12.9363    139.3381   2.9245176562e+02   6.0827407164e+00   0.03738808   0.02304145  76.31  0.003400665    2.367    0.578
       326 -10.7783     14.0730    132.5346   2.9239842841e+02   6.1549038891e+00   0.01416208   0.01219926  78.50  0.001680104    1.261    0.207
       327 -11.8107     22.6627    149.5191   2.9240119920e+02   5.9090822486e+00   0.03017008   0.01842393 -14.01  0.002724948    2.416    0.586
       328 -10.5453     16.5192    148.0236   2.9246240837e+02   5.9616869529e+00   0.02122903   0.01130804  37.76  0.001669226    1.866    0.464
       329 -10.1334     72.2873    151.8516   2.9184910422e+02   5.5965123868e+00   0.02371416   0.01141399  49.88   0.00199823    2.512    0.602
       330 -12.0714      5.3954    147.3592   2.9258537127e+02   6.0332662706e+00   0.03602624   0.02687204 -50.56  0.003313632    1.310    0.237
       331 -10.6739      3.8990    141.1717   2.9256575480e+02   6.1134343571e+00   0.02351312   0.01017302  27.84  0.001556808    2.325    0.570
       332 -11.9397      3.8721    136.5007   2.9253836076e+02   6.1676190718e+00    0.0145731   0.01268922 -32.80 0.0003844115    1.192    0.161
       333  -9.9178    214.3126    151.8312   2.9023128667e+02   4.7760071096e+00    0.0104815  0.008357141  85.42 0.0005784048    1.421    0.296
       334 -10.1149     56.3977    149.2760   2.9201499106e+02   5.7178245987e+00   0.01097792  0.009904051 -82.18 0.0008597255    1.139    0.122
       335 -11.2629     63.0294    150.5148   2.9194672384e+02   5.6653065397e+00   0.02424391   0.01764086 -12.14  0.002118894    1.688    0.408
       336  -9.8496     60.6963    147.6544   2.9195633948e+02   5.7118274072e+00    0.0117548   0.01050338 -27.37 0.0007391402    1.169    0.145
       337 -11.3740     46.9628    146.6486   2.9210699146e+02   5.8025273023e+00   0.02519344    0.0183419 -72.26  0.001782792    1.429    0.300
