#   1 NUMBER                 Running object number                                     
#   2 MAG_AUTO               Kron-like elliptical aperture magnitude                    [mag]
#   3 X_IMAGE                Object position along x                                    [pixel]
#   4 Y_IMAGE                Object position along y                                    [pixel]
#   5 X_WORLD                Barycenter position along world x axis                     [deg]
#   6 Y_WORLD                Barycenter position along world y axis                     [deg]
#   7 A_WORLD                Profile RMS along major axis (world units)                 [deg]
#   8 B_WORLD                Profile RMS along minor axis (world units)                 [deg]
#   9 THETA_WORLD            Position angle (CCW/world-x)                               [deg]
#  10 FWHM_WORLD             FWHM assuming a gaussian core                              [deg]
#  11 ELONGATION             A_IMAGE/B_IMAGE                                           
#  12 ELLIPTICITY            1 - B_IMAGE/A_IMAGE                                       
         1 -10.8545     84.8725      9.7246   3.7874846710e+01   6.0625424881e+01    0.3311705    0.1333086 -36.96   0.00138555    2.806    0.644
         2 -10.7834     54.1439     10.9768   4.8367173392e+01   6.5795005977e+01    0.2885593    0.1666287  21.15  0.001580268    1.803    0.446
         3 -11.2947    144.2825      9.3298   2.4715473492e+01   4.7412142804e+01    0.3690828    0.2110222 -15.14 0.0008677141    1.837    0.456
         4 -10.0712     78.9737      7.9571   3.8740834559e+01   6.1926696333e+01    0.1575788    0.1286006  16.96 0.0005577788    1.072    0.067
         5 -11.2377     88.9867      5.4400   3.4784847272e+01   6.0233030266e+01     0.241487    0.1639608 -32.07 0.0008390522    1.606    0.377
         6 -10.6228    240.0294      5.0506   1.2349426195e+01   2.4099295901e+01    0.1893499    0.1698992 -63.48 0.0003024672    1.034    0.032
         7 -12.8098     19.5214      4.4994   5.9346026485e+01   7.1032340913e+01     0.491367    0.1896622  33.10  0.002590165    2.989    0.665
         8 -10.4193    133.0435    240.1216   8.4486985978e+01   8.4681019712e+00    0.2666681    0.1229964  50.33  0.001337575    1.832    0.454
         9  -9.8825    117.1615    250.7338   8.8253268438e+01   9.2894542229e+00    0.1493388   0.07951774  41.14 0.0003424177    1.686    0.407
        10 -10.9032     93.1127    249.0976   9.1931572235e+01   1.2980585605e+01    0.1576912      0.12696  83.08  0.000372629    1.189    0.159
        11 -14.2620     36.7226    194.6871   9.6641356905e+01   2.9911438788e+01     1.359434     1.029119 -81.37  0.005496529    1.184    0.155
        12 -13.4195      4.5500    212.9478   1.0324061380e+02   2.9656811468e+01    0.6999232    0.2576244  55.53  0.004152883    2.191    0.543
        13 -14.5340     11.3208    203.8102   1.0163955249e+02   3.0729369937e+01     2.139134    0.5683473  50.93   0.01095671    3.024    0.669
        14 -14.6375     52.9249    224.8531   9.6343786389e+01   2.2314285134e+01     1.073773     0.840301 -79.31  0.005511648    1.320    0.242
        15 -13.5982      4.1399    221.0966   1.0372822995e+02   2.8221488385e+01    0.4536286    0.2947862  88.42  0.002532079    1.151    0.131
        16 -15.6073     94.8868    194.3256   8.5743966034e+01   2.2386053521e+01     1.881499     1.174013 -79.74    0.0103764    1.726    0.421
        17 -14.8836     22.9524    220.4968   1.0081984671e+02   2.6475928846e+01     1.167631    0.5266867  50.30  0.007579799    1.865    0.464
        18 -15.5173     71.9916    209.7036   9.1751690699e+01   2.2669810946e+01     2.185802    0.6061261  48.10  0.009447336    3.101    0.678
        19 -17.0384     68.1845    188.5614   9.0193905680e+01   2.7340424477e+01     3.136263     2.842626  61.74   0.02242217    1.279    0.218
        20 -10.0487     83.2969    246.0413   9.3213724688e+01   1.4806066679e+01    0.1461458    0.1072797  64.11 0.0007120987    1.033    0.031
        21 -10.1538     95.5440    238.0207   9.0514982857e+01   1.4404136689e+01      0.17471    0.1376341  34.67  0.001233022    1.602    0.376
        22 -10.2632    109.3425    236.6804   8.8088250050e+01   1.2614720108e+01    0.1892924    0.1277594 -38.78  0.001147304    2.391    0.582
        23  -9.8710    128.1295    235.3748   8.4765459789e+01   9.9604697707e+00    0.1625106   0.08815713  52.36 0.0004090607    1.579    0.367
        24 -11.0166    102.2762    234.8225   8.9078960599e+01   1.3957589840e+01    0.2217312    0.1932927   2.16  0.001558902    1.915    0.478
        25 -10.8864     81.7130    234.5949   9.2465103246e+01   1.6900199328e+01    0.2475097    0.1440594  69.49  0.001555454    1.609    0.379
        26 -11.1265    113.3140    228.3165   8.6496141152e+01   1.3384929033e+01    0.2581805    0.1947763  49.21  0.001254088    1.179    0.152
        27 -10.2973    181.9774    232.5019   7.5109364434e+01   1.6543108213e+00    0.1815789   0.08778851  27.37  0.000809665    2.754    0.637
        28  -9.9795    130.9285    232.4915   8.3942563476e+01   9.9730569937e+00    0.1843483   0.09764352  45.06  0.001032098    1.588    0.370
        29 -11.0249    220.2180    231.1614   6.8388887283e+01  -4.4122631186e+00    0.2389539    0.1627073  42.27 0.0004962771    1.378    0.274
        30 -11.3227    113.9045    232.8114   8.6899078798e+01   1.2556056987e+01    0.3119726    0.1797877 -78.86  0.001009361    2.301    0.565
        31 -10.2124    215.0119    226.4867   6.8505167705e+01  -3.0093647649e+00    0.1708156    0.1450408  12.42 0.0003775903    1.093    0.085
        32 -11.2365    186.3704    224.2148   7.3093943141e+01   2.0562515915e+00    0.2296877    0.1182043 -45.62  0.001193166    2.370    0.578
        33 -11.6416    125.7461    222.1435   8.3574638167e+01   1.2473566689e+01    0.3822601    0.2383034 -67.53  0.001564953    1.894    0.472
        34 -10.4893    159.2507    221.9696   7.7564284775e+01   6.9780169521e+00    0.2169595     0.161749  34.98 0.0008566944    1.262    0.208
        35 -11.4373    173.4697    220.0007   7.4728474765e+01   4.8566566271e+00    0.2704287     0.206776 -66.95  0.001538754    1.796    0.443
        36 -10.5484    223.2713    220.4257   6.6083567447e+01  -3.6109477526e+00    0.1604916    0.1038954  45.43 0.0004844856    1.559    0.358
        37 -10.0107    139.7452    218.7698   8.0620281559e+01   1.0755074582e+01    0.2050677    0.1290571  73.40  0.001056379    2.207    0.547
        38 -15.7193     17.0298    238.7009   1.0273870891e+02   2.3905844713e+01     1.546379    0.6932984  65.27   0.01045735    1.722    0.419
        39 -10.1944    177.2166    215.4185   7.3340153681e+01   4.8941712013e+00    0.1804152    0.1059305  50.79  0.000950082    1.656    0.396
        40 -10.7515    184.2047    213.8168   7.1821844691e+01   3.9168663839e+00     0.170822     0.135257  16.82 0.0004874378    1.312    0.238
        41 -11.7504    124.9023    212.4167   8.2466892606e+01   1.4274412634e+01    0.3100354    0.2209336 -52.53  0.001251921    1.584    0.369
        42 -10.6444    121.6806    209.6841   8.2696450280e+01   1.5280815980e+01    0.1954343     0.144934  37.16 0.0008154424    1.426    0.299
        43 -10.7292    103.0738    213.9975   8.6646879637e+01   1.7427078242e+01    0.1757838    0.1482374  66.97  0.000366817    1.033    0.032
        44 -11.9094    153.7923    210.7760   7.6898821170e+01   9.6922329807e+00    0.3012457    0.2748428   5.79  0.002004082    1.274    0.215
        45 -11.3726    142.6750    212.0460   7.9140421197e+01   1.1384210410e+01    0.2132311    0.1939819  44.78 0.0009162916    1.096    0.088
        46 -10.9046    138.5552    210.5481   7.9686901945e+01   1.2335343182e+01    0.3264001    0.1715518  41.16 0.0007316523    1.758    0.431
        47  -9.9481    137.3205    207.3327   7.9452606833e+01   1.3100322403e+01      0.12029   0.09902726   5.60 0.0004881753    1.698    0.411
        48 -10.2886    209.6666    211.3117   6.6858060465e+01  -1.4685227211e-01    0.1151669    0.0994706  71.88 0.0004128895    1.679    0.404
        49 -11.3739    230.1460    205.8058   6.2303627315e+01  -2.9056925200e+00    0.4311017    0.2252934  10.18   0.00179579    3.157    0.683
        50 -11.3410    169.3168    206.1348   7.3287912005e+01   7.7235278620e+00    0.1935246    0.1596147  -8.21  0.001011835    1.457    0.313
        51 -10.7196    160.4992    206.5352   7.4994191904e+01   9.2196501244e+00    0.1275621    0.1131333  47.31 0.0002155064    1.025    0.024
        52 -10.9879    124.3878    205.7833   8.1659117362e+01   1.5538505378e+01    0.2476264    0.1889632  33.74 0.0007357112    1.460    0.315
        53 -13.6343    147.0318    202.9841   7.6968533780e+01   1.2185955215e+01    0.6181997     0.405966  51.79  0.003428636    1.417    0.294
        54 -11.0967    121.3414    200.2668   8.1461384613e+01   1.7051890497e+01    0.2192868    0.1897076 -51.26 0.0007693378    1.324    0.245
        55 -12.5195    124.3336    195.6419   8.0211720153e+01   1.7418605365e+01    0.3785203    0.3601128  -3.18  0.002423508    1.327    0.246
        56 -15.9161     35.3428    236.4208   9.9910152423e+01   2.2338357197e+01     1.089862    0.7203951 -86.63  0.007195986    1.290    0.225
        57 -10.2766    212.3951    200.2321   6.4377925320e+01   9.1730695448e-01    0.1685671    0.1193022 -43.34 0.0007864939    1.691    0.409
        58 -12.4215    134.0578    198.8110   7.8806102348e+01   1.5177530714e+01    0.3669827    0.2652413  25.55 0.0007819641    1.746    0.427
        59 -10.2307    245.2856    197.9626   5.8249996746e+01  -4.4310163768e+00    0.1757572    0.1431781  -1.73 0.0003923128    1.078    0.072
        60 -12.5756    190.7052    194.3251   6.7243222321e+01   5.7282424799e+00    0.5791043    0.3126702  36.37  0.002787178    1.768    0.434
        61 -10.8445    225.0884    199.0302   6.1911184300e+01  -1.1428374315e+00    0.2202192    0.2132208 -37.82  0.001226928    1.395    0.283
        62 -14.9639     64.4373    242.9391   9.5911384098e+01   1.7776951502e+01     1.421227    0.8563638 -82.26  0.008695908    1.587    0.370
        63 -10.5433    212.3233    193.1296   6.3051589250e+01   1.9548772120e+00    0.2569746    0.1592686 -58.32  0.001142012    2.961    0.662
        64 -10.2330    163.5002    193.0069   7.2173134753e+01   1.0966593615e+01    0.1877503    0.1319033 -45.89 0.0006083265    1.549    0.354
        65 -15.2068     32.0603    231.8539   1.0012212041e+02   2.3488201817e+01     1.025334    0.5111001 -50.59  0.005575593    3.912    0.744
        66 -11.3264    111.4126    192.2274   8.2238440994e+01   2.0209504186e+01     0.290377    0.2155175 -89.30  0.001313928    1.434    0.303
        67 -11.8296    110.5076    188.4518   8.1870522152e+01   2.1098598578e+01    0.2731817    0.2320421  52.84 0.0008253539    1.151    0.131
        68 -10.3699     22.0218    192.0622   9.9028579494e+01   3.1975015834e+01    0.1502438    0.1093853 -63.36 0.0005782664    1.570    0.363
        69  -9.8437    240.6839    190.3078   5.7525691000e+01  -2.6617645967e+00    0.1117404    0.1056191 -69.21 0.0002761019    1.631    0.387
        70 -10.1791      8.4893    188.4452   1.0112115579e+02   3.3977037793e+01    0.3215136    0.2301728  58.81  0.002477597    1.361    0.265
        71 -11.1420     10.2127    183.6287   1.0048648415e+02   3.4785344091e+01    0.2200329    0.1385783  78.72 0.0007108525    1.236    0.191
        72 -10.9881    173.5244    188.8969   6.9505553134e+01   9.8152049052e+00    0.2223025    0.1837609  64.49  0.001273578    1.376    0.273
        73 -13.0161    127.6617    185.1030   7.7918647240e+01   1.8869891751e+01    0.5394884    0.3986549  13.79  0.002294074    2.081    0.520
        74  -9.5478    226.6718    187.6554   5.9422702967e+01   1.6028356397e-01    0.1413498   0.09192935   8.91 0.0007050638    1.748    0.428
        75 -11.2428    136.5974    187.1981   7.6469992038e+01   1.6896564784e+01    0.1825378    0.1235672 -40.29 0.0009502001    1.719    0.418
        76 -10.1922    248.2123    185.8279   5.5356268879e+01  -3.3524657755e+00    0.1865338    0.1304011   9.63 0.0006949161    1.355    0.262
        77 -10.8290    186.0267    185.4661   6.6463713431e+01   8.0378328927e+00    0.2084851    0.1246624  41.93 0.0005492269    1.561    0.359
        78 -14.5141     23.7385    229.8609   1.0126329463e+02   2.4728694876e+01    0.5020378    0.2449022  63.80  0.002567774    1.610    0.379
        79 -10.0599     18.5226    183.9960   9.9032058810e+01   3.3938825296e+01    0.1538337    0.1187446  78.60 6.209165e-06    1.123    0.109
        80 -10.8915     36.5417    182.1458   9.5557374828e+01   3.2480233697e+01    0.2620513    0.1540384  71.13  0.001604001    1.562    0.360
        81 -11.4165    144.0579    181.9569   7.4080323676e+01   1.6548631702e+01    0.2137402    0.1698985   4.03  0.001138619    1.743    0.426
        82 -11.5080     23.8231    178.9780   9.7654606426e+01   3.4452672538e+01    0.4275841     0.172912 -84.79  0.001815499    2.345    0.574
        83  -9.9279     17.4871    179.9759   9.8904569879e+01   3.4857875873e+01    0.1680648   0.08443584 -76.23 0.0006401751    1.554    0.357
        84 -11.7673    164.6813    177.7102   6.9153553722e+01   1.3471257737e+01    0.2849264    0.1837568  53.90 0.0007926436    1.622    0.384
        85 -11.4567    154.6538    177.6836   7.1166049789e+01   1.5386116553e+01    0.2176108    0.1690988   0.08   0.00111944    1.760    0.432
        86 -13.7336    124.5564    169.8393   7.5976890607e+01   2.2478543450e+01    0.6337466    0.4242427 -64.71  0.002366951    1.590    0.371
        87 -11.4925     27.0260    172.7481   9.6496205964e+01   3.5436960734e+01    0.3131528    0.1757758  82.74  0.001292506    1.609    0.379
        88 -13.3941    153.4046    167.3189   6.9437124262e+01   1.7612319926e+01    0.6185715     0.371752 -32.55  0.002775434    2.037    0.509
        89 -10.3444    196.6774    170.6938   6.1464839867e+01   8.4575445545e+00     0.144935    0.1048202   9.35 0.0003391011    1.641    0.391
        90 -13.7059    132.3822    169.1180   7.4191226503e+01   2.1216776857e+01     0.532641    0.3921992  56.71  0.002833102    1.370    0.270
        91 -11.4083     40.4035    168.0007   9.3382059613e+01   3.5051092196e+01     0.317984    0.1215759 -72.17  0.001500388    2.253    0.556
        92 -12.0177    172.5096    167.2457   6.5504506380e+01   1.3868276156e+01    0.3887633    0.1928051 -48.45  0.001617209    2.201    0.546
        93 -10.5148     33.3138    167.4612   9.4749183290e+01   3.5923230657e+01     0.221652    0.1799559 -85.30  0.001215888    1.111    0.100
        94  -9.9108     11.3369    168.0269   9.9088656081e+01   3.7897144775e+01    0.1595428    0.1104504 -87.50 0.0006210877    1.049    0.046
        95 -10.1160     18.8364    166.8121   9.7542175499e+01   3.7480649315e+01     0.165197    0.1231196 -72.89 0.0007082682    1.235    0.190
        96 -10.7816    205.6952    164.9792   5.8533252086e+01   7.6315621813e+00    0.2015496    0.1756065 -17.14  0.000659627    1.106    0.096
        97 -12.1282      2.1987    248.9247   1.0527467800e+02   2.3684782899e+01    0.2245628    0.1419059  84.66  0.001239349    1.178    0.151
        98 -10.7775     35.8286    163.0765   9.3779276301e+01   3.6608853274e+01    0.1898296    0.1298601  82.00 0.0006454453    1.281    0.219
        99 -12.0272    171.9367    159.7465   6.4047017655e+01   1.5386420253e+01    0.3264965    0.2278651  40.47    0.0012369    1.418    0.295
       100  -9.8708      4.8312    170.1808   1.0047865236e+02   3.8001752970e+01    0.1348068    0.1013173 -74.05 0.0005797143    1.283    0.221
       101 -13.5069    112.4570    156.8008   7.6243145889e+01   2.7362640754e+01    0.4981397    0.4509195  61.73  0.002956322    1.110    0.099
       102 -12.3798     96.0448    160.8002   8.0577550868e+01   2.9206470292e+01      0.35813    0.2058079 -64.27   0.00125926    1.688    0.407
       103 -13.3127    100.7973    156.1975   7.8734737886e+01   2.9454067297e+01    0.5667266    0.3416723  45.41  0.002163044    1.708    0.415
       104 -13.6565    109.2858    147.8849   7.5267706519e+01   2.9866765940e+01     1.061711    0.3678426 -45.27  0.003665915    3.151    0.683
       105 -14.0588    102.7899    142.2417   7.5669283156e+01   3.2234001978e+01    0.7726607    0.5382827  46.81  0.003031773    1.516    0.340
       106 -11.7183     46.9120    158.5646   9.0940729029e+01   3.6386713068e+01      0.37288     0.258794  -2.97  0.001938754    3.092    0.677
       107 -11.5502    126.9288    156.3470   7.2950200632e+01   2.4875697474e+01    0.2311536    0.1906003 -71.11 0.0004595919    1.241    0.195
       108 -12.2887      8.4453    248.0598   1.0439149219e+02   2.3219219299e+01    0.2070552    0.1425133  46.27  0.001449286    1.676    0.403
       109 -11.3610    211.6302    154.4168   5.5075437456e+01   8.2070587079e+00    0.4468152    0.2341269  34.29  0.001874457    2.088    0.521
       110 -12.7025     88.6857    153.2738   8.0951581359e+01   3.2015910650e+01    0.3313639    0.2671212 -81.29  0.001604105    1.157    0.135
       111 -11.1344     37.3272    154.3208   9.2474757112e+01   3.8375504073e+01    0.2707013    0.1820773  25.05  0.001069585    2.131    0.531
       112 -10.3947      3.8349    153.3964   9.9330682544e+01   4.1621235172e+01    0.2467998    0.1769904 -22.64  0.001628525    2.533    0.605
       113 -10.9186    207.9444    238.3188   7.1569725377e+01  -3.3040454306e+00    0.1671002     0.122492  31.87 0.0004061391    1.093    0.085
       114 -12.1273    126.1731    151.5854   7.2171690990e+01   2.6032504822e+01    0.3713435    0.2385318  44.83 0.0005710071    1.590    0.371
       115 -12.4130     45.4485    150.4474   9.0226991920e+01   3.8361906883e+01    0.4826273    0.2401415 -79.23   0.00238947    1.945    0.486
       116 -10.9732    180.9885    150.9668   6.0262644835e+01   1.5174369301e+01    0.2350913    0.1896782 -85.91   0.00114458    1.727    0.421
       117 -11.3277    171.7605    150.8922   6.2142104899e+01   1.7115021437e+01     0.287609    0.2038826  75.88  0.001258562    2.126    0.530
       118 -12.1439    146.3539    149.4310   6.7246362809e+01   2.2600277572e+01    0.3379957     0.251732 -81.36   0.00107722    1.796    0.443
       119 -11.4932     60.1327    149.9732   8.6883791344e+01   3.6730337223e+01    0.2765579     0.184282 -66.04 0.0008019807    1.276    0.216
       120 -12.6885     80.5681    148.4467   8.1984923199e+01   3.4311846415e+01    0.3906682    0.2314113  79.40  0.001451501    2.399    0.583
       121 -11.6242    133.1084    148.3150   6.9943639260e+01   2.5425609362e+01    0.2607179    0.1979834 -38.53  0.001317111    1.392    0.281
       122 -10.3772    224.0260    148.0381   5.1341861980e+01   6.7462968101e+00    0.2169029    0.1767177 -61.75 0.0007309509    1.674    0.403
       123 -11.0724    154.0482    149.4684   6.5580312283e+01   2.1044309627e+01    0.2234055    0.1437769  45.97 0.0008280507    1.565    0.361
       124 -10.8043    128.6953    147.0697   7.0675305827e+01   2.6532153542e+01    0.1985787     0.179663 -56.22 0.0002248574    1.071    0.066
       125 -10.6109    116.3263    146.3178   7.3339640404e+01   2.8974066007e+01    0.1406371    0.1139488 -15.72 0.0007045571    1.676    0.403
       126 -10.1854     34.0064    149.6691   9.2638547141e+01   3.9752531504e+01     0.158437    0.1345162  88.11 0.0004044808    1.137    0.121
       127 -11.8793     53.9575    144.9817   8.7556008496e+01   3.8617492457e+01    0.3221088    0.1950028  72.69  0.001255419    1.924    0.480
       128 -11.6483     12.3826    143.1196   9.6593053083e+01   4.3176435680e+01     0.329048     0.251643  78.53  0.002368015    1.214    0.176
       129 -11.5059     24.8989    144.8407   9.4061686888e+01   4.1709987403e+01     0.259069    0.1997186 -61.23 0.0007861368    1.311    0.237
       130 -11.5466     27.9796    160.2846   9.5090357125e+01   3.8013331411e+01    0.2588136     0.164527 -78.84 0.0004778827    1.225    0.184
       131 -10.3309    151.4950    141.5283   6.4355236701e+01   2.3194367828e+01    0.1475869    0.1439634 -22.60 6.978865e-05    1.037    0.035
       132 -12.1162     79.0697    140.9949   8.1043472422e+01   3.6226010329e+01    0.2699813    0.2022093 -87.81  0.001043764    1.374    0.272
       133 -12.2493     31.9336    139.2749   9.1811173808e+01   4.2294456536e+01    0.3057009    0.1523012 -57.48  0.001644123    1.737    0.424
       134  -9.6865      6.5398    139.4459   9.7481800718e+01   4.4443245588e+01    0.1159044   0.08394124 -79.27 0.0001464351    1.035    0.034
       135 -11.4685    159.5620    137.3338   6.1606574444e+01   2.2370066418e+01    0.3701735    0.1452934 -40.32   0.00128108    2.553    0.608
       136 -10.4061     36.9697    138.7640   9.0587879137e+01   4.1908991203e+01    0.1385946    0.1043373  38.55 0.0006267122    1.625    0.385
       137 -10.1671     44.2305    137.5880   8.8733740388e+01   4.1412967975e+01    0.1413628    0.1261203   7.78 0.0006552508    1.594    0.373
       138 -10.8006     54.0624    136.0086   8.6165577914e+01   4.0659419909e+01    0.1979986    0.1597523 -80.34 0.0003606727    1.067    0.063
       139 -14.0589    155.6063    128.9960   6.0455422710e+01   2.4922729371e+01     1.348728    0.5872683  45.23  0.004952474    2.374    0.579
       140 -11.5823    133.7202    131.2238   6.5991948430e+01   2.8986791420e+01    0.2804781     0.213064  41.95  0.001017142    1.389    0.280
       141 -12.4700    138.6699    131.6891   6.4953006722e+01   2.7891886768e+01    0.5493915    0.3951881 -80.39  0.001501104    1.956    0.489
       142 -12.1731    143.7963    132.1999   6.3898329488e+01   2.6735448183e+01    0.3728363    0.3044276 -27.95 0.0009175891    1.315    0.240
       143 -10.8644     12.3308    133.8306   9.5608935972e+01   4.5240287136e+01    0.3217168    0.1528287  83.26  0.001601921    2.385    0.581
       144 -14.0056     21.9868    152.8060   9.5555552073e+01   4.0215465538e+01    0.8485292    0.7199136  81.68  0.006327305    1.196    0.164
       145 -10.9021     70.9428    133.8875   8.1726008909e+01   3.9001658550e+01    0.1988534    0.1705793 -71.56 0.0003197129    1.015    0.015
       146 -11.3580     19.9028    132.6847   9.3746004627e+01   4.4878237816e+01    0.2292728    0.1567107  16.43 0.0008815369    2.224    0.550
       147 -11.2582     50.5073    143.5070   8.8133200884e+01   3.9357876607e+01    0.2053546    0.1603703  48.81  0.000768367    1.439    0.305
       148 -12.5669    103.5072    132.8815   7.3577042278e+01   3.4227566207e+01    0.3976963    0.2482904  35.06  0.001264905    1.872    0.466
       149 -10.2795     76.1610    132.8635   8.0261043893e+01   3.8512888562e+01    0.2758156    0.1484227 -66.64  0.001268819    1.790    0.441
       150 -12.0623     30.3513    129.8047   9.0915896352e+01   4.4598071282e+01    0.3473911    0.1887827  81.17  0.001740071    2.243    0.554
       151 -11.7712     61.7696    134.3263   8.4034217862e+01   4.0104258652e+01    0.4193566    0.1973836  42.29  0.001980992    2.346    0.574
       152 -10.3787     69.7130    129.9711   8.1313650060e+01   4.0074499881e+01     0.190766    0.1506511 -64.75 0.0005176513    1.078    0.072
       153 -11.0111     82.4141    225.9178   9.1538563694e+01   1.8296186534e+01    0.3781637    0.1949908  78.97  0.001971311    2.468    0.595
       154 -10.7204     15.4843    127.7397   9.4169651228e+01   4.6355513780e+01    0.3140124    0.1487619 -67.09  0.001740127    1.556    0.357
       155 -10.9404     90.5262    236.5101   9.1195895423e+01   1.5361332264e+01    0.2435916    0.1579025  69.89  0.001421329    1.389    0.280
       156 -11.5783     59.2338    126.6621   8.3327004073e+01   4.2195676699e+01    0.2493885     0.170425 -60.68  0.001399145    1.223    0.182
       157 -11.2013     33.7884    127.1597   8.9709895182e+01   4.4875506416e+01    0.1838225    0.1406957 -85.61 0.0004984366    1.159    0.137
       158 -10.0275     53.5469    124.3789   8.4354766495e+01   4.3409164401e+01    0.2701961    0.1356046  25.44  0.001241654    2.877    0.652
       159 -10.4250     10.1302    123.6110   9.4931833286e+01   4.7694658189e+01    0.2095152    0.1233778 -80.33  0.001278099    1.339    0.253
       160 -10.6008    189.8420    122.1650   5.1465734625e+01   1.8676833599e+01    0.3792338    0.2630755  78.45  0.001553242    2.294    0.564
       161 -11.4830     67.5732    122.4462   8.0424188323e+01   4.2107090359e+01     0.250616    0.2095966 -51.37 0.0007722485    1.169    0.144
       162 -10.2132     49.0911    122.8357   8.5214511979e+01   4.4277485277e+01    0.1976807    0.1512132  87.79 0.0005735405    1.328    0.247
       163 -11.4787     41.8138    120.7523   8.6710706434e+01   4.5546046356e+01    0.3190642    0.2752503  56.79  0.001046773    1.348    0.258
       164 -12.0935     54.5791    117.4319   8.2828166193e+01   4.4900655321e+01    0.3843693    0.2583485  65.05  0.002072665    1.829    0.453
       165 -11.8831     48.1756    116.7351   8.4372903055e+01   4.5793727112e+01    0.4865228    0.3272367 -25.89  0.002169769    2.181    0.542
       166 -10.0099      1.7017    120.9467   9.6616378175e+01   4.8878989468e+01    0.1676838    0.1139845 -76.11 0.0006220216    1.053    0.050
       167 -10.3576    201.4970    120.4111   4.8735625302e+01   1.6363019998e+01    0.1530338    0.1430724  -9.32 0.0008038038    1.021    0.020
       168 -11.1480     23.5081    117.3847   9.0825393176e+01   4.8045677221e+01    0.4751332    0.1869478 -74.80  0.002125437    2.359    0.576
       169 -11.0842     30.9654    118.9951   8.9182974745e+01   4.7016435535e+01    0.2025973    0.1556961 -77.04  0.001314506    1.081    0.075
       170 -11.5781    155.2021    117.3604   5.7573638062e+01   2.7410675116e+01    0.2739348    0.2078814  58.03 0.0007023195    1.469    0.319
       171 -11.8674    101.3142    119.9190   7.1234382494e+01   3.7549604091e+01    0.4959258     0.243497  53.61  0.001951133    2.599    0.615
       172 -11.4001    106.0473    114.0656   6.8620681794e+01   3.8044495546e+01    0.4720452    0.3204417  -9.70   0.00166926    2.573    0.611
       173 -10.9549     82.5985    113.4246   7.4593442934e+01   4.2064179521e+01    0.2633455    0.2099899 -65.13 0.0002504479    1.163    0.140
       174  -9.6844     30.3214    112.7104   8.8349896745e+01   4.8518785274e+01    0.1216235   0.08386132  81.35 0.0002942081    1.604    0.377
       175 -10.4630    242.0326    111.2875   3.9344993450e+01   8.9715797317e+00    0.1959366    0.1837286  14.36 0.0004723693    1.132    0.117
       176 -12.2005     53.5922    110.6840   8.1784476485e+01   4.6581530984e+01    0.5515214    0.2357473 -43.18  0.002303586    2.586    0.613
       177 -11.4112     50.5897    107.4434   8.1952403075e+01   4.7675643305e+01    0.4123788    0.2773809  -8.67  0.002094727    2.470    0.595
       178  -9.9019    122.2911    110.3289   6.3543984040e+01   3.5817217517e+01    0.1523013    0.1179776 -14.26 0.0004519611    1.623    0.384
       179 -11.9320    152.3206    106.8168   5.5377523484e+01   3.0211433093e+01    0.3409275    0.2907115 -79.16  0.001665112    1.417    0.294
       180 -10.0394    117.0225    103.7218   6.3106929441e+01   3.8290088668e+01    0.2011217    0.1971681  -3.87 0.0004323539    1.092    0.084
       181 -11.8306     54.2731     92.8576   7.7715221231e+01   5.0592401825e+01    0.2646333    0.1829889  51.87  0.000917847    1.838    0.456
       182 -12.4051     57.6065    100.0962   7.8426459924e+01   4.8544682279e+01    0.4059238    0.3223069 -35.39  0.001563617    1.335    0.251
       183 -11.5276     59.3186     95.8424   7.6951072950e+01   4.9305099746e+01    0.3020241    0.2117879  50.66  0.001523946    1.767    0.434
       184 -11.2628     78.9292    100.6003   7.2531358345e+01   4.5547434801e+01    0.3051569    0.1762112 -66.26  0.001342461    1.994    0.498
       185  -9.9181    237.3949     98.7271   3.6868148980e+01   1.1985450371e+01    0.1484211    0.1116554 -66.56 0.0006988241    1.735    0.424
       186  -9.8285    173.3240     98.3110   4.8359326924e+01   2.7037568022e+01    0.1628869     0.123293   9.41 0.0003705639    1.655    0.396
       187 -10.5860     22.1262     99.8971   8.8402481408e+01   5.2146653362e+01    0.3083711    0.1742212 -77.25  0.001689908    1.646    0.392
       188 -10.3022    135.4592     91.5692   5.4979581445e+01   3.7046368764e+01    0.1557021    0.1450238 -23.36 1.468439e-05    1.036    0.034
       189 -10.1810     21.4979     91.4961   8.7062475840e+01   5.4096760011e+01    0.1252668   0.09424146 -62.91  0.000810666    1.009    0.009
       190 -10.1390      3.0088     90.7458   9.2251973164e+01   5.5529060588e+01    0.1545459    0.1193528 -63.90 0.0003750379    1.094    0.086
       191  -9.8349     95.5233     89.4533   6.4868397604e+01   4.5349790680e+01    0.1478618    0.1306311 -38.77 5.250011e-05    1.021    0.021
       192 -10.1101     11.9895     88.1081   8.9219764377e+01   5.5548551229e+01    0.2779616    0.1144979 -81.90  0.001078806    3.644    0.726
       193 -12.4693     46.4734     86.8601   7.8613872786e+01   5.2824376316e+01    0.3468999    0.2401579  33.85  0.002013541    1.783    0.439
       194 -13.4117     52.9854     84.6125   7.6072262932e+01   5.2593167094e+01    0.9308721    0.5914536  75.21  0.004162013    3.003    0.667
       195  -9.7996    208.6431     86.6774   3.8310606871e+01   2.0619517104e+01    0.1630939    0.1175418  15.89 0.0007045274    1.766    0.434
       196 -10.5311    211.9980     81.5246   3.6303987644e+01   2.0665737503e+01     0.214616    0.1528921  54.29 0.0003624104    1.500    0.333
       197  -9.6090    172.2931     81.6930   4.3678873496e+01   3.0356221618e+01    0.1581232    0.1220108 -64.52 0.0002314699    1.581    0.368
       198 -10.2408    207.6595     79.1800   3.6366795975e+01   2.2101390229e+01    0.2728545    0.1923306 -20.62 0.0007143789    1.455    0.313
       199 -10.3104    153.1025     80.1764   4.7331264126e+01   3.5248523812e+01    0.2331516     0.205074   4.13 0.0003314339    1.203    0.169
       200 -11.5009     29.1948     80.0066   8.2341977270e+01   5.6031367340e+01    0.1984957    0.1568453  53.72  0.001273328    1.658    0.397
       201 -10.2874     87.5850     79.2700   6.4116559393e+01   4.8865870103e+01    0.2467935    0.1794315   7.67  0.001208008    1.818    0.450
       202 -10.4878    183.2502     77.8374   4.0349355881e+01   2.8337919411e+01    0.3383572    0.2153142  41.27   0.00143832    1.702    0.412
       203 -11.0217    112.0038     75.9965   5.6174607536e+01   4.5071048519e+01     0.299096    0.2484469   5.20 0.0004894356    1.340    0.254
       204 -10.5152    115.5537     74.9273   5.4872510662e+01   4.4566296375e+01    0.3165791    0.2163917 -16.88  0.001412643    1.730    0.422
       205 -11.2311     74.7009     75.7257   6.6898458502e+01   5.1639929789e+01    0.3282148     0.238633  18.80  0.001056145    1.688    0.408
       206 -12.5726     32.3083     74.1763   7.9954661829e+01   5.7035085135e+01    0.3166769    0.2417709  -8.73  0.002006124    1.629    0.386
       207 -10.4496    219.8486     72.5492   3.2556340071e+01   2.0207028498e+01    0.2536631    0.1906683 -49.23 0.0006526309    1.333    0.250
       208 -11.5983    100.9413     69.3925   5.7069677722e+01   4.8504624906e+01    0.4960201    0.1983818 -37.50  0.001832342    2.327    0.570
       209 -10.8863    198.5668     65.5169   3.3936772299e+01   2.6539509299e+01    0.2492887     0.153486  59.50 0.0006113072    1.716    0.417
       210 -10.3864    177.8426     64.8115   3.7393857775e+01   3.1856965352e+01    0.2326209    0.2062755  -0.93 0.0006142047    1.172    0.147
       211 -13.2354     30.6623     65.1755   7.8153707120e+01   5.9115620481e+01     1.098766    0.4308724  41.86  0.004839164    3.709    0.730
       212 -10.4145    208.4780     61.4718   3.1169299592e+01   2.4688270586e+01    0.1503142    0.1425716 -27.05 5.884827e-05    1.027    0.026
       213 -10.0819     45.5359     60.9716   7.1815073002e+01   5.8499944441e+01    0.1924068   0.08168367 -35.80 0.0008079795    2.424    0.588
       214 -10.6332      3.5018     59.3671   8.6088725345e+01   6.2308127232e+01    0.2092882    0.1534666 -29.62  0.001478303    1.438    0.304
       215 -10.6883    153.6430     57.5186   3.9865017803e+01   3.9040548992e+01    0.2705631    0.2265547 -18.07 0.0003360038    1.172    0.147
       216 -11.3962     53.1129     57.0269   6.7928839228e+01   5.8404113973e+01     0.375199    0.2586088  64.77  0.001810412    2.784    0.641
       217 -10.6985    193.1795     57.3871   3.2405932983e+01   2.9140798880e+01    0.2176678    0.1486441  77.53 0.0009557788    1.773    0.436
       218 -10.4444    188.5969     67.5760   3.6271601898e+01   2.8711742944e+01    0.5403456    0.1234766 -34.43  0.001481274    3.749    0.733
       219 -10.2997     27.4594     54.9774   7.6360325375e+01   6.1515057478e+01    0.2252612    0.1420537  48.28  0.001261359    2.439    0.590
       220  -9.9220     93.7863     51.7793   5.2908523104e+01   5.3082780331e+01    0.2322852    0.1404344   3.79  0.000927183    2.637    0.621
       221 -10.4069     30.9092     50.7952   7.3797022713e+01   6.2044133376e+01    0.1838641    0.1362146 -32.01 0.0004565507    1.165    0.142
       222  -9.7916    172.6579     50.6695   3.3870309648e+01   3.5343852996e+01    0.1634378    0.1136633  23.01 -2.665154e-05    1.748    0.428
       223 -10.9853     45.4271     49.7965   6.8156883431e+01   6.0729514389e+01    0.2167893    0.1677172  52.19  0.001195828    1.928    0.481
       224 -10.2795     18.4652     49.4824   7.8024850595e+01   6.3358935343e+01    0.1220424   0.09030994 -45.95 5.770604e-05    1.024    0.024
       225  -9.8399      1.6395     47.6907   8.3869104331e+01   6.4816678008e+01    0.1237719    0.0597176 -38.93 4.067687e-05    1.740    0.425
       226 -11.1147    195.8698     44.3546   2.8051613486e+01   3.0322623033e+01    0.3680099    0.2316239 -83.41  0.001524223    2.224    0.550
       227 -11.5969     88.0685    230.8199   9.1059768881e+01   1.6661995095e+01      0.45138    0.2802155  73.27  0.001782086    1.559    0.359
       228 -10.9384     35.6106     39.7522   6.8179805548e+01   6.3690676744e+01    0.2672743     0.187371 -11.73 0.0009894783    1.479    0.324
       229 -11.7312     55.5521     37.2855   5.9752136630e+01   6.1726031124e+01    0.3743698    0.2782087  11.75  0.001371248    1.428    0.300
       230 -11.0538     10.3826     36.8099   7.7178581932e+01   6.6419274955e+01    0.2519797    0.1433574 -32.38 0.0009303877    1.513    0.339
       231 -10.5234    106.4418     32.1301   4.1665518385e+01   5.3614430847e+01    0.2497345    0.1588964 -30.81  0.001229734    1.496    0.332
       232 -10.8230     44.1493     33.2879   6.2353679002e+01   6.3870429614e+01    0.2043141    0.1389804  -7.94  0.001199727    1.521    0.343
       233 -10.6044     77.5000     30.5261   4.9415086714e+01   5.9394067438e+01    0.1348691     0.113813 -12.08 5.830265e-05    1.048    0.046
       234 -10.5203    169.5134     31.1015   2.8029376417e+01   3.8769064743e+01    0.2104091    0.1918062  58.90 0.0003478583    1.094    0.086
       235  -9.7039    178.7241     28.3333   2.5680537119e+01   3.6746424739e+01    0.1498746    0.1051817 -56.57 0.0002489052    1.602    0.376
       236 -11.7771     31.6568     32.1526   6.6795540942e+01   6.5460255334e+01    0.3973103    0.1934653 -33.99  0.002111286    1.686    0.407
       237 -11.3349    118.9775     25.7245   3.5995804742e+01   5.1699908376e+01    0.2844033    0.2043624  -1.01 0.0006015194    1.418    0.295
       238 -11.5245     84.9191     24.3313   4.4431657823e+01   5.8916211142e+01      0.30847    0.2495605  61.29  0.001776557    1.695    0.410
       239 -10.1035     20.6107     23.1724   6.7703519249e+01   6.8063042241e+01    0.1787305   0.07812785 -36.79 0.0009452454    1.740    0.425
       240 -10.1641    250.0202     22.2767   1.5706722860e+01   1.9919244454e+01    0.1828962     0.160142 -77.42 0.0006477953    1.114    0.102
       241  -9.5481     55.2705     21.6689   5.3081373436e+01   6.4207807191e+01     0.114805   0.09198476 -43.02 0.0002857236    1.587    0.370
       242  -9.7250    134.5631     18.4511   2.9848224435e+01   4.8885887207e+01    0.1420551     0.126556  23.45 1.348578e-05    1.038    0.037
       243 -10.7480     30.3813     16.2425   6.0381784595e+01   6.8187451563e+01    0.2080162    0.1233721 -38.39 0.0006323117    1.473    0.321
       244 -10.3711    215.7623     15.2669   1.7171133183e+01   2.8837149090e+01    0.1821384    0.1578272  27.19 0.0009326247    1.341    0.254
       245 -10.3518    238.1136    248.7225   6.8244218323e+01  -9.0492895964e+00     0.164755    0.1410757  -6.93  0.000708222    1.344    0.256
       246 -11.7348    179.6387    244.6160   7.7219067295e+01   4.4204179911e-01    0.2184899    0.1724489  43.43 0.0005139566    1.090    0.082
       247 -10.6604    213.9971     10.4904   1.6052357732e+01   2.9771677169e+01    0.2085642     0.128387  74.68  0.001035349    1.600    0.375
       248 -11.5418    103.8240    244.5354   8.9793838130e+01   1.2176702359e+01    0.1963837    0.1512413  83.08  0.001086928    1.257    0.204
       249  -9.7085    198.3601    242.7492   7.3829747773e+01  -2.3102606309e+00    0.1092894   0.08028331  56.13 0.0004525928    1.611    0.379
       250 -10.2802     82.9658    241.7120   9.2894052055e+01   1.5549468451e+01    0.2588322    0.1257766  64.91  0.001473433    2.047    0.511
       251 -11.7616    116.1939    240.2221   8.7320186114e+01   1.1030075426e+01    0.1893696    0.1456987  62.95 0.0002802599    1.091    0.083
