#   1 NUMBER                 Running object number                                     
#   2 MAG_AUTO               Kron-like elliptical aperture magnitude                    [mag]
#   3 X_IMAGE                Object position along x                                    [pixel]
#   4 Y_IMAGE                Object position along y                                    [pixel]
#   5 X_WORLD                Barycenter position along world x axis                     [deg]
#   6 Y_WORLD                Barycenter position along world y axis                     [deg]
#   7 A_WORLD                Profile RMS along major axis (world units)                 [deg]
#   8 B_WORLD                Profile RMS along minor axis (world units)                 [deg]
#   9 THETA_WORLD            Position angle (CCW/world-x)                               [deg]
#  10 FWHM_WORLD             FWHM assuming a gaussian core                              [deg]
#  11 ELONGATION             A_IMAGE/B_IMAGE                                           
#  12 ELLIPTICITY            1 - B_IMAGE/A_IMAGE                                       
         1 -14.4349    157.7487     54.6923   8.0586273812e+01   3.8859643208e+01     1.453877      1.18656  52.02  0.003505192    1.167    0.143
         2 -14.7468    170.2757     39.1225   7.3811120730e+01   3.7973720572e+01     1.197675       1.0679  27.47  0.004451034    1.293    0.226
         3 -14.7800    190.0021      6.9670   6.2542886020e+01   3.6837203785e+01     2.273457    0.7397887  63.46  0.009390286    2.458    0.593
         4  99.0000     15.4745    237.5609   1.4849935505e+02   2.3576098448e+01    0.1810857    0.1068931  57.92  0.001234676    1.378    0.274
         5 -19.8697     62.6953    167.8590   1.3233994036e+02   3.3073699861e+01     19.17868     6.018224 -65.97   0.06906402    3.053    0.672
         6  -9.7911    130.2413    212.5407   1.2390193442e+02   1.2009565733e+01    0.1429613    0.0991008  84.76 0.0006846662    1.819    0.450
         7 -12.3219    106.8506    206.4418   1.2796890910e+02   1.7409527535e+01    0.7205632    0.3914002 -66.26  0.002119716    1.972    0.493
         8 -10.6318    215.9915    206.6735   1.0530076091e+02  -2.8448061398e+00    0.2273723   0.09803183  25.23 0.0007051587    4.351    0.770
         9 -11.3755     30.0975    205.6022   1.4358812205e+02   2.8497131450e+01    0.1942285    0.1778038 -58.95 0.0007510056    1.530    0.346
        10 -12.0151    163.6828    202.8822   1.1520214191e+02   7.6703489533e+00    0.3296159    0.2530511  78.49 0.0007721498    1.663    0.399
        11 -12.7943    157.3254    200.7349   1.1617337924e+02   9.3244631287e+00    0.7660319    0.4783705  87.34   0.00286549    3.293    0.696
        12 -10.7274    153.5924    194.8043   1.1591506634e+02   1.1258908916e+01    0.2641114    0.1883832 -55.09 0.0008142767    1.502    0.334
        13 -10.3373    140.4618    200.3690   1.1974914111e+02   1.2629419623e+01    0.3254471    0.2085833  29.53  0.001369697    1.859    0.462
        14  -9.8958    121.7957    198.9583   1.2359483575e+02   1.6394262931e+01    0.1744931    0.1110705 -57.38 0.0005146618    1.633    0.388
        15 -10.7647    112.4812    196.4303   1.2524654636e+02   1.8613133102e+01    0.4412428     0.305119   6.10  0.001841965    2.990    0.666
        16 -10.1228      6.6703    196.4431   1.4729151818e+02   3.2849070312e+01    0.3692223    0.1663377  76.06  0.001421581    2.158    0.537
        17 -10.7201    169.7512    195.3868   1.1254303971e+02   7.9686878701e+00    0.2015244    0.1312669  35.49 0.0009389504    1.539    0.350
        18 -10.7779    103.4114    194.4883   1.2695603405e+02   2.0618312015e+01    0.4043587    0.2449743  25.89  0.001528034    2.402    0.584
        19 -10.6277    150.7080    249.9189   1.2516586027e+02   1.4930451034e+00    0.1688262    0.1551937  35.66 0.0004318219    1.160    0.138
        20 -11.7828    180.6638    193.3361   1.0984826944e+02   6.2214337780e+00    0.3082375    0.2419008  83.49  0.001529237    1.742    0.426
        21 -11.6365    170.0534    183.8092   1.1025140247e+02   1.0245718490e+01    0.2905048    0.2373511  76.62  0.001469109    1.458    0.314
        22 -13.3947    175.3409    186.3696   1.0961913337e+02   8.6578159196e+00    0.7134055    0.4628741 -40.60  0.003340161    1.634    0.388
        23 -13.1319    165.6855    188.6786   1.1214488741e+02   1.0127406635e+01    0.5026765    0.4271137   2.14  0.002549794    1.419    0.295
        24  -9.8579    139.7467    249.7776   1.2723547214e+02   3.3803351219e+00    0.1771867    0.1270129  62.25  0.001043238    1.369    0.269
        25 -10.0930     18.7014    235.7418   1.4785470816e+02   2.3578567285e+01    0.1596204    0.0804653 -69.38 0.0005803074    1.865    0.464
        26 -11.3980    206.8606    178.1056   1.0142008475e+02   3.9453123778e+00    0.5393153    0.3354625  16.77  0.002229322    2.399    0.583
        27 -10.9474    203.5217    175.0259   1.0144478042e+02   5.1952534093e+00    0.3662639     0.171948 -52.53  0.001358348    2.675    0.626
        28 -11.1561    203.2763    170.7043   1.0058107110e+02   6.0757768113e+00    0.5136665     0.284608  32.94  0.002128276    2.080    0.519
        29 -10.4650    136.9229    179.4859   1.1680846957e+02   1.7818963633e+01    0.2197579    0.1424072  43.22 0.0003059779    1.503    0.335
        30 -10.2760    131.8283    236.7788   1.2705426199e+02   7.0314840402e+00    0.1659281     0.149175  80.09 0.0004370778    1.141    0.123
        31 -12.8055    195.5514    169.0517   1.0180092979e+02   7.9853090984e+00     0.499707    0.4170768 -43.11 0.0005199317    1.206    0.171
        32 -11.9684    192.9897    164.2669   1.0129948424e+02   9.4754867536e+00    0.4616844    0.3604855  35.86  0.001938207    1.310    0.237
        33  -9.6977    135.1261    235.1134   1.2617669895e+02   6.7657031452e+00     0.222544    0.1737004  42.58 0.0005286363    1.176    0.150
        34 -11.6342    230.2361    166.6068   9.4519641361e+01   1.5022580195e+00     0.270244    0.1666043 -48.16 0.0009001623    1.711    0.416
        35 -11.8928     25.2947    165.6815   1.4069631856e+02   3.7916670010e+01     0.407288     0.261237   6.20  0.001223625    2.816    0.645
        36 -11.5520    122.4867    165.6311   1.1754329445e+02   2.3774197765e+01    0.2883871     0.246485  73.66 0.0003127796    1.179    0.152
        37 -11.4418    164.7002    171.2543   1.0888619577e+02   1.3977343545e+01    0.4023996    0.2606857 -84.65  0.001174538    2.840    0.648
        38 -10.1939    189.2246    158.5224   1.0082609700e+02   1.1441412251e+01    0.2185736    0.1431949  33.21  0.000620426    1.707    0.414
        39 -12.0217    134.5857    108.9391   1.0143202670e+02   3.4252280354e+01     1.247067    0.1711143 -45.75  0.002492985    7.340    0.864
        40 -14.3996    133.9674    145.7094   1.1057888777e+02   2.6114745049e+01     1.577568    0.4920616 -53.78  0.004555524    3.632    0.725
        41 -13.2886    135.7375    127.8838   1.0597075450e+02   2.9820255620e+01      1.23087    0.2812484 -50.26  0.003009447    4.880    0.795
        42 -11.3419     13.9386    151.4638   1.4171142292e+02   4.2200439355e+01    0.3416853    0.2309122 -38.32  0.002080228    1.927    0.481
        43 -11.3460    174.3022    148.6804   1.0182267060e+02   1.6753864056e+01    0.3729653     0.283731 -73.46  0.001404047    1.632    0.387
        44 -13.1159    144.5235    146.2009   1.0812281422e+02   2.3790532444e+01    0.6648887    0.4454359 -75.57  0.002702959    2.077    0.519
        45 -12.5709    142.5118    139.3035   1.0702390728e+02   2.5785083426e+01    0.4505155    0.3096064 -78.07  0.001845855    2.032    0.508
        46  -9.9538    219.1877    224.1357   1.0789948796e+02  -6.1838590702e+00    0.1565061    0.1537818 -54.80 0.0004418745    1.337    0.252
        47 -11.8624     20.2577    141.3621   1.3899580863e+02   4.3987116943e+01    0.2203085    0.1746539 -87.44 0.0004218461    1.125    0.111
        48 -12.8466      5.6661    139.5307   1.4233145177e+02   4.5550277057e+01    0.4351065    0.3182029  86.55  0.001824457    1.246    0.197
        49 -11.4270    152.4230    139.1719   1.0461407363e+02   2.3665237462e+01     0.317135    0.2412741 -83.66  0.001407348    1.678    0.404
        50 -10.9439    110.0111    222.5928   1.2953028947e+02   1.3503865702e+01    0.2725343     0.180699 -81.24   0.00143467    1.705    0.413
        51 -13.1884      2.9254    125.5537   1.4136397027e+02   4.8880646938e+01    0.8812569    0.2571362 -74.40  0.003562991    3.076    0.675
        52 -11.6553    160.4662    127.8166   9.9989046618e+01   2.4367384868e+01     0.452338    0.2788267 -57.89  0.001733326    1.842    0.457
        53 -12.9727    113.4640    119.0757   1.0958820805e+02   3.6375635131e+01    0.4454406    0.3721003 -43.28  0.002276416    1.178    0.151
        54 -10.4402    112.0589    214.4156   1.2799706030e+02   1.4831943002e+01    0.1782767    0.1522683  85.88 0.0002344601    1.117    0.105
        55 -11.9766      2.8048    112.4873   1.3968640099e+02   5.1795316781e+01    0.3210292     0.178074 -62.15  0.001286965    1.342    0.255
        56 -12.2133     10.3998    111.0239   1.3736885780e+02   5.1635939879e+01    0.4752411    0.2320323  -2.60  0.001776657    3.660    0.727
        57 -13.2339    118.3924    110.2945   1.0602554785e+02   3.7364206032e+01    0.6425934    0.3259073  50.02  0.002508713    2.135    0.532
        58 -10.5094    168.4031    113.3767   9.4542297029e+01   2.5594358790e+01    0.3287467    0.2296683 -83.36  0.001327031    2.095    0.523
        59 -10.6979    205.5938    110.1221   8.6161424930e+01   1.7481215575e+01    0.2796529    0.2216498  47.98 0.0005973662    1.330    0.248
        60 -11.5440    208.5897    213.2852   1.0796403040e+02  -2.6245804489e+00    0.2470171    0.1284025 -44.53  0.001141828    2.122    0.529
        61 -10.1920    124.4043     81.1855   9.6269590661e+01   4.2100596377e+01    0.2503418    0.1998023  34.24 0.0006874032    1.291    0.226
        62 -10.4046    147.0453     80.4938   9.0446757616e+01   3.7114827221e+01    0.2269665      0.14714  51.70 0.0004281383    1.515    0.340
        63  -9.5572    120.3454     79.2783   9.6777174411e+01   4.3328008153e+01     0.150171    0.1142152  12.47 0.0007007474    1.632    0.387
        64  -8.1100    116.6793    213.2212   1.2685951698e+02   1.4280478846e+01    0.1852809    0.1315488 -67.69 0.0002414664    1.484    0.326
        65 -10.6472    125.1296    247.3037   1.2970485258e+02   6.2704130748e+00    0.1740408    0.1185287 -65.23  0.000594536    1.693    0.409
        66  -9.6308     13.2148    244.3631   1.4926462271e+02   2.2520146669e+01    0.2374362   0.09700003 -66.08  0.001360263    2.423    0.587
        67 -12.8216    174.3291     32.1400   7.1218120021e+01   3.7863709289e+01    0.3825806    0.3156742  34.22 0.0008828776    1.405    0.288
        68 -10.5681     13.4988     59.8107   1.2614870753e+02   6.2153062995e+01     0.174658    0.1468753 -16.85 0.0003836944    1.216    0.178
        69  -9.7948    115.9651    210.0356   1.2654819608e+02   1.5070489891e+01    0.2029074    0.1420024  66.79 0.0004869015    1.445    0.308
        70 -10.4380    131.3445     28.8821   7.8118054297e+01   4.8564161699e+01    0.2299832     0.171657  68.10 0.0005562849    1.374    0.272
