#   1 NUMBER                 Running object number                                     
#   2 MAG_AUTO               Kron-like elliptical aperture magnitude                    [mag]
#   3 X_IMAGE                Object position along x                                    [pixel]
#   4 Y_IMAGE                Object position along y                                    [pixel]
#   5 X_WORLD                Barycenter position along world x axis                     [deg]
#   6 Y_WORLD                Barycenter position along world y axis                     [deg]
#   7 A_WORLD                Profile RMS along major axis (world units)                 [deg]
#   8 B_WORLD                Profile RMS along minor axis (world units)                 [deg]
#   9 THETA_WORLD            Position angle (CCW/world-x)                               [deg]
#  10 FWHM_WORLD             FWHM assuming a gaussian core                              [deg]
#  11 ELONGATION             A_IMAGE/B_IMAGE                                           
#  12 ELLIPTICITY            1 - B_IMAGE/A_IMAGE                                       
         1 -14.5307     27.8135    102.1945   1.1979670073e+02   5.1990286198e+01      3.03494     1.302644  58.61   0.01333618    2.562    0.610
         2 -14.6792    242.9370    101.4258   6.6122304087e+01   1.2039332701e+01     3.569507     1.071999 -27.31   0.01332842    3.014    0.668
         3 -14.3348    132.1059    100.1401   8.7144916318e+01   3.6169117299e+01     1.535078     1.015624 -48.51  0.007056572    1.577    0.366
         4 -14.5641     38.1843     46.6968   1.0496396739e+02   6.4468844160e+01     1.440777    0.9183041 -27.68  0.007242355    1.910    0.476
         5 -12.8370      5.4631     45.3037   1.2117220891e+02   6.7246272276e+01     1.110065    0.5064765 -88.60  0.005264021    2.206    0.547
         6 -11.8208    217.6588     12.3959   4.5743003251e+01   2.8056921377e+01    0.5012302    0.2771317 -38.60  0.002392763    1.604    0.377
         7 -12.5431     61.4647      5.3604   7.3956360844e+01   6.9124567468e+01    0.7153541    0.5654348  59.71  0.004004112    1.530    0.347
         8 -10.2789     23.2537      2.2384   9.4748843834e+01   7.5614171010e+01    0.1812194   0.09245821  40.21 0.0008954692    2.430    0.589
         9 -12.9777    100.4927    222.5012   1.1385537109e+02   1.8921340511e+01    0.5447702    0.5001511  25.00  0.002774333    1.357    0.263
        10 -10.2292     79.9319    250.6637   1.1965564990e+02   1.7470708960e+01    0.2840714   0.06756264  36.44  0.001254831    2.915    0.657
        11 -10.6769     74.4668    250.0193   1.2056439575e+02   1.8194935739e+01    0.2270592    0.1072407  38.65 0.0009511124    1.498    0.333
        12 -12.4558     53.4427    163.9821   1.1876766976e+02   3.5391474819e+01     1.798816    0.8284014  73.83  0.008317218    2.629    0.620
        13 -12.5462      8.5964    164.6035   1.2937606944e+02   3.9657407142e+01     1.366776    0.4840235  56.41  0.007207509    2.167    0.538
        14 -14.1631    102.9743    200.8755   1.1131143049e+02   2.1981228319e+01     2.064715     1.170478 -42.70   0.01144925    2.627    0.619
        15 -12.8284     37.9388    150.0851   1.2143900720e+02   4.0031672165e+01     1.243768     0.495773  70.46  0.005287588    2.991    0.666
        16 -13.4119     81.1501    193.1192   1.1512405884e+02   2.6305137188e+01     2.337534    0.8201172  57.21  0.009277775    3.636    0.725
        17  99.0000     42.9102    212.2246   1.2429630969e+02   2.7527101834e+01      2.59008    0.6598337  47.17   0.01291136    2.501    0.600
        18 -12.8609     21.1457    211.3925   1.2844992650e+02   2.9846576589e+01     1.830721    0.3766271  43.21   0.00935724    2.577    0.612
        19 -13.1926     69.4687    204.9855   1.1854935833e+02   2.5720424171e+01     1.289543    0.4832684  35.85  0.006606304    2.156    0.536
        20 -14.7047     34.0654    189.7465   1.2492560847e+02   3.2445520088e+01     4.433418      2.02565  26.13   0.02399604    2.469    0.595
        21  99.0000     35.0658    230.7186   1.2659061362e+02   2.5331995639e+01     2.474692          nan  40.52  0.009005261    5.213    0.808
        22 -11.1237      1.9182    250.2974   1.3274320246e+02   2.5468733464e+01    0.1732278   0.06877419  48.71  0.001276516    1.482    0.325
        23 -13.6936     80.9575    223.0732   1.1763082662e+02   2.1348214101e+01     1.500509     0.489271  43.28  0.007811873    2.107    0.525
        24 -13.3513     86.6657    214.5227   1.1585898974e+02   2.1969185528e+01    0.6079388    0.5191729  87.18  0.002816748    1.341    0.254
        25 -13.8476     19.8989    147.9609   1.2587477839e+02   4.2191393110e+01     3.658534    0.9047453  58.23   0.01361204    4.033    0.752
        26 -15.0900     18.1970    238.3192   1.2979908883e+02   2.5793054123e+01     2.290945    0.6415156  48.11   0.01397413    2.028    0.507
        27 -12.2035    107.4024    123.3359   9.9030357639e+01   3.6182809665e+01     1.193857    0.6735162 -66.97  0.005129365    2.224    0.550
        28 -13.5341    117.7707    136.8875   9.8946908810e+01   3.1488431356e+01     1.344232     0.865163 -83.65  0.005917669    2.454    0.592
        29 -14.3938    135.4795    129.3055   9.3088212926e+01   2.9669377057e+01     2.056641     1.872961  59.59   0.01184816    1.104    0.094
        30 -12.9434    112.8605    162.4395   1.0437347799e+02   2.7307209630e+01    0.9418294    0.7785828  83.70  0.004935954    1.347    0.257
        31 -13.8126    113.5097    151.3359   1.0250247196e+02   2.9344238447e+01     2.563338    0.8526212  46.93  0.009431154    2.859    0.650
        32 -13.8192     33.0538     86.3795   1.1584717824e+02   5.5365488303e+01     1.436333    0.8001482  85.07  0.006901379    1.974    0.493
        33 -12.3294     67.6948    152.8053   1.1411681350e+02   3.5962217705e+01     1.465782      0.50903  58.16  0.004973907    4.207    0.762
        34 -11.7194     55.1577    148.5325   1.1686506651e+02   3.8451935341e+01    0.6194261     0.390178  76.02  0.002600494    1.571    0.364
        35 -14.2833     29.1399    126.9611   1.2187343173e+02   4.6043912282e+01      3.18867    0.8950745  43.11   0.01337702    2.902    0.655
        36 -10.6998     83.1708    150.8513   1.0994964230e+02   3.4233039084e+01    0.3297308    0.2631766 -76.72  0.001784965    1.297    0.229
        37 -11.6065     71.9347    140.7817   1.1152625680e+02   3.7988469474e+01    0.5856113    0.4747678  72.59  0.002565988    1.135    0.119
        38 -10.2832      2.5808    143.8418   1.3003201496e+02   4.4416783228e+01    0.3336974    0.1179355  55.51   0.00169669    2.243    0.554
        39 -13.1737    102.2433    138.1734   1.0312986754e+02   3.3920219947e+01      1.17221    0.8036051  62.95  0.005015443    1.563    0.360
        40 -11.5603    222.9804    248.8320   9.5490183062e+01  -6.7174316655e-01    0.2224672    0.1275235   9.97  0.001599631    1.660    0.397
        41 -10.2013     92.7065    247.0009   1.1718800544e+02   1.6433850809e+01    0.1859416    0.1309264 -81.02  0.001140985    1.860    0.462
        42 -12.4003     72.4324    120.2068   1.0833690752e+02   4.2556146918e+01     1.414901    0.7018695  67.80  0.005320891    3.156    0.683
        43 -10.8739     61.9752    113.7776   1.1044096549e+02   4.5492761406e+01     0.582018    0.4137066 -74.65  0.003092042    1.349    0.258
        44 -11.6832     83.9050    127.8168   1.0630994201e+02   3.9121402346e+01    0.7704679    0.4115514  36.12  0.003572319    1.842    0.457
        45 -11.0468     83.0325    119.9742   1.0520273822e+02   4.1024950883e+01    0.4906192    0.3698197  81.72   0.00229623    1.431    0.301
        46 -11.2821      2.6811    110.0862   1.2846554836e+02   5.1920963500e+01    0.6031401    0.2591928 -82.57  0.003101823    1.922    0.480
        47 -11.6294     99.6577    238.2367   1.1530408009e+02   1.6763501277e+01    0.4149877    0.3306094  30.76  0.002401739    1.320    0.242
        48 -12.7757     61.1786     95.3057   1.0742866619e+02   5.0004315440e+01    0.9020422    0.8560261 -38.23  0.004659691    1.203    0.169
        49 -12.1256    178.0231     88.4790   7.3545104553e+01   2.7837589601e+01    0.7729715    0.5040982 -29.55  0.003553089    1.551    0.355
        50 -13.1261    147.4287     88.1541   8.0087531065e+01   3.5074733026e+01    0.8861736    0.6764672  39.19   0.00428568    1.319    0.242
        51 -12.9226    138.0655     82.9029   8.0866732023e+01   3.8245443809e+01    0.7447319     0.587275  15.64  0.003524123    1.553    0.356
        52 -12.4306     13.3713    110.6534   1.2522687286e+02   5.1104982643e+01    0.7783542    0.5040359 -79.36  0.004156777    1.324    0.244
        53 -12.5898    155.9101     78.5805   7.5353879108e+01   3.4805733016e+01    0.7823507    0.7141321   8.65  0.003999996    1.150    0.131
        54 -12.0580    148.2793    151.6872   9.4522009384e+01   2.3093357230e+01    0.5841671    0.5240749  -9.61  0.003557163    1.236    0.191
        55 -12.3832      8.1768     74.0157   1.2375254098e+02   6.0184523075e+01    0.7191644    0.1721828 -71.38  0.002773139    3.018    0.669
        56 -13.4237     16.3465     66.9308   1.1949166743e+02   6.1432460910e+01    0.9107156     0.649782  75.83   0.00461471    1.398    0.285
        57 -11.3206     84.2705    240.5604   1.1824717208e+02   1.8351773454e+01    0.5335933    0.3515056   2.80  0.003024624    3.546    0.718
        58 -13.9070     26.7817     58.1289   1.1330342132e+02   6.2817869447e+01     1.643183    0.5648039  35.97  0.006859932    3.005    0.667
        59 -11.5449     73.7409     65.4803   9.5493238677e+01   5.5183207224e+01    0.7626548    0.4813164  74.23  0.003064211    2.689    0.628
        60 -11.5188    185.2074     64.7261   6.5416839388e+01   2.9817242517e+01    0.3022423    0.2380453 -71.18  0.001467535    1.544    0.352
        61 -11.8172    142.9377     62.7015   7.3359891461e+01   4.0801899686e+01    0.4251076    0.3978087 -51.57  0.002228948    1.096    0.088
        62 -10.9200     77.2739    101.2993   1.0334408094e+02   4.6244050872e+01    0.4253575    0.3306257 -81.21  0.002266074    1.327    0.247
        63 -11.9281    175.1077     56.6375   6.4729298357e+01   3.3573091492e+01    0.3749209    0.2445612  24.78  0.001569083    1.990    0.497
        64 -11.9610     92.3357    239.0479   1.1668917245e+02   1.7572719157e+01     0.754068    0.2046244  44.63  0.003750388    2.480    0.597
        65 -11.2291     72.2393     51.0418   9.1256276196e+01   5.8655675406e+01    0.3802324    0.3199378 -19.31  0.002048407    1.314    0.239
        66 -11.7665     27.6766     38.1592   1.0773866070e+02   6.7496532973e+01    0.3136806    0.2641245 -88.23   0.00194663    1.297    0.229
        67 -12.0989     33.2920     35.0294   1.0366616349e+02   6.7673089441e+01    0.3671539     0.207963 -57.89  0.001863432    1.541    0.351
        68 -12.5572    220.0953     32.2858   5.1143931359e+01   2.5385384910e+01    0.5872922    0.3412111  90.00  0.002640194    2.174    0.540
        69 -14.1989     36.6679     72.4291   1.1199298318e+02   5.8438586314e+01     1.745248    0.7506568  44.40  0.007583726    2.529    0.605
        70 -10.2190      7.5003     29.0248   1.1677821283e+02   7.1005201322e+01    0.2310573    0.1528295 -29.01  0.001380862    1.603    0.376
        71 -12.4291     39.8492     21.2807   9.4291020076e+01   6.9880489795e+01    0.4143704    0.2630135 -35.97  0.002184773    1.485    0.327
        72 -11.2399    185.5220     19.0039   5.0990027907e+01   3.5669641886e+01    0.2443644    0.1982287  74.51  0.001271331    1.235    0.190
        73  -9.8614    106.3963    233.6205   1.1370195404e+02   1.6535921199e+01    0.1672873    0.0960489  54.97 0.0008167748    1.587    0.370
        74 -14.4577    246.3473    207.9588   8.6207069497e+01  -1.3521217542e-01     2.307204    0.6047198 -25.37   0.01004359    4.458    0.776
