#   1 NUMBER                 Running object number                                     
#   2 MAG_AUTO               Kron-like elliptical aperture magnitude                    [mag]
#   3 X_IMAGE                Object position along x                                    [pixel]
#   4 Y_IMAGE                Object position along y                                    [pixel]
#   5 X_WORLD                Barycenter position along world x axis                     [deg]
#   6 Y_WORLD                Barycenter position along world y axis                     [deg]
#   7 A_WORLD                Profile RMS along major axis (world units)                 [deg]
#   8 B_WORLD                Profile RMS along minor axis (world units)                 [deg]
#   9 THETA_WORLD            Position angle (CCW/world-x)                               [deg]
#  10 FWHM_WORLD             FWHM assuming a gaussian core                              [deg]
#  11 ELONGATION             A_IMAGE/B_IMAGE                                           
#  12 ELLIPTICITY            1 - B_IMAGE/A_IMAGE                                       
         1 -14.8965      8.7659    144.8021   1.4507842500e+02   4.4201182806e+01     5.285881      1.48964 -83.81   0.01998228    3.761    0.734
         2 -13.0661      2.4475     85.1055   1.4015423109e+02   5.8043984182e+01     1.446372    0.1913923 -70.56  0.004408286    5.379    0.814
         3 -13.6723    197.5410     25.8942   6.9021691737e+01   3.2846888067e+01     1.718612     1.501056  11.17  0.007689284    1.387    0.279
         4 -13.5222    211.7496      7.4452   6.2377855851e+01   3.1292561693e+01     1.010407    0.8422491  61.90  0.005044217    1.255    0.203
         5 -11.8884      2.5561      3.9713   1.1805649040e+02   7.4179819301e+01    0.5953349    0.3256202 -65.39  0.002947689    3.798    0.737
         6 -11.4779     21.5894    244.4560   1.4889928452e+02   2.3130852581e+01    0.3984002    0.1606055  67.77  0.002122871    1.998    0.500
         7 -11.5563    170.9240    248.0473   1.2388294556e+02   1.6471884504e+00    0.2685779    0.2428038  -8.93  0.002039029    1.363    0.266
         8 -11.8777    139.2063    248.1676   1.2942637315e+02   6.6362930953e+00    0.3850821    0.3050325 -44.18  0.002736224    1.692    0.409
         9 -12.1587    146.5426    248.4612   1.2817885271e+02   5.4443684534e+00    0.4679969    0.2751795  41.22   0.00287844    1.361    0.265
        10 -11.6983    121.2038    249.5979   1.3270993630e+02   9.1966243210e+00    0.4153055    0.1629727  48.07  0.002140477    1.968    0.492
        11 -10.7777     46.7045    249.2850   1.4518671650e+02   1.9470780162e+01    0.1986397    0.1355991  57.94 0.0008300628    1.138    0.121
        12 -11.9981     55.8844    225.4963   1.4205721519e+02   2.2505625978e+01     1.207898    0.7518578 -38.54  0.006082025    4.096    0.756
        13 -12.7231     48.6254    216.8872   1.4271286729e+02   2.5013081447e+01    0.7396076      0.60079 -85.30  0.003936418    1.292    0.226
        14 -13.0118     33.9524    235.0806   1.4643599353e+02   2.3399193265e+01    0.2626152     0.226273 -87.04 0.0008250971    1.467    0.318
        15 -14.0082     38.8096    228.5138   1.4523083083e+02   2.4019713539e+01    0.7158233    0.4857865  65.96   0.00239492    1.072    0.068
        16 -10.3332     12.7222    249.8817   1.5048886512e+02   2.3145136603e+01    0.2104474   0.06834075  58.38  0.001245109    2.139    0.533
        17 -10.7221      2.7639    248.5081   1.5191754690e+02   2.4365925294e+01    0.2596324      0.15143 -83.35  0.002049775    1.563    0.360
        18 -10.3265     22.3019    237.4446   1.4845177484e+02   2.4263183660e+01    0.2267035    0.1469953 -58.79  0.001608788    2.255    0.557
        19 -10.6231     50.5083    245.0320   1.4431268376e+02   1.9725599206e+01    0.1499337   0.08938643 -82.55  0.001040582    1.613    0.380
        20 -11.3874     12.7467    240.8207   1.5010930091e+02   2.4672878759e+01    0.2410161    0.1780652  33.11  0.001819498    1.978    0.494
        21 -10.7683      9.5670    237.2735   1.5045270820e+02   2.5605421504e+01    0.2639124   0.07650042 -87.35  0.001303293    3.360    0.702
        22 -14.4242     99.6922    228.1625   1.3436986482e+02   1.5951843853e+01     5.019977          nan  44.70   0.01092218   10.593    0.906
        23 -10.9784     16.8737    198.2021   1.4724104042e+02   3.2164324823e+01      0.22846    0.1475273  57.01 0.0003973495    1.314    0.239
        24 -12.0187     66.9613    192.0054   1.3697310047e+02   2.7605785439e+01    0.2502674    0.2106595 -79.40 0.0004376655    1.232    0.188
        25 -10.9578    238.0827    247.5961   1.1251212021e+02  -8.5324531873e+00     0.254021     0.185316 -46.85  0.001725344    2.255    0.556
        26 -10.5626     81.1519    248.7132   1.3948280521e+02   1.5137426509e+01    0.2172642     0.139628 -87.35  0.001488507    1.608    0.378
        27 -10.9670     77.3528    178.7457   1.3326373914e+02   2.8957612281e+01    0.2318241    0.1955281  84.78 0.0003849862    1.046    0.044
        28 -13.3364     63.9748    176.9986   1.3596010946e+02   3.1190727246e+01    0.4686204    0.2630753 -49.47  0.001832985    2.278    0.561
        29  -9.7892     99.9790    176.5552   1.2800498710e+02   2.5948442245e+01    0.3361434    0.1884967  65.48  0.001201266    2.075    0.518
        30 -10.2707    172.8822    222.2855   1.2001632176e+02   4.9568686565e+00    0.2843197    0.1711971  25.60  0.001469285    1.935    0.483
        31 -11.9692     85.1123    169.3061   1.3028709349e+02   2.9864728007e+01     0.642963     0.601289  10.41  0.004057026    1.468    0.319
        32 -11.8115     56.1551    210.4025   1.4081344662e+02   2.5323756000e+01      1.18487    0.4148504  61.26  0.005035392    3.206    0.688
        33 -10.4109     97.3960    153.2920   1.2492249578e+02   3.1491175049e+01     0.346017    0.2865157 -52.54 0.0008261132    1.302    0.232
        34  -9.4700    100.3167    149.0121   1.2346630803e+02   3.1970286959e+01    0.2054116    0.1824973  60.81 0.0004056608    1.110    0.099
        35 -12.1065     86.0707    152.4642   1.2751488683e+02   3.3498069994e+01    0.2877191    0.2428996 -54.44 0.0006062561    1.290    0.225
        36 -12.2164     67.4333    143.6096   1.3070306846e+02   3.8259668571e+01    0.6585174    0.4074667  66.45  0.003324256    1.777    0.437
        37 -10.1253    109.3207    137.9855   1.1913923249e+02   3.2897451620e+01    0.4129387    0.2850757 -22.06  0.001605966    2.429    0.588
        38 -10.6596     32.4154    132.1799   1.3799362809e+02   4.5008000367e+01     0.384661    0.1571562  48.40  0.001799608    2.611    0.617
        39  -8.2104    221.6966    213.6903   1.0985918177e+02  -2.0894038736e+00    0.1249919   0.08307075  12.32 0.0003374029    1.608    0.378
        40 -10.6116     96.4564    135.2754   1.2185535112e+02   3.5774488423e+01    0.2457093    0.2348592 -49.04 0.0004491945    1.185    0.156
        41 -11.0766     21.6838    126.3837   1.4005342320e+02   4.7321172595e+01    0.3407559    0.1585936  53.05  0.001691013    2.366    0.577
        42  -9.0164    106.6080    124.1691   1.1690199938e+02   3.6549548964e+01    0.1934551    0.1674821 -57.98 0.0003347108    1.110    0.099
        43  -9.1551    167.8934    112.8880   9.9243192972e+01   2.6004516955e+01    0.2464178    0.1893899 -81.21 0.0009709206    1.686    0.407
        44  -9.3297    203.0000    111.9744   9.1929592962e+01   1.7985648081e+01    0.2502257   0.08374333 -36.73  0.000524589    2.893    0.654
        45  -9.0809    152.6371    213.0375   1.2248043394e+02   9.9149609486e+00    0.1609562    0.1507781  58.91 0.0003962271    1.113    0.102
        46  -9.5025    191.9925    192.9969   1.1165081291e+02   6.0998794939e+00    0.3929476    0.2141086 -65.72  0.001261519    5.638    0.823
        47  -8.3161     38.2963     94.6668   1.3037663998e+02   5.3163320656e+01     0.127523    0.0903092  82.28 0.0006155925    1.644    0.392
        48  -9.1176    177.5155    227.4873   1.1992643206e+02   3.4096667100e+00    0.1233525    0.1013942  42.56 0.0008095025    1.065    0.061
        49 -10.1247    157.9311     76.0122   9.1055538782e+01   3.5502677375e+01    0.2383488    0.2365067 -71.62 0.0005697707    1.009    0.009
        50  -8.9618     38.9908     65.5010   1.2337766151e+02   5.9604504341e+01    0.1652437    0.1245266  31.49   0.00101158    1.572    0.364
        51 -12.4614      9.5898    206.9189   1.4903473626e+02   3.1162543125e+01    0.6368603    0.3905583  35.85  0.003078824    1.927    0.481
        52 -11.5724     12.3514     54.2602   1.3070256612e+02   6.4172016860e+01    0.2464655    0.2139132  35.02  0.001029184    1.477    0.323
        53 -12.6734     33.8267    246.6094   1.4708668970e+02   2.1420903415e+01    0.9855245    0.6602404 -53.40  0.006898447    2.527    0.604
        54 -10.7218    101.9478    247.6095   1.3584546995e+02   1.2373003647e+01    0.2204417     0.131851  83.17   0.00132843    2.002    0.501
        55 -11.7378     60.5449    200.5531   1.3910221136e+02   2.6709765747e+01    0.2499322    0.2146468 -78.50 0.0005955925    1.308    0.235
        56 -10.9442      2.0000     18.9994   1.2475001359e+02   7.1665114770e+01    0.2562167    0.1033153 -54.86 0.0006871607    1.961    0.490
