#   1 NUMBER                 Running object number                                     
#   2 MAG_AUTO               Kron-like elliptical aperture magnitude                    [mag]
#   3 X_IMAGE                Object position along x                                    [pixel]
#   4 Y_IMAGE                Object position along y                                    [pixel]
#   5 X_WORLD                Barycenter position along world x axis                     [deg]
#   6 Y_WORLD                Barycenter position along world y axis                     [deg]
#   7 A_WORLD                Profile RMS along major axis (world units)                 [deg]
#   8 B_WORLD                Profile RMS along minor axis (world units)                 [deg]
#   9 THETA_WORLD            Position angle (CCW/world-x)                               [deg]
#  10 FWHM_WORLD             FWHM assuming a gaussian core                              [deg]
#  11 ELONGATION             A_IMAGE/B_IMAGE                                           
#  12 ELLIPTICITY            1 - B_IMAGE/A_IMAGE                                       
         1 -13.5685    161.7345     55.8198   7.3117126288e+01   3.7538619002e+01     1.639401     1.379705  26.85   0.00439197    1.261    0.207
         2 -13.7346    175.3246     40.9191   6.5836878563e+01   3.6224442117e+01     1.156785     1.004812  21.51  0.003921146    1.251    0.201
         3 -13.8302    193.4081      9.3586   5.3668086461e+01   3.5215853534e+01     1.120654     1.028486  40.19  0.003973993    1.181    0.153
         4 -13.1170    217.6120      3.9675   4.9673308272e+01   2.9627948721e+01     1.893251    0.5132093  75.07  0.006255093    3.820    0.738
         5 -10.7622    154.8697    187.1063   1.0640785857e+02   1.4628781049e+01    0.2824816    0.2447307  85.14 0.0009255504    1.372    0.271
         6 -12.0476    248.3149    247.0987   9.8953963181e+01  -8.6009640353e+00      0.44709    0.2715423 -22.35  0.003108367    1.799    0.444
         7  -9.8986    167.9754    248.7100   1.1265139580e+02   3.1730557265e+00    0.1901586    0.1592124 -39.17 0.0009055279    1.575    0.365
         8 -19.6749     53.1684    162.4701   1.2516893379e+02   3.5490735510e+01      17.5733     4.690568 -70.84   0.06372738    3.929    0.745
         9 -11.8334    152.0582    197.0745   1.0856697749e+02   1.3419862527e+01    0.3837241    0.2940847 -45.51  0.001489096    1.524    0.344
        10 -10.8824     10.6144    214.7715   1.3739480134e+02   2.9610884018e+01    0.1154936   0.08016802 -64.77 0.0008053915    1.786    0.440
        11 -11.2925    140.9293    188.6630   1.0953356569e+02   1.6852452140e+01    0.2481612    0.2026097 -71.98  0.001476005    1.434    0.302
        12 -11.6322    136.3384    185.7905   1.1004341568e+02   1.8184387722e+01    0.2645021    0.2398652  -2.50  0.001044576    1.351    0.260
        13 -10.3644     29.1375    208.3959   1.3384391863e+02   2.8951111170e+01    0.1160431   0.09481831  39.13 0.0005238102    1.524    0.344
        14 -10.7987    204.4884    175.7638   9.4499587997e+01   7.2140517904e+00    0.3512392    0.3100278  30.10 0.0007825597    1.082    0.075
        15  -9.6107    197.1075    176.8619   9.6123047195e+01   8.4353755394e+00    0.2993301    0.1730287  37.41 0.0009302259    1.570    0.363
        16  -9.1611    185.1348    169.8579   9.7132915814e+01   1.1869020859e+01    0.2006353    0.1904349  73.95 0.0008540562    1.253    0.202
        17  -8.8224     11.6571    168.4581   1.3463524365e+02   3.8395717441e+01    0.1068691   0.08147858 -83.57 0.0002437952    1.163    0.140
        18 -10.5009    192.4311    164.5522   9.4629345864e+01   1.1323995538e+01      0.34174    0.2585068 -46.73  0.001294871    1.523    0.343
        19 -10.1971    125.2865    162.0909   1.0854885507e+02   2.4743203281e+01    0.1892693    0.1743304 -69.51 0.0005219226    1.137    0.120
        20 -11.3601    120.2606    157.4813   1.0889306792e+02   2.6586748640e+01    0.4223603    0.2345334 -50.42  0.001240013    1.898    0.473
        21  -9.7413    129.9862    157.4836   1.0665218394e+02   2.4822033692e+01    0.2156509    0.1302004  44.28 0.0007033573    1.551    0.355
        22 -10.8803    189.0948    154.8205   9.3297654259e+01   1.3635589720e+01    0.4582384    0.4002512  63.67  0.002561385    1.330    0.248
        23 -11.9372    144.6069    146.4698   1.0115442628e+02   2.4244661689e+01    0.6260043    0.4495958  81.09  0.002881135    1.993    0.498
        24 -12.0739    133.9145    145.6622   1.0347283308e+02   2.6501584136e+01     1.248109    0.3336877 -55.30  0.003181179    5.904    0.831
        25 -10.1195    163.7922    151.5736   9.7922715536e+01   1.9385922061e+01    0.2777049    0.2132627  71.67  0.001374568    1.648    0.393
        26 -10.1139    119.0087    149.7008   1.0777828739e+02   2.8436659852e+01    0.2023279    0.1753573  50.17 0.0006113326    1.102    0.093
        27  -9.8427    174.4676    148.9755   9.5085731932e+01   1.7677126308e+01    0.2746443    0.2381372  62.34 0.0007524013    1.267    0.211
        28 -11.3172    135.5384    128.5066   9.9435400382e+01   2.9747716611e+01     0.701259    0.2007415 -49.19  0.002122188    3.707    0.730
        29 -11.1837    118.2339    128.4755   1.0372504642e+02   3.3125035518e+01    0.3367994    0.2938707 -27.08 0.0007518752    1.310    0.236
        30 -10.6801    121.5383    123.2030   1.0172524792e+02   3.3636750734e+01    0.3256689    0.2434389  -0.46  0.001377033    2.006    0.502
        31 -10.2115    160.8388    127.9322   9.3362826645e+01   2.4556761418e+01    0.4367628    0.3129081 -87.04  0.001857212    2.241    0.554
        32 -10.8213    106.8798    123.9990   1.0568728088e+02   3.6175363830e+01    0.3038232    0.2537085 -29.74 0.0006996089    1.389    0.280
        33  -9.7885    112.9896    118.0004   1.0275859175e+02   3.6384099055e+01    0.2147319    0.2115799  59.14 0.0003856182    1.042    0.040
        34 -10.6768    135.0000    110.5476   9.5290608440e+01   3.3609453665e+01     0.663813   0.08559754 -44.87  0.001330217    7.801    0.872
        35  -9.8586    205.4553    110.1481   7.9754974219e+01   1.7795028274e+01    0.3228171    0.2088125  41.04 0.0009661974    1.571    0.363
        36  -9.6080    130.5241    109.9497   9.6273461502e+01   3.4666874207e+01    0.2331285    0.1467222 -42.78  0.001028117    1.605    0.377
        37 -10.7249    167.7978    112.8470   8.8117858926e+01   2.5931107209e+01    0.4430455     0.342137 -76.85  0.001748496    1.762    0.432
        38 -11.3224    193.3564    195.8643   1.0028907038e+02   6.2259463762e+00    0.9757022    0.5219945 -61.91  0.003388234    5.419    0.815
        39 -10.3209    160.9479    199.3657   1.0715271862e+02   1.1469806784e+01    0.1860174    0.1750363  80.85 0.0004877526    1.233    0.189
        40 -10.6889    153.0147    192.2927   1.0762602352e+02   1.4065337117e+01    0.2700152    0.1796533  45.67 0.0008836726    1.311    0.237
        41  -9.5070    149.0135     81.2931   8.3796376583e+01   3.6282359586e+01    0.2167059    0.2017688  50.58 0.0004837995    1.079    0.073
        42 -12.1500    149.7248    188.0784   1.0762367076e+02   1.5388733589e+01    0.4563023    0.3353854  49.00  0.001678953    1.222    0.182
        43  -9.7960    235.3877    249.2008   1.0134103690e+02  -6.9970033771e+00    0.1208694   0.09919795 -23.70 0.0003423363    1.588    0.370
        44  -9.8006    163.0691    235.6807   1.1189446113e+02   5.6603574046e+00    0.1732638    0.1577033 -76.36  0.001152069    1.445    0.308
        45 -12.3330    179.5065     33.9459   6.2973200863e+01   3.6052747564e+01    0.4920691    0.3861026  34.11    0.0010796    1.382    0.276
        46  -9.7029     13.4039     59.8621   1.2116089344e+02   6.1917381026e+01    0.1639043    0.1516395 -79.02  0.000428622    1.224    0.183
        47 -11.0034    197.9464     23.8212   5.7275606144e+01   3.2492007450e+01    0.3404497    0.2215139 -19.40  0.001164457    1.714    0.417
        48 -10.4955    167.5051    228.9148   1.1020168998e+02   5.8810863636e+00    0.2170515    0.2018709  57.78 0.0005852384    1.250    0.200
