#   1 NUMBER                 Running object number                                     
#   2 MAG_AUTO               Kron-like elliptical aperture magnitude                    [mag]
#   3 X_IMAGE                Object position along x                                    [pixel]
#   4 Y_IMAGE                Object position along y                                    [pixel]
#   5 X_WORLD                Barycenter position along world x axis                     [deg]
#   6 Y_WORLD                Barycenter position along world y axis                     [deg]
#   7 A_WORLD                Profile RMS along major axis (world units)                 [deg]
#   8 B_WORLD                Profile RMS along minor axis (world units)                 [deg]
#   9 THETA_WORLD            Position angle (CCW/world-x)                               [deg]
#  10 FWHM_WORLD             FWHM assuming a gaussian core                              [deg]
#  11 ELONGATION             A_IMAGE/B_IMAGE                                           
#  12 ELLIPTICITY            1 - B_IMAGE/A_IMAGE                                       
         1 -14.2052      7.1430    209.3949   1.5046388005e+02   3.0556238249e+01     2.893699    0.5615244 -67.30   0.01329721    4.111    0.757
         2 -14.8472     17.1168    166.0347   1.4585828597e+02   3.8057774815e+01     6.006322     1.689102 -85.79   0.01974287    5.764    0.827
         3 -14.3836      4.5191    177.0804   1.4909283005e+02   3.6887807365e+01     5.009397    0.5754475 -74.72  0.007671629    6.121    0.837
         4 -13.5277      5.9589     11.2880   1.2096192729e+02   7.1030151906e+01     2.254462    0.6290452 -45.28     0.010918    2.449    0.592
         5 -13.8101    203.0445     10.2935   6.5765926245e+01   3.2529701740e+01     1.738364     1.127192  40.54  0.008787297    1.733    0.423
         6 -13.3809    189.7410     28.1798   7.2575110109e+01   3.3957724632e+01     1.283647     1.128541  78.33  0.005802139    1.131    0.116
         7  -8.8455     73.1914    242.1572   1.4165914776e+02   1.7673305029e+01    0.1522728    0.0950944  64.68 0.0006029115    1.334    0.250
         8 -11.2174    248.4265    248.9048   1.1278110628e+02  -9.0416351467e+00    0.4098242    0.1971463  36.39  0.002505104    1.643    0.391
         9 -10.6275    139.4910    246.4827   1.3082418112e+02   7.6687272646e+00    0.1875948    0.1483045 -62.98   0.00125537    1.606    0.377
        10 -11.3278    123.5659    249.8183   1.3390092054e+02   9.5663963744e+00    0.4362216    0.1485452  39.76  0.002102954    2.461    0.594
        11 -10.9027    102.1840    247.6217   1.3729302855e+02   1.2946858285e+01    0.2533307    0.1822268  60.15 0.0009093891    1.138    0.121
        12  -9.2214     67.0828    250.5123   1.4326504760e+02   1.7119625846e+01    0.1523508   0.07838274  46.67  0.001007013    1.522    0.343
        13 -10.9036     28.6900    249.1270   1.4910314821e+02   2.1714316332e+01    0.3279535    0.1316359  54.13  0.001172438    1.809    0.447
        14 -11.1828     34.5860    244.7244   1.4798081732e+02   2.1791739418e+01     0.367652    0.3415986  50.27  0.003334876    1.610    0.379
        15 -10.9304     13.2191    241.3451   1.5103696626e+02   2.4516168824e+01    0.5294074    0.1206408 -76.76  0.002637386    3.983    0.749
        16 -11.6506      5.3118    240.4636   1.5216416433e+02   2.5405319788e+01    0.4267816    0.3543812  42.86  0.001901414    1.650    0.394
        17 -10.3682      2.4263    249.3731   1.5292375914e+02   2.4252321020e+01    0.2722726    0.1861774 -84.01  0.001926393    1.441    0.306
        18 -10.7264      7.2899    249.0077   1.5222049583e+02   2.3857637423e+01      0.41785    0.1188049  47.43  0.002597563    2.356    0.576
        19 -10.0339     81.6156    242.5462   1.4029277345e+02   1.6521607163e+01     0.249612    0.1260433  58.20 0.0009386489    1.701    0.412
        20  -9.0649    172.3141    239.3035   1.2422454981e+02   3.5446315360e+00    0.1150465   0.07984608  18.84 0.0002538599    1.617    0.382
        21  -9.6305    183.4723    238.0824   1.2210290339e+02   1.9316693109e+00     0.149277    0.1162684 -32.38  0.001025445    1.576    0.365
        22 -10.1813    233.1041    235.9843   1.1328696701e+02  -5.5343101254e+00    0.2326804    0.1559114 -55.26  0.001260564    3.412    0.707
        23 -10.2089     81.3639    248.4574   1.4081077035e+02   1.5627509734e+01     0.230243    0.1381565  69.26  0.001200493    1.559    0.359
        24 -11.4139      3.0936    153.2053   1.4773459124e+02   4.1833043446e+01    0.4974884    0.2515783 -81.32  0.001740625    1.549    0.355
        25 -14.2196     55.9154    212.1329   1.4223102879e+02   2.4972132632e+01     7.132414    0.1565824  46.34   0.02143511    6.942    0.856
        26 -13.8522     48.3017    226.0666   1.4461708008e+02   2.3385276990e+01     0.965749    0.5890709  85.09  0.006153421    1.481    0.325
        27  -9.5788     35.2631    225.2574   1.4673393689e+02   2.4974695830e+01    0.1448459   0.08692566  66.64 0.0003759541    1.309    0.236
        28 -10.7698    173.7532    222.4577   1.2161472665e+02   5.6245186600e+00    0.3596101    0.2768724  62.52  0.002257822    1.571    0.364
        29  -9.5968     46.7125    248.8247   1.4634908554e+02   1.9797425863e+01     0.226006    0.1091528  62.03 0.0009647748    1.665    0.399
        30 -12.5438     41.9882    233.3551   1.4614523072e+02   2.2854256881e+01     0.285866    0.2227568 -67.07 0.0007559893    1.603    0.376
        31 -10.8731    138.6421    249.6759   1.3132340775e+02   7.3513772233e+00    0.3854467   0.09681707  45.15  0.001609277    3.074    0.675
        32  -8.7763    152.4853    212.9462   1.2419656284e+02   1.0618638675e+01    0.1549761    0.1254775 -50.09 0.0004629392    1.462    0.316
        33  -9.9246     32.1949    206.9024   1.4605073666e+02   2.8592615476e+01     0.347546    0.1201651  53.97  0.001470941    2.493    0.599
        34 -12.2985     24.3326    201.9878   1.4710306050e+02   3.0305672236e+01    0.4344774    0.1796022  54.94  0.002535533    2.060    0.515
        35 -11.3375     66.8176    198.6347   1.3898143892e+02   2.6152278128e+01    0.3138359    0.2071599 -49.41  0.001450627    1.972    0.493
        36  -8.5244     51.5944    197.4778   1.4177551577e+02   2.8232606960e+01    0.1143512   0.08794132  76.10 0.0001936315    1.051    0.048
        37 -11.5867     72.1699    190.8577   1.3712415758e+02   2.6968147324e+01    0.2420255    0.2104877 -63.57 0.0004380228    1.324    0.245
        38 -10.0662    192.7919    194.8790   1.1359332217e+02   6.3873138923e+00    0.7316175    0.3649527 -60.48  0.002117598    7.429    0.865
        39  -8.8189    104.1416    180.1130   1.2916796839e+02   2.4489790525e+01    0.1682892    0.1609674  76.98 0.0002621735    1.115    0.103
        40 -13.1555     68.7528    175.9455   1.3612781085e+02   3.0417112976e+01    0.4648428     0.263336 -45.39  0.001721746    2.346    0.574
        41 -10.7718     81.3871    178.1170   1.3372422567e+02   2.8269325050e+01     0.221767    0.1981286 -85.25  0.000413302    1.103    0.093
        42  -8.6420    171.2850    173.3813   1.1387612466e+02   1.3883150581e+01    0.1823931    0.1226411  49.20 0.0003409124    1.461    0.315
        43 -11.7797     88.7223    168.3377   1.3081321406e+02   2.9235722498e+01    0.6411405    0.5403035  45.29  0.004039703    1.217    0.178
        44  -8.6281    250.6843    171.7119   9.8726196108e+01  -6.0536315517e-01    0.1332302   0.08657566  10.13  0.000287327    1.589    0.371
        45 -11.2594     32.4254    156.9704   1.4182514693e+02   3.8546697982e+01    0.3288117    0.1503536 -70.23  0.001767907    1.836    0.455
        46 -10.7200    190.6258    154.1164   1.0603093483e+02   1.3426091069e+01    0.4770111    0.3378005 -79.08  0.001680676    2.747    0.636
        47  -9.7916    100.2673    152.4296   1.2567706072e+02   3.0833420815e+01    0.2589508    0.2442794 -60.76 0.0006839821    1.115    0.103
        48 -11.9149     89.0280    151.8761   1.2822436165e+02   3.2693210491e+01    0.2604844    0.2353602 -43.18 0.0004851053    1.260    0.206
        49 -12.4930     67.0452    144.1142   1.3224310788e+02   3.7457342325e+01    0.7824388    0.5093904  81.12  0.004133366    1.797    0.444
        50 -11.3907     58.1013    133.1525   1.3276439162e+02   4.1007464073e+01     1.785034    0.5770845 -74.57  0.004048236    9.236    0.892
        51  -9.7413    229.6673    230.1231   1.1293525771e+02  -4.3726428511e+00    0.1574097    0.1472634 -24.54  0.001175066    1.530    0.347
        52  -9.3840    184.4911    147.8364   1.0590734758e+02   1.5783090675e+01    0.2612211    0.2229284  82.77   0.00108015    1.555    0.357
        53  -9.1552    180.9288    143.8766   1.0576275295e+02   1.7234674164e+01    0.2794694    0.2223502 -86.89 0.0009860608    1.853    0.460
        54  -8.9950    102.9750    148.0523   1.2426727334e+02   3.1335519598e+01    0.2070277     0.164948 -22.29  0.000597176    1.672    0.402
        55  -8.5247    192.0304    144.0054   1.0352178540e+02   1.4894798121e+01     0.172909    0.1566838 -17.26 0.0004032473    1.092    0.084
        56  -9.4971    110.6999    137.4299   1.2038020705e+02   3.2326685296e+01    0.3038306     0.212017 -23.02  0.001213763    2.071    0.517
        57 -10.4700     98.4370    134.6357   1.2285985305e+02   3.4996021913e+01    0.2588021    0.2203747 -28.13  0.000717072    1.378    0.274
        58 -10.7364     34.6134    132.8839   1.3857089919e+02   4.3578939142e+01    0.3728152    0.1478586  59.71  0.001456651    3.956    0.747
        59  -9.9975    164.7799    129.0191   1.0579279177e+02   2.3437270508e+01    0.4566616    0.3151722  87.77  0.001807423    2.684    0.627
        60  -8.9821    159.9948    124.5198   1.0577894242e+02   2.5336169183e+01    0.2912945    0.2039824 -68.15 0.0008393238    2.040    0.510
        61  -9.3604    107.8177    124.0159   1.1828711372e+02   3.5744743492e+01    0.1991847    0.1903677 -53.81 0.0003349968    1.029    0.028
        62  -9.5141     70.0298    124.1104   1.2816260221e+02   4.1541523163e+01    0.1929464    0.1759429 -75.07 0.0003030948    1.026    0.025
        63  -9.0215    155.4547    120.9572   1.0593958080e+02   2.7010364904e+01    0.2898569    0.1882704  84.12  0.001015409    3.290    0.696
        64 -11.4245    146.8409    229.6361   1.2750838842e+02   8.9681860099e+00    0.5300211    0.1218166  40.46  0.001907492    3.718    0.731
        65 -10.5068    168.0157    113.1960   1.0116035503e+02   2.5760364970e+01    0.3420458    0.3001356 -77.88 0.0009493068    1.382    0.277
        66  -9.2742    203.2227    111.5620   9.3539745024e+01   1.8098038219e+01    0.2078191    0.1357564  36.77 0.0005162004    1.603    0.376
        67  -9.6387     32.6643     92.0066   1.3275990650e+02   5.2889377281e+01    0.1969565    0.1731808  55.49 0.0005619859    1.344    0.256
        68  -9.0574    155.7089     75.6668   9.3435385509e+01   3.5527373285e+01    0.1579467    0.1185066  10.26 0.0004311359    1.632    0.387
        69  -9.1210     17.7868     66.7756   1.3250623546e+02   5.9539058236e+01    0.1448531     0.128014  87.43 0.0004461426    1.347    0.258
        70 -11.3000      2.5342     61.8079   1.3681269074e+02   6.1490476103e+01    0.3032711     0.205881 -65.09  0.002066291    1.171    0.146
        71  -9.0645     22.6766     58.2987   1.2878616548e+02   6.0965512745e+01    0.1827415    0.1372891  38.26  0.000936883    1.705    0.413
        72 -11.3073      9.4423     53.9789   1.3264633837e+02   6.2743971388e+01    0.3178176     0.200736  30.52 0.0004888875    2.015    0.504
        73 -11.8328      2.0456     50.2570   1.3458709465e+02   6.3904972928e+01    0.8832945    0.1051719 -62.98  0.002865168    5.067    0.803
        74  -9.6790    152.4861    248.4618   1.2881589947e+02   5.4170343316e+00     0.114806    0.0883036  44.09  7.16365e-06    1.019    0.019
        75 -10.8516    198.2674    244.9993   1.2051019670e+02  -1.2337610922e+00    0.2602644    0.1878975 -62.99  0.001607275    2.573    0.611
