#   1 NUMBER                 Running object number                                     
#   2 MAG_AUTO               Kron-like elliptical aperture magnitude                    [mag]
#   3 X_IMAGE                Object position along x                                    [pixel]
#   4 Y_IMAGE                Object position along y                                    [pixel]
#   5 X_WORLD                Barycenter position along world x axis                     [deg]
#   6 Y_WORLD                Barycenter position along world y axis                     [deg]
#   7 A_WORLD                Profile RMS along major axis (world units)                 [deg]
#   8 B_WORLD                Profile RMS along minor axis (world units)                 [deg]
#   9 THETA_WORLD            Position angle (CCW/world-x)                               [deg]
#  10 FWHM_WORLD             FWHM assuming a gaussian core                              [deg]
#  11 ELONGATION             A_IMAGE/B_IMAGE                                           
#  12 ELLIPTICITY            1 - B_IMAGE/A_IMAGE                                       
         1 -11.0101     32.9271     51.6198   1.2827692824e+02   6.3031306964e+01    0.8641801   0.04396223 -61.80  0.001535453   12.917    0.923
         2 -13.2580    183.2663     23.4592   7.3998257743e+01   3.5961334018e+01     1.770624     1.159905 -14.68  0.005920765    1.639    0.390
         3 -13.5185    190.6538     16.4131   7.0851667399e+01   3.4795616458e+01     1.440891     1.233451  53.67  0.007738168    1.194    0.162
         4 -13.2141    196.3243      8.5975   6.7831269054e+01   3.4104794975e+01     1.618301    0.6639676  50.93  0.001326991    2.527    0.604
         5  -9.6328     45.2471      2.7587   1.0121217122e+02   7.1183339201e+01    0.2118464   0.09467062 -26.31 0.0008969091    2.459    0.593
         6  -9.5437    250.0000    242.9612   1.1188576095e+02  -3.6745127389e+00    0.1345556    0.0505438 -26.48 0.0008019584    2.939    0.660
         7 -10.5244    134.6082    249.3902   1.3125058190e+02   1.0747541258e+01    0.3665415     0.133156  41.34  0.002054553    1.945    0.486
         8 -10.2285    143.7422    249.3738   1.2969394546e+02   9.5446315062e+00    0.1716603    0.1516924 -70.84  0.001281903    1.636    0.389
         9 -11.0224    116.4474    249.9712   1.3440880060e+02   1.3029462569e+01    0.5227142    0.1555009  38.83  0.002692358    2.346    0.574
        10 -11.1257    108.8046    248.1225   1.3557011674e+02   1.4239671907e+01    0.4470537    0.2254999  32.58   0.00284845    1.716    0.417
        11 -16.4395     25.1809    247.8571   1.4969590883e+02   2.3630588890e+01     3.559516     2.332691  22.83   0.01938529    2.066    0.516
        12 -10.1397    142.7741    229.0412   1.2775145114e+02   1.2203232810e+01    0.2270063    0.1615002 -73.76   0.00146246    2.238    0.553
        13 -11.4863    142.4603    221.1305   1.2691583739e+02   1.3302869907e+01    0.3566831    0.3126495  66.22  0.002737464    1.372    0.271
        14  -8.9812    190.7762    227.9499   1.1921327263e+02   5.5199725293e+00    0.1492214     0.113615  26.78 0.0002899341    1.049    0.047
        15 -10.9256    146.1892    240.3051   1.2835619219e+02   1.0305283659e+01    0.2573712    0.1366171  39.34 0.0006991176    1.372    0.271
        16  -9.7715    164.2571    225.9675   1.2355573025e+02   9.5362286625e+00    0.1475764    0.1212352  25.92 0.0003250984    1.116    0.104
        17  -9.6654    132.0311    224.2205   1.2918063934e+02   1.4363301777e+01    0.1864407    0.1008588  54.45 0.0006576778    1.964    0.491
        18  -9.4966    105.0956    222.3142   1.3399799679e+02   1.8340194883e+01    0.2776607    0.1558011  20.34  0.001472226    2.674    0.626
        19 -10.9456     98.3969    222.1131   1.3523683167e+02   1.9256831564e+01    0.4401326    0.2528484  61.54  0.001652904    1.822    0.451
        20  -8.5882     93.6582    216.3388   1.3561984425e+02   2.0770841761e+01    0.1837037    0.1187304  74.29 0.0006947133    1.795    0.443
        21  -9.1674    110.6268    222.8061   1.3300898826e+02   1.7523584168e+01     0.154492    0.1123249  38.02 0.0006661342    1.141    0.124
        22 -10.8928     98.8131    230.8030   1.3591285957e+02   1.7909669722e+01    0.3300762    0.2388142   9.53 0.0008490771    2.124    0.529
        23  -9.4913    125.9747    221.0079   1.2995844395e+02   1.5666954119e+01    0.1741058    0.1264966  14.20  0.001144932    1.736    0.424
        24  -9.8746     90.4780    218.9933   1.3645917212e+02   2.0766595397e+01    0.2779472    0.1487281  65.24  0.001606958    2.158    0.537
        25  -9.4670    134.2283    217.9565   1.2807992168e+02   1.4927976556e+01    0.2379872    0.1090204  53.99  0.001167313    2.591    0.614
        26  -8.8638    233.1360    216.1706   1.1061134951e+02   8.2174862149e-01    0.1646236    0.1110711  14.26 0.0006255091    1.165    0.141
        27  -8.4460     85.6880    215.3042   1.3705944017e+02   2.1964612646e+01    0.1153545   0.06596044  58.49 0.0004444719    1.614    0.380
        28  -9.0675    151.4123    213.5584   1.2434564583e+02   1.3026026978e+01    0.2277946    0.1464467 -32.89   0.00097949    2.055    0.513
        29  -8.2336     89.2474    214.6123   1.3631458598e+02   2.1618573173e+01    0.1120019   0.06900463  65.02 0.0004938914    1.663    0.399
        30  -9.3181    181.5040    213.5196   1.1887000103e+02   8.5358237378e+00    0.2471071   0.09051917  39.88  0.001205135    2.157    0.536
        31  -9.2531    140.9902    212.6679   1.2618847106e+02   1.4693962121e+01    0.1741935    0.1212622  37.37  0.000852933    1.131    0.116
        32 -10.5914    101.6738    211.8174   1.3364851578e+02   2.0417499441e+01    0.3305733    0.1983634  42.32  0.002037105    1.301    0.231
        33 -10.1334    115.9471    239.8883   1.3362423913e+02   1.4411697749e+01    0.1634868    0.1544811 -58.44 0.0006950434    1.442    0.307
        34  -9.1404    126.1594    205.6825   1.2820243521e+02   1.7912287788e+01    0.2151265    0.1153945  41.72 0.0007755346    1.479    0.324
        35  -8.5557    114.3137    206.3048   1.3059970936e+02   1.9531008969e+01     0.108196    0.0855504  11.65 0.0005800523    1.619    0.382
        36  -9.7786     93.5370    204.6373   1.3455115133e+02   2.2680631059e+01     0.261573    0.2451831 -28.75  0.001997574    1.446    0.308
        37  -9.6693    247.8074    205.2126   1.0664023247e+02  -1.3183302574e-01    0.1430708    0.1276173 -89.24  0.000958188    2.854    0.650
        38  -8.5407    101.2915    234.3161   1.3575874241e+02   1.7084885592e+01   0.09489091   0.07663918  15.60 0.0002482156    1.597    0.374
        39  -8.3451    163.3120    205.3012   1.2103892843e+02   1.2353092394e+01    0.1170169   0.08069477  14.92 0.0001940648    1.608    0.378
        40  -8.3334    148.4541    205.4649   1.2386436618e+02   1.4604389240e+01    0.1192908   0.09497447  33.14 0.0008073435    1.049    0.047
        41  -8.5206    107.4404    205.4393   1.3186466736e+02   2.0641143269e+01    0.1177819   0.09120609  49.86 5.589663e-05    1.064    0.060
        42  -9.6672    102.7894    203.4268   1.3257881653e+02   2.1617455578e+01     0.214647    0.1711792  32.73 0.0003666895    1.246    0.197
        43 -10.3057     71.9099    202.7406   1.3871433366e+02   2.5786384932e+01     0.384378    0.1473888  52.34  0.001927956    2.312    0.567
        44  -9.6157    166.8097    202.7805   1.2003408780e+02   1.2155431511e+01    0.1802045    0.1376531  44.19 0.0006265831    1.240    0.194
        45  -8.2912    169.4933    200.4690   1.1920259277e+02   1.2051091463e+01    0.1208124   0.09650924  32.03 0.0002303861    1.024    0.023
        46  -9.9087    196.9703    200.1236   1.1417148409e+02   7.8196841090e+00    0.3302396    0.1869583  26.80  0.001828696    1.568    0.362
        47  -8.9230    122.9890    200.5447   1.2821575347e+02   1.9181439396e+01    0.1822854   0.09714159  38.58 0.0003945609    1.531    0.347
        48  -8.4891    251.0000    198.9209   1.0513731080e+02   2.9744811272e-02    0.1615311   0.05564445 -27.68 0.0008011024    2.933    0.659
        49  -8.9291    141.3885    198.2631   1.2428150561e+02   1.6749545003e+01    0.2293926    0.1668233   8.99  0.001250475    1.764    0.433
        50  -9.4088     58.4780    198.5751   1.4109670740e+02   2.8120236452e+01    0.2979389    0.1463116  77.92  0.001445271    2.434    0.589
        51  -9.3012     56.8927    192.8599   1.4099074634e+02   2.9332587924e+01    0.2225871    0.1580381 -66.99  0.001532303    1.595    0.373
        52  -9.2145     52.7936    197.8731   1.4219690338e+02   2.8892423460e+01    0.1898429    0.1666439  -7.30  0.001408534    1.748    0.428
        53  -9.3646     79.0069    182.1194   1.3532688191e+02   2.8592191009e+01    0.1986078    0.1678088  51.67 0.0006727473    1.072    0.067
        54 -11.2608     77.1232    194.3840   1.3692177064e+02   2.6598976332e+01    0.3607737    0.2854387 -36.23  0.001715701    1.857    0.461
        55 -11.1358     81.2002    187.4194   1.3539356390e+02   2.7325026076e+01    0.2574173    0.2412764 -52.11 0.0007882501    1.367    0.269
        56  -9.4825    113.7539    195.9678   1.2953203109e+02   2.1283627245e+01    0.2348322     0.117898  46.57  0.001255493    1.677    0.404
        57 -10.4458    159.9544    193.9414   1.2006016768e+02   1.4473154607e+01    0.3033761    0.2111201  43.78 0.0004145099    1.268    0.211
        58 -10.1447    155.5405    232.0780   1.2581925429e+02   1.0021871187e+01    0.2022416    0.1313649  38.57 0.0003787025    1.157    0.135
        59  -9.2093     89.1202    204.6510   1.3543487108e+02   2.3265881431e+01    0.2076229     0.130075  51.97 0.0006165465    1.321    0.243
        60  -8.9857     62.2858    194.5165   1.4000522837e+02   2.8402092080e+01    0.2104589    0.1150268  71.86  0.001209277    1.944    0.486
        61 -10.0107    191.5882    191.2881   1.1373813531e+02   9.7672902445e+00    0.2406533    0.1957033  13.63 0.0005945094    1.104    0.094
        62  -8.5167    179.2432    192.6059   1.1620714396e+02   1.1570508115e+01    0.1675752   0.09549202  31.44 0.0002543422    1.520    0.342
        63  -9.2116    175.1341    190.8863   1.1670739363e+02   1.2466680394e+01    0.1747758    0.1476761  38.69 0.0004417747    1.169    0.145
        64  -8.4427    101.7990    191.6081   1.3149375022e+02   2.3750193050e+01    0.1650919   0.09131195  46.35 0.0004013117    1.501    0.334
        65  -8.2225    197.9566    189.7595   1.1234868433e+02   8.9455906477e+00    0.1537836   0.08510162  36.84 0.0003017995    1.505    0.336
        66  -9.8250    250.4216    187.3201   1.0327576978e+02   1.2448632186e+00    0.2101832   0.09597185 -20.57  0.001148533    2.190    0.543
        67  -8.7158    125.8933    187.0697   1.2591217345e+02   2.0931988851e+01    0.2759368    0.1345644  57.68  0.001219529    2.749    0.636
        68  -8.3168     59.6087    187.5406   1.4000038812e+02   2.9996343374e+01    0.1161518   0.08837451  62.17 0.0001409617    1.078    0.073
        69  -9.8258     89.6051    184.8185   1.3331996465e+02   2.6666376838e+01    0.2944681    0.1626295  53.75 0.0003899678    1.663    0.399
        70 -10.2273     67.9820    186.0350   1.3808650507e+02   2.9267695240e+01     0.202982    0.1436843  39.84 0.0004310932    1.285    0.222
        71  -8.8374     53.9942    188.6499   1.4127382231e+02   3.0438892569e+01     0.160468    0.1147826  51.15 0.0004438524    1.134    0.118
        72  -9.2391    144.9567    180.9361   1.2110297305e+02   1.8890942808e+01    0.2031179     0.145565  65.10  0.001143126    1.780    0.438
        73  -9.4420     47.2990    179.9420   1.4204074757e+02   3.2832519534e+01    0.2694876    0.1760918   5.25   0.00147841    2.808    0.644
        74  -9.4776    128.9702    179.1353   1.2416544602e+02   2.1784911772e+01    0.1858587    0.1580519  42.27  0.000325238    1.003    0.003
        75 -10.3830    181.6343    176.9638   1.1320840348e+02   1.3342671961e+01    0.3905829    0.2044073  27.59  0.001898807    2.002    0.500
        76  -8.7688     83.9814    178.0722   1.3380302301e+02   2.8686545244e+01    0.1834597    0.1384897  62.43 0.0004855791    1.201    0.167
        77 -10.9055     88.7569    175.6344   1.3246546683e+02   2.8488551352e+01    0.2765586    0.2447573   7.28 0.0003815168    1.466    0.318
        78  -8.8177    210.1807    176.8332   1.0799041185e+02   8.5939673469e+00     0.175779    0.1212882  16.52 0.0005906824    1.336    0.252
        79  -9.9583     75.2876    174.5474   1.3535807686e+02   3.0518670434e+01    0.2726431     0.214023  41.48 0.0008941773    1.199    0.166
        80  -9.3683    177.4040    173.8317   1.1347975494e+02   1.4514720387e+01    0.2988785    0.1341635  52.30  0.001239215    2.859    0.650
        81  -8.3228     67.7451    174.3442   1.3703135273e+02   3.1522530808e+01    0.1223437   0.07638364  67.69   0.00042566    1.586    0.369
        82 -10.6093    249.1812    171.5823   1.0067230578e+02   3.0531190347e+00    0.2545868    0.2168377  32.30  0.001826735    1.424    0.298
        83 -11.0205    135.5341    240.8685   1.3027132619e+02   1.1679301719e+01    0.2373688    0.1922786  46.12  0.001214615    1.167    0.143
        84 -11.5961     94.4653    166.7943   1.3007950103e+02   2.9363511786e+01     0.550939    0.4377959 -29.80  0.002217081    1.732    0.422
        85 -10.0274     96.8197    159.0933   1.2848451719e+02   3.0521543875e+01    0.3077512    0.2210752 -25.83  0.001245555    2.132    0.531
        86  -8.6086    113.2291    169.3955   1.2618612179e+02   2.6017106054e+01    0.1905072     0.101307  48.00 0.0005048022    1.707    0.414
        87  -9.4281    108.1677    168.2107   1.2715292708e+02   2.7027503581e+01    0.2860278    0.1542232  44.09 0.0004907435    1.614    0.381
        88  -9.2049     58.9529    167.2539   1.3834021737e+02   3.3999381156e+01    0.1914912    0.1537714  87.94 0.0004123101    1.179    0.152
        89 -12.1344    110.5630    229.9484   1.3369257647e+02   1.6496382507e+01    0.6094473    0.3026122  39.86  0.002594112    1.505    0.335
        90  -9.7402    128.9654    165.8124   1.2215672065e+02   2.4116403290e+01    0.1894397     0.182939  63.91 0.0003754798    1.115    0.103
        91 -10.0086     40.9969    164.3193   1.4223581458e+02   3.6601595951e+01     0.163311    0.1309274  62.95 0.0005473125    1.040    0.039
        92 -10.6475    245.0088    162.1873   9.9560285788e+01   4.7205001704e+00    0.2116685    0.1541178 -11.43  0.001078342    1.219    0.179
        93  -8.8241     63.7445    163.0204   1.3679563909e+02   3.4273847309e+01    0.1608697    0.1376153  75.70  0.001089392    1.061    0.058
        94  -7.8978     70.6463    162.3193   1.3509009210e+02   3.3543693601e+01    0.1349101   0.07882448  62.93 0.0007046756    1.749    0.428
        95 -10.0644    249.4881    160.5026   9.8556035466e+01   4.2071558376e+00    0.1749139    0.1361638   5.04  0.001183356    1.013    0.012
        96  -8.2360    146.7187    160.6792   1.1744014774e+02   2.1969324448e+01    0.1287511   0.09974657   4.64 0.0002728344    1.587    0.370
        97  -8.6609    171.4792    159.1123   1.1200847332e+02   1.7793029000e+01      0.17444    0.1302098 -34.87 0.0003864261    1.469    0.319
        98  -9.8439     82.6796    159.0975   1.3184231929e+02   3.2576990712e+01    0.2071765    0.1665716  37.78 0.0002862552    1.236    0.191
        99 -10.8669     46.2028    157.8591   1.4045930030e+02   3.7375886960e+01    0.3211542    0.1694297 -89.42  0.001577054    1.975    0.494
       100 -10.9171     43.0232    156.4894   1.4109975998e+02   3.8002905025e+01    0.2888272    0.1707137  62.30 0.0005504611    1.547    0.353
       101  -8.8115    115.5926    157.3610   1.2383394345e+02   2.7898811107e+01     0.158288    0.1256155 -44.08 0.0007298352    1.445    0.308
       102  -9.8074     89.0019    156.8260   1.3002891281e+02   3.2134012402e+01    0.1992469    0.1795131 -67.99  0.001295212    1.206    0.171
       103  -9.1581    134.3121    155.6831   1.1929061255e+02   2.5034706273e+01    0.2105997    0.1904027 -40.19  0.000608078    1.234    0.190
       104  -9.6626     73.0604    156.1230   1.3378602440e+02   3.4495857736e+01    0.2762103    0.1776057  36.51  0.001562601    1.500    0.333
       105 -11.3983    242.7289    154.5864   9.8447209604e+01   5.9490299681e+00    0.3065868    0.2761409  47.91  0.002105706    1.550    0.355
       106  -9.2794    114.0183    152.2668   1.2337974837e+02   2.9142041786e+01    0.2157592    0.1908195 -65.79 0.0005676622    1.226    0.184
       107 -10.1761    104.6245    150.7983   1.2538196006e+02   3.0961422945e+01    0.4186363    0.3049187 -16.61  0.001539367    2.171    0.539
       108  -9.1236    107.7972    145.9605   1.2382652044e+02   3.1418739392e+01    0.2320284    0.2081298 -28.15  0.001095272    1.327    0.246
       109 -10.7570     46.3759    151.1433   1.3978836492e+02   3.8768492537e+01    0.2635926    0.1977637  29.11  0.001679249    1.495    0.331
       110 -10.0494     93.3055    150.3797   1.2806696204e+02   3.2806963644e+01    0.2958381    0.2100466  28.83 0.0007502418    1.534    0.348
       111 -11.4773     57.2765    148.9171   1.3684047537e+02   3.7999155246e+01    0.4699596    0.3066223 -39.08  0.002546856    2.199    0.545
       112 -10.2012    249.5918    149.6517   9.6430414051e+01   5.4046621184e+00    0.2474211    0.1491402  48.23  0.001399399    1.931    0.482
       113  -8.0565    176.7237    150.3002   1.0926780239e+02   1.8218601834e+01    0.1212004    0.1072789  81.54 0.0002075285    1.537    0.350
       114 -10.0154    143.1408    148.3828   1.1599919823e+02   2.4782214708e+01     0.312108     0.262367  87.32   0.00107244    1.511    0.338
       115 -12.4964     67.7149    143.8681   1.3358205953e+02   3.7782482953e+01     0.843408    0.5395184  82.66  0.003377169    1.741    0.426
       116 -11.8890     73.2125    139.5037   1.3156830535e+02   3.7994717261e+01    0.7007389    0.4255775 -84.28  0.002595803    1.898    0.473
       117  -9.8507    134.0000    145.0229   1.1744070901e+02   2.7064361570e+01    0.4947101    0.1916793 -51.65  0.001915118    2.957    0.662
       118 -10.2928    133.2060    140.6724   1.1679907633e+02   2.8032055266e+01    0.3891447    0.2974913 -36.69  0.001474613    1.463    0.317
       119 -10.6331     41.0170    146.4876   1.4068099866e+02   4.0334245576e+01    0.2331829    0.1483544 -59.99  0.001379934    1.653    0.395
       120 -10.9880     46.1512    142.7571   1.3900256024e+02   4.0595689468e+01       0.3756    0.1341956  52.19  0.001172244    2.838    0.648
       121 -12.2170     49.7215    137.8048   1.3753001290e+02   4.1285450796e+01    0.7126095    0.2715308  34.70    0.0032463    2.468    0.595
       122  -9.9912     51.8084    132.5511   1.3634752786e+02   4.2213598331e+01    0.2650366    0.2014297 -74.78 0.0007496561    1.235    0.190
       123 -11.0039    248.1352    141.0418   9.4914615699e+01   6.6337702030e+00     0.602587    0.2113086  36.80  0.002547072    2.953    0.661
       124 -10.5547    248.2407    135.9863   9.3856742882e+01   7.2084725409e+00    0.3602465    0.2363506  52.85   0.00178075    1.918    0.479
       125 -11.1945    248.7092    131.8732   9.2927371669e+01   7.6145630603e+00     0.389103    0.2551365 -24.30  0.002283807    1.381    0.276
       126 -10.7479     26.4707    140.8752   1.4388139316e+02   4.2955782289e+01    0.3793859    0.1580149  59.40  0.001829153    2.383    0.580
       127  -8.4925    194.2679    140.3819   1.0383409166e+02   1.6427225435e+01    0.1756431    0.1225993  49.44 0.0003583217    1.508    0.337
       128 -10.4600    113.8215    135.9039   1.2056590524e+02   3.2438396950e+01     0.389937    0.3162606  40.19  0.001733625    1.176    0.150
       129  -8.8664    133.7886    135.3996   1.1562646309e+02   2.8933301744e+01    0.1881747    0.1263855  33.12  0.000325086    1.509    0.337
       130  -9.1067    120.4758    135.2370   1.1879691008e+02   3.1400215963e+01    0.1875128    0.1340009 -69.02 0.0006898069    1.687    0.407
       131  -8.5841     97.7767    134.4016   1.2436411804e+02   3.5439128034e+01    0.1700789    0.1266668  30.48 0.0001810808    1.436    0.304
       132  -8.4249    130.0081    132.0194   1.1584487905e+02   3.0295028799e+01    0.1666454    0.1516572  43.17            0    1.032    0.031
       133 -11.9978     45.4648    130.3148   1.3780893680e+02   4.3420236598e+01    0.5308166    0.3372206  67.62  0.001938038    1.566    0.361
       134 -10.7498     66.2573    126.5427   1.3154970822e+02   4.1785269732e+01    0.3152114    0.2238932 -73.45  0.001063957    1.367    0.268
       135  -9.6218    209.8195    125.6727   9.7804437691e+01   1.5568710162e+01    0.2363574    0.1974416 -16.15  0.000496824    1.139    0.122
       136  -8.6337     82.6828    135.9665   1.2856015945e+02   3.7424464518e+01    0.1786513    0.1590593 -82.86 0.0003429935    1.101    0.092
       137 -11.4768     58.6486    133.3952   1.3460265021e+02   4.1216317540e+01    0.4475943    0.3243527 -85.29 0.0004973652    1.333    0.250
       138  -9.9702     50.6143    122.9593   1.3544642277e+02   4.4512977025e+01    0.2428463     0.152097  61.15  0.001301918    1.628    0.386
       139  -8.2275    238.6408    121.6909   9.2230731628e+01   1.0636728577e+01    0.1387572    0.0882778  14.17 -2.735274e-06    1.736    0.424
       140 -11.3961    248.5452    112.3613   8.8720019870e+01   9.9867775100e+00    0.4815449    0.3361408 -16.09  0.002246213    1.267    0.211
       141  -9.1985     85.3616    117.6859   1.2467695976e+02   4.1039404196e+01    0.2994276    0.1440171  49.69  0.001101967    2.196    0.545
       142 -10.0849     70.5361    116.9585   1.2878934156e+02   4.3376101929e+01    0.2351851    0.2189091  48.77  0.000589752    1.126    0.112
       143  -9.1103    168.4118    113.3620   1.0290047876e+02   2.6026377506e+01    0.3129009     0.225683 -82.28  0.001360741    2.411    0.585
       144 -10.8724     59.8283    112.3631   1.3117241338e+02   4.5842262088e+01    0.4321139    0.1906179 -66.00  0.001588155    2.170    0.539
       145 -10.1779     62.7010    112.6802   1.3036594265e+02   4.5402707135e+01    0.2001478    0.1792731 -54.19 0.0005216986    1.188    0.158
       146  -9.0871    149.7897    111.5895   1.0659121878e+02   3.0287913629e+01    0.2238001    0.1943385 -22.97 0.0004801123    1.209    0.173
       147 -10.3305     70.8602    110.8942   1.2761746965e+02   4.4714711159e+01    0.2952607    0.2332195 -39.29 0.0009277051    1.460    0.315
       148 -10.4994    114.9331    107.0380   1.1420513885e+02   3.8231745656e+01    0.2886828    0.2248099  43.25  0.001492967    1.262    0.208
       149  -9.8398    134.5203    104.9630   1.0862240031e+02   3.4749329328e+01    0.3847733    0.1454643 -43.43   0.00135741    2.714    0.631
       150 -10.7569    248.0772    100.2546   8.6041398767e+01   1.1548747035e+01     0.438398    0.3238316   6.97  0.002553069    1.357    0.263
       151  -9.3364    131.0077    100.2311   1.0830799507e+02   3.6416238202e+01     0.200579    0.1896212  45.91 0.0002178284    1.042    0.040
       152  -8.2101     76.5292     99.0011   1.2352319079e+02   4.6616402755e+01    0.1963593    0.1303468 -59.21 4.343638e-05    1.445    0.308
       153  -9.5397     63.6144     98.1159   1.2742098370e+02   4.8657346652e+01    0.2271946    0.1738595  51.57 0.0005177104    1.347    0.258
       154  -8.5018     80.4923     97.5523   1.2197441599e+02   4.6337764233e+01    0.1388191    0.1302276 -89.38 4.542343e-05    1.037    0.036
       155 -11.2770    134.5697    235.3787   1.2989047695e+02   1.2513719042e+01    0.2835228    0.1561251  45.46  0.001829743    1.439    0.305
       156 -10.2499    123.6758     89.3385   1.0731881995e+02   4.0132337972e+01    0.2806485    0.2522377  24.66 0.0002292443    1.164    0.141
       157  -8.8019    102.0004     87.7604   1.1300228696e+02   4.4793261395e+01    0.1915776    0.1863329  59.78  0.000259901    1.038    0.037
       158  -8.9108    172.9919    239.0685   1.2361137533e+02   6.7700826852e+00    0.1584222    0.1391075   7.84 0.0007154397    1.292    0.226
       159 -18.4879      2.5739    130.6967   1.4934284120e+02   4.7020438425e+01     16.46429     1.084396 -80.56   0.03351691   13.861    0.928
       160  -8.7642    113.9534     81.4495   1.0776304080e+02   4.3757520487e+01    0.2204587    0.1454195  46.56 0.0004900679    1.529    0.346
       161  -8.2649     97.5756     72.5370   1.0999754259e+02   4.8875419953e+01    0.1445554    0.1394198 -41.25 0.0001140092    1.009    0.009
       162  -8.7562     63.9761     57.3509   1.1697986084e+02   5.7925068666e+01    0.1795051    0.1736208   5.54 0.0003840914    1.102    0.093
       163 -10.7193    136.0096    228.9627   1.2896339281e+02   1.3160956620e+01    0.2026486    0.1595772 -28.96  0.001497215    1.729    0.422
       164 -10.1395    127.1960    249.0164   1.3248390648e+02   1.1762915060e+01    0.2356987    0.1241546  50.86  0.001535629    1.702    0.412
       165 -12.0286    126.0197    240.9196   1.3194367523e+02   1.2946113076e+01    0.4201128    0.3189086 -48.61  0.002764066    1.802    0.445
       166 -10.3375    119.2043    236.4738   1.3273505747e+02   1.4441393800e+01    0.2268267    0.1625763  81.12   0.00107295    1.895    0.472
