#   1 NUMBER                 Running object number                                     
#   2 MAG_AUTO               Kron-like elliptical aperture magnitude                    [mag]
#   3 X_IMAGE                Object position along x                                    [pixel]
#   4 Y_IMAGE                Object position along y                                    [pixel]
#   5 X_WORLD                Barycenter position along world x axis                     [deg]
#   6 Y_WORLD                Barycenter position along world y axis                     [deg]
#   7 A_WORLD                Profile RMS along major axis (world units)                 [deg]
#   8 B_WORLD                Profile RMS along minor axis (world units)                 [deg]
#   9 THETA_WORLD            Position angle (CCW/world-x)                               [deg]
#  10 FWHM_WORLD             FWHM assuming a gaussian core                              [deg]
#  11 ELONGATION             A_IMAGE/B_IMAGE                                           
#  12 ELLIPTICITY            1 - B_IMAGE/A_IMAGE                                       
         1 -12.4642    161.5556     66.6174   3.3949643047e+01   3.5696078979e+01     2.295033    0.8641168 -36.93  0.008549075    2.404    0.584
         2 -12.1486    179.9662     56.4468   2.8359522909e+01   3.3135061987e+01     2.269026     1.549754 -57.80   0.01198685    1.369    0.269
         3 -12.6508    228.8667     70.5826   2.6370942614e+01   2.1366573531e+01     2.128917      1.21209 -70.14   0.01098865    2.398    0.583
         4 -14.1739    242.6984     47.5160   2.0098230876e+01   2.1935257671e+01     4.977003     1.623451 -32.68   0.02300625    2.322    0.569
         5 -12.8536    199.9676     65.6607   2.8306256057e+01   2.7526604556e+01     3.354106     1.794861 -30.12   0.01624065    1.773    0.436
         6 -11.8622    226.3264     47.7386   2.1384908649e+01   2.4843062317e+01     1.972864    0.2871552 -40.65  0.006935474    3.606    0.723
         7 -11.6880    149.2360     53.9094   3.2187931716e+01   4.0680061358e+01    0.9999089    0.6327882 -23.25  0.004493587    1.907    0.476
         8 -10.8897    203.9261     93.5603   3.4560852739e+01   2.2500926139e+01     2.137188     1.082171 -59.82  0.008861521    2.926    0.658
         9  -9.6117     16.3870     19.3805   6.8850853356e+01   7.5989727620e+01     0.438489     0.287263  78.82   0.00193704    2.975    0.664
        10  -8.1327    225.2914     16.0568   1.4081026122e+01   2.8762976556e+01    0.2799027   0.08354716 -30.28  0.001215222    2.649    0.623
        11 -10.6061    150.5459     41.7130   2.8078901090e+01   4.2216424859e+01     1.263596    0.1930456 -34.24  0.003385932    4.812    0.792
        12  -9.3685      3.9682      9.2591   7.5455847819e+01   7.9374216219e+01    0.2802069    0.1533748   9.01  0.001411819    1.988    0.497
        13  -8.1916    238.9528      3.2219   1.0600635721e+01   2.7516171508e+01    0.2311229    0.1413398 -12.46  0.001357966    2.232    0.552
        14  -9.1001      3.0715      3.5484   7.2609760443e+01   8.0620606772e+01    0.3466722    0.1884921 -18.33  0.001669628    2.288    0.563
        15  -7.6925    231.7059      1.9725   1.0580751439e+01   2.8983576288e+01    0.1691508    0.1158049 -26.84   0.00111356    1.473    0.321
        16  -7.5865    218.5448    210.9051   5.4784169898e+01   2.9410879371e+00     0.156232   0.08699647 -29.49 0.0008308105    1.558    0.358
        17 -10.1787    231.8192    249.2870   5.8148007756e+01  -2.7110734181e+00    0.3873698    0.1538959 -18.72  0.002177367    2.864    0.651
        18  -9.7275    249.7818    219.9714   5.1518609179e+01  -1.1739926352e+00    0.3053626     0.174043 -42.44   0.00205256    2.446    0.591
        19  -9.5610    249.8373    229.6987   5.2901653898e+01  -2.2192178499e+00     0.383313    0.1928731 -28.40  0.002774026    1.622    0.384
        20 -11.0206    247.7199    248.0663   5.5696839982e+01  -3.9107411769e+00    0.6467229    0.3814783  23.26  0.005265105    1.650    0.394
        21 -11.3771    241.9200    240.0486   5.5447921583e+01  -2.6194620544e+00     1.030097    0.2912298 -26.94  0.004962584    3.841    0.740
        22  -9.6841    243.8725    198.7607   4.9138821181e+01   1.8102840715e+00    0.4071441    0.1839821 -22.66  0.001685615    2.017    0.504
        23 -10.0778    244.7483    191.1173   4.7802471790e+01   2.6430863369e+00    0.6744262    0.1990438 -40.36  0.003149292    3.354    0.702
        24 -10.0855    247.6629    205.1822   4.9605471524e+01   6.8206108598e-01    0.4669982    0.1424935 -31.98  0.002415386    2.720    0.632
        25  -9.4962    250.0989    199.5079   4.8394156589e+01   1.1033502381e+00    0.3427547    0.1365408 -33.82  0.001521672    2.040    0.510
        26  -7.5968    232.4830    210.4588   5.2587203505e+01   1.5574503209e+00    0.1067346   0.07660661  -8.35 7.601804e-05    1.027    0.026
        27  -9.1941    229.1500    208.3580   5.2765659546e+01   2.1503910122e+00     0.183934     0.114374 -17.40 0.0007378331    1.308    0.236
        28  -7.4497    133.0186    199.0285   6.9056589089e+01   1.5303459624e+01     0.146316    0.1283299  16.51            0    1.005    0.005
        29  -7.2265    223.5978    197.7211   5.1950554400e+01   4.0788724244e+00     0.115761   0.06822366  -2.21 0.0006986617    1.769    0.435
        30  -7.4942    223.1464    188.1823   5.0472273583e+01   5.3835117371e+00    0.1370364    0.1122936 -28.25            0    1.314    0.239
        31  -9.2960    249.8350    183.9344   4.5942411329e+01   2.9883558933e+00    0.4004419    0.1557516 -26.07   0.00212581    2.352    0.575
        32  -8.3519    232.6718    184.8085   4.8489356732e+01   4.7432367318e+00      0.24479   0.08360238 -38.59  0.001207137    2.575    0.612
        33  -7.5389    227.6573    186.7107   4.9545993344e+01   5.0619642275e+00    0.1142497    0.0701397  -5.17 0.0007023775    1.649    0.394
        34  -8.2102    239.3208    184.3085   4.7451883035e+01   4.0690453773e+00     0.111926   0.06715313  -7.81 0.0007034278    1.642    0.391
        35  -9.3176    242.1775    176.5628   4.5757774262e+01   4.7398388448e+00    0.3041045    0.1113626 -27.79  0.001484256    2.579    0.612
        36  -7.6981    100.9769    175.8579   7.3316367135e+01   2.4528024179e+01     0.180818    0.1631533  37.25            0    1.028    0.027
        37  -7.8063    250.5826    172.6519   4.3964437913e+01   4.3033611387e+00     0.211055   0.07960269 -30.00  0.001112883    2.172    0.540
        38  -8.3617    231.7378    175.0750   4.6980374202e+01   6.1346980659e+00    0.2729571    0.1203574 -41.49  0.001248975    2.201    0.546
        39  -8.4823    234.7671    163.6925   4.4557027456e+01   7.3054529546e+00    0.2572069    0.1777432 -50.39  0.001633248    1.967    0.492
        40  -7.7549    248.6886    161.3212   4.2258926307e+01   5.9589495527e+00    0.1593463   0.08122708 -47.97 0.0008442983    2.672    0.626
        41  -7.5898    246.4645    158.5029   4.2051003901e+01   6.5868385116e+00    0.1120273    0.0840515 -23.22 7.509535e-05    1.038    0.036
        42  -7.4626    238.3985    159.7955   4.3358621272e+01   7.3880229888e+00    0.1656404   0.08505813 -27.15 0.0009524299    1.633    0.388
        43  -7.4934    247.6921    154.3038   4.1143185719e+01   6.9910801518e+00    0.1010521    0.0772829 -46.20 0.0004278094    1.605    0.377
        44  -8.0480    244.8699    148.1313   4.0387010220e+01   8.1563283478e+00    0.1699623    0.1289642 -39.27  0.001209347    1.339    0.253
        45  -7.7680    249.8306    147.2345   3.9596042771e+01   7.6615981657e+00    0.1674012    0.1244636 -31.99  0.001184878    1.160    0.138
        46  -8.4820    243.1259    142.4653   3.9562534275e+01   9.1430162245e+00    0.3040737    0.1391044 -48.81  0.001464666    2.886    0.653
        47  -7.9882    239.3136    140.7220   3.9725917437e+01   9.8799577728e+00    0.2129413    0.1063044 -40.87 0.0006954161    1.732    0.423
        48  -7.6320    175.3665    140.7072   4.9809874575e+01   1.9560654439e+01    0.1289275     0.107412 -85.14 0.0007027721    1.714    0.416
        49  -7.0813    210.3071    138.7096   4.3428335478e+01   1.4286369427e+01    0.1148013   0.09288915 -58.63 0.0002837273    1.576    0.366
        50  -8.9690    242.9580    134.7731   3.8133313248e+01   1.0215968411e+01    0.3946925    0.2471375 -49.65  0.002409867    1.844    0.458
        51  -7.7505    249.3274    136.2177   3.7624152673e+01   9.1873260388e+00     0.175861    0.1523794  78.32  0.001086908    1.891    0.471
        52 -10.2887    240.3923    127.2690   3.7005178403e+01   1.1602236767e+01    0.2902783    0.2209657 -46.09  0.000641573    1.367    0.269
        53  -8.8777    234.2150    125.5092   3.7433772840e+01   1.2723333859e+01    0.2132998    0.2045938 -32.77 0.0005367855    1.284    0.221
        54  -8.3867    233.8539    133.6402   3.9080408108e+01   1.1615399883e+01    0.2448805    0.2014275 -37.92  0.001649225    1.206    0.171
        55  -7.9753    250.6689    131.3242   3.6543913498e+01   9.6678630785e+00    0.1631888    0.1369491 -37.48 0.0006743863    1.255    0.203
        56  -8.3013    247.4058    130.2013   3.6718257612e+01   1.0247598679e+01    0.2674188    0.1422816 -45.61  0.001343836    1.859    0.462
        57  -6.9580    153.4918    131.4991   5.2249890763e+01   2.5177085290e+01    0.1413129    0.1335181 -34.74 -9.489029e-05    1.014    0.014
        58  -7.9176    222.2970    130.4370   4.0009968763e+01   1.3748593127e+01    0.1332136    0.1218012  66.15 0.0004589301    1.494    0.331
        59  -7.9805    193.0648    130.0703   4.4404119945e+01   1.8434894594e+01    0.1955442    0.1550205 -67.34 0.0007034102    1.670    0.401
        60  -8.1906    166.7513    127.0999   4.8536107349e+01   2.3589441130e+01    0.3404407    0.2127002  65.00  0.001500521    2.445    0.591
        61 -10.0818    229.0920    111.9931   3.5331776767e+01   1.5439125536e+01     1.414747     0.857406 -83.71  0.005648455    5.097    0.804
        62  -7.6016    192.9886    248.4992   6.4186310752e+01   9.4257661323e-01    0.1450855   0.07016036   6.54 0.0006739007    2.343    0.573
        63  -8.7677    222.7009    243.2709   5.8730078622e+01  -1.2693291475e+00    0.2078944    0.0894154 -18.51 0.0009639083    2.564    0.610
        64 -10.9001    248.3505    238.9982   5.4395012469e+01  -3.0547971992e+00    0.4973409    0.3068195 -20.18  0.003944169    1.271    0.213
        65  -7.8425    198.9769    236.0688   6.1566156115e+01   1.8410601466e+00    0.1635697    0.1210702   0.53 0.0005952522    1.012    0.011
        66  -7.9309    214.4984    124.1161   3.9819074877e+01   1.5904779588e+01    0.1901581    0.1039465 -37.43 0.0006250226    1.508    0.337
        67  -8.9472    220.0456    117.4810   3.7656449715e+01   1.6041776274e+01    0.3511519    0.2857803  89.53  0.002217614    1.801    0.445
        68  -7.1577    210.4119    119.4624   3.9428031951e+01   1.7286652380e+01    0.1283929    0.1049713 -33.43  0.000101177    1.019    0.019
        69  -8.4711    188.5578    117.8169   4.2476733178e+01   2.1302396631e+01    0.3906457    0.2841836 -80.77  0.001970545    2.171    0.539
        70  -8.6421    169.4893    117.2463   4.5751029865e+01   2.4925138898e+01    0.3975873    0.2304937  67.85  0.001602698    2.939    0.660
        71  -8.2591    204.7493    116.4046   3.9602606402e+01   1.8715241209e+01    0.2740206    0.1597353  50.50  0.001209518    2.053    0.513
        72  -8.1307    200.3924    116.2459   4.0228055826e+01   1.9485675231e+01    0.2742571    0.2007553 -60.92  0.001416466    1.651    0.394
        73  -8.0864    195.3251    114.8618   4.0711294463e+01   2.0598995980e+01    0.2090268    0.1896273  84.21   0.00131064    1.359    0.264
        74  -7.5559    153.2437    115.4012   4.8580477002e+01   2.8433589683e+01    0.1941344    0.1397553  60.09 0.0009399169    1.622    0.383
        75  -7.3186     60.2728    114.6272   7.5406012811e+01   4.6032470478e+01    0.1641492    0.1123033  73.37 0.0007000822    1.682    0.406
        76  -7.4978    176.9780    113.4877   4.3488673535e+01   2.4193894479e+01    0.1782327    0.1235214  83.95 0.0008081062    2.386    0.581
        77 -10.5976    229.8876     95.0487   3.1648308724e+01   1.7761895290e+01     1.109306    0.5673234  81.38  0.004122635    5.739    0.826
        78  -8.0604    202.0856    110.6438   3.8728092052e+01   2.0102975301e+01    0.2224591    0.1275063  62.68  0.001073567    2.460    0.593
        79  -8.6813    182.0066    109.3487   4.1637144381e+01   2.3978774137e+01    0.4118083    0.2867047  77.56  0.002019802    2.144    0.534
        80  -8.8879    190.4435    107.5705   3.9826009069e+01   2.2707161619e+01    0.3852548    0.2662029 -47.38  0.002085356    1.337    0.252
        81  -8.3041    188.5182    102.9881   3.9059141828e+01   2.3843597231e+01    0.2895397    0.2183558 -36.10  0.001300204    1.167    0.143
        82  -7.1955     47.7883    108.0485   7.8926445680e+01   4.9592074392e+01    0.1992836    0.1187705 -69.74  0.000471816    1.617    0.381
        83  -8.5387    205.3389    106.2496   3.7268000874e+01   2.0238084883e+01    0.2998661    0.2217548  82.36  0.001565546    1.966    0.491
        84  -7.5426    169.4088    107.1739   4.3362670394e+01   2.6807209428e+01    0.2042112    0.1218532 -48.77   0.00091411    1.604    0.377
        85 -11.4253    213.0756     83.1826   3.0969318395e+01   2.2406440037e+01     1.753317    0.8747708  79.56  0.007068066    4.003    0.750
        86  -8.1339    141.9847    105.7210   4.8641296169e+01   3.2683283896e+01     0.209461    0.2044088  83.17  0.001172512    1.065    0.061
        87  -8.8655    198.2518    102.8062   3.7517717515e+01   2.2062423457e+01    0.4986069    0.1863611 -40.47  0.002057764    2.234    0.552
        88 -10.0610    188.0825     93.0248   3.6728309525e+01   2.5603604854e+01    0.3795055    0.2922398 -89.11  0.001264751    1.648    0.393
        89  -9.1624    194.1909     95.9987   3.6523714152e+01   2.3932271512e+01    0.3588313     0.294789  76.97  0.001611688    1.478    0.323
        90  -9.0876    229.7254    234.9875   5.6543800177e+01  -1.0006218298e+00    0.1727448    0.1164548  17.39  0.001371051    1.348    0.258
        91  -9.5015    150.4991    102.5074   4.5944457282e+01   3.1551907000e+01    0.5599421    0.3157783 -65.94  0.002064244    2.842    0.648
        92  -8.4850    181.9045    101.7368   3.9838444498e+01   2.5327832412e+01    0.4566254    0.2687895  78.08  0.001834617    3.209    0.688
        93  -8.3648    174.4406    102.7531   4.1368120487e+01   2.6614604630e+01    0.2989594     0.218664 -71.99  0.001498119    1.749    0.428
        94  -7.4165    130.6921    103.3559   5.0695076714e+01   3.5553420786e+01    0.1592276    0.1184507 -80.62 0.0007042237    1.725    0.420
        95  -8.2691    168.0186    100.8079   4.2045469092e+01   2.8256874170e+01    0.3131084    0.2149407 -48.23  0.001216521    1.354    0.261
        96  -7.4703    128.6820     98.3198   4.9840094186e+01   3.7060813992e+01    0.1577865    0.1191714 -82.82 0.0002616912    1.662    0.398
        97  -9.1000    165.0755     95.1454   4.1147077870e+01   2.9902195564e+01     0.332669    0.2603711 -63.06 0.0009239289    1.346    0.257
        98  -9.9695    159.7221     93.0929   4.1619789011e+01   3.1411040076e+01    0.5730291    0.2681176 -43.99  0.002331122    1.946    0.486
        99  -9.8087    155.1126     94.8066   4.2977122784e+01   3.2071573673e+01    0.5126463    0.2023844 -42.14  0.001893706    2.316    0.568
       100  -9.8600    142.8279     81.6452   4.1858332497e+01   3.7301108948e+01    0.4593324     0.276628  73.16   0.00187559    2.236    0.553
       101  -9.4322    151.3527     89.0049   4.2168575788e+01   3.3990924979e+01    0.4894734    0.2963289 -71.07  0.001534869    2.544    0.607
       102  -8.5493    147.5249     85.5034   4.1977909369e+01   3.5505360953e+01    0.3250411    0.1974172 -59.31  0.001384197    1.865    0.464
       103  -8.9068    170.6738     93.5780   3.9731969394e+01   2.9021461551e+01    0.5446202     0.262014 -59.71  0.001904851    3.279    0.695
       104  -9.2050    167.4788     87.9777   3.8838744652e+01   3.0691197515e+01    0.3303837    0.1780578 -49.09  0.001443638    1.769    0.435
       105  -7.4070    101.3204     95.6465   5.6669288412e+01   4.3491349801e+01     0.166435    0.1225026  88.87  0.000704699    1.751    0.429
       106  -9.4656    177.2001     93.2373   3.8525069367e+01   2.7742293345e+01    0.3797676    0.2254624 -61.21  0.001681229    2.108    0.526
       107  -9.6179    143.1647     91.8809   4.4685100366e+01   3.5230670768e+01    0.4416963    0.2981658 -82.24  0.001855934    2.189    0.543
       108  -9.5726    135.9377     91.1272   4.6101603131e+01   3.6975899227e+01    0.5503535    0.2921224 -67.06  0.001778479    3.459    0.711
       109  -7.8955      2.0512    233.6762   1.0230693712e+02   2.3280554603e+01    0.1965167    0.1183539  64.92 0.0008284402    1.408    0.290
       110 -10.7362    160.3944     85.2203   3.9380924562e+01   3.2713848407e+01    0.6519876    0.5145751 -72.41  0.003393854    1.388    0.280
       111  -9.2171    134.3708     83.2448   4.4194921169e+01   3.8914397335e+01    0.3324573    0.2067337 -40.96  0.001408643    1.552    0.356
       112  -9.9425    137.2887     80.7410   4.2796358964e+01   3.8740455713e+01    0.4289662    0.2674891  78.72  0.001720517    2.308    0.567
       113 -10.2237    239.5126     90.8472   2.9701258945e+01   1.6802977979e+01    0.7989441    0.4927582 -75.59  0.003059626    2.708    0.631
       114 -10.0690    150.6326     79.9839   3.9783503340e+01   3.5842342188e+01    0.5881972    0.3133738 -59.97  0.002127117    2.399    0.583
       115  -9.0209    128.2143     90.3312   4.7721433815e+01   3.8853326579e+01     0.306066    0.2706456  -1.72  0.000760512    1.403    0.287
       116  -9.8000    138.7687     75.1050   4.0785990610e+01   3.9478179970e+01    0.3568347    0.2430262 -39.05  0.001570451    1.425    0.298
       117 -11.1695    131.0359     71.0318   4.1232329391e+01   4.2065899497e+01    0.6577378     0.443994 -83.51  0.002805086    1.992    0.498
       118  -9.2179    151.2279     72.3587   3.7456121364e+01   3.7087401852e+01    0.3194859     0.247536 -45.92  0.001226777    1.184    0.155
       119 -10.4902    145.8285     68.3008   3.7276009906e+01   3.9067402744e+01    0.5844563    0.3095803 -40.81  0.002176178    1.744    0.427
       120  -9.0891    152.5775     58.8298   3.3146163367e+01   3.9081848519e+01    0.2949469    0.2580776 -62.42  0.001037687    1.034    0.033
       121  -7.8891    213.5491    231.5095   5.8563871005e+01   9.3292458608e-01    0.1051384   0.07663996  -2.36  0.000808551    1.005    0.005
       122  -9.6796    139.5892     68.7959   3.8678833873e+01   4.0453310967e+01    0.2863326    0.2150175 -60.68  0.001111078    1.327    0.246
       123 -10.8865    138.7676     56.3106   3.4862915802e+01   4.2835914315e+01    0.7469062    0.3149879 -39.07  0.002843472    2.188    0.543
       124  -8.9311    150.7845     66.4879   3.5791392036e+01   3.8218701330e+01    0.2754717    0.1977623 -41.67 0.0008352807    1.292    0.226
       125  -9.4242    171.6021     63.6623   3.1529908791e+01   3.3894764185e+01    0.2939712     0.241776 -31.27  0.000823476    1.246    0.197
       126 -10.8657    132.4719     65.8329   3.9253861295e+01   4.2692524557e+01    0.6371441    0.3731635 -73.14  0.002375329    2.630    0.620
       127 -10.3339    132.3635     58.8862   3.7004036491e+01   4.3961571660e+01    0.3584615    0.2552869 -48.56  0.001023556    1.323    0.244
       128  -9.0398    143.6961     52.5495   3.2720718220e+01   4.2247145302e+01    0.3004456    0.2474704 -29.94  0.001580157    1.304    0.233
       129 -10.6290    143.5953     47.0999   3.0955915891e+01   4.3129519343e+01     0.537586    0.5006858  21.44  0.003034992    1.330    0.248
       130  -8.2120    128.4984     74.9195   4.3040091386e+01   4.1914279510e+01    0.2373319    0.1456626 -42.34 0.0008596642    1.563    0.360
       131  -8.8693    113.9337     51.3928   3.8562604806e+01   4.9823610033e+01    0.4428447    0.1556723 -51.14  0.001314748    3.606    0.723
       132  -7.3119     99.7103     56.3537   4.4263649075e+01   5.2384828873e+01    0.1614054    0.1161376 -73.60 0.0007026695    1.676    0.403
       133  -9.3505    158.5838     46.4114   2.8372346693e+01   3.9574425551e+01    0.4582995    0.3067883 -30.53  0.002268266    1.518    0.341
       134  -9.4396    163.4336     42.6026   2.6531511259e+01   3.8962674038e+01     0.823225    0.4217851  -6.42  0.002224494    6.640    0.849
       135 -12.3247    176.9569     75.4714   3.3952263535e+01   3.0806827920e+01      1.72931     1.145346 -76.26  0.008267408    1.938    0.484
       136  -9.0038    126.6562     43.8273   3.2962580585e+01   4.7882053008e+01    0.2255089    0.1932361 -12.69  0.001173428    1.425    0.298
       137  -7.9860    113.2968     43.6771   3.5804495228e+01   5.1286935434e+01    0.1577513    0.1092288 -68.45 0.0003216238    1.622    0.383
       138  -9.1648    118.0242     41.7377   3.3994357321e+01   5.0399442112e+01    0.2098708    0.1917834  82.72 0.0004962101    1.061    0.057
       139  -9.4631    140.3964     40.7676   2.9374259029e+01   4.4878761314e+01    0.2979802    0.2291937   6.37  0.001446492    1.890    0.471
       140 -11.3527    240.2649    110.0550   3.3592998815e+01   1.4022659039e+01     2.192936     1.331118 -72.91   0.01039948    3.700    0.730
       141  -8.5393    201.0892     34.1500   2.0144897709e+01   3.1577371107e+01    0.3681498    0.1297862 -39.26  0.001608706    2.114    0.527
       142  -8.1861    173.6036     34.1378   2.2776979006e+01   3.7705572167e+01     0.275808    0.1642336 -14.25 0.0009728482    2.326    0.570
       143  -9.0711    132.6982     34.1325   2.8345888381e+01   4.7778767789e+01    0.3012214    0.1033493 -38.49  0.001078961    2.566    0.610
       144  -8.6775    228.0071    227.2698   5.5723386687e+01   2.6169290761e-02    0.1408592    0.1174424 -67.93 0.0009110023    3.550    0.718
       145  -8.2440    192.5501     38.0355   2.1933738562e+01   3.2919225384e+01    0.2607679    0.1928466 -53.73  0.001528812    1.122    0.108
       146  -7.5703      9.4892     22.4782   7.6881870251e+01   7.6026088869e+01    0.1286496      0.11905 -33.06 0.0001479072    1.028    0.027
       147  -8.0313    200.4985    124.5706   4.2021370430e+01   1.8105626426e+01    0.2170999    0.1877505 -55.96 0.0006776816    1.298    0.229
       148  -8.6169    222.6201    226.2025   5.6394660335e+01   6.6849692562e-01     0.232176    0.1219031  -7.98  0.001278431    1.975    0.494
       149  -7.6458    218.0825     19.5714   1.5307078768e+01   2.9793819793e+01    0.1792608    0.1454522 -26.43 0.0006484254    1.362    0.266
       150  -9.7984      5.9206     15.1698   7.6727479496e+01   7.7948193444e+01    0.3011917    0.1741173 -35.73  0.001555591    1.689    0.408
       151  -8.7938    243.9970    223.1849   5.2795075204e+01  -1.0028368123e+00    0.1589287   0.09709169  -5.00 0.0007179794    1.310    0.237
       152  -8.3796    233.3023    219.1330   5.3757285592e+01   4.5516532716e-01     0.258813    0.1514531  -7.90  0.001203027    1.496    0.332
       153  -8.2168    196.9547    122.7717   4.2196302664e+01   1.8999262424e+01    0.2419449    0.1931209  44.42  0.000936048    1.450    0.310
       154  -8.1813    225.3468    123.9559   3.8280471503e+01   1.4255029210e+01    0.2490625    0.1474735 -59.29   0.00103151    2.635    0.620
       155  -8.0092    234.5058    214.8565   5.2948158887e+01   8.3609183860e-01    0.1794157    0.0802598 -30.44  0.001104856    1.882    0.469
       156 -10.8388    240.5426    216.5564   5.2321893217e+01   5.8721022681e-02    0.3940498    0.2286576 -22.11  0.001946023    1.356    0.263
       157  -8.0014    227.1080    216.5247   5.4302103211e+01   1.3703534610e+00     0.142116   0.08748831  22.00 0.0008294733    1.522    0.343
