#   1 NUMBER                 Running object number                                     
#   2 MAG_AUTO               Kron-like elliptical aperture magnitude                    [mag]
#   3 X_IMAGE                Object position along x                                    [pixel]
#   4 Y_IMAGE                Object position along y                                    [pixel]
#   5 X_WORLD                Barycenter position along world x axis                     [deg]
#   6 Y_WORLD                Barycenter position along world y axis                     [deg]
#   7 A_WORLD                Profile RMS along major axis (world units)                 [deg]
#   8 B_WORLD                Profile RMS along minor axis (world units)                 [deg]
#   9 THETA_WORLD            Position angle (CCW/world-x)                               [deg]
#  10 FWHM_WORLD             FWHM assuming a gaussian core                              [deg]
#  11 ELONGATION             A_IMAGE/B_IMAGE                                           
#  12 ELLIPTICITY            1 - B_IMAGE/A_IMAGE                                       
         1 -10.2676     23.5912     16.7530   3.2978170315e+01   7.4024146938e+01     0.295833    0.1705616 -50.76  0.001427769    2.122    0.529
         2 -11.0888     19.6270     16.4565   3.5694436335e+01   7.4667191700e+01    0.4478838    0.2850246   1.19  0.002265212    1.984    0.496
         3 -11.3811    183.0319     14.5210   3.5155996515e+02   3.7301000548e+01    0.4083953    0.2604392 -52.23  0.001510103    1.313    0.238
         4 -12.5388    178.3258      7.6966   3.5012205079e+02   3.9039014242e+01    0.5393611    0.2770954 -57.81   0.00238334    1.692    0.409
         5 -10.5897     50.5241     10.4968   1.3948123302e+01   6.9778487460e+01    0.2500861    0.1811531  52.46 0.0007996303    1.255    0.203
         6 -11.0984     49.5277     14.2571   1.6635741062e+01   6.9540142275e+01    0.3433657    0.2539973  30.00 0.0008406334    1.343    0.255
         7 -10.7301     45.3728     12.1211   1.7243588278e+01   7.0682282995e+01    0.2728596    0.2076685  46.16 0.0005562564    1.190    0.160
         8 -11.3765    113.6600     15.0012   3.5943312251e+02   5.3993889950e+01    0.5403326    0.3614738  85.52  0.002809182    1.450    0.311
         9 -10.3634     35.1487     13.8276   2.3672362709e+01   7.2484401012e+01     0.267831    0.2361853  17.58  0.000831554    1.026    0.026
        10 -10.8554     32.3371     10.2267   2.2946741795e+01   7.3506284767e+01    0.2632319    0.2109278 -13.22  0.000754667    1.281    0.219
        11 -10.7674     27.9995     12.7323   2.7354966080e+01   7.3930742299e+01    0.3571674     0.178682 -41.70  0.001713547    2.182    0.542
        12 -10.9005    162.3036     11.8550   3.5252016844e+02   4.2311963402e+01    0.2320585    0.1524947 -81.63 0.0008190068    1.394    0.282
        13 -12.2366    174.3779      4.2041   3.4946772512e+02   4.0263006791e+01    0.3856986    0.2924601 -73.72  0.001166899    1.102    0.092
        14 -11.3019     85.4051      7.1360   1.4452454089e+00   6.1871770563e+01    0.2923983     0.255707 -77.06  0.001405965    1.183    0.155
        15 -10.8765     79.5043      7.8176   3.1307285656e+00   6.3270164854e+01    0.3520268    0.1911756  53.58  0.001305603    1.623    0.384
        16 -11.3234    236.2014      7.5269   3.4694157405e+02   2.7342302569e+01    0.2728886    0.1175822 -75.90  0.001507315    2.328    0.570
        17  -9.6503    142.3615     10.1588   3.5393677821e+02   4.7281011690e+01    0.1826451    0.1025306 -43.05 0.0003740735    1.672    0.402
        18  -9.3004    105.3209      9.7155   3.5874589728e+02   5.6623016422e+01    0.1823044    0.1567624 -71.66 0.0002714886    1.147    0.128
        19  -9.7722    102.5467      7.5134   3.5831541881e+02   5.7526911243e+01    0.2061095    0.1186602  86.11 0.0006184377    1.770    0.435
        20 -10.2228     69.7481      9.5036   6.5964426964e+00   6.5475894610e+01    0.2545881    0.1854746  31.70  0.000919944    1.460    0.315
        21 -10.3618    115.3216      8.7366   3.5679821368e+02   5.4179657766e+01    0.2200844     0.191386 -39.00 0.0005301553    1.241    0.194
        22 -11.5481    113.9087      2.4447   3.5460481459e+02   5.5083335867e+01    0.3931455    0.3013019 -40.04  0.001134854    1.367    0.269
        23  -9.6206    218.9085      8.4994   3.4793629174e+02   3.0471618672e+01    0.1525444   0.09950728 -89.51 0.0004276615    1.493    0.330
        24  -8.8769    202.2550      8.6715   3.4885785133e+02   3.3784660179e+01    0.1260078   0.06510936 -54.97 0.0002699047    1.555    0.357
        25 -11.6003    123.8633      6.9511   3.5498939826e+02   5.2185274868e+01    0.4761766    0.2545571  79.59  0.002302009    1.717    0.417
        26 -10.9417     97.3410      6.1678   3.5865405884e+02   5.8962108401e+01    0.5133635    0.2155129 -49.77  0.002082515    2.782    0.640
        27  -9.7173     30.9727      3.8310   1.9238936028e+01   7.4576528624e+01     0.225056    0.1243145  27.72  0.001086497    2.040    0.510
        28  -9.6797     16.0316      4.5230   3.0199574747e+01   7.7091466158e+01     0.184536    0.1107152  35.74 0.0005714211    1.540    0.351
        29 -10.2906     54.8930      8.9333   1.1257407375e+01   6.8985905127e+01    0.3050417    0.2301048  64.92  0.001737078    1.325    0.245
        30  -9.4705    131.4674      3.4906   3.5290138985e+02   5.0585012383e+01    0.1312649    0.1131827 -85.91 0.0002047657    1.015    0.015
        31  -9.3104    101.4536      3.5290   3.5684331106e+02   5.8146496853e+01    0.1334496    0.1163472  69.97 0.0001539665    1.059    0.056
        32  -9.5440    229.8311      2.1590   3.4610081644e+02   2.9032474132e+01    0.1330436    0.1213096 -53.91 0.0006563903    1.324    0.245
        33  -9.7059     91.6440    116.1160   3.9007724621e+01   4.0493547603e+01    0.2191486    0.1942736 -49.66 0.0008120922    1.127    0.113
        34 -10.6962     20.9071    115.7702   6.5108181033e+01   5.0596011265e+01    0.3459994    0.1766848 -46.44  0.001447114    2.039    0.509
        35  -9.5935     79.5189    110.5186   4.1648457554e+01   4.4094068927e+01    0.2555073    0.1519014 -54.96 0.0006382358    1.668    0.400
        36  -9.6931     96.1912    111.7723   3.6495464757e+01   4.0680132926e+01    0.2103237    0.1818824 -20.53 0.0005370276    1.317    0.241
        37  -9.4046     80.5026    113.5796   4.2057661304e+01   4.3151243667e+01    0.1529604    0.1505147  67.21 6.659639e-05    1.013    0.013
        38  -9.5236    103.0239    105.8173   3.2855707289e+01   4.0725569565e+01    0.2618035    0.1733862  66.24  0.001064899    2.010    0.502
        39  -9.6447     13.2897    105.6909   6.6914509771e+01   5.3969046301e+01    0.1470836   0.09922056  61.34 0.0002545136    1.579    0.367
        40 -10.8455      1.8593    104.6404   7.1678440475e+01   5.4974505177e+01     0.270662      0.16243 -57.76 0.0009266455    1.528    0.346
        41 -10.0877     19.8552    103.6397   6.3794690286e+01   5.4011146900e+01     0.202356    0.1236478  34.26  0.000315556    1.668    0.400
        42 -11.0239    249.6061     99.7724   4.6260037373e+00   1.3835309575e+01    0.1802552    0.1336835 -32.12  0.001205105    1.128    0.114
        43 -11.4671     28.3147     99.5056   5.9396937900e+01   5.4346432982e+01    0.3908572    0.2594894 -20.99  0.001784576    1.847    0.459
        44  -9.8063     69.8115     98.5762   4.2080337254e+01   4.8797205642e+01    0.2884906    0.1535155  31.85  0.001125118    1.989    0.497
        45 -10.8531    103.0297     95.5822   3.0028512381e+01   4.3047175037e+01    0.3235122    0.2210578 -51.59  0.001449006    1.469    0.319
        46 -10.3119      4.2826     95.8953   6.9639233483e+01   5.7216423998e+01     0.283543    0.1483869 -33.21  0.001236071    2.142    0.533
        47 -11.0941     89.9234     94.3485   3.3802198850e+01   4.6029275980e+01    0.2828274    0.2606832  44.20 0.0003772327    1.089    0.082
        48 -11.3974     16.1502     94.3521   6.3975745570e+01   5.6838510777e+01    0.3271016    0.2765135  -1.64  0.001284677    1.296    0.228
        49  -9.0729    157.5364     93.4688   1.6187807627e+01   3.1634005622e+01    0.1443194      0.13367 -53.44 0.0001475975    1.004    0.004
        50 -10.3476     38.1999     93.3833   5.3757808007e+01   5.4876195104e+01    0.2102692    0.1307009  38.74 0.0002550913    1.642    0.391
        51  -9.2734    132.3262     91.2827   2.0981133479e+01   3.7568333434e+01    0.1471614    0.1204099  10.55 0.0002966748    1.600    0.375
        52 -11.3045     64.4949     96.1313   4.3460424345e+01   5.0319285538e+01    0.3421108    0.3085479  44.85 0.0006640355    1.119    0.107
        53 -11.5883    249.2728     86.0663   1.9651986950e+00   1.5741428172e+01    0.4811334   0.09143542 -33.51  0.001550443    4.960    0.798
        54  -9.7803      2.1915     88.1792   6.9650351981e+01   5.9405861636e+01    0.1873333    0.1514086  71.90  0.000485949    1.280    0.219
        55 -11.1365     12.0364     85.7746   6.4504851232e+01   5.9450742937e+01     0.240334    0.1903768 -68.63 0.0004368802    1.163    0.140
        56 -10.6994    238.6102     82.4121   2.2545350282e+00   1.7916116274e+01    0.2566548   0.05849508 -44.37 0.0009572083    3.454    0.710
        57  -9.9303    186.4962     82.1490   8.4379168100e+00   2.7497253113e+01    0.2509308    0.1592778 -84.74  0.001166337    2.295    0.564
        58 -10.0138    160.1712     81.1769   1.2437669344e+01   3.3245479345e+01    0.1997918    0.1563894 -65.84 0.0004319431    1.326    0.246
        59 -11.8567     54.4067     78.5739   4.2620305122e+01   5.6327505193e+01    0.3553643    0.3130284  69.73 0.0005574503    1.266    0.210
        60 -10.3581      4.4410     80.0424   6.7383262555e+01   6.1453218900e+01    0.4236237    0.1183946  24.67  0.001440359    3.352    0.702
        61  -9.5938    201.8007     79.6282   5.7583458815e+00   2.4855150759e+01    0.1671993    0.1212818  82.05 0.0008404009    1.653    0.395
        62  -9.2317     77.9878     78.0181   3.2964361624e+01   5.2151668872e+01    0.1775623    0.1704868  46.21            0    1.036    0.035
        63  -9.9859    143.7811     77.0627   1.4418552196e+01   3.7652130955e+01    0.2494259    0.2079911  63.21 0.0007362799    1.229    0.186
        64 -11.0924    234.8896     75.6421   1.2160400783e+00   1.9454412605e+01    0.2193221    0.1397634 -30.62   0.00132841    1.433    0.302
        65 -10.0528    152.1485     75.9511   1.2473182049e+01   3.5939192443e+01    0.2274383    0.1851095 -68.77  0.000662013    1.257    0.204
        66 -10.9108      2.8606     74.1466   6.7274955033e+01   6.3087217545e+01    0.4288994    0.2097678 -64.25  0.001951449    1.751    0.429
        67 -11.7868     64.1058     69.5601   3.5537072860e+01   5.6729430268e+01    0.2592627    0.2324697 -45.76  0.000243129    1.119    0.106
        68  -9.2823    189.0000     68.4270   4.7070237669e+00   2.9103160919e+01     0.293938   0.06771857 -34.99 0.0009261033    3.865    0.741
        69 -10.3818    192.0472     65.8731   3.6886382110e+00   2.8850883382e+01    0.2145161    0.1971795 -14.64 0.0003703417    1.306    0.235
        70 -10.6227      7.7985     68.9571   6.3619861499e+01   6.4146439898e+01    0.2170409    0.1971614 -14.03 0.0005536553    1.133    0.118
        71 -10.4973    101.5192     67.0143   2.1524030784e+01   4.9334939040e+01    0.3240297    0.2469321 -50.11 0.0007786374    1.335    0.251
        72 -10.9286    100.2031     63.2924   2.0620331086e+01   5.0341996433e+01    0.4550398    0.2530401 -56.95  0.001794319    2.234    0.552
        73  -9.6979    204.6576     65.5797   2.1295666910e+00   2.6356649360e+01    0.2227652    0.1193556 -50.68 0.0006980667    1.661    0.398
        74 -12.0926    249.0768     56.8885   3.5617551221e+02   1.9543836733e+01    0.6621025    0.1544492 -43.42  0.002881583    2.827    0.646
        75 -10.7607      4.2195     63.7385   6.4619631714e+01   6.5695628216e+01    0.2904696    0.2186702 -68.29 0.0008925261    1.236    0.191
        76 -11.2009      3.4278     59.2566   6.4160874209e+01   6.6870285946e+01    0.3619869      0.28855 -16.67  0.001764408    1.269    0.212
        77  -9.7741     75.0591     64.5179   2.9408339432e+01   5.5654343141e+01    0.2419123    0.1852747  63.87 0.0007826444    1.487    0.327
        78 -10.0657     78.4520     62.9388   2.7577475808e+01   5.5265202673e+01    0.2346364    0.2047482  74.81 0.0003149588    1.266    0.210
        79 -11.7538    230.7523     60.0110   3.5829764312e+02   2.2251433278e+01    0.4221798    0.2592287 -83.99  0.002474598    2.011    0.503
        80  -9.2806    157.4777     61.4359   7.4378009936e+00   3.7098453857e+01    0.1416531     0.126578 -67.44 0.0001813066    1.025    0.024
        81 -12.2703     19.4656     59.0378   5.4442360895e+01   6.5695331396e+01    0.7903157    0.4213223  -3.47  0.003267274    2.542    0.607
        82 -10.0710     66.5338     58.0519   3.0323682077e+01   5.8714080180e+01    0.3038513    0.1892268  77.62   0.00104737    3.506    0.715
        83  -9.9052     28.9324     57.2718   4.8407666810e+01   6.5072009363e+01    0.2327449    0.1503461 -16.83 0.0008978323    1.923    0.480
        84  -9.7850    114.4746     60.9575   1.5975225529e+01   4.7397084167e+01    0.2210983    0.1940225  60.74 0.0003544978    1.118    0.105
        85  -9.0005     45.4552     56.5050   3.9293348725e+01   6.2880201703e+01    0.1421238    0.1368233  -8.43 0.0001573284    1.009    0.009
        86  -8.7753     79.3621     55.3063   2.4367410939e+01   5.6556383893e+01    0.1536222    0.1162738  14.42 0.0007038965    1.737    0.424
        87 -10.0116     88.6255     52.8190   2.0295370420e+01   5.4926614472e+01    0.2420581    0.1903092  44.54 0.0005191278    1.258    0.205
        88 -10.4812    149.4946     51.5201   5.8474613811e+00   4.0476473109e+01    0.2455121    0.1406999 -20.73  0.001038356    2.352    0.575
        89  -9.9151    112.1880     50.8827   1.3048829208e+01   4.9640631886e+01    0.2808834     0.174592  36.28 0.0007173016    2.039    0.509
        90  -9.5959     63.8591     50.7402   2.8507055263e+01   6.0697856553e+01    0.2530398    0.1625965   4.87 0.0009608309    2.886    0.653
        91 -10.8596     15.2461     49.8764   5.4206358237e+01   6.8284732282e+01    0.3710719    0.2156732 -77.61  0.001682291    2.204    0.546
        92 -10.7657    124.8686     59.8102   1.3152767822e+01   4.5097207310e+01     0.229166    0.2215261 -77.77 0.0003316461    1.048    0.046
        93  -8.9670    122.6601     49.2855   1.0127176290e+01   4.7328447281e+01    0.1509576      0.10722 -75.55 0.0005287772    1.635    0.388
        94 -11.5850     94.0589     48.6041   1.7014726487e+01   5.4381535587e+01    0.2474551    0.2272259 -42.26 0.0002329589    1.133    0.117
        95 -10.6451      4.6101     47.9969   6.0668572403e+01   6.9560233797e+01    0.2826061    0.1320049 -52.46  0.001303627    1.818    0.450
        96 -11.6068    249.1403     45.4002   3.5387926055e+02   2.0928689974e+01    0.3628683    0.1888694 -43.09  0.001586112    1.386    0.279
        97  -9.0524    157.3378     45.3041   2.8111178179e+00   3.9504188080e+01    0.1337349    0.1057265  32.79 0.0005632472    1.671    0.402
        98 -11.1538     39.6670     43.3438   3.6933487476e+01   6.6589364914e+01    0.4911619    0.2857221  27.89  0.002174118    1.805    0.446
        99  -9.6757     31.6971     43.6043   4.1596090785e+01   6.7750868763e+01    0.2609648    0.1314731  25.64  0.001073635    2.120    0.528
       100 -10.1209    185.9699     41.4656   3.5824817918e+02   3.3509834195e+01    0.2091461    0.1758369 -19.42 0.0006327164    1.437    0.304
       101 -10.3362    119.0735     41.2544   8.0937512371e+00   4.9407876740e+01    0.2898587    0.2436882   1.80   0.00154901    1.518    0.341
       102  -9.1241    212.5281     40.4788   3.5553337565e+02   2.8137969094e+01    0.1255272   0.09606742 -55.41 0.0008091634    1.048    0.046
       103 -10.5557    158.8765     39.3806   8.7349821987e-01   3.9939432752e+01    0.2453773    0.1999096 -52.78 0.0003125773    1.123    0.110
       104  -9.5269      1.3885     40.0140   6.0664868271e+01   7.1640157340e+01    0.1903155     0.117104 -66.08 0.0004885162    1.565    0.361
       105  -9.1603     57.3373     39.2686   2.6296622236e+01   6.4128157689e+01    0.1428954    0.1068481  15.51 0.0002822419    1.596    0.373
       106 -10.4515    217.9534     38.2800   3.5460156939e+02   2.7353305101e+01     0.164137    0.1352737 -61.29 0.0005345026    1.077    0.071
       107  -9.4468     96.1093     38.1126   1.2307834229e+01   5.5533034635e+01    0.1899391    0.1616277 -85.92 0.0003923356    1.247    0.198
       108  -9.7769     64.4493     38.4827   2.2919058157e+01   6.2786897433e+01    0.2609046    0.1342521  59.68  0.001033292    2.377    0.579
       109  -9.9531     47.2816     35.9375   2.9470998157e+01   6.6671510620e+01    0.2282604    0.1910235 -51.13 0.0003236344    1.338    0.252
       110 -10.5304     51.8503     32.9223   2.5756285346e+01   6.6315101313e+01    0.2714083    0.2134236  23.62 0.0004119779    1.314    0.239
       111 -10.2562     48.5198     32.4636   2.7131986278e+01   6.7043109236e+01    0.2515694    0.1989799 -19.49 0.0005517907    1.363    0.266
       112 -10.5910     40.4259     35.8397   3.3033337193e+01   6.7918774700e+01    0.3696928    0.2068329  45.92  0.001239453    1.869    0.465
       113 -10.7244    189.8051     34.5245   3.5610078243e+02   3.3550060344e+01    0.3136495    0.1676072 -35.99 0.0009880426    1.667    0.400
       114  -9.6523    174.1632     34.8317   3.5775857129e+02   3.6975440253e+01    0.1630144    0.1579545  -4.56  0.001059472    1.308    0.235
       115 -10.6777    119.2314     34.9754   5.8256218742e+00   5.0236538287e+01    0.2460158    0.1916813  61.48 0.0003213047    1.228    0.186
       116 -10.3123     30.3137     32.9989   3.7566885127e+01   7.0090859520e+01    0.4663745    0.2346561  52.01  0.001852346    3.025    0.669
       117  -9.5196    153.7384     31.9640   3.5935293788e+02   4.2109216850e+01    0.1867371    0.1618219 -66.28 0.0004121143    1.033    0.032
       118 -10.6982     92.4532     31.2075   1.0444818774e+01   5.7401452090e+01    0.2525449    0.2228148  68.88  0.000279358    1.066    0.062
       119  -9.8027     80.2403     32.0099   1.4316427153e+01   6.0230287202e+01    0.2625361    0.1280498  31.26 0.0008856987    3.520    0.716
       120 -10.2138     17.9059     31.1978   4.5039549742e+01   7.2122054028e+01    0.2116938    0.1801518 -41.11  0.000457424    1.161    0.139
       121 -10.4104      4.5767     31.5205   5.5323554060e+01   7.3348068017e+01    0.3511805    0.1634935  37.77  0.001220209    2.472    0.595
       122 -10.9814     59.2322     28.0237   2.0012749079e+01   6.5566593888e+01    0.4488614    0.2884613 -17.73  0.001564084    1.959    0.490
       123 -10.1568    129.0175     28.9250   1.9539961744e+00   4.8558705648e+01    0.2072957    0.1816253 -87.52 0.0003717466    1.039    0.037
       124  -9.8340     65.2332     28.8410   1.8030878168e+01   6.4133987540e+01    0.2674669    0.1634482  30.82  0.001211855    1.950    0.487
       125  -9.8798    103.9098     28.1833   6.4406202518e+00   5.4956308631e+01    0.2070393     0.177217 -85.42 0.0003132825    1.164    0.141
       126 -11.3206     47.1817     26.6919   2.4789853407e+01   6.8251337275e+01    0.3037843     0.241156   3.82 0.0002070056    1.401    0.286
       127 -10.4042    160.5428     27.0670   3.5708742429e+02   4.1075192553e+01    0.2444718    0.1813202  83.24 0.0004362644    1.276    0.216
       128 -10.4417     88.2383     25.1190   8.9433472177e+00   5.9229024112e+01    0.2652191    0.1785922 -51.73  0.001315648    1.661    0.398
       129 -10.5125    110.8343     24.9357   3.7399066106e+00   5.3613141528e+01    0.2655302    0.1905286  76.30 0.0008479529    1.325    0.245
       130  -9.3928     83.3457     25.2541   1.0344884476e+01   6.0403558695e+01    0.1437656   0.09785888  37.48 0.0002187673    1.587    0.370
       131 -10.8373    240.0164     24.0523   3.5012442438e+02   2.4929905850e+01    0.2379239    0.1253543  71.13  0.001472945    2.176    0.540
       132  -9.9761    196.1087     23.6292   3.5285617584e+02   3.3480809920e+01    0.2219994    0.1871985  18.74  0.001421767    1.751    0.429
       133  -9.5747    128.9831     23.9932   2.6294523018e-01   4.9152241459e+01     0.203317    0.1542636  40.56 0.0003300279    1.558    0.358
       134 -10.7748    137.5771     22.5714   3.5854253269e+02   4.7169963698e+01    0.4635989    0.1295592  50.36  0.001429128    4.399    0.773
       135 -10.9668     98.4598     22.6077   5.3848048192e+00   5.6999193749e+01    0.2582417    0.2385431  70.96 0.0004811885    1.023    0.023
       136  -9.9341     43.6277     22.8757   2.4488430006e+01   6.9538449220e+01    0.2418039    0.1665773  34.97 0.0008092423    1.381    0.276
       137  -9.9877     38.4850     22.9181   2.7284671749e+01   7.0500260947e+01    0.1958278    0.1685302  31.52 0.0004494955    1.084    0.078
       138 -10.7319     19.4869     22.7494   3.9530067053e+01   7.3567461799e+01    0.3113434    0.1703165  18.90  0.000868382    2.035    0.509
       139 -10.4251      2.3584     23.3051   5.3754669756e+01   7.5276950452e+01    0.1903818     0.104833 -42.72 0.0006584266    1.612    0.380
       140  -9.6775    104.0473     20.4849   3.3325335461e+00   5.5838792373e+01    0.1933746    0.1834117 -62.89  0.000373441    1.105    0.095
       141 -10.5487     66.4564     20.7878   1.3537954196e+01   6.4962879838e+01    0.2409251    0.1940216  49.29  0.000315639    1.132    0.117
       142  -9.4089    159.4316     20.5188   3.5530174028e+02   4.2081908694e+01    0.1317908    0.1124263 -70.48  3.32291e-05    1.009    0.009
       143 -10.1903     84.1086     19.9839   7.7314354185e+00   6.0862526947e+01    0.3242844    0.1764031  69.68    0.0011062    1.865    0.464
       144 -10.5137    109.5109     18.8316   1.6290522765e+00   5.4641326898e+01    0.2568658    0.1850022  73.30  0.000818672    1.272    0.214
       145  -9.5645     48.5091     19.5118   2.0165199233e+01   6.9055729754e+01    0.1346621    0.1216733  30.15 -8.498877e-06    1.002    0.002
       146 -10.4258      1.4608    182.2254   7.6932735651e+01   3.4575153394e+01    0.3916756     0.118586 -84.73  0.001176112    3.216    0.689
       147  -9.4105    243.6765    180.3173   2.0235102894e+01   3.4259144951e+00   0.09838156   0.08109733 -45.83 0.0007019644    1.669    0.401
       148 -10.2726     85.7471     15.9101   5.4400393465e+00   6.0917238278e+01    0.3146571    0.1673402  62.62  0.001459672    1.675    0.403
       149 -10.8908     20.2910    174.8078   7.1149174847e+01   3.4883537472e+01    0.2886147    0.1770177  58.25  0.001331916    1.515    0.340
       150 -10.7769     21.4442    170.3374   7.0476083242e+01   3.5912330786e+01    0.2502609    0.2398029  69.68 0.0005522322    1.102    0.093
       151 -10.3281    224.3133    172.8569   2.1769522260e+01   6.7740193702e+00    0.2309584   0.08865599 -43.13 0.0009622715    2.514    0.602
       152  -9.9444     27.5184    158.9681   6.7630456875e+01   3.8288338964e+01    0.2115637    0.1330104 -79.76 0.0005669561    1.551    0.355
       153 -10.8669      3.0483    155.9301   7.5156067203e+01   4.1099894414e+01    0.3302469     0.171725 -75.80 0.0005945913    1.778    0.437
       154 -10.7254      8.8073    150.2190   7.2941220979e+01   4.2193833295e+01    0.1866156    0.1540596 -53.68 0.0006723237    1.307    0.235
       155 -10.3775     40.3786    147.7945   6.2193951024e+01   3.9909975254e+01    0.3081489    0.2157998  15.33  0.001019737    1.591    0.371
       156  -9.9095     11.3030    147.6203   7.1924524756e+01   4.2698283095e+01    0.1568138   0.08674622  59.93 0.0001538972    1.775    0.436
       157 -10.2320     24.8632    146.1580   6.7234670515e+01   4.1945731999e+01    0.2418838    0.2149623   0.32   0.00101562    1.289    0.224
       158  -9.1048     74.7267    143.9966   5.0325974504e+01   3.6324692704e+01    0.1830061    0.1326594 -62.23 0.0003697429    1.394    0.283
       159 -10.2209      7.1054    143.0812   7.2991749343e+01   4.4217053245e+01    0.2114556    0.1768392 -61.19 0.0007218142    1.227    0.185
       160 -11.1586     21.9935    141.3346   6.7721154351e+01   4.3508067508e+01    0.3259272    0.2668098  48.66  0.000742955    1.181    0.153
       161 -10.5683     18.4833    141.4422   6.8949197435e+01   4.3783037032e+01    0.2513027    0.1971102  58.67 5.405141e-05    1.217    0.178
       162 -11.2349      4.6689    137.1955   7.3397552606e+01   4.5961616675e+01    0.5327233     0.204382  49.28  0.002087198    2.546    0.607
       163  -9.7758    245.6816    138.3288   1.2456636958e+01   8.9982533413e+00    0.1108799   0.07844118 -52.88    0.0007047    1.684    0.406
       164 -10.3346     28.6068    138.1071   6.5045078122e+01   4.3765685611e+01    0.2459432    0.2129587   9.91 0.0004514917    1.287    0.223
       165  -9.1516     91.9676    137.7667   4.3757076351e+01   3.5095603451e+01    0.1948939    0.1267716  34.20 0.0001963169    1.533    0.348
       166 -10.8322     12.2186    137.4642   7.0769960745e+01   4.5359373296e+01    0.3522887    0.1485399  28.55  0.001457273    2.252    0.556
       167 -10.3287     11.4921    133.9691   7.0716090560e+01   4.6361440583e+01    0.2319087    0.2012686  28.04  0.000505927    1.223    0.182
       168  -9.7739    136.5887    133.7864   3.0710385303e+01   2.7831575962e+01    0.2065703    0.1390636 -56.73 0.0007459609    1.616    0.381
       169 -10.0579    108.7498    132.6381   3.7732577896e+01   3.3335413855e+01    0.4350277    0.1832963 -54.58  0.001532312    2.491    0.599
       170 -11.0108     18.5053    132.6102   6.8047109483e+01   4.6180865167e+01    0.3990021    0.1874678  41.22  0.001146607    2.047    0.511
       171 -10.3261    250.1880    127.4005   9.8647340236e+00   9.9310605785e+00    0.1280279    0.1113184  78.78 0.0009198281    1.702    0.413
       172 -10.1065      5.5419    125.6582   7.2164408865e+01   4.9030915844e+01    0.2599463    0.1193243 -72.67 0.0007942348    1.931    0.482
       173 -10.5628    135.1236    124.1862   2.8838447682e+01   3.0163674004e+01    0.2543628    0.2460146 -25.37 0.0005615436    1.026    0.025
       174 -10.3610     62.3651    120.7729   5.0037602053e+01   4.4273107823e+01    0.4002489    0.2424795  72.61     0.001521    2.431    0.589
       175 -11.0866     13.4799    117.1388   6.8247856517e+01   5.0816548519e+01    0.3175901    0.1972141 -42.11  0.001163884    1.729    0.422
       176 -10.6079      2.2134    118.0502   7.2783210886e+01   5.1303032953e+01     0.241046    0.1912231  42.20 0.0004804918    1.291    0.225
       177  -9.8293     55.8221    117.2483   5.1716811127e+01   4.6168814690e+01    0.2193634    0.1992644  63.99 0.0004514256    1.113    0.101
