#   1 NUMBER                 Running object number                                     
#   2 MAG_AUTO               Kron-like elliptical aperture magnitude                    [mag]
#   3 X_IMAGE                Object position along x                                    [pixel]
#   4 Y_IMAGE                Object position along y                                    [pixel]
#   5 X_WORLD                Barycenter position along world x axis                     [deg]
#   6 Y_WORLD                Barycenter position along world y axis                     [deg]
#   7 A_WORLD                Profile RMS along major axis (world units)                 [deg]
#   8 B_WORLD                Profile RMS along minor axis (world units)                 [deg]
#   9 THETA_WORLD            Position angle (CCW/world-x)                               [deg]
#  10 FWHM_WORLD             FWHM assuming a gaussian core                              [deg]
#  11 ELONGATION             A_IMAGE/B_IMAGE                                           
#  12 ELLIPTICITY            1 - B_IMAGE/A_IMAGE                                       
         1 -12.0100      8.9736     32.4652   9.6287951873e+01   7.1446396824e+01     0.230579    0.1605045  20.23  0.001070604    1.549    0.354
         2 -12.6515     85.0408     24.8787   4.8585431717e+01   6.1200250381e+01    0.4353266    0.2977057  89.52  0.001814907    2.361    0.576
         3 -12.7871    211.1920      9.5693   2.1675634462e+01   3.0554086146e+01    0.6753142    0.1498753 -43.53  0.002444373    3.404    0.706
         4 -11.6620     85.0349     10.5110   4.1201621902e+01   6.3160615016e+01    0.2662427    0.1931004 -45.10 0.0006053247    1.563    0.360
         5 -11.9445     67.2753      1.9847   4.2560115516e+01   6.8529111838e+01    0.2391914    0.1934933  60.45 0.0003503113    1.233    0.189
         6 -10.8639    139.5097    247.4505   8.4045091341e+01   9.3931367477e+00    0.1144892   0.07999934  24.08 5.359656e-05    1.020    0.019
         7 -11.1824    177.6791    249.7047   7.7080399031e+01   4.6227081776e+00     0.138674   0.09724844  30.06  0.001028918    1.337    0.252
         8 -16.7059     27.7365    146.4228   1.0196953574e+02   4.1434837048e+01     3.184976     2.636451  63.83   0.01835281    1.081    0.075
         9 -11.9421    177.8773    229.0395   7.4465572922e+01   6.9906097360e+00    0.1889418    0.1221805  23.77            0    1.145    0.127
        10 -13.3370    187.0907    226.7600   7.2444918357e+01   6.1207119674e+00     0.306428    0.1966525 -11.43  0.001096099    1.579    0.367
        11 -11.7868    231.9718    227.2971   6.4805165640e+01   8.1459779931e-01    0.1539197    0.1008044  12.20 0.0006585937    1.074    0.069
        12 -11.9713    138.1479    225.7021   8.1923368937e+01   1.2499373244e+01    0.2190689    0.1799998  22.29 0.0007557129    1.120    0.107
        13 -11.8002     88.2168    250.6828   9.4624596813e+01   1.4917923893e+01     0.329872   0.08535089  26.68  0.001327952    3.413    0.707
        14 -17.3674     91.2562    194.3487   8.8940648327e+01   2.3876386179e+01     2.572844     1.734663 -74.16   0.01475763    1.917    0.478
        15 -11.3864    144.5881    224.5974   8.0460769318e+01   1.1821052636e+01    0.1841943    0.1090295 -37.50 0.0006223836    2.075    0.518
        16 -13.0427    150.3921    228.4420   7.9746730713e+01   1.0544354118e+01    0.3375938    0.2381655   1.71  0.001360905    1.438    0.305
        17 -12.1677    159.4737    222.3270   7.7156921325e+01   1.0193737151e+01    0.2399662    0.1580688  38.05  0.001212635    1.459    0.315
        18 -12.0703    105.0170    220.4241   8.8467564729e+01   1.7555082728e+01    0.4606534    0.1896697  30.85  0.002288116    1.849    0.459
        19 -13.5007    172.8049    219.8603   7.4203428372e+01   8.7822977203e+00    0.3389884    0.2045242  15.26  0.001601003    1.444    0.307
        20 -12.8005    153.0852    220.2286   7.8174928426e+01   1.1317653112e+01    0.1846856    0.1576796   3.43 0.0006061483    1.211    0.174
        21 -11.0286    243.7112    219.3455   6.1807509109e+01   3.1267823189e-01   0.08667524   0.07433844   1.10 0.0007024075    1.655    0.396
        22 -12.0353    193.5898    218.8862   7.0154392028e+01   6.2434513917e+00    0.1745031     0.137295 -22.33  0.001185129    1.466    0.318
        23 -11.6883    138.0139    218.2098   8.1052527632e+01   1.3603692040e+01    0.3529684    0.1275279  33.29    0.0010981    2.101    0.524
        24 -12.1823    144.9332    216.3502   7.9362214294e+01   1.2952453063e+01    0.2149863     0.166191  41.07 0.0009766695    1.376    0.273
        25 -11.9862    138.4989    207.9303   7.9643860583e+01   1.5089760682e+01    0.3506121    0.1476742  30.54  0.001466222    1.910    0.477
        26 -12.9865    141.8162    211.5896   7.9407888259e+01   1.4077141077e+01    0.5446393    0.2529394  33.60  0.002825713    1.680    0.405
        27 -14.0293    147.1827    203.6063   7.7184919582e+01   1.4540312474e+01    0.4897938    0.3453649 -19.89  0.002986043    1.628    0.386
        28 -11.6976    129.8629    216.3512   8.2570881494e+01   1.4967271286e+01    0.1746716     0.163665  44.65 0.0006308442    1.337    0.252
        29 -13.6823    124.8950    212.1160   8.3148520862e+01   1.6291346428e+01    0.5514207     0.357303   4.53  0.003097774    1.852    0.460
        30 -13.1041    125.1309    205.3192   8.2261559604e+01   1.7352300140e+01    0.4739899    0.2816062   6.28  0.001758383    2.249    0.555
        31 -13.5329    184.0950    213.2626   7.1109927401e+01   8.1515171176e+00    0.3081696    0.1956412   8.10  0.001928832    1.439    0.305
        32 -13.5275    160.5724    206.8076   7.4824273797e+01   1.2195263972e+01    0.3786978    0.2233278  10.70  0.002061075    1.823    0.452
        33 -12.7266    157.1925    213.6066   7.6461732874e+01   1.1693999705e+01    0.2840306    0.1779113  11.61  0.001151753    1.558    0.358
        34 -13.9936    153.7577    211.3042   7.6856840888e+01   1.2487947747e+01    0.5088859    0.3256079 -12.47  0.002374382    1.899    0.473
        35 -11.6529     25.1344    209.8315   1.0598431987e+02   2.8203205535e+01    0.2050105    0.1499786  41.90  0.001438903    1.053    0.050
        36 -12.5004    229.4686    206.7843   6.2144207010e+01   3.2067137815e+00    0.2362537    0.1702953 -16.62  0.001394914    1.339    0.253
        37 -11.7875    219.7231    206.1479   6.3655187268e+01   4.4561429447e+00    0.2087882    0.1247712  20.91 0.0007224412    1.333    0.250
        38 -13.4099    169.1650    205.3108   7.2862312124e+01   1.1216673444e+01    0.2862909    0.1945135  41.26  0.001196786    1.591    0.372
        39 -11.2500     18.8117    205.0532   1.0726771847e+02   2.9646012059e+01    0.2064188    0.1325043  78.16  0.001356178    1.539    0.350
        40 -11.0492    247.3193    205.6657   5.9174885653e+01   1.2613767045e+00   0.08851135    0.0782314  -1.80 0.0007049107    1.699    0.411
        41 -10.9777    237.1708    205.1435   6.0657836823e+01   2.4736664520e+00    0.1338631    0.1045212  10.49 0.0002849925    1.273    0.214
        42 -12.2838    133.6295    204.0860   8.0205862452e+01   1.6370344100e+01    0.3563529    0.1496381  43.29  0.001619059    2.320    0.569
        43 -13.2276    134.1865    198.3506   7.9310811324e+01   1.7217189191e+01    0.3537745    0.2369935  11.19 0.0006335161    1.558    0.358
        44 -11.8629    141.3022    202.1357   7.8254653262e+01   1.5598526312e+01    0.1657161    0.1428309  14.75  0.001011579    1.116    0.104
        45 -11.0861     13.3043    201.7850   1.0844203782e+02   3.0720365494e+01    0.3015952   0.07382154  37.08  0.001405766    2.438    0.590
        46 -12.0173    212.7368    201.1998   6.4071197793e+01   5.9014439406e+00    0.3197784    0.1721335  34.29   0.00192237    1.712    0.416
        47 -12.3483    121.2933    200.7233   8.2552461573e+01   1.8647168349e+01    0.2277454    0.1646456  27.22 0.0004347437    1.119    0.106
        48 -13.7973    123.8716    196.6693   8.1433019079e+01   1.8970328271e+01    0.4444057     0.341352 -27.99  0.002738663    1.540    0.351
        49 -18.4499     69.0783    193.6586   9.4380328880e+01   2.6788791142e+01     4.342611     3.650117  59.17   0.02884579    1.176    0.150
        50 -12.9466    225.4010    198.9482   6.1570834917e+01   4.5606305420e+00    0.2798524    0.2088764 -25.51  0.001426734    1.515    0.340
        51 -14.2846    190.2290    195.4505   6.7232727953e+01   9.6281125729e+00    0.4988923    0.2928282  38.81  0.002570458    1.712    0.416
        52 -12.8956    132.3299    191.9468   7.8838789544e+01   1.8548655747e+01    0.3671025    0.1777999 -44.96  0.001450404    2.427    0.588
        53 -14.1393    140.1670    196.3113   7.7690173386e+01   1.6686619799e+01    0.4712467    0.2625353  26.79  0.001751575    1.526    0.345
        54 -11.4524     16.4584    197.8705   1.0757971226e+02   3.1226616973e+01    0.2128381    0.1394507  26.43  0.001373053    1.395    0.283
        55 -13.2008    151.8625    197.0583   7.5242834698e+01   1.4874431427e+01     0.211723     0.184719 -56.21 0.0006658349    1.619    0.382
        56 -11.0538    245.1262    196.1284   5.7991844373e+01   2.4861763105e+00    0.1340305    0.1069905  -4.55 0.0002556465    1.304    0.233
        57 -10.7256    238.4707    196.5585   5.9086873264e+01   3.2279151249e+00    0.1113828   0.07986351   3.61 0.0001035226    1.012    0.012
        58 -11.8596    157.2183    198.1921   7.4270579507e+01   1.3929697172e+01    0.1652059    0.1311285  37.15 0.0004402777    1.309    0.236
        59 -14.2314    166.1600    193.9282   7.1756439162e+01   1.3270034623e+01    0.5179707    0.2752365  41.44 0.0004441553    1.864    0.464
        60 -13.6850    159.2529    190.7682   7.2711455865e+01   1.4757705732e+01    0.3570903    0.2545074 -52.80  0.002086974    1.967    0.492
        61 -12.5969    212.7510    194.3444   6.2965960898e+01   6.7144180164e+00    0.2457522    0.1933416 -43.08 0.0009866527    1.985    0.496
        62 -12.3165    135.7532    193.5782   7.8291054188e+01   1.7775199652e+01    0.2711532    0.1465142  38.40 0.0009279845    1.582    0.368
        63 -11.8452    136.8581    241.4992   8.3946814320e+01   1.0488137821e+01    0.3776784    0.1520637 -48.62  0.002040289    3.278    0.695
        64 -11.2227      1.5626    191.4490   1.1094793529e+02   3.3619115850e+01    0.1168266   0.08439427  51.55 0.0008043306    1.061    0.058
        65 -13.3510    173.6972    189.1420   6.9455616053e+01   1.2867354618e+01    0.2444694     0.190167  34.71  0.001553046    1.314    0.239
        66 -12.4310    110.9635    189.1590   8.3500449180e+01   2.2134925007e+01    0.2109003    0.1864907 -84.02  0.001347037    1.447    0.309
        67 -12.6881    179.8985    189.1435   6.8213840330e+01   1.1960011668e+01    0.1848682    0.1565408  25.55 0.0009584765    1.248    0.199
        68 -11.3351    143.3367    188.3042   7.5807902751e+01   1.7523178815e+01    0.1332917     0.090206   4.63 0.0002647097    1.669    0.401
        69 -14.4192    126.9109    185.7040   7.9205036173e+01   2.0426133454e+01    0.6824223    0.4169775   4.49  0.003214527    2.293    0.564
        70 -13.6569    144.6958    180.8635   7.4346413731e+01   1.8553694638e+01    0.3655131    0.2348493 -34.79  0.001377598    1.766    0.434
        71 -15.9641    139.0693    170.2194   7.3909228019e+01   2.1285757236e+01      1.04549    0.7280151 -45.45  0.005638604    1.652    0.395
        72 -12.5822    139.6931    182.5602   7.5754975914e+01   1.9036730728e+01    0.3076485    0.1832702  23.97  0.001077702    1.548    0.354
        73 -11.6729    248.1468    186.1730   5.5900189907e+01   3.1761050837e+00    0.1712586    0.1125555   2.49  0.000582924    1.190    0.160
        74 -13.3332    186.5030    185.7599   6.6361042309e+01   1.1471553597e+01    0.3800465    0.1792459  38.11 0.0005130923    1.951    0.487
        75 -10.5366     18.8906    185.3243   1.0653025512e+02   3.3549272484e+01    0.2670769    0.1082768  68.90    0.0012753    2.463    0.594
        76 -11.6288    213.2693    184.4400   6.1223462729e+01   7.8545131751e+00    0.1556484    0.1006029  37.42 0.0009517677    1.645    0.392
        77 -11.6911    148.6311    184.2541   7.3999507188e+01   1.7386641713e+01    0.1643921    0.1170877 -27.92 0.0009376825    1.566    0.362
        78 -13.6706    178.1046    182.1632   6.7412789518e+01   1.3227273418e+01    0.4174351    0.2210995  13.31  0.001918147    2.406    0.584
        79 -14.2999    117.6420    178.9655   8.0463137680e+01   2.3036758521e+01       0.6155    0.3988321  27.66  0.002590826    1.348    0.258
        80 -14.2163    154.4856    178.3986   7.1755509054e+01   1.7439025776e+01    0.4668931    0.2920292 -19.42  0.002391507    1.969    0.492
        81 -11.6239     23.9863    181.4062   1.0506211853e+02   3.3937838623e+01    0.3114526    0.1201815  22.73  0.001443255    2.397    0.583
        82 -11.4915      9.9765    181.2281   1.0863370405e+02   3.5092200896e+01     0.248695    0.1342552 -12.60  0.001189067    3.219    0.689
        83 -12.6570    159.0119    178.4779   7.0778980701e+01   1.6719367007e+01    0.2670156    0.1120244  30.85  0.001043002    2.170    0.539
        84 -13.4399    121.0346    151.0572   7.5063073774e+01   2.7913489924e+01    0.3594023    0.2295934  24.52  0.001710452    1.573    0.364
        85 -13.1205    122.7046    171.0048   7.8005036607e+01   2.3750197589e+01    0.3606961    0.2544315 -63.77  0.001564026    1.866    0.464
        86 -14.4083    123.5637    159.8922   7.5963397471e+01   2.5741741365e+01    0.6435579    0.4285673 -84.76  0.001557069    2.883    0.653
        87 -13.0468    118.9473    170.5902   7.8879021528e+01   2.4417067443e+01     0.373332    0.2330422 -34.80  0.001853796    1.957    0.489
        88 -13.8053    116.5979    166.2722   7.8796788502e+01   2.5620081982e+01    0.3931139    0.3234677 -78.82  0.002228333    1.594    0.373
        89 -13.2234    121.7762    165.6537   7.7379933159e+01   2.4916673459e+01    0.4440868    0.2378564  36.09  0.001785943    1.607    0.378
        90 -14.7388    127.2390    173.1576   7.7228913281e+01   2.2636942347e+01    0.7550804    0.2904274 -46.07  0.003089672    2.952    0.661
        91 -14.7723    129.2495    167.5636   7.5832145705e+01   2.3353787823e+01    0.6287648    0.4119993  51.31  0.003167862    1.728    0.421
        92 -12.7711    191.0914    177.3524   6.4038876773e+01   1.1965734570e+01    0.2139138    0.1542101 -10.92 0.0009680502    1.315    0.239
        93 -11.3096     14.9998    177.0643   1.0720471910e+02   3.5586121068e+01    0.2514747    0.1017124  57.99   0.00122435    2.145    0.534
        94 -11.1259    197.8751    242.8409   7.2635153445e+01   3.0479591276e+00     0.138568   0.09509338  25.71 0.0003897038    1.287    0.223
        95 -11.0244     20.4889    175.5235   1.0570385224e+02   3.5477058900e+01    0.1204332    0.1017696  51.42 -4.056547e-05    1.043    0.041
        96 -13.5741    175.0558    173.1176   6.6469206781e+01   1.5042859808e+01    0.2846995    0.2228624 -53.68  0.001669049    1.858    0.462
        97 -13.3545    171.4853    168.9793   6.6470473090e+01   1.6247834042e+01    0.3169691    0.1724556  34.65  0.001441344    1.626    0.385
        98 -13.6156    167.5714    167.7457   6.7073098227e+01   1.7074323633e+01    0.4842047    0.2602967   9.49   0.00155675    3.041    0.671
        99 -11.9408     31.7221    172.3083   1.0252510695e+02   3.5197393860e+01    0.2575986     0.138313  43.12  0.001067455    1.520    0.342
       100 -11.5835     27.1800    171.6287   1.0371841359e+02   3.5751804929e+01    0.2883791    0.1143734  19.96  0.001275326    2.546    0.607
       101 -13.7033    159.8617    169.0155   6.8964437724e+01   1.8119858135e+01    0.4339233    0.2248546 -41.99  0.002018749    2.142    0.533
       102 -14.8244    153.5366    168.1075   7.0208269989e+01   1.9301712376e+01    0.5692009    0.4238077 -11.98  0.003198148    1.461    0.316
       103 -14.4175    158.1951    158.1767   6.7353732011e+01   2.0213079610e+01    0.4709369    0.3615682 -22.26  0.001636899    1.360    0.265
       104 -10.9987      1.5272    171.5214   1.1053417163e+02   3.7725632247e+01    0.1156589   0.09728803  56.55  6.90306e-05    1.057    0.053
       105 -13.1999    199.9845    166.0059   6.0326592210e+01   1.2199282540e+01    0.3946431    0.2214985  55.47  0.001689892    3.619    0.724
       106 -10.8317    174.5663    243.5181   7.6911152031e+01   5.6829838157e+00    0.1120888   0.07793187  17.71 0.0001688406    1.016    0.016
       107 -13.0022      3.7108    153.5552   1.0946132672e+02   4.1538915215e+01    0.4015093    0.2518179  72.64  0.001905773    1.413    0.292
       108 -10.1895      5.6923    166.3101   1.0929791459e+02   3.8574595156e+01    0.2179689    0.1550109  24.66  0.001387365    1.386    0.278
       109 -12.0761      3.1631    162.0742   1.0986093089e+02   3.9669279695e+01     0.311197    0.2238412 -87.58  0.002003152    1.365    0.267
       110 -11.9902    205.1678    164.8295   5.9166297959e+01   1.1570055353e+01    0.1774453    0.1237826   7.26 0.0004373718    1.319    0.242
       111 -12.3944    116.2020    240.1879   8.8010252935e+01   1.3178226683e+01    0.2206228    0.1380299  27.97 0.0005485796    1.172    0.147
       112 -14.0693    171.0070    160.6408   6.5036399941e+01   1.7646411496e+01    0.3898747    0.3135337  41.17  0.002307192    1.343    0.256
       113 -13.4253    135.9723    185.7790   7.7101774678e+01   1.9053562658e+01    0.3611613    0.2848077 -81.04  0.001301578    2.023    0.506
       114 -12.0549     29.5173    177.9216   1.0344056545e+02   3.4189318717e+01    0.2963785    0.1516056  46.66  0.001590626    1.590    0.371
       115 -10.4063    146.2907    239.3161   8.1833358496e+01   9.6191751057e+00     0.111805   0.07211729   6.16 0.0003273071    1.595    0.373
       116 -11.9179     43.9380    161.0475   9.8285136749e+01   3.6510171140e+01    0.1961866    0.1675826  51.89 0.0003661019    1.016    0.016
       117 -13.2490     47.2751    158.0636   9.7050305295e+01   3.6837990632e+01     0.480667    0.2759175  31.77  0.002461347    1.532    0.347
       118 -12.4954    110.1394    131.0981   7.4238433522e+01   3.3991511652e+01    0.2307499    0.2083264  35.35 0.0003889278    1.024    0.023
       119 -14.7690    107.3349    122.7194   7.3309978536e+01   3.6334623888e+01    0.7604551     0.464606  25.07  0.003265832    1.812    0.448
       120 -15.0174    100.9633    120.3357   7.4730214427e+01   3.8018122757e+01    0.7792587    0.5234253 -69.15  0.003499441    1.881    0.468
       121 -15.3093    109.7163    149.4648   7.7820624373e+01   3.0137508298e+01    0.8202701    0.6985371  40.04  0.003842413    1.084    0.078
       122 -12.7314    105.6657    143.0033   7.7801173472e+01   3.2183896915e+01    0.3173185    0.2623362  51.60 0.0008263612    1.223    0.183
       123 -13.4228    101.1175    141.8453   7.8894540097e+01   3.3188435708e+01    0.3791504    0.3124885  45.18  0.001221361    1.148    0.129
       124 -12.0173    215.6388    158.7328   5.6192869021e+01   1.0801655321e+01    0.2287066    0.1305145  25.79  0.001255974    1.685    0.407
       125 -13.8721    115.1935    112.3365   6.8625385566e+01   3.7121271720e+01     1.246813    0.5385257 -38.93  0.004379536    2.785    0.641
       126 -16.0396    102.6784    133.1945   7.6830834616e+01   3.4834248730e+01     1.240853    0.7546255  54.50  0.005418329    1.898    0.473
       127 -12.0770    184.4114    156.2681   6.1459242114e+01   1.6100875122e+01    0.2066902    0.1578136  52.04 0.0005572295    1.716    0.417
       128 -11.0557    142.4619    239.0480   8.2563588384e+01   1.0125462580e+01    0.1365737    0.1108284 -30.93  0.001019367    1.563    0.360
       129 -12.5520    212.1689    153.9451   5.5870807523e+01   1.1968664486e+01    0.2160193    0.1937317  31.94 0.0006378902    1.386    0.278
       130 -14.5974    169.9972    151.0181   6.3392409073e+01   1.9381611191e+01    0.6116198    0.3206163  38.58  0.002304359    1.766    0.434
       131 -12.7384    170.1249    146.3485   6.2428645216e+01   2.0130978361e+01    0.2468947    0.1988047 -36.34 0.0006368534    1.345    0.257
       132 -13.8513     96.0472    135.9778   7.9325454467e+01   3.5322924014e+01    0.4478492    0.3330966 -81.55  0.001667958    1.709    0.415
       133 -13.3594    180.3185    150.9420   6.1234667239e+01   1.7614019389e+01    0.3141436    0.2688717 -88.83  0.001623271    1.991    0.498
       134 -14.5611    146.9787    148.9021   6.8156188602e+01   2.3803433854e+01    0.5914359    0.4421883  38.25    0.0010337    1.246    0.197
       135 -12.6059     65.4372    148.9379   9.0624641488e+01   3.6813712200e+01    0.2471006    0.1944496  34.93  0.001376895    1.154    0.133
       136 -13.3663    127.3223    147.1335   7.2694085048e+01   2.7613783980e+01    0.3680498    0.2079218  47.90   0.00162782    1.851    0.460
       137 -13.1028    156.0841    145.2007   6.5295325455e+01   2.2840258569e+01    0.3576274    0.1753806  36.24  0.001125922    1.891    0.471
       138 -14.5745    133.7672    148.4637   7.1302498511e+01   2.6222517336e+01    0.7553405    0.3886719 -31.99  0.003077517    2.562    0.610
       139 -10.6552    127.5504    235.5023   8.5203324877e+01   1.2452752877e+01    0.1178446   0.08619304  26.71 0.0001446563    1.005    0.005
       140 -12.1845    203.1051    143.1825   5.5326873075e+01   1.4922195008e+01    0.1997329    0.1520233   6.80 0.0004132169    1.216    0.178
       141 -12.7166    179.8386    243.8761   7.5986294418e+01   5.0208652488e+00    0.1962337    0.1594392  -4.35 0.0009258423    1.332    0.249
       142 -11.5292    151.1882    142.0273   6.5781101918e+01   2.4299204639e+01     0.222147     0.177168   4.46 0.0005715145    1.303    0.233
       143 -11.3110    224.5106    148.4078   5.2743021783e+01   1.0803980695e+01      0.21369    0.1644644 -54.05  0.001266902    2.134    0.531
       144 -17.6310     55.8205    117.8349   8.9410050701e+01   4.5549117531e+01     5.153587     2.339951  33.67   0.02057151    2.010    0.502
       145 -11.7152    143.8750    140.8358   6.7284093109e+01   2.5860049066e+01    0.2179756    0.1804891   9.72 0.0004648291    1.208    0.172
       146 -12.4658    139.8599    140.9073   6.8285181825e+01   2.6582203889e+01    0.2243208    0.1817272  11.88  0.000550943    1.253    0.202
       147 -12.2555    168.8208    138.3178   6.1041784758e+01   2.1711896417e+01    0.2064674     0.167015  49.89 0.0004235391    1.413    0.292
       148 -12.5804    124.3946    137.7941   7.1636468395e+01   3.0016413213e+01    0.2143125    0.1723852   9.35 0.0004427414    1.343    0.255
       149 -12.4091    160.0739    135.7175   6.2410567945e+01   2.3784575678e+01    0.3311177    0.1850578 -23.33   0.00139349    2.316    0.568
       150 -12.1082    196.5078    135.4940   5.4928706059e+01   1.7173650077e+01    0.2365972    0.1146835 -44.11  0.001008854    2.423    0.587
       151 -12.6619    139.5197    134.8147   6.7102220008e+01   2.7816980163e+01    0.4434956    0.2204178  29.18  0.001745883    2.239    0.553
       152 -11.6585    138.0252    131.0081   6.6661390415e+01   2.8839537446e+01    0.2320011    0.2241093 -68.34 0.0005257694    1.216    0.177
       153 -10.4919    246.6568    135.2410   4.6862394379e+01   9.1425634088e+00   0.09753793   0.08959812 -43.45 0.0003880214    1.561    0.360
       154 -10.9833    204.4999    134.4031   5.3263017513e+01   1.5946029130e+01    0.1298034    0.1110907   2.80 0.0008025373    1.020    0.019
       155 -13.4016    118.7129    133.0788   7.2221508146e+01   3.2024537872e+01    0.3230072    0.2663066 -57.85  0.001700793    1.379    0.275
       156 -14.0899    123.8770    129.6335   7.0081761529e+01   3.1791160643e+01    0.6109856    0.3763183  64.19  0.002318437    2.609    0.617
       157 -13.2743    121.2673    124.1290   6.9602680906e+01   3.3432301631e+01    0.4536558    0.2639108  53.09  0.001888233    1.986    0.496
       158 -12.7468    120.0047    120.2531   6.9087166953e+01   3.4491998777e+01    0.2733905    0.2579647 -74.80 0.0007152605    1.202    0.168
       159 -14.1591    157.8354    127.4220   6.1095863459e+01   2.5689944305e+01    0.6077161    0.5382307  79.22  0.002650764    1.508    0.337
       160 -11.6445    190.1944    122.6632   5.3305414263e+01   2.0270543516e+01    0.3954726    0.2817163  81.48   0.00175748    2.949    0.661
       161 -15.4133     85.8096    233.7790   9.3859877073e+01   1.7741697191e+01      1.99676    0.5020109  35.15  0.008826392    2.544    0.607
       162 -10.9905    205.3241    122.3396   5.0525746564e+01   1.7540486166e+01     0.139405   0.09344166   6.15 0.0007051089    1.724    0.420
       163 -11.4089    220.8648    120.8551   4.7678225809e+01   1.5028036269e+01    0.1648393    0.1436725 -38.39 0.0004879082    1.329    0.247
       164 -17.3150     60.4773    227.1285   9.8908817445e+01   2.1649668458e+01     3.979963     1.305688  43.69   0.01956927    2.231    0.552
       165 -10.7850    250.5202    119.4828   4.3210972890e+01   1.0442974190e+01    0.1182773   0.09423391 -14.13 0.0001697055    1.016    0.016
       166 -13.2320    152.7292    129.2415   6.2684333307e+01   2.6348911141e+01    0.5361961     0.354706  17.69  0.002470907    1.797    0.444
       167 -13.3684    105.3607    114.6133   7.2109287121e+01   3.8503730416e+01    0.3608031     0.317386  14.57 0.0007090761    1.184    0.155
       168 -12.9081    108.5074    111.4999   7.0422984304e+01   3.8601384522e+01    0.2923373    0.2605637  61.22  0.001112123    1.197    0.165
       169 -14.7314     82.8758    113.8001   7.9201185407e+01   4.2643898405e+01    0.5094394    0.4945961  87.91  0.002568085    1.068    0.064
       170 -13.9094     88.6520    110.2158   7.6482025874e+01   4.2526015768e+01    0.4205239    0.3022068 -35.76  0.001374219    1.595    0.373
       171 -13.3744     92.3136    107.3610   7.4609153818e+01   4.2552766507e+01    0.3055278    0.2463313  -5.71  0.001011388    1.516    0.340
       172 -11.0421    134.0504    127.4800   6.6907610331e+01   3.0297180008e+01     0.212798    0.1373524  38.32 0.0003087899    1.442    0.307
       173 -14.4429    111.9487    156.4870   7.8417773699e+01   2.8318890098e+01    0.6915844    0.4585068  -2.55  0.003072055    2.221    0.550
       174 -11.2817    157.3818    234.1674   7.9051546200e+01   8.9088399682e+00    0.1503242    0.1200919  18.36  0.001110297    1.140    0.123
       175 -13.1088    164.8311    110.7761   5.5627770308e+01   2.7237120141e+01    0.4343797    0.2500264 -53.15  0.001814294    2.311    0.567
       176 -13.8492     14.1844    106.5113   1.0360566931e+02   5.2288940512e+01    0.4462355    0.3999506 -72.06  0.002806342    1.105    0.095
       177 -11.8071     18.9921    105.6035   1.0167362661e+02   5.2214590749e+01    0.4475702    0.1770128 -71.21   0.00166809    2.273    0.560
       178 -11.5969    109.5857    103.8340   6.8217016387e+01   4.0082476651e+01     0.257231    0.2170909  80.98  0.001267672    1.449    0.310
       179 -14.0802    105.5698    104.0257   6.9511391871e+01   4.0831469911e+01    0.5477876    0.4636729  79.97  0.001829808    1.424    0.298
       180 -11.3218    217.5177    105.9286   4.4903374067e+01   1.7640345358e+01     0.203748    0.1151588 -27.22  0.001032873    1.612    0.380
       181 -11.4455    174.9508    106.4718   5.2458907624e+01   2.5874850913e+01    0.2025184    0.1371301  45.28 0.0003219738    1.477    0.323
       182 -13.2023     65.4720     95.1874   8.1521117992e+01   4.9926287082e+01    0.4859667    0.2409187  27.77  0.001273596    2.084    0.520
       183 -14.8215     88.2613    100.7482   7.4416026140e+01   4.4829961066e+01    0.9498863    0.4667131  26.48  0.003452766    2.461    0.594
       184 -15.5512     76.4884     98.4570   7.8082539230e+01   4.7398908821e+01     1.396814    0.7363333  37.80  0.005777072    1.804    0.446
       185 -11.7730     60.1611     96.0787   8.3806475828e+01   5.0464805721e+01     0.252948    0.2143258  27.95 0.0004003365    1.182    0.154
       186 -12.8446     60.3456     92.1193   8.2876381819e+01   5.1436254055e+01    0.3886311    0.3404642  41.52  0.001904057    1.125    0.111
       187 -10.4829    230.2864    104.7037   4.2791122581e+01   1.5537988126e+01    0.1168769   0.09096322 -49.97 0.0001741717    1.548    0.354
       188 -13.4867      2.2208    102.0329   1.0791059271e+02   5.4029829764e+01    0.4730076    0.2035878 -85.75  0.002128412    2.114    0.527
       189 -15.3738    112.7245    141.1841   7.5482565762e+01   3.1374812241e+01    0.9907885    0.6706129  70.21  0.004372369    2.239    0.553
       190 -11.8718    178.8944    100.1552   5.0112560979e+01   2.6085820940e+01    0.2042986    0.1934898 -66.02 0.0004298266    1.237    0.191
       191 -11.7316    237.5584     98.7731   4.0527247104e+01   1.5040206936e+01    0.1893893    0.1690096  35.54 0.0003995376    1.275    0.216
       192 -10.7286    102.4414    234.4749   9.0361861623e+01   1.5674666349e+01     0.117205   0.08759455  27.68 0.0004320478    1.064    0.060
       193 -11.9095    132.5335    232.0584   8.3806964751e+01   1.2314914472e+01    0.2735284    0.1301593  28.89 0.0009879834    1.579    0.367
       194 -13.2167     98.2586     96.0175   6.9819026644e+01   4.4059523755e+01    0.3658469    0.2680413   1.27  0.001171734    1.888    0.470
       195 -10.7684    121.5398    235.4489   8.6440733966e+01   1.3203619038e+01    0.1181387   0.08629367  23.86 -2.398754e-05    1.077    0.072
       196 -11.4076    107.3138     96.3108   6.6965740923e+01   4.2192929932e+01    0.1564504    0.1221162  -1.03 0.0002570816    1.632    0.387
       197 -12.0587     38.9927     95.5403   9.2332163238e+01   5.3143446945e+01    0.2882048    0.2237209  24.33  0.001207508    1.321    0.243
       198 -13.0823     34.8378     94.1018   9.3844036470e+01   5.3920312881e+01    0.4055201    0.2410432  -9.84  0.001747539    2.288    0.563
       199 -14.1289     73.1029     88.5563   7.6952714663e+01   5.0366513483e+01     0.555689    0.3657971  75.44  0.002261107    2.311    0.567
       200 -14.1501     66.1595     86.5547   7.9211173229e+01   5.1966283797e+01    0.5846414    0.3552018 -53.85  0.002519859    1.639    0.390
       201 -14.0380     62.3229     82.9736   7.9898520293e+01   5.3435714072e+01    0.5365234    0.3583333 -64.23  0.002489951    1.565    0.361
       202 -13.3274     53.8171     84.9856   8.3995107658e+01   5.4129474739e+01    0.5836568    0.4454555  83.85  0.002896733    1.532    0.347
       203 -11.4498    214.0391     92.9471   4.2425450426e+01   2.0061555394e+01    0.2085218     0.148237   7.69  0.000683206    1.649    0.393
       204 -11.0670    196.4962     92.4641   4.5041773228e+01   2.3614188727e+01    0.1360121    0.1257044 -13.85 0.0001329879    1.014    0.013
       205 -11.6220    183.1724     91.8437   4.7201260043e+01   2.6498425406e+01    0.1987094    0.1626666  10.83 0.0008888401    1.312    0.238
       206 -12.6793      2.6819     90.9262   1.0709970404e+02   5.6829240150e+01    0.2405648    0.2083798  80.25 0.0003184875    1.057    0.054
       207 -12.9270     58.5078    100.0431   8.5267315406e+01   4.9689201751e+01    0.3952803    0.3386031  36.65   0.00101896    1.142    0.125
       208 -11.2189     21.5284     91.3382   9.9134197675e+01   5.5722594626e+01    0.2112432    0.1265723  17.38 0.0006680501    1.771    0.435
       209 -12.4623    101.9669     89.4524   6.6805317956e+01   4.4794200314e+01    0.3143935    0.2002902 -89.09  0.001038245    3.509    0.715
       210 -12.6151     26.1784     89.7442   9.6918181733e+01   5.5794633184e+01    0.3596982    0.1849348  51.25   0.00158078    2.090    0.521
       211 -12.2169     11.8231     87.2919   1.0290798574e+02   5.7357682764e+01    0.4215153    0.1939296  86.99  0.001808781    2.243    0.554
       212 -12.1428      8.1076     89.6486   1.0471974472e+02   5.6930841592e+01    0.2595287   0.09971067  24.77   0.00109877    2.542    0.607
       213 -11.9211    171.0127     88.0331   4.8507994088e+01   2.9758425394e+01    0.2166125    0.2084656  -3.58 0.0003367214    1.012    0.012
       214 -11.7657    148.1768     87.8667   5.3383521451e+01   3.4944889904e+01    0.2198216    0.2058095  88.44 0.0003811623    1.204    0.170
       215 -12.4335    177.8452     86.9007   4.6896237048e+01   2.8428773112e+01    0.2302673    0.2180357   2.02 0.0003674732    1.022    0.021
       216 -12.3105     31.7441     87.4455   9.4136023698e+01   5.5929899637e+01    0.3308545    0.1427298  15.23  0.001295302    2.629    0.620
       217 -12.3202     86.4423     85.9585   7.1213918781e+01   4.8631306438e+01    0.3207826    0.1820155  67.05  0.001035528    3.462    0.711
       218 -10.7807     45.5891     86.4745   8.7875358137e+01   5.4769222952e+01    0.1408161    0.1360006 -75.08 6.347651e-05    1.015    0.015
       219 -11.0066    136.9917     85.4955   5.5445704490e+01   3.7940887231e+01     0.220735    0.1480069  48.03 -0.0001870393    1.451    0.311
       220 -13.6134    107.1006     80.8886   6.2633393988e+01   4.5572536380e+01    0.5543518    0.4168995 -75.07  0.002470102    1.806    0.446
       221 -11.0929    222.4778     82.0179   3.8680259348e+01   1.9894735749e+01    0.1881785    0.1130762 -28.90 4.507259e-05    1.470    0.320
       222 -12.4045    206.5075     81.5780   4.0782234472e+01   2.3112935132e+01    0.2687131    0.2255251 -55.62 0.0009862242    1.328    0.247
       223 -14.5831     75.4356     76.5678   7.2740834291e+01   5.2841536586e+01    0.7486998    0.6015292 -60.62  0.001967258    1.317    0.241
       224 -12.6807    152.6978     80.4072   5.0223298787e+01   3.5222428932e+01    0.3353334    0.2543084  37.39 0.0006496527    1.346    0.257
       225 -13.7416     87.6100     78.8602   6.8730178584e+01   5.0040206305e+01    0.4295453    0.4032302 -14.61  0.001461574    1.113    0.102
       226 -11.2293    199.5391     79.9177   4.1409290871e+01   2.4789901686e+01     0.210294    0.1262876 -28.57   0.00102032    1.571    0.364
       227 -12.1962    120.4860     78.6350   5.7872823860e+01   4.3053660535e+01    0.2719072     0.248062  42.22 0.0005221255    1.056    0.053
       228 -12.3727    112.1410     76.1039   5.9570284491e+01   4.5455151123e+01    0.4076793     0.290558 -48.46 0.0003765283    1.487    0.328
       229 -12.2368    115.8235     74.8498   5.8057899406e+01   4.4872808061e+01    0.3056417    0.2375287 -24.66  0.001095831    1.446    0.308
       230 -12.2377     59.6131     85.8158   8.1730647985e+01   5.3123088150e+01    0.2651792    0.2092502 -70.85 0.0006104884    1.328    0.247
       231 -12.1963      7.1251     78.1005   1.0416931594e+02   5.9947656285e+01    0.2008547    0.1625269 -52.15 0.0003542722    1.207    0.171
       232 -11.3903    158.1740     75.8653   4.7724177246e+01   3.4707321186e+01    0.2045922    0.1708249  19.50            0    1.317    0.241
       233 -10.7621    200.2972     75.3059   4.0118377176e+01   2.5274255188e+01    0.1356185    0.1017571  13.99 0.0001610839    1.587    0.370
       234 -10.9908    177.7959     74.8155   4.3641329415e+01   3.0312986015e+01     0.192051    0.1673554 -66.68 0.0005593527    1.293    0.227
       235 -11.8716     31.8241     74.7069   9.1867505249e+01   5.9225682727e+01    0.3375311    0.2163916  -5.98   0.00155251    1.906    0.475
       236 -11.8333    205.4307     74.1874   3.9088863248e+01   2.4344482549e+01      0.19188    0.1120664 -40.45 0.0003510168    1.617    0.381
       237 -12.6149     50.9320     73.6565   8.2548372653e+01   5.7366102599e+01    0.2646418     0.191417 -49.08  0.000422109    1.359    0.264
       238 -11.1681    232.1239     73.4967   3.5503099381e+01   1.9139277387e+01    0.1599927    0.1248455  57.00 0.0004400738    1.479    0.324
       239 -10.8920    124.5558     73.5225   5.5126268494e+01   4.3105861157e+01    0.1537958    0.1495574  41.47 8.303322e-05    1.014    0.014
       240 -11.4699     94.3300     73.0031   6.4473460492e+01   4.9983688665e+01    0.2658063    0.1892872 -50.16 0.0005774528    1.475    0.322
       241 -11.3791     94.1606     69.1504   6.3274034645e+01   5.0848237254e+01    0.2075346    0.1851034 -85.89 0.0003777905    1.303    0.232
       242 -13.0244      3.9378     72.4145   1.0517538371e+02   6.1529010383e+01    0.2875966    0.1773349  84.81 0.0006129094    1.560    0.359
       243 -11.5792    219.8214     72.3336   3.6709647433e+01   2.1654739376e+01    0.1894946    0.1601074 -71.43 0.0006651734    1.402    0.287
       244 -12.9211    188.5083     66.5317   3.9591313509e+01   2.9088152740e+01    0.4644146    0.2335388 -32.85  0.001128352    1.860    0.462
       245 -13.5791    100.2238     65.8896   6.0063709666e+01   5.0211373326e+01    0.6009787    0.3928125 -44.60  0.002649051    1.589    0.371
       246 -12.3406    197.4676     67.1871   3.8424205481e+01   2.7001561979e+01    0.3203273    0.2116076  10.83  0.001434244    2.133    0.531
       247 -12.8674     60.1012     67.3109   7.6550198158e+01   5.7607747944e+01    0.3786204    0.2320029 -30.13  0.001140718    2.070    0.517
       248 -10.7954    250.1356     66.3481   3.1984205101e+01   1.6721867930e+01     0.134175    0.1109262 -86.99 0.0001733961    1.533    0.348
       249 -11.4084     78.8590     65.7628   6.7955562506e+01   5.4692793095e+01    0.2180233    0.2038948  -2.13 0.0005057063    1.100    0.091
       250 -12.9160    114.0771     63.4892   5.4827574262e+01   4.7493599641e+01    0.4265858    0.3131729 -83.92 0.0007840569    2.010    0.502
       251 -13.1514    109.5844     60.0459   5.4989234893e+01   4.9211781413e+01    0.3833633    0.2773679  50.76  0.001443753    1.339    0.253
       252 -11.7873    208.2559     62.7320   3.5794321105e+01   2.5260940672e+01     0.280662     0.141611  38.10  0.001202323    2.600    0.615
       253 -12.3622    195.4377     62.3224   3.7423610337e+01   2.8109279566e+01    0.2612669    0.1739766  67.24  0.001321187    1.670    0.401
       254 -13.1407     45.2768     61.3837   8.1963837302e+01   6.1148733848e+01    0.3510221    0.3207616  54.64  0.001600326    1.175    0.149
       255 -12.4780     13.1445     62.1506   9.9259432249e+01   6.3789497015e+01    0.2175276    0.1652793 -45.27 0.0007641934    1.259    0.206
       256 -12.1604      4.1630     59.2620   1.0376428078e+02   6.4892763983e+01     0.335401    0.2025094   2.38  0.001336747    1.841    0.457
       257 -12.6313    193.1155     57.6904   3.6500677205e+01   2.9251485451e+01    0.2926302    0.2127568 -81.86 0.0009049248    1.714    0.417
       258 -11.8452    119.1732     58.4939   5.1616592015e+01   4.7187932662e+01    0.2355153    0.1490876  51.67  0.000934315    1.520    0.342
       259 -12.8053     99.0127     57.0551   5.7336641348e+01   5.2251821028e+01    0.3736532     0.230252 -31.64  0.001459653    1.825    0.452
       260 -11.7621    194.5117    230.5419   7.1609694087e+01   4.7810480914e+00    0.2544153    0.1507493  -8.21  0.001638608    1.737    0.424
       261 -11.1628    153.5763     57.3345   4.3044036124e+01   3.8796825587e+01    0.1954448    0.1463678 -18.01 0.0008942416    1.488    0.328
       262 -11.7981    140.1925     56.9746   4.5781661335e+01   4.2211588450e+01    0.2937709    0.1994449  72.74   0.00128684    1.725    0.420
       263 -13.7846     28.2468     55.7532   8.9619388086e+01   6.4385162544e+01    0.7490948    0.2475063  37.15  0.002285597    3.074    0.675
       264 -11.0687    159.3259     56.6778   4.1719994862e+01   3.7465207066e+01    0.1548718    0.1123373 -67.67  0.000449417    1.686    0.407
       265 -12.5597    110.5303     54.0784   5.2542421292e+01   5.0091514023e+01    0.3702782    0.2345908  22.92  0.001440443    2.275    0.560
       266 -11.9300    124.0272     51.9922   4.7993423402e+01   4.7111370351e+01    0.1903131    0.1760423  53.13  0.000474967    1.040    0.038
       267 -12.0065     94.5511     51.1428   5.6646924481e+01   5.4415880529e+01     0.347326     0.223504 -16.87  0.001389429    2.218    0.549
       268 -12.3711    181.0726     51.6052   3.6537803861e+01   3.2872192923e+01    0.3105092    0.1362252  63.19  0.001236925    2.362    0.577
       269 -12.2493    174.0913     50.5657   3.7304543763e+01   3.4699008264e+01    0.3238572    0.2284194  80.39  0.001579617    1.616    0.381
       270 -12.6771     28.9808     50.2122   8.7754659534e+01   6.5702481762e+01     0.305024    0.2246419  86.83  0.001434775    1.633    0.388
       271 -12.2616     17.7158     49.5888   9.4363037943e+01   6.6732836139e+01    0.3681531    0.2240279 -64.75   0.00116484    1.483    0.326
       272 -12.3524     20.3903     46.2600   9.1941742319e+01   6.7387143445e+01    0.2670385    0.1839063 -78.67 0.0008279301    1.515    0.340
       273 -12.6515     37.7334     50.0110   8.2606513938e+01   6.4841281638e+01    0.2040749    0.1788733 -47.32 0.0005997043    1.086    0.079
       274 -10.9259      1.4664     47.4892   1.0394932705e+02   6.7950566085e+01    0.1284835    0.1144779 -68.18 -6.344128e-06    1.025    0.024
       275 -11.4324    142.8857     46.5179   4.1666008298e+01   4.3149037369e+01    0.2385212    0.1443628  59.00  0.001033499    1.595    0.373
       276 -11.9392    133.1210     48.2523   4.4418590756e+01   4.5401268231e+01    0.2316779    0.1983981  39.40 0.0004617147    1.184    0.156
       277 -11.3408    153.2644     44.9543   3.9104416609e+01   4.0701525889e+01    0.2039586    0.1893746 -28.67 0.0003059079    1.109    0.098
       278 -12.1878    195.9707     44.2343   3.2436864571e+01   3.0313252491e+01    0.2485291      0.18575 -79.91  0.001045599    1.508    0.337
       279 -13.2426     35.0006     39.8958   8.0808154606e+01   6.7565645730e+01    0.4782432    0.2658762  11.91  0.002102122    2.132    0.531
       280 -12.0331    146.0701     39.5304   3.8627758042e+01   4.3321346463e+01    0.2512698    0.2154741 -17.96  0.001314121    1.260    0.206
       281 -11.8326    104.2361     39.9600   4.8962861896e+01   5.4087092794e+01    0.2654896    0.2103347  50.08 0.0004777857    1.194    0.163
       282 -11.2048    135.8399     39.1175   4.0542618976e+01   4.6060704401e+01    0.2029747    0.1728804  29.19 0.0003263891    1.276    0.216
       283 -12.3243     53.5019     38.6435   6.9482836308e+01   6.5219274770e+01    0.3545306    0.2428533   1.83  0.001606427    1.934    0.483
       284 -11.6076    242.9241     38.1759   2.6287338437e+01   2.1115159696e+01    0.1826485    0.1341477 -48.23 0.0004402114    1.215    0.177
       285 -10.5409    186.7070     38.2776   3.1912491067e+01   3.3216818803e+01    0.1399272   0.09730262 -60.91 0.0002118783    1.526    0.345
       286 -11.4302     60.1205     37.5979   6.5550505506e+01   6.4278917825e+01    0.2581228    0.2000288 -54.45   0.00130657    1.432    0.302
       287 -10.7979     92.5229     37.5116   5.1754731984e+01   5.7359670314e+01    0.1525644    0.1439061  35.93 7.344627e-05    1.008    0.008
       288 -13.2163     11.1589     36.3963   9.5654689878e+01   7.0382801903e+01     0.369426    0.2936073 -31.32  0.002205227    1.195    0.164
       289 -11.6172    237.6723    248.9234   6.6881401906e+01  -1.7900471036e+00    0.2057234    0.1158409  10.19  0.001552621    1.256    0.204
       290 -12.5810     44.0346     33.7711   7.2766296431e+01   6.7754703145e+01    0.3084224    0.2371252  29.00 0.0006897422    1.294    0.227
       291 -11.7010    106.9126     32.1434   4.4903176891e+01   5.4637179695e+01    0.2653334    0.2235416 -26.01  0.001108855    1.264    0.209
       292 -11.4498    223.4308     31.7990   2.6363364882e+01   2.5677100468e+01    0.1700435    0.1140358 -14.57 0.0005524792    1.605    0.377
       293 -12.2838    169.7832     31.3542   3.2062907707e+01   3.8233179228e+01    0.2187501    0.1868621 -58.52 0.0003384668    1.148    0.129
       294 -11.5568    171.0415     27.9878   3.0838278584e+01   3.8307335431e+01    0.2030162    0.1866105  40.29  0.001170829    1.185    0.156
       295 -10.8691    242.1867     30.1990   2.4514675687e+01   2.2078662786e+01    0.1630101     0.112798 -48.86 0.0002943047    1.268    0.211
       296 -11.7949    140.9317     29.5182   3.6048560169e+01   4.6003145425e+01    0.4476632    0.1855937  44.57  0.001570987    2.730    0.634
       297 -12.6004     74.0846     30.1667   5.5502441231e+01   6.2865681618e+01    0.4241698    0.1964848  49.60 0.0008358485    2.112    0.526
       298 -12.9884     39.0573     29.1136   7.3775523100e+01   6.9471679000e+01    0.3527533    0.2922541 -17.15  0.001476953    1.189    0.159
       299 -11.5160    156.0176     29.2464   3.3395928955e+01   4.2042539040e+01    0.2006743    0.1847588  76.31 0.0002481744    1.046    0.044
       300 -11.9770    178.9468     27.9679   2.9834712062e+01   3.6320663470e+01    0.2028129    0.1932325 -59.97 0.0003154069    1.030    0.029
       301 -11.2654     24.8936     26.7431   8.2588486843e+01   7.1682846714e+01    0.2980672    0.1781826  62.80  0.001264008    2.890    0.654
       302 -11.2550    127.2221    248.1691   8.6544218065e+01   1.0763847888e+01    0.1947768    0.1411722 -12.47   0.00137728    1.695    0.410
       303 -13.6730     30.6017     33.4312   8.1226698716e+01   6.9561106414e+01     0.531113    0.3201934 -22.14  0.002462161    1.966    0.491
       304 -11.5909    172.0419     22.2875   2.8927260448e+01   3.8690262794e+01    0.3103273    0.1953646 -12.11  0.001459329    1.884    0.469
       305 -11.4129    250.1120     22.1598   2.2174847153e+01   2.1372919876e+01    0.1589969     0.141719 -24.86 0.0003414808    1.179    0.152
       306 -10.5543     35.6831     21.2847   7.2208184245e+01   7.1584883496e+01    0.1284895    0.1084291  63.49 0.0002412837    1.585    0.369
       307 -11.5917    117.0578    233.9728   8.7227793312e+01   1.3969919673e+01    0.3169029    0.2017438  -9.68  0.001840959    2.264    0.558
       308 -10.8900    127.6892    244.3027   8.6072150953e+01   1.1224211559e+01    0.1231413    0.1015766 -14.82 0.0004590801    1.460    0.315
       309 -10.8068    200.1742    247.1847   7.2788932704e+01   2.3381479515e+00    0.1260817   0.09293079  19.30 0.0009889539    1.247    0.198
