#   1 NUMBER                 Running object number                                     
#   2 MAG_AUTO               Kron-like elliptical aperture magnitude                    [mag]
#   3 X_IMAGE                Object position along x                                    [pixel]
#   4 Y_IMAGE                Object position along y                                    [pixel]
#   5 X_WORLD                Barycenter position along world x axis                     [deg]
#   6 Y_WORLD                Barycenter position along world y axis                     [deg]
#   7 A_WORLD                Profile RMS along major axis (world units)                 [deg]
#   8 B_WORLD                Profile RMS along minor axis (world units)                 [deg]
#   9 THETA_WORLD            Position angle (CCW/world-x)                               [deg]
#  10 FWHM_WORLD             FWHM assuming a gaussian core                              [deg]
#  11 ELONGATION             A_IMAGE/B_IMAGE                                           
#  12 ELLIPTICITY            1 - B_IMAGE/A_IMAGE                                       
         1 -11.9981    216.5474     34.9516   3.9317655869e+01   2.7298154438e+01    0.8862255     0.692378  71.01  0.005131082    1.284    0.221
         2 -10.2859      2.2359     19.0171   9.3905673245e+01   7.1904675689e+01     0.471651   0.08481012 -49.61  0.001835873    3.954    0.747
         3  -8.8333     33.0000     10.5528   7.3379254058e+01   6.9996134854e+01    0.2401834   0.05949925 -35.08   0.00092813    3.882    0.742
         4 -11.6242    237.5498     14.3533   3.2925970415e+01   2.5208895625e+01    0.6837171    0.5092641 -66.31  0.002744055    1.081    0.075
         5  -9.7326     93.4163    244.3090   1.0843400962e+02   1.1433415494e+01    0.4348615    0.1951996  23.83  0.001639054    3.962    0.748
         6  -7.4239    175.2642    250.6400   9.2857627919e+01  -1.9586522164e+00    0.1102962   0.09300432  63.03 0.0004878975    1.636    0.389
         7 -11.2137     83.3015    246.3407   1.1065660993e+02   1.2487167673e+01    0.6900892    0.3957389  46.64  0.001554501    1.426    0.299
         8 -10.9471     71.0393    248.6798   1.1327334617e+02   1.3721639339e+01    0.6995403    0.4657149  41.57  0.004399673    1.319    0.242
         9 -10.6789     60.0320    247.6507   1.1530972844e+02   1.5353427331e+01     0.439004    0.3341322  74.36  0.001886942    1.158    0.137
        10  -8.4776     52.3321    250.3201   1.1697251029e+02   1.5819664347e+01     0.186155    0.1250212  47.10  0.001218569    1.248    0.198
        11  -8.4106     49.4754    250.4606   1.1751673542e+02   1.6144687764e+01    0.1837808    0.1270904  74.64 0.0008118786    1.260    0.206
        12  -8.5417     44.1068    250.4913   1.1851509939e+02   1.6787619122e+01    0.1662247   0.09471662  41.09 0.0006281127    1.536    0.349
        13  -9.6837     25.8098    249.1645   1.2175960605e+02   1.9131337470e+01    0.3084978    0.1901523 -76.78  0.002069924    1.604    0.377
        14  -9.1089     32.8952    247.8363   1.2040180615e+02   1.8594077268e+01    0.3735367    0.1244567 -79.30  0.001734118    3.175    0.685
        15 -13.5743      2.4290    124.8023   1.1726913726e+02   4.9103112718e+01     8.612287     1.139747 -75.08   0.01928586    8.826    0.887
        16 -12.7098      5.5331    239.6746   1.2487404499e+02   2.3040299105e+01     1.892071    0.8843031 -83.64   0.01143079    1.877    0.467
        17 -12.7821      9.4813    207.4033   1.2240216908e+02   2.9277452242e+01     1.142299     0.859883  74.00   0.00544471    1.038    0.037
        18  -9.9394    141.6469    232.1008   9.6979458367e+01   6.2900354048e+00    0.2441321    0.1556988  44.15   0.00091967    1.407    0.289
        19  -9.3810    120.0593    224.3005   1.0047875971e+02   1.1206345051e+01    0.3277919    0.1606589 -38.47  0.001361137    3.047    0.672
        20  -8.7249     22.2434    223.7035   1.2089656010e+02   2.4558622131e+01    0.2229434    0.1420185  70.73   0.00141979    1.285    0.222
        21 -10.6936     86.9322    224.7564   1.0766668432e+02   1.6190457550e+01     0.414092    0.2780247  60.77 0.0007467143    1.418    0.295
        22 -11.6238    112.5284    230.0922   1.0284766357e+02   1.1269452815e+01    0.7214931     0.240474  39.13  0.002887319    2.540    0.606
        23  -8.9760     20.2497    238.6765   1.2217466236e+02   2.1747290081e+01     0.218446    0.1521358  69.66 0.0007704728    1.092    0.085
        24  -7.8673    163.5376    218.5009   9.0310519749e+01   5.1519808938e+00    0.1343356    0.1192532  22.88 -2.601401e-05    1.008    0.008
        25  -8.7784     96.0196    237.0107   1.0712289259e+02   1.2433082632e+01    0.1563953    0.1329998  56.34 0.0006381116    1.019    0.019
        26 -10.6666    124.9845    230.2780   1.0023226405e+02   9.2805772852e+00    0.3147868    0.2211489  53.16  0.001768693    1.378    0.274
        27 -11.2354     24.9748    207.2538   1.1921043066e+02   2.7782372443e+01    0.3918192    0.3331247 -57.44 0.0008623775    1.472    0.321
        28 -13.4069     35.6721    196.4540   1.1601193299e+02   2.9048031796e+01     3.567245     1.548433  76.34   0.01454018    3.034    0.670
        29  -8.0571     81.5002    181.4610   1.0336402338e+02   2.6600328388e+01     0.140949    0.1277558  77.19 1.251903e-05    1.010    0.010
        30  -9.9976     55.0100    179.8313   1.0971178384e+02   3.0653028750e+01    0.4235596    0.2822944 -35.34  0.001417369    2.138    0.532
        31 -10.0508     60.8842    174.0325   1.0750100648e+02   3.1294595202e+01     0.310727    0.2544061 -38.13 0.0004911486    1.498    0.332
        32 -10.1782      8.2142    168.7614   1.1994656969e+02   3.8144949807e+01      0.27422    0.2029784 -48.72  0.001160417    1.590    0.371
        33  -9.7198     72.0247    164.0852   1.0316777884e+02   3.2199671907e+01    0.2939352    0.2707846 -50.28 0.0004512279    1.185    0.156
        34 -11.4082     79.2557    157.3826   1.0012718703e+02   3.2791420955e+01     1.247597    0.7117044  57.56  0.002344685    2.076    0.518
        35 -10.8373     70.1967    145.6035   1.0057925478e+02   3.7060433020e+01    0.5447531    0.4168608  12.56  0.001822318    1.665    0.399
        36 -10.9657     67.7632    142.5710   1.0073196132e+02   3.8164540865e+01    0.5482721    0.3691708  37.47  0.001302693    1.568    0.362
        37 -11.5632     58.3605    160.4776   1.0626065644e+02   3.4952311937e+01    0.5398951    0.3076651 -45.26  0.001443277    1.996    0.499
        38  -9.1254     32.8079    157.5519   1.1266693731e+02   3.8618775608e+01     0.310832    0.1595427 -77.11 0.0008741887    1.786    0.440
        39  -8.3415     60.0231    232.7210   1.1406682829e+02   1.8271208588e+01    0.2044101    0.1564523 -85.33 0.0006559249    1.275    0.215
        40  -8.2581    123.0035    151.3536   8.7258795608e+01   2.6695580255e+01    0.2109794    0.1918417  42.92 0.0003926834    1.106    0.096
        41 -10.3097     82.7626    141.9283   9.6302768424e+01   3.6089927519e+01    0.3497696    0.2753683 -52.04 0.0004501553    1.226    0.185
        42  -8.4366     94.9777    143.7208   9.3209884128e+01   3.3639037855e+01    0.2768985     0.208643 -88.28  0.001164614    1.594    0.372
        43  -8.3939     98.3578    141.1426   9.1727391710e+01   3.3687354166e+01    0.2861046    0.1970589 -65.00  0.001302873    1.513    0.339
        44 -10.3517     58.3216    133.1784   1.0180130115e+02   4.1791762804e+01    0.5361277    0.2429276 -71.22  0.002036311    2.514    0.602
        45  -8.5112     94.8324    127.7359   8.9783360461e+01   3.7577501493e+01    0.2622785    0.2007255 -39.71 0.0007492756    1.344    0.256
        46  -9.2063    107.0565    131.5589   8.7162479275e+01   3.4438548266e+01    0.3894137    0.3156599  36.77  0.001423939    1.282    0.220
        47  -8.0668    115.3128    125.3320   8.3375124239e+01   3.4331245244e+01    0.1596492    0.1235897 -12.93 0.0007044559    1.678    0.404
        48  -8.2419     32.6016    123.1848   1.0793451009e+02   4.7171453001e+01    0.2084802    0.1012619 -56.98  0.000961182    1.719    0.418
        49  -7.6931    105.0561    120.2277   8.5018738393e+01   3.7514967452e+01    0.1879355    0.1290827  37.86 0.0002992238    1.515    0.340
        50  -7.7794    205.6175    110.2227   5.9035778721e+01   1.7856211285e+01    0.2059436    0.1328525 -29.38 0.0009341436    1.628    0.386
        51  -7.4961     86.6848     92.3153   8.3197530897e+01   4.7299163247e+01    0.1460199     0.119201  85.79 0.0002714209    1.645    0.392
        52 -11.0904     84.7533    231.1875   1.0883123935e+02   1.5206734678e+01    0.5311822    0.3386043 -80.80  0.001445014    1.764    0.433
        53  -9.2052     13.0911     60.1601   1.0209423569e+02   6.3387912616e+01    0.2253549    0.1462269 -52.50 0.0007434959    1.262    0.208
        54  -8.5884    197.3035     45.6522   4.4191928036e+01   3.0321605955e+01    0.1476568   0.09317525 -65.11 0.0007040514    1.694    0.410
        55 -11.2242    208.2713     39.0249   4.1194752654e+01   2.8653681369e+01    0.4978672    0.3831809 -22.05  0.002836671    1.584    0.369
        56  -9.9080    159.1755    227.8108   9.2694939407e+01   4.2228034159e+00    0.3647511    0.1744023  22.93  0.001324663    2.904    0.656
        57 -11.4463    222.2094     28.4096   3.7253486796e+01   2.6854587511e+01    0.8506661    0.3600427  63.81  0.001826472    2.288    0.563
        58  -8.8453    129.8512     37.4315   5.3185373450e+01   4.7799890800e+01    0.2529281    0.2063967 -68.25 0.0006098411    1.435    0.303
        59 -10.2017    115.9623    245.1114   1.0396460005e+02   7.9591504146e+00    0.3628018    0.2493066 -21.38  0.001914619    2.431    0.589
        60  -9.3912    103.1307    242.1471   1.0623395366e+02   1.0416426324e+01    0.1854527    0.1654285  23.16  0.001232101    1.290    0.225
