#   1 NUMBER                 Running object number                                     
#   2 MAG_AUTO               Kron-like elliptical aperture magnitude                    [mag]
#   3 X_IMAGE                Object position along x                                    [pixel]
#   4 Y_IMAGE                Object position along y                                    [pixel]
#   5 X_WORLD                Barycenter position along world x axis                     [deg]
#   6 Y_WORLD                Barycenter position along world y axis                     [deg]
#   7 A_WORLD                Profile RMS along major axis (world units)                 [deg]
#   8 B_WORLD                Profile RMS along minor axis (world units)                 [deg]
#   9 THETA_WORLD            Position angle (CCW/world-x)                               [deg]
#  10 FWHM_WORLD             FWHM assuming a gaussian core                              [deg]
#  11 ELONGATION             A_IMAGE/B_IMAGE                                           
#  12 ELLIPTICITY            1 - B_IMAGE/A_IMAGE                                       
         1 -13.4721    233.9593     35.0439   3.1087108806e+01   2.4684970055e+01     1.075854    0.7639055  56.22  0.007081267    1.802    0.445
         2 -13.1836    215.2804     49.7745   3.5792916462e+01   2.6454254705e+01     1.137135    0.9294186 -88.77  0.006637226    1.126    0.112
         3  -9.2032     44.3671      5.2975   5.6959559163e+01   6.8382739222e+01    0.1272987   0.07118712  24.03 0.0007031329    1.727    0.421
         4  -9.8713      2.5063      2.9464   7.7547022444e+01   7.4352748482e+01     0.158407   0.09175123 -32.33  0.001040484    1.612    0.380
         5 -13.9983      8.0871    203.8620   1.1632702115e+02   2.9354794648e+01     1.205326    0.7200983  80.77  0.001604045    1.529    0.346
         6 -14.4523    100.5207    228.7239   9.6823263920e+01   1.2311092168e+01     8.536018     1.418526  42.07   0.02261326    5.323    0.812
         7  -9.6755    192.7058    194.0276   7.0040464612e+01   4.8956683299e+00    0.4623276     0.258759 -64.56   0.00165017    3.954    0.747
         8 -11.8615     41.3496    177.0896   1.0532596866e+02   3.2698719122e+01    0.3910888    0.3077216 -26.08 0.0005735529    1.577    0.366
         9 -11.8037     49.2739    170.8887   1.0229015487e+02   3.3378448170e+01    0.3240646    0.2857198 -22.01 0.0004269567    1.321    0.243
        10  -8.5571    110.5764    167.5200   8.4357352077e+01   2.5038641638e+01    0.1522937    0.1484497  85.71 6.847259e-05    1.055    0.052
        11 -10.8466     62.3528    161.3304   9.7039016293e+01   3.4200441045e+01    0.2786421    0.2661392  25.18   0.00038701    1.120    0.107
        12 -13.1307     47.4097    157.5076   1.0089875661e+02   3.7085948282e+01    0.5966145     0.377953 -32.57  0.001621643    1.954    0.488
        13 -11.7954     75.8153    140.1314   8.9010235560e+01   3.7755606497e+01    0.3890172    0.3073808 -60.11 0.0003934428    1.234    0.190
        14 -12.4267     71.8504    154.7058   9.3052786196e+01   3.4590553203e+01    0.8921263    0.6646312  49.39   0.00434491    1.416    0.294
        15 -13.0581     68.1858    143.9563   9.2165384728e+01   3.7907612804e+01     1.032392    0.6891055  63.47  0.003197061    1.917    0.478
        16 -10.3781     80.1970    149.5584   8.9555973485e+01   3.4657536896e+01    0.2578503    0.1805635 -51.86 0.0005674206    1.376    0.273
        17  -9.3950    134.2054    147.0197   7.3725366336e+01   2.5575177269e+01    0.4341907    0.1257004 -55.52  0.001035032    5.202    0.808
        18 -10.6881     88.4078    142.3985   8.5600687830e+01   3.5154805299e+01     0.331515    0.2837068 -38.85 0.0008942652    1.179    0.152
        19  -9.8036     92.4750    138.9883   8.3630943613e+01   3.5321271425e+01     0.376433    0.2505276   6.56 0.0008006075    2.179    0.541
        20 -15.6313     14.2767    196.9733   1.1434847825e+02   3.0453532883e+01     8.348998     2.142608 -79.19   0.02031671    4.144    0.759
        21 -11.4546    243.1422    133.1344   4.9260605690e+01   7.9997237746e+00    0.2388206    0.2085182 -14.50   0.00156518    1.295    0.228
        22 -10.5623    238.0203    144.0365   5.2136357033e+01   6.9242722328e+00    0.2039954    0.1484217 -65.58   0.00114135    1.718    0.418
        23 -11.1760     28.6437    155.4106   1.0622858833e+02   3.9633734877e+01    0.3063588    0.1860152 -52.94  0.001502889    1.548    0.354
        24 -11.3869     67.3086    128.3255   8.9260122754e+01   4.2036512545e+01    0.6552713    0.3428268 -72.23  0.002397867    2.633    0.620
        25 -10.7316    104.8491    130.9204   7.8090363781e+01   3.5076238087e+01     0.565295    0.3788665  26.48  0.001647132    1.675    0.403
        26 -10.3204     89.6603    127.0742   8.1784124728e+01   3.8761406371e+01    0.2957659    0.2568474  17.14 0.0004241984    1.220    0.181
        27  -9.3866    111.9540    125.0737   7.4613649143e+01   3.5105503515e+01    0.2596788    0.1948592  -6.40  0.001132029    1.792    0.442
        28 -11.1796     52.4946    117.5028   9.1959994820e+01   4.6782257752e+01    0.4258486     0.135853 -59.07  0.001415375    2.937    0.660
        29  -9.4989    102.4976    119.1842   7.5922591279e+01   3.8311919366e+01    0.2462232    0.2097691  33.88 0.0002623685    1.190    0.159
        30  -9.2750    204.4699    110.8721   5.0511805794e+01   1.8851974922e+01     0.279633    0.1817884  34.37   0.00133877    2.088    0.521
        31 -10.1993     43.5688    106.3393   9.2710107706e+01   5.0612142360e+01    0.3007058    0.2173137  75.38  0.001205556    1.971    0.493
        32 -10.9794     71.5653    230.8717   1.0388793593e+02   1.5920681500e+01    0.2923611    0.1583768  43.55 0.0009356942    1.638    0.390
        33 -12.5550    243.4886     97.2638   4.2198633171e+01   1.3927033778e+01    0.6566359     0.167048 -42.27  0.002465664    3.135    0.681
        34  -9.6189     52.1944     89.7804   8.5329721657e+01   5.3406073658e+01    0.2299491    0.1532432  70.71 0.0009527832    2.805    0.643
        35 -10.8503      1.7614     84.9870   1.0468544668e+02   5.9154386320e+01    0.2942903    0.1396411 -54.56  0.001158038    1.635    0.388
        36 -10.4214    165.8712     85.1542   5.1253995959e+01   3.1686567295e+01    0.2266578    0.1909015 -80.08 0.0007228441    1.232    0.188
        37  -9.6874     44.8608     85.1139   8.6935406000e+01   5.5389672065e+01    0.2035693    0.1943218  60.24  0.001190412    1.282    0.220
        38  -9.0528     24.6934     82.8678   9.4635087515e+01   5.8037950116e+01     0.180861    0.1516232 -45.71  0.000365617    1.089    0.081
        39  -9.6207    184.7715     77.2262   4.5990665937e+01   2.8831279787e+01    0.1753601    0.1650755  21.15 0.0004820184    1.328    0.247
        40  -8.8885     54.3489     65.7644   7.7266454452e+01   5.8096902535e+01    0.1966344    0.1160018 -36.44 0.0009363797    1.662    0.398
        41 -10.7332      2.2587     62.7988   9.9699245405e+01   6.4021826518e+01    0.3491763    0.1048131 -65.56  0.001312079    3.591    0.721
        42 -10.0005     13.2620     60.0080   9.3723122756e+01   6.3879090468e+01    0.1988037    0.1627204 -11.42  0.000452034    1.126    0.112
        43  -9.4632     46.3560    218.1496   1.0851331394e+02   2.2011171761e+01    0.3815352    0.1916671  16.65  0.001602354    2.852    0.649
        44 -14.8884     32.1948    245.1671   1.1389560582e+02   1.7641572438e+01     6.521309     1.883402  29.58   0.02604644    3.341    0.701
        45  -8.5991     94.5253     46.5075   5.6550313789e+01   5.3940347032e+01    0.1354811    0.1234218  39.87 -2.400488e-05    1.036    0.035
        46 -10.6333      2.3794     24.5816   8.7580606928e+01   7.1203114049e+01    0.2819448   0.07646052 -45.71  0.001259491    2.943    0.660
        47  -9.1204     41.3215    215.0320   1.0941319832e+02   2.3330065307e+01    0.1845766    0.1523112  86.39 0.0004594693    1.118    0.105
