#   1 NUMBER                 Running object number                                     
#   2 MAG_AUTO               Kron-like elliptical aperture magnitude                    [mag]
#   3 X_IMAGE                Object position along x                                    [pixel]
#   4 Y_IMAGE                Object position along y                                    [pixel]
#   5 X_WORLD                Barycenter position along world x axis                     [deg]
#   6 Y_WORLD                Barycenter position along world y axis                     [deg]
#   7 A_WORLD                Profile RMS along major axis (world units)                 [deg]
#   8 B_WORLD                Profile RMS along minor axis (world units)                 [deg]
#   9 THETA_WORLD            Position angle (CCW/world-x)                               [deg]
#  10 FWHM_WORLD             FWHM assuming a gaussian core                              [deg]
#  11 ELONGATION             A_IMAGE/B_IMAGE                                           
#  12 ELLIPTICITY            1 - B_IMAGE/A_IMAGE                                       
         1 -15.1285      8.8633    157.9905   1.4677964574e+02   4.1362921094e+01     9.788934     3.900488  68.56   0.04793471    2.623    0.619
         2 -13.4782    193.6614     27.9528   7.0532245664e+01   3.3304424948e+01     1.413065     1.384191 -55.57  0.006736558    1.099    0.090
         3 -13.5766    208.1205      8.7672   6.3459277198e+01   3.1707632231e+01     1.378686    0.9771817  42.90  0.007282703    1.658    0.397
         4 -12.9086      2.7967     13.3213   1.2367262974e+02   7.2446313807e+01     1.838813    0.1959135 -54.78  0.005801742    6.227    0.839
         5 -10.0089    198.0000    245.9656   1.1927463490e+02  -2.3182457599e+00    0.1568089   0.06702834 -39.31 0.0006529808    2.967    0.663
         6 -11.4011    247.6641    249.0678   1.1143526958e+02  -1.0110872794e+01    0.5093631    0.1903805  35.57   0.00273016    2.090    0.521
         7 -10.8307    126.5371    249.5237   1.3223551244e+02   8.6029795668e+00    0.2119801    0.1444637  44.16  0.001120239    1.186    0.157
         8 -11.0037    101.8839    247.3728   1.3632576651e+02   1.2664446563e+01    0.2714593    0.1445166  57.58 0.0008749288    1.563    0.360
         9  -9.8632      2.3731    249.5204   1.5255509774e+02   2.4531739635e+01    0.1746811    0.1054294  55.16  0.001420973    1.274    0.215
        10  -9.8194     82.5784    243.2292   1.3931266614e+02   1.6106280804e+01    0.1319738    0.1004155 -67.68  0.000790448    1.608    0.378
        11 -11.2203    139.1794    249.1867   1.2998288880e+02   6.6744137916e+00     0.280101    0.2124847 -78.73   0.00193521    1.705    0.413
        12 -10.1023     11.8149    240.3454   1.5078543038e+02   2.5127924747e+01    0.2866947    0.1038797  51.87  0.001803444    1.904    0.475
        13 -12.8010      9.6385    206.7175   1.4960418408e+02   3.1398473132e+01    0.6921384    0.5072398  46.61  0.003799944    1.478    0.323
        14 -11.8457     56.2551    226.6719   1.4263096214e+02   2.2492901031e+01     1.508146    0.8072172 -48.80  0.007847606    3.366    0.703
        15  -9.3788    162.4766    249.5049   1.2592922998e+02   2.9178245768e+00     0.118479   0.09008466  42.68  2.61341e-05    1.004    0.004
        16 -11.5653     63.4153    199.5908   1.3902487477e+02   2.6719329138e+01    0.2753785    0.2220335 -57.80 0.0006003847    1.586    0.370
        17 -11.2585     20.8845    200.3303   1.4723185734e+02   3.1530537193e+01    0.2174103    0.1533628  60.54 0.0005030589    1.196    0.164
        18 -11.3531     17.0298    198.2377   1.4781407398e+02   3.2325096118e+01    0.2565878    0.1516837  56.72 0.0003660299    1.384    0.277
        19  -9.5879    191.7804    192.6832   1.1199139343e+02   6.1527821913e+00    0.3864563    0.2122382 -65.69  0.001248713    5.572    0.821
        20 -11.8299     69.3607    191.4389   1.3700636005e+02   2.7569169007e+01     0.254415     0.225879 -72.09  0.000507141    1.332    0.249
        21  -9.5937      7.7603    226.1745   1.5082816641e+02   2.7995936989e+01    0.1235699    0.1026905  79.67 0.0006079924    1.366    0.268
        22 -13.1879     66.0777    176.5413   1.3606146194e+02   3.1147646217e+01     0.459315     0.265742 -48.24  0.001786651    2.282    0.562
        23 -10.8484     79.0871    178.4995   1.3344879273e+02   2.8899632272e+01    0.2291637    0.1963014  73.91 0.0003916884    1.049    0.046
        24  -8.7419    101.9320    178.4633   1.2841389806e+02   2.5349210797e+01     0.192996     0.117513  48.33 0.0006903281    1.490    0.329
        25 -11.7378     86.6913    169.0258   1.3048757842e+02   2.9801722429e+01    0.6245242    0.5547215  41.29  0.003893504    1.296    0.228
        26 -12.6980     37.5874    234.1412   1.4633211144e+02   2.3418296929e+01    0.2719963    0.2119962 -88.83  0.000798271    1.326    0.246
        27 -10.0059     98.6279    152.9240   1.2516760207e+02   3.1444173772e+01    0.2964935     0.263769 -62.32  0.000789537    1.178    0.151
        28  -9.3758    101.6785    148.7668   1.2369591491e+02   3.1858204907e+01    0.2592264    0.1914739 -41.67  0.001327673    1.610    0.379
        29  -9.8453    189.2037    152.6406   1.0459376277e+02   1.3489069677e+01    0.3756055    0.2651506  89.16  0.001586155    2.497    0.600
        30 -12.0358     87.4084    152.1426   1.2776493576e+02   3.3442450192e+01     0.275649    0.2501281 -48.60 0.0008391139    1.300    0.231
        31 -12.4776     67.1621    143.9034   1.3148955216e+02   3.8290683168e+01     0.696171    0.4562607  71.88  0.003463565    1.639    0.390
        32  -9.1827    182.8780    145.9252   1.0441766351e+02   1.6083977339e+01    0.2381728    0.1855769  89.44  0.001121506    1.791    0.442
        33 -10.5694    173.9578    222.4038   1.2022245241e+02   4.8183891019e+00    0.3468492    0.2603666  79.59  0.002003551    1.984    0.496
        34  -8.4950    192.0323    144.0784   1.0212878322e+02   1.4434292208e+01    0.1715305    0.1638578 -10.87    0.0004087    1.054    0.052
        35  -9.6760    109.8590    137.8147   1.1957524260e+02   3.2874329702e+01    0.3725604    0.2463437 -26.59  0.001348858    2.436    0.590
        36 -14.0379     43.1784    226.4229   1.4490510851e+02   2.4140938865e+01    0.8554455     0.718518 -89.15  0.003935213    1.353    0.261
        37 -10.4181     97.3369    134.9660   1.2220848620e+02   3.5736483597e+01    0.2501819    0.2274857 -28.14  0.000445064    1.338    0.252
        38  -9.4944     93.1341    133.0765   1.2293307588e+02   3.6877890537e+01     0.286146     0.192323  64.35 0.0006515297    1.670    0.401
        39 -10.1124     83.3181    134.3765   1.2574663680e+02   3.8151509385e+01    0.2691353    0.2051868  73.52 0.0005906995    1.371    0.270
        40 -10.9573     58.0615    133.8861   1.3229330346e+02   4.1795926116e+01    0.3455424    0.1741883 -77.99  0.001552152    2.144    0.534
        41 -11.1325     34.2409    133.1716   1.3837853801e+02   4.4618048870e+01    0.3922142    0.1771367  64.01  0.001723106    2.866    0.651
        42  -9.0794    107.1122    124.1758   1.1740808468e+02   3.6469149941e+01    0.1947162    0.1901813 -31.78 0.0002995996    1.146    0.127
        43  -8.3086    160.4868    125.5068   1.0453464592e+02   2.5061116482e+01    0.1545295    0.1477135  81.12 -0.0001363426    1.067    0.063
        44  -8.9601     94.3885    216.7288   1.3469770436e+02   1.9011445951e+01    0.1944727    0.1146581  70.56  0.001030449    1.759    0.431
        45 -11.2250    142.7251    230.4353   1.2713966265e+02   8.9151772299e+00    0.4168033    0.1003751  42.31  0.001523837    3.339    0.701
        46 -10.3355    167.9119    113.0951   9.9752854234e+01   2.5840371549e+01    0.3462658    0.2920021  89.37 0.0007028667    1.392    0.282
        47  -9.1930    203.4902    111.5015   9.2070592373e+01   1.7727356166e+01    0.1512398     0.145031   2.29 -5.537452e-05    1.049    0.047
        48  -8.8544    152.5088    213.0634   1.2294336519e+02   1.0034006702e+01    0.1576832    0.1295975 -56.72 0.0003580028    1.452    0.311
        49 -11.1385    242.1161     85.1056   7.9103587243e+01   1.3166607587e+01    0.2798516    0.1838888 -39.23  0.001380325    1.387    0.279
        50  -8.6080    184.4903     77.5105   8.6532527498e+01   2.8379163828e+01    0.1531568    0.1512765  32.75 0.0008100866    1.046    0.044
        51  -9.4343    156.7984     76.3757   9.1942570033e+01   3.5580215017e+01    0.2287416    0.1403886  44.46 0.0005273806    1.667    0.400
        52 -11.0969      9.9644     63.9673   1.3486892280e+02   6.2109554123e+01    0.3295665    0.1356511  32.53  0.001715427    2.915    0.657
        53 -11.1796     24.0233     58.9177   1.2835831107e+02   6.2230384786e+01    0.6336707    0.1990709  40.67  0.002522486    4.477    0.777
        54  -9.2024     47.1242    249.1665   1.4564675035e+02   1.9732727368e+01     0.148519   0.08623676  66.60 0.0004951372    1.283    0.221
        55 -10.7090     35.1825    244.0239   1.4727688521e+02   2.1992332949e+01    0.2413087    0.2337983   3.86  0.001878383    1.945    0.486
