#   1 NUMBER                 Running object number                                     
#   2 MAG_AUTO               Kron-like elliptical aperture magnitude                    [mag]
#   3 X_IMAGE                Object position along x                                    [pixel]
#   4 Y_IMAGE                Object position along y                                    [pixel]
#   5 X_WORLD                Barycenter position along world x axis                     [deg]
#   6 Y_WORLD                Barycenter position along world y axis                     [deg]
#   7 A_WORLD                Profile RMS along major axis (world units)                 [deg]
#   8 B_WORLD                Profile RMS along minor axis (world units)                 [deg]
#   9 THETA_WORLD            Position angle (CCW/world-x)                               [deg]
#  10 FWHM_WORLD             FWHM assuming a gaussian core                              [deg]
#  11 ELONGATION             A_IMAGE/B_IMAGE                                           
#  12 ELLIPTICITY            1 - B_IMAGE/A_IMAGE                                       
         1 -13.1807    248.4877    114.1695   8.0482507295e+01   7.3428790628e+00     1.547315    0.9566593 -22.52  0.006989315    2.078    0.519
         2 -14.2221    202.3579     18.1140   6.4311072939e+01   3.2766269945e+01     2.366959     1.425784  28.36   0.01058521    3.005    0.667
         3 -13.1969      2.1204      4.6916   1.1324490910e+02   7.1929777890e+01     1.045846    0.5855658  19.91  0.007532858    1.832    0.454
         4 -11.9543      2.4011     24.6999   1.2084095853e+02   6.8992810947e+01    0.5176796    0.1173851 -50.50  0.002305079    3.398    0.706
         5  -9.5240    199.7913    245.5915   1.1563840152e+02  -6.0181916725e+00    0.1696871    0.1035186  46.20 0.0003072571    1.549    0.355
         6  -9.4807    204.6896    250.3250   1.1546828645e+02  -7.4958252949e+00    0.1139022   0.09333673  63.61 0.0007039087    1.656    0.396
         7 -10.1790    184.1713    250.3465   1.1929988317e+02  -4.1068735748e+00    0.2261126    0.1491501  42.56 0.0006999562    1.280    0.219
         8 -10.6705    169.6665    248.6342   1.2179102854e+02  -1.3836210162e+00    0.3111444    0.2214006  11.84 0.0008105274    1.891    0.471
         9 -11.6378    150.0103    248.9436   1.2557125001e+02   1.9339119999e+00    0.4537353    0.3120451  58.73   0.00264155    1.422    0.297
        10 -11.3300    133.8415    249.2530   1.2867695742e+02   4.6298086009e+00    0.7039867    0.2355538  51.40  0.002753416    2.932    0.659
        11 -11.5852     99.2564    247.5666   1.3495025611e+02   1.0587030038e+01    0.9510873    0.2941285  50.11  0.003922384    2.751    0.637
        12 -11.5556    125.0465    249.4961   1.3036386651e+02   6.0604058222e+00    0.7985497    0.2701738  39.76  0.003268779    2.720    0.632
        13 -11.0443    121.7138    244.8520   1.3043231984e+02   7.4371720773e+00    0.4362611    0.2079787  58.39  0.002014188    2.212    0.548
        14 -12.0038    126.3969    240.8379   1.2903687293e+02   7.3733620078e+00    0.6036188    0.4116146  41.30  0.003142709    1.348    0.258
        15 -10.7370    114.5989    250.2063   1.3239941279e+02   7.6546640999e+00    0.4026538    0.2918343  32.45  0.002417629    1.617    0.382
        16 -12.0437    109.5238    246.9406   1.3297514394e+02   9.0635304910e+00    0.6447191    0.4722965 -70.72  0.003411234    1.498    0.333
        17 -10.2362     89.0635    250.5764   1.3711676332e+02   1.1610160355e+01    0.4355342     0.106503  40.25  0.001591775    3.834    0.739
        18 -10.6678     88.7531    247.2465   1.3684241931e+02   1.2271096173e+01    0.4195383    0.2579494  39.98  0.001665776    1.649    0.393
        19 -11.5508     89.6777    238.4991   1.3576942302e+02   1.3783893826e+01    0.5145088    0.3315271  80.52  0.002051724    1.570    0.363
        20 -10.5553     83.9780    238.0155   1.3678605435e+02   1.4746895475e+01    0.4241282    0.2172958  37.38  0.002157365    2.101    0.524
        21  -9.5439     83.7561    242.3752   1.3726915646e+02   1.3942895400e+01    0.3101507    0.2300768 -46.45  0.001893917    1.999    0.500
        22 -10.3435     81.5234    247.4865   1.3817510409e+02   1.3312730754e+01    0.3337424    0.2519382 -84.47  0.002235551    1.292    0.226
        23 -10.0285     79.2822    243.5598   1.3820347810e+02   1.4383898729e+01    0.2750985    0.1364874  73.80 0.0008348047    2.426    0.588
        24  -8.8908     74.7491    250.5540   1.3966613515e+02   1.3733705080e+01    0.2194518    0.1024473  40.65  0.001143687    2.058    0.514
        25  -9.3510     69.1079    247.1720   1.4036033107e+02   1.5171010294e+01    0.2858797   0.07897816  38.58  0.000850578    3.798    0.737
        26  -9.6851     63.2855    250.0160   1.4162158488e+02   1.5451357107e+01     0.184673    0.1494118 -71.25  0.001264015    1.477    0.323
        27 -11.3521     59.9087    245.1344   1.4180182606e+02   1.6833585415e+01    0.4127953    0.2496888 -83.01 0.0005987061    1.545    0.353
        28 -11.4744     66.9797    244.2161   1.4047630715e+02   1.6030866404e+01     0.468817    0.2542013  33.79  0.002488803    2.375    0.579
        29 -12.3032     70.0259    215.4059   1.3708320506e+02   2.1398345812e+01     1.065053    0.6376282 -77.48  0.002914106    1.591    0.372
        30 -11.2800     14.9093    185.9118   1.4518221443e+02   3.4439818382e+01    0.2588544     0.189939  46.25  0.000322235    1.516    0.340
        31 -15.2281      8.3626    207.9239   1.4808487471e+02   3.0372140803e+01     5.253987     1.099365 -74.07   0.02107124    3.734    0.732
        32 -12.1003     60.3278    223.1655   1.3975477577e+02   2.1133820165e+01    0.8256521    0.6411113  43.57  0.002955471    1.457    0.313
        33 -14.3068     30.9404    246.1089   1.4678235423e+02   2.0335009115e+01     1.954814      1.07427  38.71    0.0121901    2.053    0.513
        34 -14.0089      5.8716    245.5597   1.5073494671e+02   2.3214333865e+01     1.159397    0.5899538  80.82  0.004578198    1.505    0.336
        35 -12.8293     13.7730    238.8120   1.4911728551e+02   2.3656352749e+01    0.5930141    0.3187176  67.90  0.003929026    1.430    0.301
        36 -12.7607     40.2766    228.6058   1.4391901780e+02   2.2622711445e+01    0.3720808    0.2658619 -70.40 0.0008370255    1.462    0.316
        37 -13.9764     46.7218    218.8746   1.4192047666e+02   2.3812994950e+01     1.154666    0.6758747 -87.23  0.006775217    1.518    0.341
        38 -12.4702    247.9744    240.1152   1.0596199663e+02  -1.2826394543e+01    0.7137603    0.4371303 -13.61  0.004183858    1.727    0.421
        39 -11.3522    122.5144    232.7827   1.2875701191e+02   9.5265548536e+00    0.3883121    0.3156773 -65.92  0.001575279    1.362    0.266
        40 -11.7666    128.0447    233.7072   1.2778809873e+02   8.4027615455e+00    0.5758185     0.309416  47.87  0.002061626    1.589    0.371
        41 -12.0021    132.5492    225.0386   1.2569329512e+02   9.2564085171e+00    0.6854466    0.4107558  69.22  0.003200429    2.142    0.533
        42  -9.7911    129.3820    221.1686   1.2578424883e+02   1.0569438161e+01    0.2844376    0.1933806  79.97 0.0008896654    1.812    0.448
        43 -11.8786    135.5251    241.0468   1.2729950986e+02   5.7763592850e+00    0.3917518    0.3464711  24.25  0.001514224    1.357    0.263
        44 -12.1438    135.2687    236.4933   1.2674116947e+02   6.6388879031e+00    0.5468386    0.4390615  11.41  0.001469542    1.773    0.436
        45 -10.9411    133.9989    232.7509   1.2648159512e+02   7.5465009764e+00    0.2754715    0.2310138 -36.31 0.0005527227    1.554    0.357
        46 -11.9054     96.5393    239.3065   1.3456417112e+02   1.2559510110e+01    0.6929118    0.3665943  69.89  0.003356952    2.215    0.549
        47  -9.1378     92.6804    232.5808   1.3455340846e+02   1.4469219972e+01    0.1807304   0.09901254  52.79 0.0009448678    1.558    0.358
        48 -11.0074    104.3045    237.9019   1.3292890683e+02   1.1586770561e+01    0.2684675    0.2256056  70.66  0.001412532    1.058    0.055
        49 -11.0710    172.8037    240.0984   1.1993150394e+02  -5.6260865173e-01     0.293083    0.2342636  84.00  0.001726853    1.692    0.409
        50 -11.2987    143.0976    248.9974   1.2689132522e+02   3.1047859384e+00    0.3932325    0.2786705  82.40  0.001484494    1.823    0.451
        51 -10.7574    116.3426    239.3049   1.3078415633e+02   9.3455256813e+00    0.3704991    0.2995395 -19.01  0.001301781    2.073    0.518
        52 -10.5945    152.8316    243.5313   1.2429131994e+02   2.3518874661e+00    0.2159401    0.1853867 -60.05   0.00138945    1.374    0.272
        53 -10.8225    165.6347    235.2439   1.2059315550e+02   1.5061896915e+00    0.2642177    0.2506954 -58.03  0.001044595    1.227    0.185
        54 -11.3913     98.3611    231.5039   1.3333224167e+02   1.3780810984e+01    0.4404884    0.2833271 -79.98 0.0007756241    1.665    0.399
        55 -10.8490    112.7549    230.1040   1.3033997445e+02   1.1693750519e+01    0.3538427    0.2128359  56.86   0.00137169    1.502    0.334
        56 -11.9957    105.9223    229.1636   1.3157184547e+02   1.3013260424e+01     0.700432    0.3506031  58.87  0.003288433    2.016    0.504
        57 -10.1564     77.7234    232.8439   1.3742897286e+02   1.6696230003e+01    0.3481309    0.1855443  86.58  0.001719993    2.227    0.551
        58 -11.2902    156.3884    231.8757   1.2191049898e+02   3.7378586009e+00    0.2758502    0.2343587  28.76 0.0007990111    1.224    0.183
        59  -9.2150     62.7543    233.1925   1.4024542279e+02   1.8768072949e+01    0.1426791    0.1260371  73.55  0.000287322    1.265    0.210
        60 -10.7554    142.1802    230.1333   1.2448529058e+02   6.5881577558e+00    0.3049984    0.2512855  -7.25  0.001459967    1.752    0.429
        61 -11.4186    164.7565    241.7450   1.2173281967e+02   5.7338206268e-01    0.3640657    0.2370197  60.55   0.00172104    1.748    0.428
        62 -10.9507     77.5873    220.9969   1.3620166957e+02   1.9121444170e+01    0.3212733    0.1929627  65.35  0.001175989    1.549    0.355
        63 -10.3249     78.6955    224.7027   1.3638880490e+02   1.8192960183e+01    0.2432655    0.2394829  43.74 0.0007211451    1.460    0.315
        64 -11.0189     84.6832    229.5795   1.3576044602e+02   1.6302209095e+01    0.5099787    0.2392871  40.29  0.002487677    2.068    0.517
        65 -10.3325    165.8584    226.8776   1.1925309647e+02   2.9134123266e+00    0.3556509    0.2377025 -70.95  0.001768991    2.179    0.541
        66  -8.8562    190.7190    228.2881   1.1456808794e+02  -1.7954781441e+00    0.1213192    0.1003877  68.22 0.0001996818    1.524    0.344
        67  -9.2181    179.6585    228.1055   1.1670801965e+02   2.0847989128e-01    0.1951639    0.1644302 -88.50 0.0009290967    1.566    0.362
        68  -9.9181    197.6468    226.7024   1.1295417350e+02  -2.7619661144e+00    0.2597959    0.2127588  73.85  0.001360496    1.699    0.411
        69 -10.6447     92.6070    225.9978   1.3381566998e+02   1.5793215574e+01    0.2748853    0.1738225  58.58 0.0008349029    1.384    0.278
        70 -11.6750     99.3931    223.5316   1.3217536147e+02   1.5205987381e+01    0.4846457     0.306153  51.43   0.00110684    1.377    0.274
        71 -10.0786    147.6677    224.6169   1.2256716953e+02   6.6259382383e+00    0.3646909    0.2517738   2.13  0.001559554    2.796    0.642
        72 -11.5842    141.8429    221.7692   1.2332328725e+02   8.2181530333e+00    0.3915126    0.3357354  31.22  0.000395867    1.263    0.208
        73 -11.1971    137.7763    214.5059   1.2305703771e+02   1.0372703825e+01    0.5090666    0.3728893  39.67  0.001196052    1.316    0.240
        74  -9.2907    164.5509    220.4685   1.1848844195e+02   4.3008531277e+00    0.2637312    0.1675431 -22.85 0.0008804795    2.533    0.605
        75 -10.6180    110.3052    221.3939   1.2970587443e+02   1.3831643805e+01    0.3120383    0.3039057 -78.53  0.001405126    1.276    0.216
        76  -9.8579     35.1391    219.4640   1.4411218611e+02   2.5106196351e+01    0.3196306    0.1717288 -64.04  0.001864335    1.858    0.462
        77 -10.0685     30.9966    218.4907   1.4478777806e+02   2.5789694859e+01    0.4264909    0.1049443  54.35  0.001640747    3.971    0.748
        78 -10.4898    246.2316    218.8579   1.0249819984e+02  -9.6887310976e+00    0.2506695    0.1447246  14.78  0.001250058    2.088    0.521
        79 -10.1310    104.7975    218.7822   1.3048406989e+02   1.5286557478e+01      0.23316    0.1805454  62.05 0.0002869751    1.118    0.105
        80 -10.8664    117.2435    224.3452   1.2869346887e+02   1.2061433543e+01    0.2648368    0.2144568  45.85 0.0003516822    1.196    0.164
        81  -8.3161    119.3002    217.3029   1.2730697578e+02   1.3115401897e+01     0.122237    0.1087764   0.28 0.0001973881    1.587    0.370
        82  -9.1660     93.9493    217.0163   1.3246710710e+02   1.7423611918e+01    0.2185832    0.1358447  74.24 0.0009869374    1.727    0.421
        83  -9.8846     88.1653    212.9074   1.3313834554e+02   1.9204901835e+01    0.2541876    0.1723951 -76.64 0.0007491602    1.446    0.308
        84 -10.7492     80.5944    227.2401   1.3629492058e+02   1.7392230415e+01     0.297096    0.2447819   1.84 0.0009163853    2.231    0.552
        85 -10.3058    102.0249    211.9958   1.3015974695e+02   1.7159710217e+01    0.3755284    0.2038537  66.31  0.001680066    2.173    0.540
        86  -9.0472     33.6825    211.4033   1.4371644067e+02   2.6959858017e+01    0.1313078      0.10937  46.06 0.0003653177    1.469    0.319
        87 -10.3795    109.0078    207.8895   1.2812810101e+02   1.6850696354e+01    0.3586848    0.2235327 -63.08  0.001324909    1.659    0.397
        88  -9.3075    134.5131    208.3499   1.2278381515e+02   1.2210881370e+01    0.2572617    0.1911697 -20.10  0.001092689    2.144    0.534
        89  -9.3792    119.5587    208.5462   1.2598741964e+02   1.4873067540e+01    0.1392522     0.120953  68.13 -1.936809e-05    1.019    0.018
        90 -11.9807     93.5184    203.2580   1.3077533470e+02   2.0431241854e+01    0.5906722    0.4823339 -88.14  0.003513069    1.129    0.114
        91 -10.6353    102.6411    202.5035   1.2872012856e+02   1.9090032415e+01    0.4282529    0.2467544  59.63  0.001334824    1.760    0.432
        92  -9.9871     98.8684    196.9383   1.2873885196e+02   2.0943933608e+01    0.4469106    0.2553709  67.59  0.001271897    2.072    0.517
        93  -9.4994    102.7041    195.6897   1.2771608975e+02   2.0576173067e+01    0.1989349    0.1863491 -66.46 0.0003211158    1.221    0.181
        94  -9.9864    175.1867    205.3919   1.1372738884e+02   5.0910738762e+00    0.3252016    0.2247176 -20.47  0.001457215    1.995    0.499
        95  -9.1969    178.2906    204.7050   1.1296271988e+02   4.6248664901e+00    0.2107688    0.1857933  54.73 0.0002488955    1.144    0.126
        96 -11.2599    247.5699    205.3020   9.9726688590e+01  -7.9131849019e+00    0.4397106    0.2318866  22.67  0.002035834    2.334    0.572
        97  -9.3406    125.7724    205.7975   1.2424741092e+02   1.4334995657e+01    0.1945469    0.1492917  70.75 0.0004797867    1.313    0.239
        98 -10.9887    160.4554    223.6465   1.1982809425e+02   4.4757147146e+00     0.325817    0.2261282  34.55 0.0006436738    1.396    0.284
        99 -10.2131     37.2838    202.7390   1.4226372751e+02   2.8394319532e+01    0.3100869    0.1688486 -79.42  0.001359094    1.575    0.365
       100  -9.5588    166.9426    203.2307   1.1505867443e+02   7.0895460255e+00     0.193982     0.168387  46.26 0.0003028105    1.063    0.059
       101  -9.4185    133.0922    202.5637   1.2216310663e+02   1.3669215323e+01    0.2124884    0.1974248 -34.74 0.0003636148    1.294    0.227
       102 -11.2672     32.8491    201.8720   1.4304923302e+02   2.9092238284e+01    0.1927887    0.1546853  87.04 0.0002848001    1.092    0.084
       103  -9.8782    197.0800    200.6761   1.0839061585e+02   1.7741113440e+00    0.2057285    0.1702323  34.31 0.0008232936    1.130    0.115
       104  -9.7851     64.0535    202.1410   1.3681995851e+02   2.5107285794e+01    0.2441401    0.1721609  36.17  0.000483783    1.667    0.400
       105 -10.1168    115.1187    200.2953   1.2569802643e+02   1.7414319382e+01      0.23409     0.189823 -79.44 0.0002369343    1.234    0.190
       106  -9.0121    169.5103    200.4510   1.1401968178e+02   7.1314819612e+00    0.1426755     0.131342  48.97 7.616187e-05    1.028    0.028
       107 -10.3503    120.0803    199.4217   1.2448307895e+02   1.6717151004e+01    0.3505249    0.2209237  64.90  0.001340793    1.749    0.428
       108  -9.8288     43.6182    199.2715   1.4067646018e+02   2.8395959702e+01     0.230996    0.1784348 -57.24  0.001054346    1.543    0.352
       109  -9.8549     86.0204    196.8440   1.3151780998e+02   2.3041567974e+01    0.3963815    0.1795216 -64.91  0.001423071    2.180    0.541
       110 -10.5775     54.1928    198.2373   1.3841813568e+02   2.7294695113e+01    0.6066598    0.1900276  43.25  0.002551324    2.885    0.653
       111 -10.6350     57.3113    193.7726   1.3727078884e+02   2.7881351422e+01    0.3232113    0.2890903  41.54  0.002127126    1.404    0.288
       112  -9.4644    134.1198    197.8221   1.2116035642e+02   1.4475194461e+01    0.2157318    0.1798862  74.38 0.0003139451    1.203    0.169
       113 -11.6307     65.6593    195.0379   1.3565377546e+02   2.6462940166e+01    0.3829896    0.2761397 -51.05  0.001538827    1.668    0.401
       114 -10.1900    113.1327    193.8292   1.2513033044e+02   1.9179001211e+01    0.4878127    0.2363338 -61.64  0.001392749    2.183    0.542
       115 -10.8743    249.1288    194.6946   9.7402162804e+01  -6.5411435671e+00    0.2870245    0.2410728  35.84  0.001785728    1.283    0.221
       116 -10.2769     38.6396    192.5502   1.4101473717e+02   3.0471912919e+01    0.3702792    0.1671646 -59.54 0.0002315105    2.120    0.528
       117  -9.7740     41.0498    187.8232   1.4003091501e+02   3.1247084671e+01    0.2679961    0.1527224  81.51  0.001418764    1.743    0.426
       118  -9.2921    159.5681    194.4880   1.1504904996e+02   1.0262088828e+01    0.1433963    0.1350885  52.65 4.899682e-05    1.011    0.011
       119  -9.2909    133.3651    194.3882   1.2074772407e+02   1.5348987431e+01    0.2612962    0.1330844  38.54 0.0006390323    1.991    0.498
       120 -10.6059    120.1547    192.6944   1.2338982966e+02   1.8167231894e+01    0.3716748    0.3162281 -45.13  0.001482258    1.365    0.268
       121  -9.6081    118.0082    190.0158   1.2342979977e+02   1.9148704091e+01    0.2158449    0.1896497  75.42 0.0003113696    1.050    0.047
       122  -9.5345     83.4766    193.4526   1.3161096899e+02   2.4198067622e+01    0.3277097    0.2270674 -20.85  0.001440833    3.130    0.681
       123  -9.5440     72.9614    193.0401   1.3384116136e+02   2.5871004490e+01    0.1935954    0.1655006  83.93            0    1.039    0.037
       124 -10.1857    191.4302    191.3857   1.0775007079e+02   4.5753606606e+00    0.2708728    0.2477959  12.87  0.000601974    1.095    0.086
       125  -9.2589    172.8165    192.3916   1.1182658423e+02   8.0627752708e+00      0.20067    0.1313673  34.21 0.0004642995    1.568    0.362
       126  -9.3312     31.3053    195.2646   1.4275329161e+02   3.0703801197e+01    0.2838114    0.1226109  51.03  0.001448187    2.173    0.540
       127  -9.5015     20.1068    191.5446   1.4463557689e+02   3.2700271952e+01    0.1913332    0.1289223  80.72  0.001239039    1.205    0.170
       128  -9.1610    135.2354    190.2086   1.1961353340e+02   1.5893851016e+01     0.194156    0.1576541  75.09 0.0003443981    1.283    0.221
       129 -10.3333     32.5796    189.5509   1.4195620061e+02   3.1824173884e+01    0.3271241     0.231575  29.64  0.002030797    1.879    0.468
       130 -11.3748     76.3829    186.4901   1.3222471048e+02   2.6857446524e+01    0.3933551    0.2426499 -85.01  0.001216876    1.703    0.413
       131 -11.7701     71.2997    187.6000   1.3349816375e+02   2.7347677527e+01     0.298713    0.2784308 -62.97 0.0005071091    1.302    0.232
       132 -10.9711    141.6402    182.9323   1.1686885891e+02   1.6231982886e+01    0.4848674    0.3481508  40.60  0.001304579    1.381    0.276
       133 -11.1405    249.7766    187.6510   9.5897651535e+01  -5.5376031180e+00    0.3786348    0.2477991 -22.09  0.002022173    1.522    0.343
       134  -9.8842     30.1180    183.0844   1.4182811902e+02   3.3534949673e+01     0.265916    0.1510369  74.81 0.0009256482    1.721    0.419
       135 -10.4327     25.0144    184.3075   1.4300120424e+02   3.3795833666e+01    0.2309939     0.154645  47.27 0.0008173723    1.559    0.359
       136  -8.9767     86.0120    183.4781   1.2963401961e+02   2.6076347274e+01    0.1859545    0.1282433   8.96 0.0003307554    2.829    0.646
       137 -10.6159    236.4051    145.8850   8.9482253840e+01   4.0925887238e+00    0.7332346    0.2995203  35.23  0.002440076    3.772    0.735
       138 -12.6659    248.1175    101.3471   7.7687320297e+01   9.6556374410e+00    0.8691469    0.4608082 -37.16  0.003939344    1.762    0.433
       139 -10.7671    193.7421    245.2822   1.1672700407e+02  -4.9624372221e+00    0.2199733    0.2168662 -71.84  0.000279246    1.285    0.222
       140 -11.3640    248.3886    142.6825   8.6757527724e+01   2.3243550843e+00    0.7076795    0.4268641 -18.89  0.002930947    2.206    0.547
       141 -12.9343    248.5933    133.7067   8.4771329763e+01   3.8699106034e+00     1.337506    0.8550542 -28.63   0.00652692    1.606    0.377
       142 -13.1944    245.2826    163.4548   9.1720891788e+01  -7.2176461253e-01     1.633012    0.4527163 -45.71  0.005058494    4.096    0.756
       143  -9.2621    175.5886    179.5388   1.0872227779e+02   1.0085276741e+01    0.1450962    0.1411796  58.73 -3.862665e-05    1.031    0.030
       144  -9.9307    109.1520    178.4447   1.2351354380e+02   2.3356299816e+01    0.2594139     0.221382 -63.78 0.0003544235    1.172    0.147
       145  -9.2889     47.8544    179.6742   1.3766345986e+02   3.2285806516e+01    0.1701761    0.1021361  50.72 0.0004991562    1.648    0.393
       146 -12.1954     29.2750    227.6125   1.4578353352e+02   2.4131115400e+01    0.7185559    0.3830177  58.28  0.001966689    1.556    0.357
       147 -11.5196     79.9605    175.6505   1.2985776087e+02   2.8831233671e+01    0.4706495    0.2816181  48.25  0.001437061    1.653    0.395
       148  -9.7381    114.9381    176.5939   1.2184622671e+02   2.2738651895e+01    0.2983765    0.1851339 -76.60  0.001221573    1.987    0.497
       149 -11.6570     67.7731    173.5265   1.3237360799e+02   3.1108686276e+01     0.495965    0.2992443 -54.85  0.001061799    1.655    0.396
       150  -8.3834     31.2718    177.3614   1.4099963858e+02   3.4702684698e+01    0.1204165   0.08093306 -53.73 0.0007000234    1.654    0.395
       151  -9.8032    121.9041    175.5989   1.2004395280e+02   2.1675037802e+01    0.2436778    0.1989584 -72.42 0.0003844739    1.229    0.186
       152  -8.9519     65.7317    182.0240   1.3399901399e+02   2.9416355663e+01    0.1816781    0.1467661 -86.80 0.0002246002    1.060    0.056
       153  -9.8413    107.7891    173.0927   1.2290884729e+02   2.4835532457e+01    0.2206587    0.1788325  82.79  0.000480564    1.243    0.196
       154  -9.3194     95.4726    172.8872   1.2578408720e+02   2.7005699157e+01    0.2076208    0.1331229 -64.80  0.000657606    1.505    0.335
       155  -9.2159     91.1316    172.7868   1.2679289213e+02   2.7744499995e+01    0.2421936    0.1877979 -44.64 0.0006524473    1.503    0.335
       156 -10.5902     89.9159    160.4658   1.2500451355e+02   3.0856223023e+01    0.3260831    0.2195137 -73.17 0.0002998979    1.496    0.332
       157  -9.8203     93.5110    169.4079   1.2566889532e+02   2.8148637781e+01      0.21981    0.2030238  -4.60 4.392795e-05    1.428    0.300
       158 -12.4369     87.2176    166.7084   1.2672739000e+02   2.9807831625e+01    0.8275521    0.5317028 -56.48  0.004108327    1.496    0.331
       159 -10.8866     29.0599    171.2451   1.4082821449e+02   3.6324378177e+01    0.3821829    0.2947282 -76.71  0.002499506    1.102    0.093
       160  -8.8508    100.5101    170.4967   1.2418423143e+02   2.6713311333e+01    0.1445671    0.1318887  89.49 -0.0002197001    1.022    0.022
       161 -10.9040     43.9211    168.7786   1.3722420510e+02   3.5270416516e+01    0.3871348    0.3612917  47.74  0.001818976    1.328    0.247
       162  -9.4508    126.3406    167.6054   1.1750243820e+02   2.2658879075e+01    0.2312766    0.1700589  77.46 0.0007894501    1.602    0.376
       163  -8.9677    107.4523    168.4486   1.2216481443e+02   2.5978356012e+01    0.1469528    0.1332893  85.87 6.993419e-05    1.014    0.014
       164  -9.3551     58.7098    167.4577   1.3363100865e+02   3.3759712706e+01    0.2119508    0.1730278  74.66 0.0006600867    1.151    0.131
       165 -10.2518     68.7906    166.8844   1.3116797462e+02   3.2529670107e+01    0.2207292    0.1983119 -78.57 0.0004353918    1.101    0.092
       166  -9.2178     53.9570    164.7299   1.3436955411e+02   3.5008523459e+01    0.1768474    0.1497691 -87.49 0.0002643409    1.025    0.024
       167 -11.0594     23.1022    163.4014   1.4129696756e+02   3.8703016023e+01    0.4381853    0.2375593 -47.34  0.002323155    2.214    0.548
       168  -9.8415     36.9437    162.5396   1.3805352562e+02   3.7500196339e+01    0.1659161    0.1200956  43.82  0.000642238    1.528    0.346
       169  -8.5496    154.3888    161.6916   1.0973809062e+02   1.8304542416e+01      0.16396    0.1193674  80.12 0.0007014586    1.816    0.449
       170 -10.8103     96.0176    157.6528   1.2298995841e+02   3.0515382122e+01    0.4597941     0.198009 -59.34  0.001204397    2.258    0.557
       171 -10.5406     74.0785    159.1901   1.2868745517e+02   3.3600614737e+01     0.389997    0.2213146 -49.11  0.001600703    1.840    0.457
       172  -9.4724     71.9625    156.5167   1.2877270195e+02   3.4544113549e+01    0.2733678    0.2165271  13.21  0.001475679    1.774    0.436
       173  -9.2941     79.0024    158.9711   1.2743839136e+02   3.2922631273e+01    0.2190477    0.1543262  78.75 0.0005444911    1.572    0.364
       174  -9.0356     52.4810    158.4723   1.3384382236e+02   3.6666732029e+01    0.1329229    0.1120714 -78.36 0.0002571809    1.031    0.030
       175 -11.9022     31.4608    127.1808   1.3451394072e+02   4.6286008002e+01    0.4148688    0.2420273  57.50  0.001875631    2.120    0.528
       176 -10.3162     35.1604    149.1462   1.3675372240e+02   4.0809627077e+01    0.2612779    0.1667515  54.59  0.001201904    1.695    0.410
       177 -13.2633     27.0946    155.8137   1.3952354665e+02   4.0063043284e+01    0.8977401    0.5501553  31.35  0.005223071    1.991    0.498
       178 -10.7360     32.0252    145.9933   1.3709807781e+02   4.1860458869e+01    0.3116115    0.1449557 -60.03  0.001412042    1.761    0.432
       179 -12.5936     32.3346    140.5058   1.3626524797e+02   4.3108536832e+01    0.4954888    0.3689702 -71.70  0.002297513    1.092    0.084
       180  -9.2702    228.4453    155.1317   9.2926191684e+01   3.9885860531e+00    0.2198859    0.1338154 -38.91 0.0007964151    1.554    0.357
       181  -9.4228     52.9941    146.4857   1.3192158684e+02   3.9444266594e+01    0.2387394    0.1661278 -81.27 0.0006211207    1.366    0.268
       182 -10.5292     60.2136    151.0801   1.3082566716e+02   3.7445706851e+01    0.4823365     0.271343  80.39  0.001836175    2.541    0.606
       183 -10.4033     55.9294    150.3688   1.3178812684e+02   3.8160746733e+01    0.3081161    0.2445937  82.40  0.001114667    1.233    0.189
       184 -10.1723    113.8785    150.8611   1.1720625493e+02   2.8941609221e+01    0.3782693    0.2502166 -58.09 0.0006614555    1.479    0.324
       185 -10.9165    100.0340    151.2985   1.2078002544e+02   3.1340543263e+01    0.4518347    0.4373329 -57.78  0.002329232    1.133    0.117
       186  -9.7740    103.1398    146.0140   1.1893582426e+02   3.2051995445e+01     0.330247    0.2215756 -35.48  0.001484291    1.853    0.460
       187  -8.7689     49.4786    150.5030   1.3341802587e+02   3.8912487139e+01    0.1328014    0.1115895 -73.78 0.0008099953    1.038    0.037
       188 -13.0576     68.0951    143.7765   1.2758813401e+02   3.8133448171e+01    0.7601638    0.7047976  67.96  0.004180182    1.144    0.126
       189  -9.2681    158.9887    145.2188   1.0504035886e+02   2.0954780169e+01    0.2100077    0.1977716  61.81  0.001088579    1.052    0.050
       190  -9.0840     92.8323    145.1243   1.2141279618e+02   3.4039278626e+01     0.222374      0.17976  79.48 0.0006158514    1.320    0.243
       191 -10.8959    133.5298    142.3720   1.1047852290e+02   2.7043362929e+01    0.8628818    0.2848629 -52.36  0.002647542    3.184    0.686
       192 -12.6248     17.3073    139.6068   1.3989196081e+02   4.4664544964e+01     0.386469    0.2908424  59.01  0.002553713    1.453    0.312
       193  -9.5588     41.5221    140.4872   1.3392325586e+02   4.2172219568e+01    0.1308405    0.1082778 -70.75 0.0002875361    1.028    0.028
       194  -9.9319    138.6816    138.7754   1.0838911209e+02   2.6789360778e+01    0.2478541    0.2144993  33.51 0.0006728024    1.251    0.201
       195 -10.6964     60.6658    137.4363   1.2841981942e+02   4.0636501656e+01    0.2314162     0.213593 -77.91 0.0004870619    1.075    0.070
       196 -10.3576    111.2866    136.1677   1.1473181463e+02   3.2889382757e+01    0.4084923    0.3157007  24.38  0.001362492    1.581    0.367
       197 -13.0302      3.4649    142.5375   1.4354734879e+02   4.5057029408e+01     0.758937    0.4796261 -83.87  0.004836222    1.285    0.222
       198 -11.9191     45.4869    131.7481   1.3149007862e+02   4.3794701932e+01    0.4758085    0.3426968 -85.64  0.002688904    1.407    0.289
       199  -9.9020    136.7649    134.0469   1.0775637491e+02   2.8270902627e+01    0.2116404    0.1965971 -53.91 -0.000430966    1.067    0.063
       200  -9.3079     59.2874    133.6395   1.2810962959e+02   4.1713634229e+01    0.1397022   0.09757691  83.81 0.0004872401    1.686    0.407
       201 -12.5029      2.2078    127.8380   1.4220941914e+02   4.8429511778e+01    0.9783465    0.1800355 -71.78  0.003266895    4.474    0.776
       202 -13.3713     20.8575    121.2654   1.3646512806e+02   4.8564137156e+01    0.8708575    0.4987194 -27.02  0.004452872    2.535    0.606
       203 -11.8404     67.3659    128.3459   1.2490850832e+02   4.1903124491e+01     0.428508    0.3667935 -84.90  0.001556143    1.172    0.147
       204  -9.4866    122.8072    128.1049   1.0988032291e+02   3.2516820112e+01    0.2235893    0.2000825 -83.45 0.0002726567    1.162    0.140
       205  -8.7868    109.9789    128.9701   1.1344504024e+02   3.4817993086e+01    0.1745979    0.1681344 -78.53            0    1.021    0.021
       206 -10.4954    209.7891    125.7594   8.9709918401e+01   1.3546382502e+01      0.29982    0.2580705 -39.11 0.0005017947    1.129    0.115
       207 -11.5123     37.6569    122.5295   1.3206427280e+02   4.6763943146e+01    0.4760127    0.1364444 -55.49  0.001881465    2.644    0.622
       208 -10.5375     23.7976    149.3924   1.3952647221e+02   4.1853773852e+01    0.2056281    0.1578324 -27.88 0.0009780951    1.822    0.451
       209  -9.2237    126.1353    180.2865   1.1991213819e+02   1.9815173261e+01    0.2647466    0.1773523 -75.17  0.001204135    1.768    0.435
       210 -10.2036     58.5016    125.0287   1.2672044189e+02   4.3843058670e+01    0.2840529    0.1778817  23.83  0.001350569    2.022    0.505
       211 -10.1647     54.8827    120.9238   1.2694346267e+02   4.5246348657e+01    0.2433541     0.205417   8.08  0.001110028    1.475    0.322
       212 -11.6692     10.3958    116.8223   1.3864837815e+02   5.0346029992e+01    0.2672338    0.1490781 -61.98  0.001337843    1.364    0.267
       213  -9.2600     86.3187    116.5537   1.1705424212e+02   4.1841684429e+01    0.3109482     0.175431 -66.76   0.00107109    2.128    0.530
       214  -9.0820     48.6399    118.0650   1.2816670534e+02   4.6635084687e+01    0.2317667   0.06245577 -45.20 0.0007031898    4.376    0.771
       215 -11.8682     15.2130    115.1858   1.3709246293e+02   5.0370793108e+01    0.3468839    0.1632116 -65.33  0.001209013    1.636    0.389
       216 -12.6872    249.2509    171.6868   9.2751902785e+01  -2.8354555335e+00     1.005061    0.5243881 -33.02  0.004696965    1.816    0.449
       217 -10.8734    168.0392    113.2852   9.5182502525e+01   2.5765631436e+01    0.3767988      0.30556 -78.25 0.0009055138    1.427    0.299
       218  -9.3753     49.8902    112.8412   1.2678068029e+02   4.7696045965e+01    0.1735829    0.1454177 -89.19 0.0004159346    1.299    0.230
       219  -9.2975    203.5071    111.5081   8.7458237111e+01   1.7750258834e+01    0.1513838    0.1466715 -55.24 0.0002175687    1.039    0.038
       220 -10.5377     31.6596    110.9231   1.3172779356e+02   4.9988706482e+01    0.2023941    0.1803968  49.76 0.0002433907    1.332    0.249
       221 -10.1771     59.1920    110.3837   1.2353312192e+02   4.7147904996e+01    0.1808156    0.1225971  45.86 0.0004352819    1.700    0.412
       222 -11.5328     19.6562    103.7720   1.3397249961e+02   5.2584211467e+01    0.3503836    0.1942262 -21.04  0.001794198    2.628    0.619
       223  -8.5278     77.6963    103.2943   1.1637805859e+02   4.6191108606e+01    0.1349952    0.1089427  85.37 0.0002733461    1.577    0.366
       224 -12.7424    245.0445    156.0283   9.0187964561e+01   6.1327212340e-01     1.397216     0.916555 -68.77  0.006099449    2.633    0.620
       225  -9.6844     30.9389     90.4734   1.2791527210e+02   5.4569502700e+01    0.1560002    0.1229158  19.49 0.0003722236    1.513    0.339
       226  -9.6684     24.1408     87.9570   1.2956230866e+02   5.5674592511e+01    0.1828853    0.1454696 -51.96 0.0003878947    1.006    0.006
       227 -11.1538    249.6172    150.9416   8.8330991863e+01   6.4552105726e-01    0.5607926    0.3281649 -40.45  0.002426113    1.551    0.355
       228 -12.7842     55.3050    208.6893   1.3929348731e+02   2.4863573400e+01    0.9688133    0.6554117  75.57  0.005845672    1.287    0.223
       229 -10.9104    222.3480    244.8993   1.1135337611e+02  -9.5712977323e+00    0.2444621    0.1545141  28.64 0.0006996181    1.376    0.274
       230 -11.3123    189.9617     15.5388   6.5170041206e+01   3.6055404420e+01    0.2888046    0.2179713  75.70 0.0007797341    1.145    0.126
