#   1 NUMBER                 Running object number                                     
#   2 MAG_AUTO               Kron-like elliptical aperture magnitude                    [mag]
#   3 X_IMAGE                Object position along x                                    [pixel]
#   4 Y_IMAGE                Object position along y                                    [pixel]
#   5 X_WORLD                Barycenter position along world x axis                     [deg]
#   6 Y_WORLD                Barycenter position along world y axis                     [deg]
#   7 A_WORLD                Profile RMS along major axis (world units)                 [deg]
#   8 B_WORLD                Profile RMS along minor axis (world units)                 [deg]
#   9 THETA_WORLD            Position angle (CCW/world-x)                               [deg]
#  10 FWHM_WORLD             FWHM assuming a gaussian core                              [deg]
#  11 ELONGATION             A_IMAGE/B_IMAGE                                           
#  12 ELLIPTICITY            1 - B_IMAGE/A_IMAGE                                       
         1 -14.1710    166.2739     49.4328   7.4227776410e+01   3.7512711501e+01     1.239592     1.111082  25.29  0.001094943    1.310    0.237
         2 -13.8464    180.3346     34.3259   6.7927119475e+01   3.6122117445e+01    0.8746349    0.6695445  82.40  0.002692507    1.208    0.172
         3 -13.4874    184.4291     27.6809   6.5666114484e+01   3.5950532990e+01    0.5145418    0.4543638  83.44  0.001191572    1.044    0.042
         4 -12.7353    189.7467     14.5809   6.1794138066e+01   3.6164988707e+01    0.2957408    0.2157884 -82.22  0.001020472    1.271    0.213
         5 -13.8815    200.6660      3.7223   5.8115883353e+01   3.4744460244e+01    0.8654187    0.4327827  70.22  0.004067316    1.665    0.399
         6 -11.6963     59.1878      6.0064   8.5697948325e+01   6.4982072752e+01    0.1809916     0.100391  27.52  0.001059386    1.611    0.379
         7 -12.5418    193.5670    193.0110   1.0341909236e+02   3.5965319209e+00    0.8482266    0.4933591 -53.63  0.003207412    2.021    0.505
         8 -18.6053     51.7563    243.2040   1.4042757302e+02   1.7528188005e+01     7.129569     6.410882  74.70   0.05190311    1.302    0.232
         9 -11.6871    121.9306    199.0567   1.2034326925e+02   1.6032164073e+01    0.3068677    0.2071639 -48.91 0.0006980037    1.598    0.374
        10 -12.7729    106.4314    202.4390   1.2440385181e+02   1.8014947471e+01    0.6338663    0.4019789  40.16  0.001933799    1.555    0.357
        11 -10.8664    154.6301    196.9211   1.1257282642e+02   1.0332094379e+01    0.2689417    0.2246151  76.29  0.001098611    1.362    0.266
        12 -13.6150     10.5926    206.1831   1.4519570978e+02   3.0109867748e+01    0.4874514    0.2972474  37.28  0.003066521    1.866    0.464
        13 -10.6266    163.8691    204.7768   1.1197583124e+02   6.9339731899e+00     0.246307    0.2094035 -59.17 0.0003895986    1.287    0.223
        14  -9.5560    180.4348    192.4522   1.0607525450e+02   6.2363833369e+00    0.1429381    0.1387658  53.14 8.457512e-05    1.077    0.071
        15 -10.7125    167.8649    189.8949   1.0830530078e+02   9.2262275853e+00    0.2801521    0.2462143 -17.18  0.001219234    1.263    0.208
        16 -12.1253    206.9614    180.0488   9.8066401679e+01   3.5430137060e+00    0.7231742    0.4171809  27.20  0.002746402    2.168    0.539
        17 -19.1237     34.1020    105.2269   1.2658322166e+02   5.1309320336e+01     16.77555    0.8170871 -60.84   0.02584163   17.500    0.943
        18 -11.9703     99.2453    180.7797   1.2262013032e+02   2.4287068738e+01    0.3175041    0.2946776 -30.65 0.0006393181    1.308    0.236
        19 -11.6519     95.7050    180.3168   1.2339850816e+02   2.4996893166e+01     0.257564    0.2277754 -82.08 0.0005333675    1.055    0.052
        20 -10.8709     63.6802    180.7739   1.3114828318e+02   2.9789433024e+01    0.3445581    0.2212404  85.77  0.001709684    1.674    0.403
        21 -12.3326    141.2738    176.1734   1.1167538260e+02   1.7533945212e+01    0.3621126    0.2921887   6.80  0.001729781    1.640    0.390
        22 -10.8575    193.8042    164.9358   9.7553868679e+01   9.1768068907e+00    0.3622884    0.2928308 -55.16  0.001264069    1.301    0.232
        23 -10.6046    196.2958    174.6546   9.9110785363e+01   6.6949356345e+00    0.2617209    0.2196636 -88.37 0.0009571032    1.543    0.352
        24 -11.6376    196.0497    170.5028   9.8283479409e+01   7.5826081205e+00    0.4503261    0.4124076 -69.96  0.001657702    1.216    0.177
        25 -11.6079     78.7285    174.4868   1.2658991507e+02   2.9123983789e+01    0.2602623    0.1846737  61.35  0.000737541    1.444    0.308
        26 -10.9670     73.1486    174.9320   1.2802391827e+02   2.9850887469e+01    0.2157184     0.171713  83.91 0.0005602668    1.208    0.172
        27 -10.9732    209.7356    199.1838   1.0135313379e+02  -5.5995764771e-01    0.2774681    0.2101022 -63.18  0.001188797    1.794    0.443
        28 -11.9584    137.5438    171.2908   1.1158821990e+02   1.9399114951e+01    0.3594088    0.3149165  83.48  0.001008173    1.204    0.169
        29 -10.8892    159.1944    205.9227   1.1319810584e+02   7.5876706735e+00    0.3424591    0.2444431  66.26  0.001641742    1.727    0.421
        30 -10.1362    223.6741    163.9708   9.1456293431e+01   3.4159605499e+00    0.2066874    0.1695329 -40.90 0.0005262435    1.152    0.132
        31 -10.0579    115.1206    162.1315   1.1526560674e+02   2.5919711105e+01    0.2111474    0.1740624 -87.54 0.0004186051    1.298    0.230
        32 -10.8478      5.9315    161.7093   1.4236490332e+02   4.0546207620e+01    0.1560523    0.1345117 -78.37 0.0003625479    1.162    0.139
        33 -10.5885    237.4968    159.5039   8.8015525554e+01   1.6540232607e+00    0.1396879    0.1262438 -36.14 -7.929425e-05    1.043    0.041
        34 -11.1831    119.7644    156.5056   1.1294373701e+02   2.6385374394e+01    0.3641477     0.268621 -80.81  0.001656521    1.616    0.381
        35 -10.4588      9.7805    153.2104   1.4058488625e+02   4.2212128010e+01    0.1833147    0.1399186 -87.32  0.001203746    1.108    0.098
        36 -12.5126    133.8839    144.9023   1.0683827136e+02   2.6309859629e+01     1.268897    0.3178409 -54.23  0.002955866    5.440    0.816
        37 -10.5609    174.8697    149.1271   9.8100132551e+01   1.6545865373e+01    0.2424494    0.2150802 -85.98 0.0006350806    1.246    0.197
        38 -12.3186    144.8540    145.7054   1.0430359641e+02   2.3818166436e+01    0.4391013    0.3663836 -82.84  0.001020182    1.356    0.263
        39 -12.1395      8.5730    145.0502   1.3996218725e+02   4.4202566949e+01    0.5771926    0.3477974  -7.15  0.001977094    2.790    0.642
        40 -13.3019      4.0791    129.4410   1.3923170654e+02   4.8121746977e+01      1.60401    0.5701491 -77.25  0.006821567    2.724    0.633
        41 -12.9573    110.4771    140.2024   1.1184534838e+02   3.2071142026e+01    0.8189787    0.5284533 -17.99   0.00305194    2.825    0.646
        42 -12.4489    100.2900    139.7120   1.1447698748e+02   3.4058116329e+01     0.299446    0.2812142 -54.27 0.0004570457    1.056    0.053
        43 -11.7795    106.0969    130.8702   1.1090476951e+02   3.5115398590e+01    0.4130039    0.3463473 -66.93  0.001327268    1.207    0.172
        44 -11.4114    105.4682    126.2527   1.0999120844e+02   3.6320426934e+01    0.3271022     0.243766 -36.28  0.001199208    1.433    0.302
        45 -12.0309    117.8244    129.9289   1.0750903114e+02   3.3080714534e+01    0.3992449     0.361962   5.35  0.001057442    1.267    0.211
        46 -12.4122    135.3998    122.2789   1.0103163058e+02   3.1189359430e+01    0.6848719    0.3169308 -52.16  0.002451652    2.282    0.562
        47 -11.4434    125.4877    127.4741   1.0488627297e+02   3.2099653118e+01    0.4095496    0.2601157  77.02  0.001479374    2.758    0.637
        48  -9.6645    127.3025    122.6807   1.0322493183e+02   3.2818280302e+01    0.1583012    0.1237068 -89.58 0.0002947331    1.626    0.385
        49 -12.4881      8.4200    118.2745   1.3653565150e+02   5.0386521928e+01    0.4373833    0.1671524 -50.30  0.001858811    2.168    0.539
        50 -10.6447    112.0998    119.0236   1.0639209011e+02   3.6728467324e+01    0.2460157    0.2221286  43.09 0.0003386576    1.142    0.125
        51 -12.1975     67.5331    116.6010   1.1872160075e+02   4.4793247912e+01     0.285104    0.2465779  89.97 0.0008917211    1.302    0.232
        52 -11.1866    168.3364    113.1961   9.0866901015e+01   2.5712805544e+01    0.4202016    0.3001902 -77.23  0.001080906    1.866    0.464
        53 -11.8130      2.3573    112.6464   1.3744919746e+02   5.2036610452e+01    0.2766753    0.1974964 -54.28  0.001341533    1.171    0.146
        54 -10.7549    205.2619    110.3505   8.2749104215e+01   1.7728170467e+01    0.3617083    0.2433019  36.54  0.001132056    1.848    0.459
        55 -12.6182     61.4739    109.1755   1.1888222382e+02   4.7328246420e+01    0.3551995    0.3031919   3.06  0.002000321    1.332    0.249
        56 -11.1595    160.5183    127.3043   9.6173543624e+01   2.4506227313e+01    0.3582217     0.254511 -79.35  0.001458647    1.958    0.489
        57  -9.8887     80.4231    105.7290   1.1221915658e+02   4.5364819431e+01    0.1970506    0.1261867 -42.23 0.0004385226    1.488    0.328
        58 -11.4201     67.3869    104.4550   1.1592432174e+02   4.7594787893e+01    0.2813987    0.2057613  -0.94  0.001432116    1.751    0.429
        59 -11.2439    152.5354    102.8673   9.1771218435e+01   3.1511684976e+01    0.4708982    0.3094081  82.15  0.001809623    2.422    0.587
        60 -10.0584    150.4083     79.7826   8.5932571575e+01   3.6448962984e+01    0.2069187    0.1465947 -26.57 0.0009480619    1.636    0.389
        61 -10.5093     82.3009     76.1215   1.0338825937e+02   5.1221167939e+01    0.2242118     0.177952  21.53 0.0003973358    1.292    0.226
        62  -9.2374    168.2891    248.2787   1.1822155257e+02  -1.8871183561e+00    0.1232119   0.09391054  11.88 0.0001995399    1.521    0.343
        63 -13.2067    175.7160     39.9425   7.0089452688e+01   3.6517365980e+01     0.956659    0.5696782 -85.78  0.003332708    2.188    0.543
        64 -12.8478    116.2994    211.4715   1.2356847569e+02   1.4300962491e+01    0.6696918    0.4026089  89.96   0.00220114    2.532    0.605
        65 -13.6887    102.3270    193.6278   1.2398048713e+02   2.0735468309e+01     1.016754    0.5927648 -85.84  0.002832388    2.441    0.590
        66 -10.2644     13.5556     59.9214   1.2323783277e+02   6.2409864711e+01    0.1624702     0.132519 -29.92 0.0004449597    1.079    0.073
        67 -12.0259    201.0009     21.7261   6.2157297897e+01   3.2722886479e+01     0.212476    0.1808751 -80.39  0.001127829    1.063    0.059
        68 -10.0122    110.5829     20.7339   7.6854890777e+01   5.3869568780e+01    0.2059952    0.1474701  76.01 0.0007270991    1.732    0.423
        69 -14.8138    113.4700    197.2270   1.2198119396e+02   1.7965682201e+01     2.148929    0.8405444 -63.20  0.007514461    3.100    0.677
        70 -13.4114    106.7367    210.4648   1.2552871177e+02   1.6173328693e+01    0.7067814    0.6147299  45.31  0.004123397    1.177    0.150
        71  -9.9801     77.6630     10.3002   8.1643752548e+01   6.1407584221e+01    0.1049286   0.09489901 -86.92 0.0007035079    1.661    0.398
