#   1 NUMBER                 Running object number                                     
#   2 MAG_AUTO               Kron-like elliptical aperture magnitude                    [mag]
#   3 X_IMAGE                Object position along x                                    [pixel]
#   4 Y_IMAGE                Object position along y                                    [pixel]
#   5 X_WORLD                Barycenter position along world x axis                     [deg]
#   6 Y_WORLD                Barycenter position along world y axis                     [deg]
#   7 A_WORLD                Profile RMS along major axis (world units)                 [deg]
#   8 B_WORLD                Profile RMS along minor axis (world units)                 [deg]
#   9 THETA_WORLD            Position angle (CCW/world-x)                               [deg]
#  10 FWHM_WORLD             FWHM assuming a gaussian core                              [deg]
#  11 ELONGATION             A_IMAGE/B_IMAGE                                           
#  12 ELLIPTICITY            1 - B_IMAGE/A_IMAGE                                       
         1 -16.1127    148.8471     46.7659   6.5528233505e+01   4.1580040224e+01     12.26146      8.53896 -60.60   0.02535661    1.736    0.424
         2 -14.6516    198.8842     30.7721   5.2483136709e+01   3.0706551880e+01     3.631634     1.759435  -3.06    0.0128651    3.196    0.687
         3 -13.4969    232.0162      6.8403   4.2730533135e+01   2.5125485862e+01     1.076551    0.5581239  62.76   0.00317976    2.056    0.514
         4 -14.8358    222.0513     81.1348   6.3571710073e+01   1.9008074711e+01     1.961511    0.5453584 -43.57  0.005714717    4.732    0.789
         5 -12.4898    127.6389     22.9735   6.0818817606e+01   5.0401131226e+01    0.7190655    0.4828995  32.53  0.002896487    1.651    0.394
         6 -12.5353    122.8260     30.2078   6.4870020104e+01   5.0690758840e+01    0.6523893    0.5468758 -21.27  0.002014118    1.198    0.165
         7 -18.5832    241.7203     53.2359   5.4011436216e+01   1.8216568237e+01     6.304968     2.993386 -22.71    0.0194765    1.899    0.474
         8 -10.9418    125.6688     14.1734   5.7503924408e+01   5.1956033349e+01    0.3869471    0.3070185 -78.97  0.001706565    1.455    0.313
         9 -12.5459    119.1227     10.0143   5.6977374399e+01   5.4130152923e+01    0.8238426    0.6796715  43.64  0.003051269    1.174    0.148
        10  -9.0201    158.4056    161.2634   9.3397021611e+01   1.9716857408e+01    0.1633596    0.1274949 -54.17 0.0004229677    1.574    0.365
        11 -12.3720    206.3202    246.1104   9.7498818702e+01   1.7974538078e+00    0.9057273    0.4180477  21.77  0.005384398    2.160    0.537
        12 -12.7589    205.2603    229.8770   9.5568113734e+01   3.4857102173e+00      1.29707    0.7252047  12.55    0.0080975    1.948    0.487
        13  -9.1097    238.7112    192.5456   8.4610346023e+01   2.5721571622e+00    0.1593478    0.1292739 -32.79 0.0007742205    1.731    0.422
        14 -10.1100    129.8918    236.8885   1.0925339161e+02   1.3026116080e+01    0.1674251    0.1301522  38.05 0.0003563223    1.060    0.057
        15  -8.8389     93.4048    160.8701   1.0779157212e+02   3.0698522535e+01    0.1773802    0.1046881  86.39 0.0008017316    2.559    0.609
        16 -10.5977    188.8138    157.8272   8.6798684255e+01   1.4789624604e+01    0.2946232    0.2454087  72.08 0.0008974855    1.778    0.438
        17  -8.6966     80.8809    159.2150   1.1055834815e+02   3.2861798209e+01    0.1519796    0.1444708  18.18 0.0002504006    1.283    0.220
        18 -10.2194    172.1660    157.3423   8.9898943195e+01   1.7862739909e+01    0.3759263    0.2469652  76.71  0.001509724    3.748    0.733
        19 -10.1615    249.3054    156.6203   7.6528812843e+01   4.7546282001e+00    0.2737134    0.1308381  44.68  0.001454412    2.178    0.541
        20  -8.9593    215.8403    157.1894   8.1891238274e+01   1.0141219439e+01    0.1725904     0.156461  15.20 0.0004420957    1.200    0.167
        21 -10.3405    157.3802    155.4776   9.2543826670e+01   2.0850550046e+01    0.4618698    0.3023904  85.29  0.001760703    4.082    0.755
        22 -10.9676    191.1777    150.9376   8.5005388973e+01   1.5355242883e+01    0.5413786    0.2639435 -52.25  0.002082837    3.783    0.736
        23 -12.1840     24.1838    158.8849   1.2424839495e+02   3.9593671285e+01    0.7276658    0.3474333  64.64   0.00344964    1.903    0.475
        24 -10.4778    195.3020    168.9706   8.7701210063e+01   1.2109401648e+01    0.3045316    0.2181269  73.18  0.001499907    2.920    0.658
        25  -9.6538    223.5031    151.0064   7.9401421336e+01   9.6066106766e+00    0.2118481    0.1738406  57.63 0.0007694028    1.696    0.410
        26  -9.0938    204.1129    151.6773   8.2816762156e+01   1.2912279298e+01    0.2525035    0.1134471  50.93   0.00108814    2.573    0.611
        27  -9.1997    173.3203    150.3162   8.8307429429e+01   1.8747690157e+01    0.1382862   0.09778537  10.93 0.0007040862    1.659    0.397
        28 -11.9263     51.9121    146.5785   1.1626730030e+02   3.9311330355e+01    0.3621808    0.3213429  37.59 0.0008384056    1.263    0.208
        29 -14.0635     64.4015    141.8455   1.1243812033e+02   3.8791082331e+01     1.689574     1.395918  -0.17  0.003756118    1.707    0.414
        30  -9.4382    199.2694    145.0329   8.2325381950e+01   1.4712870517e+01    0.2936346    0.1967162 -61.44  0.001354537    2.830    0.647
        31  -9.3322    196.2568    179.8539   8.9462422792e+01   1.0518702622e+01    0.2679446    0.2345264  51.02   0.00180667    1.467    0.319
        32  -9.1022    192.0610    144.0656   8.3439814635e+01   1.6192966597e+01      0.18459    0.1658556 -88.16 0.0004331905    1.605    0.377
        33 -10.1740    170.8801    143.2944   8.7376643094e+01   2.0328146335e+01    0.2251173    0.1931065 -77.75   0.00092121    1.622    0.383
        34 -11.9494    189.4012    138.7403   8.2814291088e+01   1.7487367296e+01    0.6930013    0.3280261  38.82  0.002391212    2.035    0.509
        35 -11.1761    210.2671    135.6808   7.8420375602e+01   1.3971446574e+01    0.5584539    0.4807118 -89.01  0.003250878    1.834    0.455
        36  -9.9283    201.0878    134.9058   7.9852523868e+01   1.5812812883e+01    0.1918773    0.1883904 -71.53  0.001174579    1.328    0.247
        37 -10.2468    164.1906    140.7919   8.8227445719e+01   2.2024601859e+01    0.2655273    0.1954428 -88.67  0.001239113    2.427    0.588
        38 -12.3447    160.7230    128.8972   8.6398232440e+01   2.4739130395e+01    0.6717292    0.4641228 -26.23  0.002935761    1.613    0.380
        39  -8.8428    192.7494    132.5733   8.0853988010e+01   1.7763819539e+01    0.2235314     0.131417  56.60 0.0004123585    2.096    0.523
        40  -9.1434    189.0736    131.5064   8.1302882344e+01   1.8645586128e+01    0.2083821    0.1794175 -16.89 0.0009256884    1.140    0.123
        41 -11.5121    222.6920    128.8555   7.4880647823e+01   1.2573483207e+01    0.7568099    0.3672436  50.25  0.003538987    2.229    0.551
        42  -9.7324    217.6503    125.3084   7.4907756518e+01   1.3987282325e+01    0.2217786      0.20631  70.45  0.001008149    1.443    0.307
        43  -9.7163    198.8538    121.9817   7.7355489836e+01   1.8128301235e+01    0.4235732    0.2802309  81.96  0.001682226    3.500    0.714
        44 -10.2705    203.4922    126.9963   7.7679033655e+01   1.6481508791e+01    0.3909848    0.2280521 -35.14  0.001844569    1.715    0.417
        45 -10.7083    206.2259    122.7993   7.6252589400e+01   1.6544165766e+01     0.426501    0.2887893  28.99  0.001925789    1.486    0.327
        46 -11.0658    184.2619    123.8980   8.0496828387e+01   2.0788051374e+01    0.4753045    0.4633705  48.43  0.002896883    1.184    0.155
        47 -10.5052    185.9963    119.7717   7.9205236235e+01   2.1081080830e+01    0.5782095    0.3833233  62.35  0.002741329    1.950    0.487
        48 -10.9025    202.1714    176.3917   8.7815259059e+01   9.9936063214e+00    0.3004045    0.2196441  24.37 0.0009349581    1.155    0.134
        49  -9.5055    154.1284    125.8139   8.7133284122e+01   2.6615710102e+01    0.2135274    0.1970267  79.90 0.0006119548    1.257    0.205
        50 -11.7747    195.8773    173.9998   8.8504420266e+01   1.1343399657e+01    0.5398935    0.3380212  43.69  0.001567281    1.533    0.348
        51 -11.7715    167.3350    114.7157   8.1702484781e+01   2.5821409512e+01    0.6462144    0.4830508  50.37  0.002360587    1.356    0.263
        52  -8.8696     66.0000    116.9537   1.0824564095e+02   4.4193674409e+01    0.2167215   0.07273602 -62.76 0.0004240274    2.871    0.652
        53  -9.9088    175.0653    114.3092   8.0027962425e+01   2.4248782857e+01    0.3610662    0.2485924  80.00  0.001538105    2.549    0.608
        54  -9.8666    117.1607    114.2079   9.3329252412e+01   3.6246698965e+01     0.217621    0.2032835   5.04 0.0007872023    1.183    0.154
        55  -8.9939    179.4389    109.9506   7.8094500368e+01   2.4029178098e+01    0.2223255    0.1870973  39.98 0.0007696977    1.167    0.143
        56  -9.4916     39.8075    114.6622   1.1578541522e+02   4.7926920211e+01    0.2510705    0.1636969 -83.90  0.001077968    1.432    0.302
        57  -9.3786    110.9051    110.4784   9.4121062459e+01   3.8228197688e+01      0.22051    0.1397662  42.72 0.0007424985    1.554    0.356
        58 -12.7153    166.1382    224.6039   1.0146956599e+02   9.5242048224e+00     1.014004    0.9051932  -2.51  0.008162866    1.303    0.233
        59 -10.0214    145.1558    105.0921   8.4176937795e+01   3.2311843698e+01    0.2697715     0.237664 -31.24  0.000756271    1.158    0.137
        60 -11.5063    154.4259    101.5233   8.1142740352e+01   3.0944857593e+01    0.5696695     0.375705  51.04  0.002021889    1.528    0.345
        61 -11.8089    167.6794     96.0851   7.6866636215e+01   2.8929688797e+01    0.6469792    0.5617575  48.49  0.001512461    1.166    0.142
        62 -10.6388    173.4379     92.9898   7.4872671073e+01   2.8138198052e+01    0.2835803    0.2676607  10.13 0.0003364443    1.026    0.025
        63  -9.2199     85.5253     96.0676   9.8009037595e+01   4.6000654724e+01    0.2188046    0.1374513 -58.45  0.001016944    1.575    0.365
        64 -11.2500    150.9960     93.1278   7.9647439395e+01   3.3234253199e+01    0.3725199    0.2702291 -44.81 0.0003414942    1.416    0.294
        65  -9.9192    104.0751     86.5494   8.9908735081e+01   4.4674401668e+01    0.2469429    0.1985422 -60.52   0.00124931    1.291    0.225
        66 -11.3239    132.6203     78.4826   7.9749981907e+01   4.0155574733e+01    0.4629294    0.2341933 -49.31  0.001663227    2.189    0.543
        67 -12.7725    150.9135    222.7874   1.0395349035e+02   1.1927418991e+01    0.8610366    0.3827828  33.80  0.004708953    1.860    0.462
        68  -8.9746    199.9417    188.1356   9.0215884354e+01   8.8878057781e+00    0.1713447    0.1442108  36.22 0.0005692955    1.280    0.219
        69 -11.0412    132.1909    222.5150   1.0733475960e+02   1.4624739816e+01    0.1678621    0.1654009 -80.14 0.0007456542    1.321    0.243
        70 -10.1956    225.9498    186.7233   8.5628155767e+01   5.0440361171e+00    0.1938036    0.1550045 -15.56 0.0003411215    1.313    0.238
        71 -10.3486    118.3119     64.9695   7.9137908863e+01   4.5999399516e+01    0.2614668    0.2190942  49.51 0.0002395869    1.212    0.175
        72 -15.4272    249.7486     82.5669   6.0356836705e+01   1.3206596635e+01     1.725512    0.3999576 -22.83  0.004954876    5.091    0.804
        73 -13.0373     57.4808    214.9829   1.2086022274e+02   2.5493953559e+01     1.252208    0.6103349  37.83  0.007722121    1.655    0.396
        74 -12.1986    125.7877     38.7228   6.7590867820e+01   4.8696760316e+01    0.7900303    0.4224339 -29.98  0.002434877    1.860    0.462
        75 -12.5031     39.7282    208.7367   1.2391849630e+02   2.8504205479e+01    0.9285251    0.6344043  66.79  0.006898597    1.197    0.165
        76 -11.6024    122.9073    211.0473   1.0780171081e+02   1.7590559273e+01    0.6891447    0.2481985  40.12  0.003351688    2.146    0.534
        77  -9.9334    170.5921     33.1116   5.6986358038e+01   3.7736670725e+01    0.5574901     0.200459 -33.30  0.001705275    2.492    0.599
        78 -11.2902    200.1576    164.7931   8.6059427836e+01   1.1838974102e+01    0.4987018    0.3189173  63.82  0.001493254    2.917    0.657
        79  -9.3890    205.5006    163.4895   8.4873216020e+01   1.1096862862e+01    0.2228543    0.1171763 -35.31 0.0006586122    2.028    0.507
        80 -10.3564    160.7740     24.4076   5.5457772217e+01   4.1386347776e+01    0.2626511    0.2481574 -11.46 0.0004241226    1.077    0.072
        81  -9.2697    203.4725    160.5237   8.4663787703e+01   1.1835857020e+01    0.2094366    0.1705533  34.14 0.0006555822    1.188    0.159
        82 -12.7401     12.5221    146.3685   1.2630832360e+02   4.3264568443e+01     1.500652     0.503065  82.88  0.006299749    3.266    0.694
        83  -8.3313     81.4176    174.6233   1.1230170729e+02   2.9736833612e+01    0.1206463    0.1015491  54.25 0.0001401657    1.030    0.029
        84  -9.3310    240.3196    211.1104   8.7351995183e+01   5.6491908395e-01    0.2085148    0.1471418 -27.98  0.001529806    1.737    0.424
        85 -10.2052    192.2160    193.7058   9.2474580540e+01   9.4130982832e+00    0.6621993    0.3523756 -58.30  0.002280749    7.322    0.863
        86 -12.2528     28.5615    155.2430   1.2293667856e+02   3.9945129794e+01    0.7195238    0.3797844  61.30  0.003775816    1.683    0.406
        87  -9.1727    191.5744    181.7973   9.0631423885e+01   1.1031068515e+01      0.18413    0.1468164 -36.09 0.0009872708    1.504    0.335
