#   1 NUMBER                 Running object number                                     
#   2 MAG_AUTO               Kron-like elliptical aperture magnitude                    [mag]
#   3 X_IMAGE                Object position along x                                    [pixel]
#   4 Y_IMAGE                Object position along y                                    [pixel]
#   5 X_WORLD                Barycenter position along world x axis                     [deg]
#   6 Y_WORLD                Barycenter position along world y axis                     [deg]
#   7 A_WORLD                Profile RMS along major axis (world units)                 [deg]
#   8 B_WORLD                Profile RMS along minor axis (world units)                 [deg]
#   9 THETA_WORLD            Position angle (CCW/world-x)                               [deg]
#  10 FWHM_WORLD             FWHM assuming a gaussian core                              [deg]
#  11 ELONGATION             A_IMAGE/B_IMAGE                                           
#  12 ELLIPTICITY            1 - B_IMAGE/A_IMAGE                                       
         1 -14.1492    205.5369     22.9340   6.0076626153e+01   3.1002643017e+01     2.060968     1.270895  28.93   0.01018295    2.948    0.661
         2 -11.2246      2.4177      4.1117   1.0441701197e+02   7.0763311848e+01     0.431503    0.1553697 -34.04  0.002447157    2.358    0.576
         3 -10.1562    189.9269     15.6678   6.0223952010e+01   3.5205070339e+01      0.17786    0.1374809  78.99 0.0007967541    1.108    0.098
         4 -10.1382    188.8175    250.3696   1.1180851889e+02  -4.5718949057e+00    0.1922588    0.1039634  27.35  0.000957337    1.756    0.430
         5 -12.1682    160.8504    249.5446   1.1726215510e+02  -1.4995541731e-02    0.6432257     0.286067  29.09  0.002745806    2.437    0.590
         6 -12.5531    139.6922    248.6872   1.2142189619e+02   3.5351370345e+00    0.6863722    0.3838583  41.23  0.003537893    1.564    0.360
         7 -13.5567    126.5201    247.0636   1.2387363985e+02   5.9326685616e+00     1.373001    0.5684334  35.89  0.005988908    2.245    0.555
         8 -12.1370     90.1673    245.9253   1.3105037127e+02   1.1722153336e+01    0.3413336    0.2611202  49.48  0.001329438    1.150    0.131
         9 -13.5036     96.1680    247.8043   1.3007813869e+02   1.0476317107e+01     1.382309    0.4360833  38.10  0.005558509    2.843    0.648
        10 -12.7404    105.8511    241.1242   1.2730624941e+02   1.0295153409e+01    0.8049971     0.536732 -89.62   0.00375312    1.984    0.496
        11 -10.2359     63.1300    250.5016   1.3675040161e+02   1.4600498856e+01    0.2565877    0.1000476  39.96 0.0006933072    2.275    0.560
        12 -14.7106     34.8679    246.8821   1.4161642771e+02   1.8801940800e+01     10.88235      3.52617  26.75   0.03342891    7.955    0.874
        13 -15.3571      9.1160    241.2249   1.4571627272e+02   2.2673257361e+01       16.046     1.154233 -72.88   0.03861114   11.505    0.913
        14 -14.2080     95.2909    231.7500   1.2828617577e+02   1.3772299261e+01     1.945178     1.181121  46.11  0.005167617    1.500    0.333
        15 -11.9893    151.8926    228.7837   1.1585795047e+02   5.1604596786e+00    0.6797331    0.2080016  38.14  0.002409649    3.008    0.668
        16 -11.1006    224.3662    198.2376   9.5432362394e+01  -1.6254350325e+00    0.3334391    0.2399865 -54.42  0.001182524    1.823    0.451
        17 -10.1066    192.3213    193.6452   1.0086813222e+02   4.7347712301e+00    0.4504215    0.2227003 -61.30  0.001331635    5.132    0.805
        18 -11.7724     62.3036    191.1392   1.3015287093e+02   2.7376874432e+01    0.4043308    0.2881652 -36.67  0.001230882    1.769    0.435
        19 -11.6933     68.0941    184.0618   1.2778547113e+02   2.8244394686e+01    0.2974735    0.2403975 -45.92 0.0004876144    1.322    0.244
        20 -15.5524      9.2350    206.3462   1.4315264779e+02   2.9835499494e+01     6.052484     1.459792 -68.59   0.02007317    3.162    0.684
        21 -11.0647     77.8401    172.6056   1.2359246293e+02   2.9565025088e+01     0.252215    0.2266497 -49.23 0.0004058911    1.126    0.112
        22 -13.3203     64.9354    169.7627   1.2635710151e+02   3.2037095306e+01    0.5476693    0.2791307 -42.75  0.001590646    2.237    0.553
        23 -12.2484     84.7058    164.1382   1.2036417276e+02   3.0545956808e+01     1.119883    0.6446508  58.56  0.004717182    2.307    0.567
        24 -13.0083     67.4811    144.1643   1.2118866350e+02   3.7776314936e+01    0.9454762    0.6542401  89.17  0.003076913    1.983    0.496
        25 -12.4000     57.5074    131.9928   1.2159825250e+02   4.1932093105e+01     2.402078    0.7423944 -66.55  0.005362846    8.080    0.876
        26 -11.5388     33.3709    156.2405   1.3227604602e+02   3.8917791475e+01    0.3414945    0.1846064 -68.56   0.00171749    1.634    0.388
        27  -9.9756     98.4054    148.7999   1.1375050904e+02   3.1963863801e+01    0.3037533    0.2534932 -22.63  0.000769475    1.326    0.246
        28  -9.3661    101.3711    144.8718   1.1211839065e+02   3.2373909948e+01    0.2499288    0.1853229 -12.29 0.0004689177    1.769    0.435
        29 -12.0421     86.8062    147.8804   1.1666566578e+02   3.4067513541e+01    0.2985875    0.2449057 -36.96 0.0004624466    1.232    0.188
        30 -12.9005     35.8195    222.8056   1.3938858535e+02   2.3589031723e+01     0.388512    0.3669558 -78.90 0.0008614953    1.281    0.219
        31  -9.6854    109.7097    135.1408   1.0769091656e+02   3.3128500737e+01    0.2968464    0.2171524 -15.81 0.0009775939    1.739    0.425
        32 -10.5365     96.9875    131.9459   1.1041253441e+02   3.6102194111e+01    0.2936209    0.2313911 -23.48  0.000548647    1.392    0.282
        33  -9.4425    106.9384    122.4825   1.0540312667e+02   3.6462805435e+01     0.206387    0.1917049 -29.94 0.0003342082    1.029    0.028
        34 -10.4822    167.8515    112.9274   8.7942190290e+01   2.5860547852e+01     0.374289    0.2884183 -79.85  0.001044718    1.737    0.424
        35  -9.4745    204.7130    110.7986   8.0215699300e+01   1.8218318467e+01    0.3477493     0.185283  36.91  0.001408707    2.437    0.590
        36 -14.9793     43.2310    213.1019   1.3695100442e+02   2.4813922181e+01     2.130532     1.858768  73.63  0.008780222    1.080    0.074
        37 -11.3041      2.2674     79.7454   1.2816216677e+02   5.8342852770e+01    0.8665032          nan -57.92  0.001942845    9.968    0.900
        38  -8.9768    158.3092     78.3293   8.0998403196e+01   3.4236115270e+01    0.1467146    0.1116899  16.62  0.000645855    1.663    0.399
        39 -11.8439    170.4276    248.4647   1.1516735285e+02  -1.3691280796e+00    0.5180405     0.229206  28.06  0.002184238    2.508    0.601
        40 -12.2799     23.0948    194.2748   1.3923939530e+02   3.1166184039e+01    0.5413058    0.4137576 -30.82 0.0004401897    1.841    0.457
