#   1 NUMBER                 Running object number                                     
#   2 MAG_AUTO               Kron-like elliptical aperture magnitude                    [mag]
#   3 X_IMAGE                Object position along x                                    [pixel]
#   4 Y_IMAGE                Object position along y                                    [pixel]
#   5 X_WORLD                Barycenter position along world x axis                     [deg]
#   6 Y_WORLD                Barycenter position along world y axis                     [deg]
#   7 A_WORLD                Profile RMS along major axis (world units)                 [deg]
#   8 B_WORLD                Profile RMS along minor axis (world units)                 [deg]
#   9 THETA_WORLD            Position angle (CCW/world-x)                               [deg]
#  10 FWHM_WORLD             FWHM assuming a gaussian core                              [deg]
#  11 ELONGATION             A_IMAGE/B_IMAGE                                           
#  12 ELLIPTICITY            1 - B_IMAGE/A_IMAGE                                       
         1 -13.5803    218.0692     57.2980   3.5819351555e+02   2.5327137322e+01     1.551192     1.212821  34.87  0.009779349    1.912    0.477
         2 -13.1479    237.9208     45.2222   3.5398576542e+02   2.3315355029e+01    0.8038982    0.6136616 -50.32  0.002942606    1.040    0.038
         3 -10.7007      2.1300     10.1710   4.6970836529e+01   7.8192706997e+01    0.3837491    0.1790904 -48.66   0.00122949    1.990    0.497
         4 -10.0870      2.4327      2.8640   4.1627723931e+01   7.9471871517e+01    0.3851883    0.2063138 -47.77  0.002107492    1.894    0.472
         5  -9.0841    148.5009      8.5072   3.5211190308e+02   4.6367856372e+01    0.1312565    0.1097183 -75.57 -0.0001983103    1.000    0.000
         6  -9.7974     19.0029      5.5013   2.8142211305e+01   7.6806861679e+01    0.1850903   0.09551779  21.39  0.000810682    2.612    0.617
         7  -9.6431    107.6815      1.9575   3.5452819906e+02   5.7086481471e+01    0.2394592    0.1598919 -73.88 0.0007285185    1.488    0.328
         8  -8.4317    185.3206    238.6725   3.7975835473e+01   1.8281761580e+00   0.09778214   0.08573138  38.77 0.0006376088    1.686    0.407
         9  -9.7049     75.1699    247.4789   6.1823642332e+01   1.2906532796e+01    0.4335307    0.1609397 -57.43  0.002054187    3.073    0.675
        10  -8.9289     51.7609    250.6530   6.7269613961e+01   1.4827131285e+01    0.1773111   0.08152912  34.82 0.0009373846    1.621    0.383
        11 -11.3075     42.4424    248.6372   6.9220332838e+01   1.6148854422e+01    0.3395661    0.2137434  20.08  0.002038626    1.522    0.343
        12 -13.7895      5.0370     81.0038   6.6664652677e+01   6.1357166350e+01     7.682484          nan -73.15   0.01432145   10.377    0.904
        13 -14.8909      4.8294    213.6326   7.6386011456e+01   2.6831639978e+01     3.984346     1.444454  14.37   0.01605695    3.394    0.705
        14 -14.4521     10.0967    207.0051   7.4819271553e+01   2.7886297604e+01     1.984177     1.086734   7.51  0.009432888    2.325    0.570
        15  -8.9453    131.0000    235.9216   4.8344110043e+01   8.4374763197e+00    0.1759572   0.06932598 -52.90 0.0008036359    2.951    0.661
        16  -9.9738     72.6940    233.1940   6.1182313312e+01   1.5872362577e+01    0.3320481    0.2404095 -78.89  0.001089225    1.665    0.400
        17 -11.1986    120.1227    232.2689   5.0254205217e+01   1.0378699332e+01    0.3998074    0.1704378  34.73  0.001915337    1.983    0.496
        18 -10.1985     46.2258    229.8911   6.7191725193e+01   1.9446888863e+01    0.4038716    0.2285243  12.87  0.002047804    2.035    0.509
        19 -10.1096    148.2485    229.2545   4.3867546942e+01   7.4674901321e+00     0.200489    0.1484255 -36.04  0.001280888    1.421    0.296
        20 -10.6132    164.0060    226.3623   4.0286862046e+01   6.0441557069e+00    0.2438088     0.200121 -21.36  0.001680826    1.190    0.160
        21 -10.5277     72.0650    225.9415   6.0680645625e+01   1.7385581490e+01    0.3563898    0.2652599  48.19  0.001952708    1.236    0.191
        22 -11.3669    132.5957    229.8830   4.7246437874e+01   9.2673020759e+00    0.4047174     0.249786  17.22  0.002279945    1.505    0.335
        23 -10.3534    173.8185    224.4640   3.8107462384e+01   5.1828073123e+00    0.3564909    0.1798667   6.19  0.001527032    2.727    0.633
        24  -9.5033     32.6673    222.3317   6.9983102272e+01   2.2415188854e+01    0.2453613    0.1468811 -69.63  0.001357803    1.846    0.458
        25 -14.1935     20.1910    180.6160   7.0678846522e+01   3.3335203993e+01      2.41733     1.448842  -6.00  0.009542347    2.402    0.584
        26  -9.0125     96.1089    211.3993   5.3296863117e+01   1.7389987461e+01    0.2476398    0.1776939  86.53 0.0008851464    1.899    0.474
        27 -10.4197     72.9282    208.6729   5.8773645872e+01   2.0908505021e+01    0.3122988    0.1798729  81.15  0.001405652    2.488    0.598
        28 -10.2153    103.6830    203.3764   5.0421911535e+01   1.8043953494e+01    0.2752038    0.2509481 -34.88 0.0004210768    1.185    0.156
        29  -9.2567    211.0303    199.0162   2.7469529561e+01   4.6514725441e+00    0.1769513    0.1388704 -13.35 0.0004829067    1.003    0.003
        30 -10.7500    114.1667    194.7604   4.6641164512e+01   1.8383297978e+01    0.5197971    0.2618515 -26.28  0.001870985    3.614    0.723
        31 -10.8649     96.7170    194.4011   5.0957089042e+01   2.0918214050e+01    0.4339222     0.239438 -56.79  0.002034079    1.937    0.484
        32 -11.6822    108.6162    189.5499   4.7241567730e+01   2.0286857812e+01    0.7053341    0.3151169  18.79  0.002514713    3.162    0.684
        33  -8.4809    207.5238    189.9786   2.6547593138e+01   6.4201687071e+00    0.1774928   0.09951387 -35.45  0.001015863    1.548    0.354
        34 -10.7629    100.7463    184.6315   4.8519557476e+01   2.2512153152e+01    0.4664622    0.2902803  61.88   0.00206876    2.169    0.539
        35 -12.3264      1.8063    249.5662   7.8126865181e+01   1.9687513454e+01    0.5428546    0.3942237 -79.58   0.00111453    1.601    0.375
        36 -10.5749    115.9468    181.6848   4.4177280727e+01   2.0904954237e+01    0.2625092    0.2149258 -66.27 0.0009046515    1.392    0.282
        37 -10.0947     73.9695    173.2243   5.4211126130e+01   2.9022799831e+01    0.2777793    0.2090206 -74.55 0.0003587915    1.418    0.295
        38  -9.7247     57.2256    170.1898   5.8736154093e+01   3.1996013766e+01    0.5379144    0.2570308  81.52  0.001809735    3.500    0.714
        39 -10.8618    234.1509    168.7269   1.8717552391e+01   6.3256028261e+00    0.2861501    0.1465781 -34.74 0.0008794671    1.554    0.356
        40 -12.1967     78.9292    132.1243   4.5766014710e+01   3.8758321909e+01    0.8358709    0.7373142  38.55  0.004324995    1.133    0.118
        41 -12.6064     67.7706    123.6721   4.7815019766e+01   4.2760955036e+01     2.860576      1.60292  73.85  0.001745374    3.111    0.679
        42 -11.1173     63.5535    116.4446   4.7809706484e+01   4.5333285837e+01     1.796757    0.4701543  35.86  0.002732103    3.459    0.711
        43 -10.9246     68.1005    161.9712   5.4345913527e+01   3.2660029233e+01    0.5655208    0.3594072  78.38  0.001196468    2.001    0.500
        44 -12.8372     54.2310    144.6513   5.6197566905e+01   3.9078850846e+01    0.7058104    0.5057493 -22.22 0.0009242845    1.828    0.453
        45 -13.9115     68.9273    148.7901   5.2046364742e+01   3.5953894664e+01     2.299083     1.257748  77.00  0.001763072    3.043    0.671
        46  -9.3995    110.4445    167.3083   4.3168563475e+01   2.4961421557e+01    0.2533448    0.2358169  75.92 0.0003595687    1.174    0.148
        47 -11.9553     74.9585    145.8268   4.9627191923e+01   3.5829815522e+01    0.7955771    0.5429367  -1.20 0.0007304355    2.111    0.526
        48 -11.2515     50.8512    160.7751   5.9519307026e+01   3.5220556697e+01    0.4686684    0.3317625 -11.51  0.002181435    1.908    0.476
        49 -11.1159     56.5855    156.9850   5.7210905757e+01   3.5494957793e+01    0.3790519    0.3106842  11.33 0.0007862891    1.371    0.271
        50 -12.3926    235.6400    155.5509   1.6151184348e+01   8.0581912319e+00    0.7484797    0.2687434 -30.92  0.003320998    2.727    0.633
        51 -10.3009    108.9932    145.4966   3.9452295340e+01   3.0294975331e+01    0.3205251    0.2875557 -79.06 0.0008606266    1.199    0.166
        52 -10.9957     42.4211    142.8920   5.9959267079e+01   4.1012994248e+01    0.3214579    0.2688506  76.97 0.0005409726    1.168    0.144
        53  -8.8612    133.4120    143.1500   3.2609106820e+01   2.6468021593e+01    0.3477286    0.1403426 -57.13  0.001141979    3.207    0.688
        54  -9.7350     36.8703    142.6967   6.1850900880e+01   4.1691361929e+01    0.3011016    0.2188371 -81.81 0.0008020437    1.345    0.256
        55  -9.0288    116.8221    137.8760   3.5724358158e+01   3.0681737094e+01    0.3675122    0.2062309 -74.22  0.001228483    3.345    0.701
        56  -8.9978    144.0883    136.8186   2.8710803018e+01   2.5872108188e+01    0.2068119    0.1954371 -85.51 0.0002667766    1.168    0.144
        57 -10.3176     94.5875    133.5084   4.1130109067e+01   3.5741550341e+01    0.4853283    0.3723224 -15.01  0.001773973    1.710    0.415
        58  -8.4450    118.9884    133.6609   3.4221353417e+01   3.1254916223e+01    0.1944731    0.1896413  45.61 0.0002763549    1.040    0.038
        59 -10.4224     45.3399    131.7225   5.7300439277e+01   4.3717152892e+01    0.3991092    0.3426642  22.16  0.001367389    1.241    0.194
        60 -10.2345     28.4465    133.6407   6.3718311844e+01   4.5053036864e+01    0.5239276    0.2602926 -86.99  0.001285927    2.196    0.545
        61  -9.6629    105.7559    130.7634   3.7235643522e+01   3.4397941431e+01    0.3928304    0.3132549 -72.08  0.001120466    1.382    0.276
        62  -9.2804    106.4417    126.4725   3.6067518910e+01   3.5298681878e+01    0.2907926    0.2456512 -10.11 0.0008947772    1.428    0.300
        63  -9.6608    180.1995    166.4716   2.7218302762e+01   1.4026218713e+01    0.3350199    0.1740607 -48.23  0.001590874    1.981    0.495
        64  -8.4110     92.2818    128.6082   4.0778321663e+01   3.7370873285e+01    0.1628342     0.119823  81.08 0.0007000511    1.750    0.429
        65  -9.2681     35.7866    125.9341   5.9946966401e+01   4.6422887319e+01    0.2431785    0.2140258  36.14 0.0007310389    1.161    0.139
        66 -10.0449     41.2772    124.6975   5.7682383816e+01   4.6137703967e+01    0.3428558    0.2265374  51.02 0.0008698553    1.552    0.356
        67 -10.3069     93.0779    121.4412   3.8913302582e+01   3.9011824074e+01    0.4927766    0.3374569   3.36  0.001962264    2.335    0.572
        68  -8.5804     48.6031    123.2800   5.4691703658e+01   4.5616713846e+01    0.2070523    0.1346204 -56.42 0.0004368228    1.494    0.331
        69  -9.1307    113.9263    122.0216   3.2912317555e+01   3.4914615969e+01    0.2444785    0.1919304  -8.76  0.001018184    1.694    0.410
        70  -9.2817     32.2484    120.3514   6.0471519840e+01   4.8348579793e+01    0.3288575    0.2004922 -87.71  0.001432683    1.756    0.430
        71  -9.0814     26.9631    116.8962   6.2054050635e+01   4.9839868861e+01    0.2209557    0.2054437  81.62 0.0004200872    1.030    0.030
        72  -9.2409    104.0930    116.0488   3.4271536880e+01   3.8236131469e+01    0.2214953    0.2189573  85.82 0.0003316662    1.023    0.022
        73  -8.3512     83.6641    116.3145   4.0748224280e+01   4.2002836745e+01    0.1640994      0.12004  72.34  0.000704688    1.691    0.409
        74 -10.6339    244.0659    114.5545   7.3816775162e+00   1.2900192029e+01    0.2495515    0.1453125 -52.48  0.001289292    1.767    0.434
        75  -8.8189     34.4940    106.8887   5.7329388721e+01   5.1821944002e+01    0.2427759    0.1925321  56.98 0.0006017335    1.310    0.237
        76 -11.0966     22.9279    104.1956   6.1813700304e+01   5.3732729856e+01    0.4828375    0.2958055  54.06  0.001312987    1.771    0.435
        77 -10.1250     55.7621     94.9839   4.5822185402e+01   5.2180755443e+01     0.211715    0.1990963 -75.13 0.0004217494    1.050    0.048
        78  -8.3879    142.7234     92.2949   1.8098584306e+01   3.5281512568e+01    0.1468858    0.1114887 -74.22 0.0001880363    1.528    0.346
        79  -9.1055     40.9538     87.6946   5.0402943592e+01   5.6198334162e+01    0.2078455    0.1842003  37.38 0.0003110517    1.158    0.136
        80 -10.2826     21.2485     84.3894   5.9052416489e+01   5.9264746338e+01    0.9117914     0.271069  48.32  0.002455692    5.339    0.813
        81 -11.3942     20.5283     78.9672   5.8285668395e+01   6.0765783418e+01    0.4286459    0.2592518  45.98  0.001955898    1.819    0.450
        82  -8.0642    142.6568     80.3287   1.4799326457e+01   3.7563073160e+01    0.1568073    0.1099844 -74.93 0.0007051014    1.746    0.427
        83  -8.5210     71.7516     78.7449   3.4729184043e+01   5.3407518918e+01    0.2419602    0.1714617  80.09  0.001020369    2.030    0.507
        84 -13.8399     53.5546    218.0759   6.4531524562e+01   2.1137939469e+01     2.801591     1.271047 -77.72  0.006831654    2.622    0.619
        85  -9.1503     97.0072    243.9799   5.6645487733e+01   1.1061676310e+01    0.2059731    0.1687912 -58.02 0.0007369079    1.489    0.328
        86  -8.5551     91.7369     73.5754   2.5939767031e+01   5.0439371743e+01    0.1952015     0.144643  59.36 0.0002229853    1.407    0.290
        87  -8.7514     30.2926     73.3026   5.1865413522e+01   6.1224759312e+01    0.1490622    0.1033285 -31.55 0.0003789246    1.572    0.364
        88  -8.2846    140.2673     65.6830   1.1014561857e+01   4.0713111609e+01    0.1486969    0.1045457 -67.53 0.0002430147    1.554    0.356
        89 -11.1465     13.1190     60.4095   5.8067077199e+01   6.6157100763e+01    0.4244292    0.2135157 -55.64  0.001347844    1.751    0.429
        90 -14.4040     29.4297    155.2277   6.5764749571e+01   3.9069163834e+01     9.312216     2.083869  47.99   0.02545043    4.776    0.791
        91  -8.6290     45.7914     50.8200   3.6191349080e+01   6.4300568641e+01    0.1890142    0.1686603  72.50 0.0004346832    1.316    0.240
        92 -13.8024     56.2151    235.5704   6.5233426837e+01   1.7239219519e+01     5.445764     2.479433  15.16   0.01221115    2.654    0.623
        93  -8.3320    108.6395     39.6855   9.0600265465e+00   5.2529024531e+01    0.1487254    0.1077947  32.20  0.000587703    1.754    0.430
        94 -11.4911    230.7537     49.8198   3.5548305099e+02   2.3997061314e+01    0.3450942    0.2662775  53.28  0.001220329    1.754    0.430
        95 -12.9295     18.3461    244.7249   7.4388498188e+01   1.9193092264e+01    0.8783694    0.4618791  46.77 0.0004994493    1.451    0.311
        96  -8.8138     34.4392     74.1316   4.9973584320e+01   6.0516811629e+01    0.2405954    0.1670492  33.20  0.000846126    1.466    0.318
        97  -9.8701     22.9216     28.1419   3.9491052800e+01   7.2377551892e+01    0.1950583    0.1749098  38.04 0.0005963104    1.229    0.187
        98 -13.8902     13.1478    244.7570   7.5535703883e+01   1.9648588981e+01     2.182608    0.6978685 -82.11  0.009023019    3.455    0.711
        99 -10.3808      1.9810     23.2891   5.3946646543e+01   7.5582937598e+01     0.323863     0.155861 -57.13  0.001510763    1.918    0.478
       100  -8.8568    131.0767     23.0967   3.5892995952e+02   4.9101701964e+01    0.2215777    0.1404418 -64.60 0.0005624362    1.606    0.377
       101  -9.4591     60.6797     21.5431   1.5345906851e+01   6.6482420992e+01    0.2431296     0.225515  76.10 0.0006852424    1.154    0.133
       102 -10.3370      9.5276     21.0393   4.6210530922e+01   7.5375706654e+01    0.2297942     0.162145  -4.01 0.0005723511    1.438    0.305
       103  -8.8914    189.4844     15.1138   3.5059300851e+02   3.6295091016e+01    0.1793561     0.107962 -34.47  0.001020923    1.559    0.359
       104 -13.7175      7.2140    237.4964   7.6614001852e+01   2.1593466195e+01    0.9185119    0.5450023  65.67  0.003784505    1.490    0.329
       105 -14.4188     30.6729    172.9135   6.7011287027e+01   3.4297793372e+01     3.545572     1.907109  58.27    0.0160532    1.838    0.456
       106  -8.7615    146.6080    242.8291   4.5961492656e+01   5.5002067546e+00    0.1362564    0.1149618 -61.63  0.000466911    1.700    0.412
       107  -9.7441     29.6177    240.3786   7.1670526467e+01   1.8998208587e+01    0.3504732    0.2223622   5.66  0.001757292    1.994    0.498
       108  -8.7046    103.6641    239.3068   5.4691446719e+01   1.1111345140e+01    0.1260238   0.08133529  49.31 0.0006118089    1.673    0.402
