#   1 NUMBER                 Running object number                                     
#   2 MAG_AUTO               Kron-like elliptical aperture magnitude                    [mag]
#   3 X_IMAGE                Object position along x                                    [pixel]
#   4 Y_IMAGE                Object position along y                                    [pixel]
#   5 X_WORLD                Barycenter position along world x axis                     [deg]
#   6 Y_WORLD                Barycenter position along world y axis                     [deg]
#   7 A_WORLD                Profile RMS along major axis (world units)                 [deg]
#   8 B_WORLD                Profile RMS along minor axis (world units)                 [deg]
#   9 THETA_WORLD            Position angle (CCW/world-x)                               [deg]
#  10 FWHM_WORLD             FWHM assuming a gaussian core                              [deg]
#  11 ELONGATION             A_IMAGE/B_IMAGE                                           
#  12 ELLIPTICITY            1 - B_IMAGE/A_IMAGE                                       
         1 -12.1405     76.8164     24.2867   9.6898640232e+01   6.3694749935e+01    0.5498535    0.4414087 -44.41  0.001301703    1.384    0.278
         2 -11.2717     90.3616     15.9221   8.7357283805e+01   6.1875105993e+01    0.5269475    0.2905414  -9.39  0.001619567    2.409    0.585
         3 -10.8799     92.7248      9.1224   8.3001970883e+01   6.2142814447e+01    0.3363792    0.2374205   0.81  0.001039273    1.571    0.363
         4  -9.9987     90.5954      2.9172   8.0289478760e+01   6.3350784397e+01    0.4499836    0.2854183 -74.45  0.001793711    2.650    0.623
         5 -10.8151     87.6381     10.6855   8.5510379361e+01   6.3203934022e+01    0.4043524     0.250525 -18.71 0.0009329306    1.713    0.416
         6  -9.6533     88.7117      6.6237   8.2928960592e+01   6.3421226908e+01    0.2658518    0.1460921  31.44 0.0006120602    1.988    0.497
         7 -10.3003     26.6460     16.1683   1.2127149993e+02   7.3136099052e+01    0.2854874    0.2384724 -36.47    0.0010293    1.054    0.051
         8 -11.5651     42.4191     17.8568   1.1142112474e+02   7.0935240360e+01     1.454565    0.5931275 -39.48  0.006040453    2.333    0.571
         9 -10.9561     38.5526      2.2111   1.0435872486e+02   7.4278861776e+01    0.4763912    0.3952357  22.89  0.002637136    1.209    0.173
        10 -11.8101     30.0697      7.1505   1.1379006408e+02   7.4561277203e+01    0.3960708    0.3285483 -19.88  0.001464744    1.012    0.012
        11 -11.6318     34.9066     12.8499   1.1363032386e+02   7.2890181975e+01    0.4787689    0.3093455 -54.55  0.001656776    1.734    0.423
        12 -11.6963     39.5852     10.5220   1.0906995429e+02   7.2701429097e+01    0.5103621    0.2978691 -30.25  0.001931146    1.662    0.398
        13 -11.5450    107.9684     16.6605   8.2317663503e+01   5.7353556649e+01    0.3626869    0.2585044  67.01  0.001047727    1.450    0.310
        14 -11.0800    190.1562     14.5876   6.7265508618e+01   3.5092340987e+01    0.3355793    0.1884411 -30.84 0.0009425937    1.712    0.416
        15 -10.3984     67.5514     11.9667   9.4251784451e+01   6.7548316148e+01    0.6235385    0.3983116 -72.82  0.002091795    4.805    0.792
        16 -11.7986     69.5353      6.4307   9.0031410267e+01   6.7893880678e+01    0.6509954    0.4013108  52.00  0.001741824    1.620    0.383
        17 -10.4135    212.3910     11.9365   6.4378520242e+01   2.9683723887e+01    0.2536112    0.1989703  82.62 0.0005516708    1.271    0.213
        18 -10.0890    119.0016     11.9677   7.7391169088e+01   5.4950374461e+01     0.226786    0.2094749  56.52 0.0003645682    1.032    0.031
        19  -9.8887    109.5247     11.9456   7.9663279809e+01   5.7497030665e+01    0.2183229    0.1489995 -18.97  0.001021759    1.563    0.360
        20 -10.4920     53.4850      1.4938   9.4626165916e+01   7.1821165519e+01    0.3864733    0.3060614  22.74  0.001722102    1.149    0.129
        21 -11.2233     55.1866      7.8165   9.7897218513e+01   7.0590403243e+01      0.49192     0.247234 -37.96  0.001433072    2.011    0.503
        22 -10.8818     58.4891      4.0062   9.3683606574e+01   7.0506799912e+01    0.3851362    0.2550652  12.72  0.001924972    1.678    0.404
        23 -11.2642     22.2205      9.4177   1.2120898932e+02   7.4938984276e+01    0.3423379    0.2258306 -20.53  0.001207761    1.477    0.323
        24 -11.6373      3.6705      8.7528   1.3644379298e+02   7.6212192176e+01    0.4068329    0.3016283  45.66  0.001081807    1.762    0.432
        25 -10.3094      7.5802      5.0611   1.3154816246e+02   7.6861708834e+01    0.2475469    0.1665973  20.49 0.0009613406    1.685    0.406
        26 -10.4196      9.9490      1.6277   1.2771811483e+02   7.7457651790e+01    0.2486646    0.1616825  -6.60 0.0008567835    1.553    0.356
        27  -9.7322     15.5439      8.4758   1.2619533506e+02   7.5670336560e+01    0.2142025    0.1574007 -37.67 0.0005791832    1.118    0.106
        28 -10.6496     12.1743      7.5216   1.2860721645e+02   7.6091056569e+01     0.390398    0.2267192 -51.58  0.001700709    1.408    0.290
        29 -11.7479    151.2935      6.9182   6.9454370637e+01   4.6465574203e+01     0.424682    0.3444189 -13.23 0.0007301929    1.353    0.261
        30 -10.7074    150.9834      2.2931   6.7753023105e+01   4.6960439627e+01     0.265812     0.189335 -88.35 0.0005024006    1.427    0.299
        31  -9.8107    210.3905      7.7819   6.3386001986e+01   3.0569523828e+01    0.1830741      0.12795  -6.72 0.0009476175    1.666    0.400
        32  -9.3306     76.8430      8.1897   8.8065451032e+01   6.6046535824e+01    0.3097409    0.1738862  20.68 0.0004621755    2.320    0.569
        33 -11.5438     80.3810      1.7246   8.2930770540e+01   6.5976549121e+01    0.4611103    0.2005706  50.25  0.001055129    2.002    0.501
        34  -9.2947    107.3686      5.7709   7.7210638177e+01   5.8721750131e+01    0.1994994    0.1376947   0.99 0.0007019049    1.637    0.389
        35 -10.4982    120.1091      4.4474   7.3741640020e+01   5.5398445671e+01    0.4883304    0.1706444  53.55  0.001087918    2.378    0.580
        36  -9.5376    235.4872      4.5492   6.0761612703e+01   2.4938430038e+01    0.1252934    0.1108333 -52.40 7.929507e-05    1.029    0.028
        37  -9.6807    160.5684      4.2126   6.7225155436e+01   4.4114746733e+01    0.1943024    0.1420754   4.68 0.0009455138    1.621    0.383
        38 -11.6562    129.7803      3.0093   7.1285365182e+01   5.2847163078e+01    0.6739465    0.3146947 -89.18  0.002277667    3.141    0.682
        39 -10.2602    199.3210      3.0279   6.2926848426e+01   3.3790256491e+01    0.1962934    0.1692404 -44.76 0.0005081547    1.113    0.101
        40 -10.8801     18.9912      2.6208   1.2005393891e+02   7.6584317847e+01    0.3806311    0.2074128   3.35  0.001931239    2.135    0.532
        41  -9.9855      1.9833      2.7602   1.3575468368e+02   7.7573481449e+01    0.1834831    0.1261525 -34.18 0.0006823032    1.231    0.188
        42 -10.1758    218.6137      7.1548   6.2579315851e+01   2.8621723605e+01    0.1744998    0.1235278  -5.84 0.0003796837    1.652    0.395
        43  -8.8805     25.2506      2.6284   1.1474084739e+02   7.5956611268e+01    0.1126169   0.09970713 -72.46 0.0006955449    1.634    0.388
        44  -9.0763     28.6785      1.2876   1.1106643809e+02   7.5797888554e+01    0.1102588    0.1036455  68.24 0.0003037393    1.600    0.375
        45 -10.8408     24.1845    122.2976   1.4455249545e+02   4.7675882867e+01    0.2612343    0.1918916  70.10 0.0003667528    1.234    0.189
        46 -12.4224     20.1571    246.5321   1.5130737056e+02   2.3364858358e+01    0.5072079    0.3556147 -14.35    0.0034419    3.089    0.676
        47 -10.9095      1.8543    248.7822   1.5454446077e+02   2.4603467323e+01    0.3005766    0.1462208  76.17  0.002238082    1.831    0.454
        48 -13.1719      6.8838    243.8455   1.5359519255e+02   2.4941275918e+01     1.033337    0.4213999  70.80   0.00688791    2.087    0.521
        49 -11.8264      4.2819    232.7006   1.5386232639e+02   2.6924851260e+01    0.2884431    0.2079568  73.46  0.001077506    1.280    0.219
        50 -12.5269      9.4597    232.3296   1.5290975923e+02   2.6553139350e+01     0.403694    0.3098885 -53.18  0.003260252    2.032    0.508
        51 -12.2879      8.8053    227.8309   1.5293579079e+02   2.7347944114e+01    0.3726646    0.2248506  37.89  0.001986487    1.336    0.251
        52 -10.7854     22.0000    118.0399   1.4489388192e+02   4.8864795964e+01    0.2463348     0.161998 -82.24  0.001404084    1.359    0.264
        53 -10.0022      3.3829    119.1963   1.5082793799e+02   4.9744370565e+01    0.1779129   0.09275645  81.31 0.0009498839    1.671    0.402
        54 -10.0252     65.0000    114.9916   1.3025495797e+02   4.5241494777e+01    0.3353615    0.0776704 -64.22   0.00097641    4.278    0.766
        55  -9.5518     96.4522    113.9404   1.1982841475e+02   4.0647696912e+01    0.2056613    0.1318624 -86.93 0.0008077563    2.470    0.595
        56 -10.2877      2.3257    114.2916   1.5092475354e+02   5.0952247514e+01    0.1900946    0.1437456 -23.34 0.0002385923    1.700    0.412
        57 -10.1393    248.9787    111.9806   8.5414596181e+01   9.8565163978e+00    0.1625921    0.1302757 -12.79  0.001010427    1.049    0.047
        58 -10.8536     12.9709    109.1978   1.4716494660e+02   5.1601111354e+01    0.2450419    0.1365487  79.26   0.00128812    1.671    0.402
        59 -11.5769      5.1384    108.6518   1.4972671155e+02   5.2156588232e+01    0.3226795    0.2244225  -0.67  0.001959955    1.829    0.453
        60 -10.5922     58.4620    107.3385   1.3117715886e+02   4.7960004492e+01    0.2742444    0.2061928 -21.22  0.001139796    1.714    0.417
        61  -9.6250     79.2560    107.0140   1.2394687169e+02   4.5136655081e+01    0.2018072    0.1934735 -87.62 0.0004170602    1.031    0.030
        62  -9.8066     66.6308    101.8345   1.2726800202e+02   4.8252626589e+01    0.2042214    0.1330642 -76.92 0.0009444225    1.697    0.411
        63 -10.5376     63.0061     99.9929   1.2820374146e+02   4.9197304524e+01    0.2373312    0.1625289  65.73  0.001131745    1.699    0.411
        64 -11.8296     18.5449     94.3171   1.4389464386e+02   5.4919697563e+01    0.4589221    0.3366328 -61.42  0.002049728    1.274    0.215
        65 -10.2543     78.4643     94.7752   1.2149509952e+02   4.8219821905e+01    0.2041362    0.1338555 -45.23 0.0003773011    1.578    0.366
        66  -9.5629      3.4912     95.4843   1.4950236574e+02   5.5409814672e+01    0.1234339    0.1028506  86.96 0.0001420887    1.021    0.021
        67 -10.6474     84.2729     93.8369   1.1920585323e+02   4.7490776401e+01    0.3170293    0.2552564  19.13  0.001594186    1.377    0.274
        68 -11.1036     27.4630     90.7686   1.4007557160e+02   5.5197366475e+01    0.6352813    0.2635431  49.63  0.002655878    2.678    0.627
        69 -10.7172     25.1076     84.7346   1.4019418328e+02   5.6881649326e+01     0.265688    0.1900057 -79.45 0.0004614621    1.262    0.207
        70  -9.9748     13.7847     82.2127   1.4446994354e+02   5.8199759328e+01    0.1680894     0.159336  88.33 0.0003929792    1.106    0.096
        71 -11.5289     11.2316     88.0597   1.4605922823e+02   5.6878167642e+01    0.6111777     0.239199 -77.09  0.002131832    2.155    0.536
        72  -9.9679     16.0681     89.4740   1.4433436270e+02   5.6270199599e+01    0.2550212    0.1832048   0.21   0.00120287    1.699    0.411
        73  -9.8054     19.1474     87.1421   1.4287921312e+02   5.6669465971e+01    0.2353407    0.1659917 -77.56 0.0008297986    1.240    0.193
        74 -10.3267     76.5049     89.3007   1.2087729603e+02   4.9853991972e+01    0.2557546    0.2436997 -17.38 0.0004463291    1.105    0.095
        75 -10.1107     43.9375     89.4851   1.3342065035e+02   5.4065458267e+01    0.3125529    0.1545837  42.14  0.001386377    2.087    0.521
        76 -10.1217      1.7048     89.6531   1.4978227102e+02   5.6898238653e+01    0.2250403    0.1359324 -82.19 0.0004419548    1.383    0.277
        77 -11.1158    104.8034     88.2697   1.1073015277e+02   4.4961140208e+01    0.5002496    0.2574243  55.76  0.001225723    2.528    0.604
        78 -10.9296     54.7084     84.2391   1.2809042076e+02   5.4170450882e+01    0.2959514    0.2571968  81.40 0.0007515049    1.209    0.173
        79  -9.7894     78.0886     83.2530   1.1872408441e+02   5.1049570385e+01    0.2017894    0.1832568  41.53 0.0003332802    1.113    0.102
        80 -11.6853     64.2171     81.3020   1.2359509795e+02   5.3643998508e+01    0.5545723    0.4146458 -65.42  0.002831336    1.337    0.252
        81  -9.6285     65.3272     75.6480   1.2168034691e+02   5.4860682449e+01    0.2956355    0.1953777 -16.54 0.0006251824    2.165    0.538
        82 -10.3060      4.0069     82.4646   1.4839805339e+02   5.8570145149e+01    0.3225934    0.1632301 -85.31  0.001501361    1.698    0.411
        83  -9.7076      2.9799     78.4681   1.4849552589e+02   5.9587744309e+01    0.1563442      0.12284  16.47 0.0003987699    1.502    0.334
        84  -9.8291    124.0861     86.8467   1.0434469203e+02   4.1147234850e+01    0.2378178    0.2160292  74.46 0.0006237742    1.228    0.185
        85  -9.6849     38.0995     81.9241   1.3441447326e+02   5.6534671096e+01    0.2029196    0.1714929  77.85   0.00047789    1.214    0.177
        86  -9.8789    250.3916     80.7674   7.8085218824e+01   1.3445156216e+01     0.184903    0.1101686 -16.28 0.0007610262    1.629    0.386
        87 -10.1210     89.2850     80.3727   1.1378296903e+02   4.9764704778e+01     0.291805     0.206838 -63.08 0.0007196693    1.587    0.370
        88  -8.4026    124.4937     79.4939   1.0199297941e+02   4.2564996628e+01    0.1577756    0.1525564  68.68 0.0008089131    1.094    0.086
        89  -9.4175     19.3691     79.6633   1.4187336392e+02   5.8525302314e+01    0.1411982   0.08378498  60.04 0.0007027885    1.843    0.457
        90  -9.8717    176.9071     77.1281   8.8523751264e+01   3.0247076240e+01    0.2365617    0.2156608 -79.92  0.001233339    1.262    0.208
        91  -9.9823     75.0888     75.8324   1.1781680651e+02   5.3305824584e+01    0.2086049    0.1927995  68.25 0.0002776485    1.166    0.142
        92 -10.6126     55.8624     75.6507   1.2561081294e+02   5.6152288422e+01     0.307747    0.2739931   7.81 0.0008929436    1.220    0.180
        93 -10.5837    224.0637     74.3169   7.9897882865e+01   1.9640402562e+01     0.231496    0.1809344 -30.09  0.000320181    1.175    0.149
        94  -9.3181     70.2827     75.3529   1.1959030513e+02   5.4186295379e+01    0.1527858    0.1095692 -26.69 0.0003400256    1.658    0.397
        95 -11.1056     35.5923     73.1238   1.3381768939e+02   5.8969367554e+01    0.5085025     0.424711   9.41  0.003000057    1.345    0.256
        96  -9.8096    136.6687     74.1185   9.6886996892e+01   4.0729870620e+01    0.2196466    0.1990464 -18.42 0.0005311198    1.142    0.124
        97 -10.8878      3.7418     73.7663   1.4779047860e+02   6.0717213747e+01    0.3438476    0.2087305  12.52  0.001357986    1.945    0.486
        98 -10.4818     15.5275     75.9815   1.4302567671e+02   5.9661213302e+01    0.1791811    0.1748468  29.09 0.0007666611    1.179    0.152
        99  -9.5082    216.8244     72.2177   8.0375701175e+01   2.1520424620e+01    0.1919687    0.1567039   9.57 0.0005517211    1.311    0.237
       100  -9.3586    152.7636     72.0057   9.2183129965e+01   3.7125573844e+01    0.1953014    0.1327325 -33.79            0    1.503    0.335
       101 -10.3833    105.9095     71.4355   1.0520414205e+02   4.8397393576e+01    0.2645175    0.2216399 -32.80 0.0004321367    1.228    0.186
       102  -9.4072     92.3010     72.3008   1.1022152140e+02   5.1018191885e+01    0.2144108    0.1874113  84.89 0.0007845025    1.364    0.267
       103  -9.1187     90.6890     69.3326   1.0985043278e+02   5.1991677905e+01    0.2431297    0.1458811 -52.82 0.0003407034    1.760    0.432
       104 -10.1007     80.8127     71.9776   1.1443304417e+02   5.3232189356e+01    0.2445221    0.1779439 -84.75 0.0007908266    1.971    0.493
       105 -10.2201     10.7508     69.1938   1.4427881015e+02   6.1578943337e+01    0.2712868     0.176656 -74.67  0.001543257    1.301    0.231
       106  -9.9185     45.7986     69.5693   1.2848899990e+02   5.8844421241e+01    0.3771451    0.1805949  20.51  0.001583621    2.417    0.586
       107  -8.8415     57.3289     67.6612   1.2287200997e+02   5.7908799107e+01    0.1474108     0.109567  71.19 0.0007051814    1.735    0.423
       108 -11.3553     16.9947     64.5462   1.4078347916e+02   6.2432423337e+01    0.3563032     0.300554 -65.00  0.001045486    1.031    0.030
       109 -10.6327     41.0163     59.0254   1.2804683068e+02   6.1938345560e+01    0.3443981    0.2586887 -29.81  0.001871728    1.391    0.281
       110 -10.9001     34.6695     64.9594   1.3252897033e+02   6.1084957138e+01    0.2766978    0.2591188 -35.40 0.0006591121    1.094    0.086
       111 -10.9079     39.0507     62.9792   1.2999884674e+02   6.1167898745e+01    0.4024644    0.2518646 -45.52  0.001456622    1.509    0.337
       112  -9.8967    133.1471     64.2202   9.4558861331e+01   4.3435960285e+01    0.3488913     0.225252 -37.60  0.001488764    1.587    0.370
       113 -11.3277      7.2020     63.7878   1.4525045870e+02   6.3056634428e+01    0.3761668    0.1777516 -37.47  0.001825497    2.228    0.551
       114 -11.1009     53.0870     61.5260   1.2302218495e+02   5.9939240687e+01    0.5012628    0.3561741  50.14   0.00189902    1.625    0.385
       115 -10.6011     54.5147     58.4680   1.2143605191e+02   6.0480731254e+01    0.3250181    0.2339922  60.69 0.0008434943    1.790    0.441
       116 -10.5324     71.8906     62.1627   1.1490012850e+02   5.7015919485e+01    0.3456474    0.1533252  47.98  0.001244876    2.741    0.635
       117 -10.8072     62.8319     61.8916   1.1872665702e+02   5.8505630211e+01     0.238253    0.2010223  -1.21 0.0006827721    1.298    0.230
       118 -10.4239     60.4133     57.7767   1.1848934900e+02   5.9820732178e+01     0.283168    0.2554831 -82.76 0.0007952009    1.259    0.206
       119  -9.4834    126.9774     61.5742   9.5341748810e+01   4.5450038709e+01     0.229676    0.1520511  51.34 0.0003799036    1.475    0.322
       120 -10.6295      1.8728     54.4615   1.4673389802e+02   6.5504967183e+01    0.4269752    0.1441344 -45.79  0.001585299    2.631    0.620
       121 -10.7286      9.9895     48.4671   1.4170144063e+02   6.6715431053e+01    0.6065234    0.2418903 -16.92  0.002526152    3.289    0.696
       122 -11.7956     17.4340     45.4437   1.3703001129e+02   6.7105515922e+01    0.5739712    0.4664629   6.29  0.003427539    1.384    0.278
       123 -12.7571     20.7510     57.3362   1.3771524817e+02   6.4005872163e+01    0.4352768    0.3294858  26.06  0.001433004    1.484    0.326
       124 -10.6304     19.5173     51.9737   1.3728659111e+02   6.5397665509e+01    0.3122026    0.1846831 -46.88  0.001129236    1.515    0.340
       125 -10.4526      2.2224     59.9228   1.4715282377e+02   6.4161674273e+01    0.2606193    0.1530948  61.70  0.001412808    1.855    0.461
       126  -9.9935     71.3103     57.6048   1.1359562862e+02   5.8144455532e+01    0.2186108    0.1624241 -41.00  0.000382705    1.310    0.237
       127 -10.8515      7.6142     55.9369   1.4406319968e+02   6.4974397750e+01    0.2151617    0.1924889  -2.30  0.000860085    1.300    0.231
       128 -10.8875    114.6698     54.4080   9.6370271635e+01   4.9774460848e+01    0.3666877    0.2837776  42.57 0.0008714409    1.253    0.202
       129  -9.2269    104.3025     55.6977   1.0020153778e+02   5.1956499888e+01    0.1628319    0.1507012  12.53 0.0002934973    1.080    0.074
       130 -10.6109    106.4368     53.2613   9.8565631547e+01   5.1935366142e+01     0.385261    0.3061567  89.57  0.001762963    1.737    0.424
       131 -11.5712     87.2614     53.7591   1.0564457810e+02   5.6010757445e+01    0.4928231     0.321318  40.82  0.001187046    1.529    0.346
       132  -9.6259     76.7428     54.7815   1.1027415023e+02   5.7814828311e+01    0.1881274    0.1717598  72.02 0.0003480719    1.285    0.222
       133 -10.2538     34.5266     53.4542   1.2980920057e+02   6.3920160686e+01    0.3152788     0.167402 -43.16  0.001028624    1.792    0.442
       134 -10.2499    169.8506     52.9284   8.2466092363e+01   3.5785941881e+01    0.2174986    0.2161816  82.30 0.0003253731    1.022    0.022
       135 -11.7885     66.3236     52.2582   1.1388632403e+02   6.0163458458e+01    0.7567277    0.2968121  38.16  0.002812977    2.594    0.615
       136  -8.9996    176.3429     52.2883   8.1084457070e+01   3.4180230046e+01     0.159679     0.112422  29.65 0.0001747595    1.648    0.393
       137  -9.2373    212.0293     48.9713   7.4743160419e+01   2.5662938435e+01    0.1601211    0.1570981 -78.43 0.0003165894    1.061    0.058
       138 -10.4193     38.3300     48.7807   1.2649787604e+02   6.4676038027e+01     0.238057    0.1846008 -28.98  0.001331626    1.290    0.225
       139  -9.3799    146.4473     48.4228   8.5743980431e+01   4.2664437404e+01    0.1548528    0.1502446  66.69  1.51756e-05    1.045    0.043
       140 -10.2478     31.5634     46.5730   1.2948430551e+02   6.5838276280e+01    0.3917814    0.2122047 -84.38  0.001506466    2.663    0.624
       141 -10.9695     25.9884     43.6938   1.3178050288e+02   6.6975644842e+01    0.3301581    0.2499582  42.94  0.001039764    1.540    0.351
       142 -10.5690     22.3109     38.3725   1.3244119264e+02   6.8502556661e+01    0.2771093    0.2092975  64.10  0.001102964    1.669    0.401
       143 -10.9175     26.6245     35.2455   1.2888527798e+02   6.8916568208e+01    0.3749845    0.2072842 -41.16 0.0009926569    1.641    0.391
       144 -10.4823     77.6238     46.0601   1.0652218200e+02   5.9487372513e+01    0.3256332    0.2391578  34.68   0.00106803    1.368    0.269
       145 -10.6483     68.5954     46.7377   1.1075835091e+02   6.0985273726e+01    0.2480717    0.2204232   3.99 0.0001862005    1.131    0.116
       146 -10.2101     70.7429     42.2003   1.0793650427e+02   6.1554689242e+01    0.3176495    0.2219241 -42.19  0.001126671    1.397    0.284
       147  -8.8139     47.6339     46.7020   1.2095232443e+02   6.4110308991e+01    0.1482111   0.09922066 -22.42 0.0007032175    1.726    0.420
       148  -9.4096     91.1870     44.8076   1.0057958447e+02   5.6965922679e+01    0.2079579    0.1734794  -0.34 0.0005104502    1.301    0.231
       149 -10.3219      3.4524     41.6689   1.4421406816e+02   6.8569389382e+01    0.4283151    0.1362042 -34.37   0.00174585    3.200    0.687
       150  -9.1142    183.2998     41.6966   7.6612586684e+01   3.3799062315e+01    0.1536912    0.1095927 -61.63 0.0006401932    1.588    0.370
       151 -10.8364    139.7778     40.6839   8.4440106961e+01   4.5614684520e+01    0.2928319    0.2467573 -48.78 0.0003517378    1.271    0.213
       152 -10.4522     36.0251     40.6201   1.2514338063e+02   6.6821628166e+01    0.3449472    0.2179293 -44.45  0.001666727    1.414    0.293
       153  -9.7628     43.8651     40.2644   1.2064288198e+02   6.6037223026e+01    0.2318865    0.1478943 -13.19  0.001084415    1.988    0.497
       154  -9.5256     12.9667     38.1032   1.3797708054e+02   6.9095075843e+01    0.3888232    0.1241508 -63.21  0.001638438    2.333    0.571
       155  -9.3709    134.5033     39.5720   8.5256760395e+01   4.7190495793e+01    0.1559489    0.1487045  52.73 5.966418e-05    1.024    0.024
       156 -11.5387    121.1854     36.3155   8.7361323065e+01   5.1193559299e+01    0.5432361    0.4496256 -81.12  0.002631069    1.480    0.324
       157  -9.0865    102.2923     38.6448   9.4029051710e+01   5.5545598598e+01    0.1541864    0.1221219 -70.16 0.0007029737    1.685    0.407
       158  -9.9175    163.8674     37.0970   7.8298292244e+01   3.9587681504e+01    0.2308629    0.1719793  28.30 0.0003673451    1.527    0.345
       159  -9.3862     99.1114     35.8095   9.3871593797e+01   5.6779346286e+01    0.2166395    0.1663405  25.29 0.0004541818    1.376    0.273
       160 -10.3333     70.3041     35.1135   1.0503351873e+02   6.3045472444e+01    0.3277351    0.1646241 -32.01 0.0008922602    2.220    0.550
       161 -10.1939      2.4728     28.4774   1.4251947234e+02   7.1733066830e+01     0.200535    0.1467181 -36.76 0.0008439319    1.273    0.215
       162 -10.3886      1.6615     35.9182   1.4435578339e+02   6.9987881985e+01    0.2498706    0.1346768 -79.04  0.001249067    1.628    0.386
       163  -9.9546      3.2072     32.3895   1.4279523777e+02   7.0792925187e+01    0.2380268    0.1514707  18.52  0.001391907    1.849    0.459
       164 -11.6687     50.5497     33.8691   1.1439850447e+02   6.6557666751e+01     0.333109    0.2341023  36.71 0.0004598441    1.522    0.343
       165  -9.6559    138.9075     27.0000   7.9384793552e+01   4.7731322184e+01    0.4629999    0.1678249  58.33  0.001059161    2.434    0.589
       166 -11.5564    145.0163     33.0552   8.0440180438e+01   4.5267741315e+01    0.2683435    0.2573933  75.23 0.0003299183    1.048    0.046
       167 -11.1181    141.1316     30.3731   8.0228854311e+01   4.6686050288e+01    0.3756968    0.3000193   0.35 0.0004713568    1.418    0.295
       168 -11.0871    134.5573     34.0232   8.3094135178e+01   4.7978558214e+01    0.2645428    0.2009382  46.53 0.0003864683    1.261    0.207
       169  -9.9170    166.6587     31.3281   7.5853148431e+01   3.9562792514e+01    0.4283451    0.1348314 -27.08  0.001371138    3.120    0.679
       170 -11.1168     20.3327     31.5390   1.3164141613e+02   7.0235609207e+01    0.6057315    0.2733928 -17.23  0.002475376    3.025    0.669
       171 -11.2956     43.3972     29.7369   1.1663421437e+02   6.8399683465e+01    0.5000676    0.2848957 -48.79  0.001552619    1.618    0.382
       172 -10.5155     46.7150     27.0027   1.1344302821e+02   6.8523413504e+01    0.2348551     0.227367 -46.61 0.0003499448    1.215    0.177
       173 -10.1483    151.3521     29.5646   7.7900485896e+01   4.3981269892e+01    0.2585095     0.247394 -59.29 0.0006485792    1.084    0.077
       174 -10.0230    104.1967     29.6371   8.9445860227e+01   5.6532496413e+01     0.383909    0.2064517  39.00  0.001530388    1.937    0.484
       175  -9.3996    187.7692     29.4282   7.2148613902e+01   3.4125507394e+01    0.2144495    0.1246582  54.64 0.0009482467    1.698    0.411
       176  -9.4501    162.1471     29.1696   7.5851536423e+01   4.1060809093e+01    0.2116975    0.1736089 -63.15  0.001053814    1.304    0.233
       177  -9.9216     69.8616     28.4025   1.0205491215e+02   6.4385677903e+01    0.2356511    0.1940116 -41.30 0.0006031532    1.271    0.214
       178 -10.2103      7.2954     28.2442   1.3927635894e+02   7.1653380714e+01    0.2218213    0.1606812  21.82 0.0008276254    1.616    0.381
       179  -9.3530    229.6004    247.8055   1.1297612417e+02  -2.3210636072e+00    0.1163537   0.08962688 -15.67 0.0009418683    1.616    0.381
       180  -9.2721    200.9538     25.9816   6.9511067891e+01   3.1103027676e+01    0.1659405     0.154755 -45.68 0.0009611601    1.036    0.035
       181 -10.0095    153.4318     25.6810   7.6097853987e+01   4.3883860722e+01    0.2794229     0.179631  79.97 0.0007255118    1.704    0.413
       182 -10.0528    113.9577     25.4584   8.4706585758e+01   5.4647949464e+01    0.2645172    0.2197584 -26.00 0.0006547627    1.256    0.204
       183 -10.7745    110.7012     22.0339   8.4062880397e+01   5.5957059099e+01    0.2590788    0.2100377  54.96  0.000493027    1.172    0.147
       184 -10.2252     58.8855     24.4961   1.0548007216e+02   6.7107424757e+01    0.2788137    0.2246964 -23.23  0.001035053    1.174    0.148
       185 -10.2533     52.1080     23.3722   1.0856809649e+02   6.8438812855e+01    0.3706088    0.1816075 -36.97  0.001394588    1.996    0.499
       186  -9.6779     84.7477     21.3486   9.2195598557e+01   6.2419431287e+01    0.3343112    0.1600809  32.28   0.00121136    2.649    0.623
       187 -11.2287     33.2528    247.7233   1.4899035814e+02   2.1952384295e+01    0.2654432    0.1120161  22.65   0.00142204    3.003    0.667
       188  -9.7404    217.5041    245.0000   1.1460029928e+02  -5.8055405394e-01    0.2404805     0.044588  36.03 0.0009397834    3.976    0.748
       189 -11.5254     15.8966    239.8570   1.5190610031e+02   2.4787052118e+01    0.3744739   0.02578952  51.07  0.001648615    3.770    0.735
       190  -9.6919    202.5010    240.0400   1.1651381289e+02   1.8324471356e+00    0.1371199   0.09875565 -15.20 0.0008626691    1.540    0.351
       191  -9.3543     60.4379    241.0000   1.4362415963e+02   2.0165357089e+01    0.2390274   0.04553397  32.13 0.0009318196    3.911    0.744
       192 -11.1866     13.4163     20.5479   1.3279467177e+02   7.3163655317e+01    0.3598841    0.2840311  33.73  0.001398058    1.522    0.343
       193 -10.6276     13.3219     16.0853   1.3126147201e+02   7.4166920736e+01    0.3687638    0.1847741  20.70  0.001527422    2.173    0.540
       194  -9.5440    125.2733     21.6326   8.0190342979e+01   5.2129259698e+01    0.1574679    0.1136194 -58.96 0.0007002674    1.671    0.402
       195  -9.6640    115.0442     17.4404   8.0819695389e+01   5.5392523336e+01    0.2242512    0.1412759  60.21 -2.225152e-05    1.493    0.330
       196 -10.5626     30.9437     19.6460   1.1990585399e+02   7.1977597616e+01    0.2702773    0.1986366 -56.92 0.0009805602    1.407    0.289
       197 -12.0277     26.3991    235.8673   1.4986257324e+02   2.4466087796e+01    0.2900918     0.219567  81.71  0.001695366    1.389    0.280
       198  -9.8560     22.7650     21.2374   1.2631909757e+02   7.2389662903e+01    0.1684739    0.1187669 -31.80 0.0009690623    1.280    0.219
       199  -9.0165    210.6553    235.7023   1.1451032947e+02   1.2065997520e+00    0.1168589   0.06398093  14.02 0.0003778368    1.673    0.402
       200  -8.8872    155.5721    235.4975   1.2456628685e+02   8.7451281350e+00    0.1168742   0.08464339  30.23 5.628178e-05    1.016    0.016
       201  -9.8172    249.1589    234.1562   1.0793893468e+02  -3.4621962100e+00    0.1630896   0.09702111  13.85 0.0005485868    1.185    0.156
       202  -9.2140     79.9867    231.5052   1.3918673157e+02   1.9385424719e+01    0.1686526   0.05613549  48.15 0.0008081212    2.392    0.582
       203  -8.9108    124.3099    230.3318   1.3014061870e+02   1.3788725749e+01    0.1118108   0.08015159  10.36 0.0004527142    1.671    0.401
       204 -10.0336    236.7702     18.0199   6.4050544143e+01   2.3374849547e+01    0.1702491   0.09644806 -26.82  0.000343155    1.602    0.376
       205  -8.9741    148.7136     18.6875   7.4313825511e+01   4.5998761885e+01    0.1565008    0.1086995  33.87 0.0002679949    1.579    0.367
       206  -9.2433    209.6890    229.6494   1.1383509429e+02   1.9596293371e+00    0.1185431   0.06700955  10.50 0.0007045107    1.719    0.418
       207 -10.8824     20.0922     16.8217   1.2641129545e+02   7.3559944210e+01    0.2168813     0.170954   7.32 0.0003780821    1.335    0.251
       208  -9.5832    140.2269    227.1779   1.2660846858e+02   1.2012889561e+01    0.1649982    0.1112197  45.92 0.0007101438    1.377    0.274
       209  -9.4061     63.1975     14.7701   9.7967707514e+01   6.7992723608e+01    0.2219607    0.1622698 -79.25 0.0009614769    2.830    0.647
       210  -9.0467      1.2858     15.2903   1.4037249644e+02   7.4809107315e+01    0.1282124   0.06725322 -44.35 0.0002416202    1.536    0.349
       211 -10.2878    156.2444     14.2217   7.1439726909e+01   4.4372316995e+01    0.3477759    0.1789798  53.28  0.001435854    1.817    0.450
       212  -9.8196    144.0464     14.5013   7.3507308204e+01   4.7751868602e+01    0.2245484    0.1413411  67.18 0.0003531568    1.485    0.327
       213  -9.5254    109.7062    226.6634   1.3273842943e+02   1.6325152596e+01     0.108313   0.08282483   7.62 0.0004987638    1.645    0.392
       214 -10.3380     32.5105    225.2488   1.4831633794e+02   2.5633546281e+01    0.2814766   0.08436027  39.45  0.001511937    2.106    0.525
       215 -10.0829     25.5267    224.9527   1.4967076079e+02   2.6348610469e+01    0.1401978   0.08996008  85.69 0.0008940449    1.570    0.363
       216 -10.8944      2.3802    220.1010   1.5399214402e+02   2.9174683688e+01    0.2592154   0.08642941  77.37  0.001428145    2.737    0.635
       217 -11.2286      7.6759    217.6261   1.5292933563e+02   2.9170780296e+01    0.2431294    0.1797511  66.14  0.001471507    1.143    0.125
       218  -9.9462    184.5078     11.5657   6.6929127376e+01   3.6887453013e+01    0.1423436    0.1321621 -80.66 0.0001156011    1.013    0.013
       219  -9.4405    246.6460    216.6819   1.0570079326e+02  -1.5718574867e+00    0.1192355   0.06209985  10.80 0.0007046451    1.746    0.427
       220 -10.6699      3.9847    212.4355   1.5353802777e+02   3.0375309851e+01    0.2313796    0.1172022  34.96  0.001155157    1.600    0.375
       221  -9.8560    209.4789    212.0159   1.1126977463e+02   3.9175334085e+00    0.1564489    0.1050514 -19.56  0.001022188    1.571    0.363
       222 -10.7140     16.0046    212.0240   1.5114296764e+02   2.9449375804e+01    0.1382222    0.1270251 -27.54  0.001132884    1.664    0.399
       223  -9.5990    246.8688    206.9195   1.0410978345e+02  -6.5749775521e-01    0.1763879    0.1114608   5.23  0.001021817    1.256    0.204
       224  -9.5372    197.0396    204.0194   1.1230698978e+02   6.6928931385e+00      0.15216    0.1133756  20.38 0.0006091947    1.010    0.010
       225 -10.8655      9.5472    203.4058   1.5221461376e+02   3.1549633395e+01    0.1941435    0.1402218  56.18  0.000726693    1.008    0.007
       226  -9.0411    181.5421    199.5049   1.1458185839e+02   9.6592065203e+00     0.126907    0.0988448  23.76 4.295486e-05    1.028    0.027
       227  -9.5781     23.4657    197.4760   1.4908474887e+02   3.1460969426e+01    0.1132001   0.08342679  56.46   5.5103e-05    1.017    0.017
       228  -9.9521      6.5875    191.6971   1.5252977512e+02   3.3977366913e+01    0.1459932   0.07856058  72.52 0.0009312073    1.543    0.352
       229 -10.4776     15.4634    185.4584   1.5039047525e+02   3.4478249711e+01    0.2057579   0.09586796 -88.52  0.001168448    2.046    0.511
       230  -9.2815      1.1942    183.0650   1.5348862609e+02   3.6051205427e+01    0.1344656   0.07166895 -89.79 0.0004816226    1.711    0.416
       231  -9.1023    250.4755    183.4774   9.9546467437e+01   1.2571320758e+00    0.1193054   0.08621579   6.64 0.0004524417    1.017    0.017
       232  -9.2161     21.6834    179.6482   1.4873437190e+02   3.5113937223e+01     0.104914   0.08335262 -45.37 0.0007046952    1.737    0.424
       233 -10.6836      4.8671    167.4199   1.5223784219e+02   3.8946045724e+01    0.2924803    0.1449581  48.73  0.001454326    1.583    0.368
       234  -8.9227     41.7165    158.3601   1.4243788324e+02   3.7748221748e+01    0.1356835    0.0758933  62.00  0.000701862    1.676    0.403
       235  -9.1591    247.4624    155.5440   9.4789733398e+01   4.8180322986e+00    0.1244997   0.09631661   2.58 0.0001308643    1.002    0.002
       236  -9.3598    243.0000    154.9735   9.5380253890e+01   5.5819517158e+00    0.1909273   0.06225972 -29.56 0.0005176211    2.864    0.651
       237 -10.1800      2.7632    153.5793   1.5232579246e+02   4.2018466421e+01    0.1664309   0.08202229  39.90 0.0009588721    1.725    0.420
       238 -10.3456     22.0249    143.2380   1.4671603439e+02   4.2937710346e+01    0.2200495    0.1563644  87.23   0.00136596    1.254    0.202
       239 -10.8212     12.5539    130.5211   1.4866435002e+02   4.6557253915e+01    0.3806677    0.1496453  55.85  0.001228466    2.335    0.572
       240 -10.0031     29.0927    128.7579   1.4357570431e+02   4.5736553125e+01    0.2652987    0.1523052  80.06  0.001007881    1.703    0.413
       241  -9.5274     21.1917    126.1721   1.4578873847e+02   4.6976150674e+01    0.1746587    0.1218351  62.50   0.00043917    1.296    0.229
       242  -9.2600    226.3251    124.6641   9.1702050135e+01   1.2327326066e+01    0.1257781    0.1055091 -57.56 0.0007051324    1.718    0.418
