#   1 NUMBER                 Running object number                                     
#   2 MAG_AUTO               Kron-like elliptical aperture magnitude                    [mag]
#   3 X_IMAGE                Object position along x                                    [pixel]
#   4 Y_IMAGE                Object position along y                                    [pixel]
#   5 X_WORLD                Barycenter position along world x axis                     [deg]
#   6 Y_WORLD                Barycenter position along world y axis                     [deg]
#   7 A_WORLD                Profile RMS along major axis (world units)                 [deg]
#   8 B_WORLD                Profile RMS along minor axis (world units)                 [deg]
#   9 THETA_WORLD            Position angle (CCW/world-x)                               [deg]
#  10 FWHM_WORLD             FWHM assuming a gaussian core                              [deg]
#  11 ELONGATION             A_IMAGE/B_IMAGE                                           
#  12 ELLIPTICITY            1 - B_IMAGE/A_IMAGE                                       
         1 -11.2129    222.6103     21.2725   3.4571910775e+01   2.7593083698e+01    0.6820747    0.5415621 -64.33  0.002947494    1.072    0.067
         2 -11.8691    206.7999     38.0155   4.0007918370e+01   2.9082546264e+01    0.9446055    0.8504756  23.10  0.005916786    1.465    0.318
         3  -9.2427    247.4731      2.0303   2.8824772579e+01   2.4540137013e+01     0.405763    0.1919929  67.21  0.002048224    2.126    0.530
         4  -8.9079    242.7437      1.7716   2.9060936966e+01   2.5508950902e+01    0.2780644       0.1515  85.06  0.001675908    1.668    0.400
         5  -8.7992     97.6004    238.1947   1.0618792681e+02   1.1839276273e+01    0.2434391    0.1471331 -49.83 0.0008217687    1.981    0.495
         6 -13.9154     35.5335    239.7275   1.1885662838e+02   1.9642164123e+01     1.564232    0.8743735  25.10  0.004071736    2.311    0.567
         7 -13.5624     39.9070    247.2753   1.1853585468e+02   1.7672785649e+01     1.155897    0.4132293  39.70  0.002477737    2.245    0.555
         8 -14.0063     30.0303    247.7731   1.2040445190e+02   1.8694376652e+01    0.6479866     0.348635  78.11  0.003851765    1.740    0.425
         9 -15.1037     16.3068    217.0112   1.2112669357e+02   2.6346217650e+01     2.091582    0.7171816  59.50  0.009267532    2.891    0.654
        10 -14.0178      2.0285    205.5708   1.2330217306e+02   3.0114444813e+01     1.726665    0.2994797 -71.94   0.00644948    4.125    0.758
        11 -14.7601     20.2439    248.4747   1.2222237901e+02   1.9613610694e+01    0.7870114    0.4417625 -61.45  0.004934445    2.111    0.526
        12 -16.1833     11.9680    242.9478   1.2341857633e+02   2.1518145196e+01     2.428556     1.074414 -52.98    0.0122823    3.499    0.714
        13 -15.4921      6.1002    223.8413   1.2351181861e+02   2.5893775387e+01     2.456343   0.05310662  42.67  0.009144188    4.553    0.780
        14  -8.0691    239.8794    241.1563   7.8228404220e+01  -9.6080945527e+00    0.1639786    0.1090233  -0.74 0.0004259517    1.291    0.226
        15  -9.8387    115.8926    237.1800   1.0221686042e+02   9.2997279480e+00    0.4299804    0.2003752  24.35  0.001731105    2.961    0.662
        16  -9.3675    132.3502    233.7292   9.8271442155e+01   7.3894656413e+00    0.2625061    0.1375528  44.70  0.001270749    1.734    0.423
        17  -9.9292     84.5869    231.6821   1.0821279523e+02   1.4989372917e+01    0.4035871    0.2811654  88.69  0.001418231    1.602    0.376
        18  -7.4834     74.4730    237.4083   1.1091156587e+02   1.5252332014e+01    0.1241785    0.1022173  56.79 8.672111e-05    1.016    0.016
        19  -9.4755     60.5828    225.5765   1.1267750110e+02   1.9493555355e+01    0.3362371    0.2502729 -60.68  0.001436952    1.500    0.333
        20  -8.8563     61.2674    219.6689   1.1196451181e+02   2.0652203959e+01    0.2870628    0.1858836  78.14  0.001192848    1.581    0.368
        21  -9.6437    113.0156    224.0028   1.0113254499e+02   1.2284134862e+01    0.4500306    0.1799093  35.54 0.0008947641    2.279    0.561
        22  -8.9980    220.6975    222.6705   7.8539542421e+01  -4.4721009035e+00    0.2123708     0.180435  -5.92 0.0004366425    1.123    0.110
        23  -8.1401    188.6498    223.1972   8.4861319720e+01   2.6945886675e-01    0.1767169    0.1135111 -28.27 0.0005423874    1.639    0.390
        24  -7.6655    136.6804    220.2858   9.5393792623e+01   9.2203454615e+00    0.1345665   0.09948443  61.32 0.0002522333    1.593    0.372
        25  -7.5480     78.6666    220.6636   1.0828216831e+02   1.8090328561e+01    0.1235445    0.1014932 -21.36 0.0007052072    1.740    0.425
        26  -8.8749    190.0156    218.7390   8.3819613675e+01   7.9098891912e-01    0.2542809     0.180125 -29.03  0.001060567    1.434    0.303
        27  -8.1656    190.4921    214.4542   8.2972281717e+01   1.4339864917e+00    0.2107149    0.1836466  -4.34 -8.481848e-06    1.068    0.063
        28  -8.8964    189.0340    210.1033   8.2493569184e+01   2.4143766006e+00    0.2191751    0.1887942 -34.19 0.0003366699    1.256    0.204
        29  -7.3317    112.2138    218.1866   1.0052092528e+02   1.3582179039e+01    0.2207551    0.1445892 -14.28 0.0009516248    2.832    0.647
        30  -7.1636     82.9770    218.0257   1.0703059757e+02   1.8036272661e+01    0.1542834    0.1335706  58.47            0    1.015    0.015
        31  -7.7006     98.9157    214.3760   1.0300084452e+02   1.6444692230e+01     0.190286    0.1237586  35.69 0.0001568019    1.452    0.311
        32  -7.9654    101.5506    211.2291   1.0197936701e+02   1.6706479408e+01    0.2452805    0.1877133 -39.38 0.0004106285    1.577    0.366
        33  -8.7362     75.1631    212.6580   1.0815622342e+02   2.0296385547e+01    0.4333594    0.2466025  20.95  0.001718091    2.428    0.588
        34  -7.1969     95.4712    211.6011   1.0341882832e+02   1.7561653954e+01    0.1334864    0.1203377  51.56 6.100857e-05    1.039    0.037
        35  -8.7640     58.5405    211.4811   1.1174319327e+02   2.2778329828e+01    0.2332161   0.09091051  45.07  0.001019164    2.258    0.557
        36  -8.8494    118.2648    208.8035   9.7798144803e+01   1.4549748094e+01    0.2383226    0.2309506  72.99 0.0005167021    1.077    0.071
        37  -8.6693    123.6117    205.6433   9.6082951485e+01   1.4328096626e+01    0.3418016     0.240884  85.35  0.001181506    2.040    0.510
        38  -8.3302    119.3142    205.2666   9.7017995239e+01   1.5121756243e+01    0.2699847    0.1999282  16.84 0.0005216522    1.593    0.372
        39  -8.6579     62.1825    208.1136   1.1057712104e+02   2.3052290201e+01    0.2493698    0.1263351 -55.96 0.0008861722    2.091    0.522
        40  -8.0046    128.6552    206.7235   9.5093774176e+01   1.3258609567e+01    0.2476102    0.1885167  39.43  0.001330434    1.208    0.172
        41  -8.5339    115.9490    203.3235   9.7501451392e+01   1.6091786985e+01    0.2426877    0.2120653  77.86 0.0003339891    1.227    0.185
        42  -7.9260    158.0121    207.2175   8.8575260286e+01   8.1572987950e+00    0.1926114    0.1055671  36.52 0.0008717371    1.686    0.407
        43  -8.2418     61.0215    200.5042   1.1000879092e+02   2.4918240636e+01    0.1806452    0.1579105  71.73 0.0003608302    1.013    0.013
        44 -15.8237      2.9035    237.8885   1.2479599198e+02   2.3376295487e+01     1.142847    0.3167222 -77.01  0.005377367    3.157    0.683
        45  -7.5497    194.6687    199.6743   7.9421485012e+01   3.3035503551e+00    0.1448213   0.09904402  -1.14 0.0005776719    1.707    0.414
        46  -8.5021     78.8815    198.1909   1.0553065884e+02   2.2997369710e+01    0.2369177    0.1928202  61.45 0.0002963383    1.148    0.129
        47  -8.9620    109.0263    198.0531   9.8322236945e+01   1.8376382935e+01    0.2029078    0.1911162  52.84  0.001193996    1.015    0.015
        48  -8.5664     89.5422    196.8378   1.0280219661e+02   2.1727549310e+01    0.3277688    0.2427445 -12.29  0.001607904    2.072    0.517
        49  -8.1240     99.0759    195.6794   1.0034429872e+02   2.0509634325e+01    0.4120109    0.1845634  27.28 0.0008139053    2.810    0.644
        50  -8.3745    180.1183    193.7950   8.1333164977e+01   6.8702120184e+00     0.195852     0.182934  29.22 0.0003219843    1.143    0.125
        51  -7.9744     83.1412    193.0996   1.0382527863e+02   2.3544748041e+01    0.1930706    0.1484263  66.36 0.0003791065    1.305    0.233
        52  -7.3672    115.3051    192.2777   9.5899133690e+01   1.8613612350e+01    0.1377785    0.1125922  -7.38 0.0001673865    1.549    0.354
        53  -7.8765     74.5121    190.4888   1.0557006200e+02   2.5402337434e+01    0.2438784    0.1312143 -67.67  0.001114589    1.874    0.466
        54  -7.8809     76.2954    187.2943   1.0469944271e+02   2.5898696606e+01    0.2014056    0.1887778 -51.91  0.000168096    1.194    0.163
        55  -8.1055     64.0277    191.0583   1.0818828774e+02   2.6708019723e+01    0.1984099    0.1784192  82.17 0.0003348115    1.025    0.025
        56  -8.4384     67.5076    190.0289   1.0721637281e+02   2.6482078772e+01    0.2443021    0.1795426  52.23 0.0006013512    1.292    0.226
        57  -9.5108     18.3228    187.2826   1.1856124288e+02   3.2756855113e+01    0.4838252    0.1954714 -67.48  0.002318091    2.115    0.527
        58  -8.3893     90.8026    189.2233   1.0139687376e+02   2.3283627692e+01    0.2007334    0.1757308  68.68 0.0003178095    1.101    0.092
        59  -7.5953     93.7910    187.0034   1.0032350329e+02   2.3333805892e+01    0.1986324    0.1240381 -49.87 0.0003244902    1.689    0.408
        60  -9.3453     80.5358    187.1683   1.0363303880e+02   2.5312602689e+01    0.2703858    0.2311493  36.41 0.0003573247    1.215    0.177
        61  -8.7052    188.4193    185.2896   7.7923446454e+01   7.0024105593e+00    0.2448681    0.2295638  71.36 0.0004112481    1.370    0.270
        62  -7.3068     38.2927    185.3378   1.1372985597e+02   3.1186411128e+01    0.1266058    0.0922173 -46.16 0.0007026355    1.646    0.392
        63  -7.6160    118.1829    183.5971   9.3725491903e+01   2.0071028145e+01    0.2214854    0.1387216  25.71 0.0009694215    1.826    0.452
        64  -8.2230     78.2948    182.5291   1.0352817962e+02   2.6739659145e+01    0.2427003    0.1767071 -67.11 0.0004888227    1.346    0.257
        65  -7.8589     49.2790    183.2839   1.1084915511e+02   3.0413520138e+01    0.2199063    0.1782285  80.58 0.0001876757    1.121    0.108
        66  -8.7088     50.5157    180.4343   1.1021002361e+02   3.0947778231e+01    0.4507584     0.162602  35.56  0.001838014    2.646    0.622
        67  -8.1703    148.4012    180.9134   8.5945668462e+01   1.5211658666e+01    0.3510078    0.2391122  70.38  0.001480009    2.306    0.566
        68 -10.3923     61.8721    179.3295   1.0722737948e+02   2.9784304887e+01    0.4729021    0.3760608 -65.72   0.00190813    1.212    0.175
        69  -9.9965     42.7610    179.8783   1.1206275046e+02   3.1988323501e+01    0.4735717    0.2564185  37.41    0.0023751    1.848    0.459
        70  -7.7162    112.5609    177.7479   9.4092091835e+01   2.2387731381e+01    0.1969603    0.1423539 -72.49 0.0002828524    1.592    0.372
        71  -7.1090     86.6913    178.6287   1.0081238436e+02   2.6414719165e+01    0.1469171    0.1092562 -28.72 0.0007033833    1.767    0.434
        72  -8.9661     23.0330    177.6526   1.1662817068e+02   3.4571983642e+01    0.2191955    0.1445549  84.20 0.0006576374    1.375    0.273
        73  -7.3259     76.4927    176.5340   1.0310620935e+02   2.8441439045e+01    0.1390638     0.132019 -86.21 0.0008090254    1.056    0.053
        74  -7.6661    137.7704    174.5273   8.7239851073e+01   1.8578269007e+01    0.3115388    0.1240243 -61.15 0.0008743731    4.428    0.774
        75  -9.8002     67.5712    173.5031   1.0496639193e+02   3.0435308403e+01    0.3413248    0.2895326 -13.10 0.0009609124    1.532    0.347
        76  -8.2087     47.7030    173.5577   1.1008540766e+02   3.2947204927e+01      0.29285    0.1592154 -47.22  0.001356948    2.098    0.523
        77  -9.1967     25.1159    169.6972   1.1534987898e+02   3.6279813958e+01    0.3678093    0.2040195 -36.16  0.001717607    2.682    0.627
        78  -9.3928     17.4652    171.6946   1.1742331495e+02   3.6500063796e+01     0.353955    0.2527078 -67.60  0.001994078    1.272    0.214
        79  -9.3642    175.4325    172.3865   7.8076573667e+01   1.1900908804e+01     0.295873    0.2699063  24.41 0.0007311517    1.079    0.073
        80  -7.6748    117.4427    173.4248   9.2073660653e+01   2.2535697003e+01    0.1454322    0.1427935  29.04 0.0005263118    1.038    0.037
        81  -7.5435     90.4207    173.4444   9.9018062516e+01   2.7078686725e+01    0.1435345    0.1347417  82.37 2.733786e-05    1.018    0.018
        82  -8.0975     37.5479    169.5954   1.1220270138e+02   3.5052070653e+01    0.3347811    0.1199846 -72.05  0.001311715    2.607    0.616
        83  -9.4061      6.8629    170.0352   1.1983009758e+02   3.7776740894e+01    0.3738675    0.2153135 -76.37 0.0002993023    1.425    0.298
        84 -10.3846     10.7392    168.0389   1.1873211283e+02   3.7940951454e+01    0.9167061    0.2124772 -65.55  0.002706492    3.119    0.679
        85  -8.5544      4.3125    165.7225   1.2009390811e+02   3.8991492748e+01    0.2219376     0.178115  47.98 0.0007358224    1.343    0.255
        86  -9.3589      4.4743    162.5351   1.1979413476e+02   3.9735911498e+01    0.5007117    0.2410795  29.89  0.002276317    2.294    0.564
        87  -7.6916     75.2505    170.0685   1.0244542419e+02   3.0195254065e+01    0.1894692    0.1751541 -80.52 0.0003096756    1.032    0.031
        88  -8.7293     43.6593    169.1852   1.1058563625e+02   3.4481260689e+01    0.2508794    0.1977854  47.73  0.001214983    1.292    0.226
        89  -7.5223     32.4896    166.4495   1.1313882145e+02   3.6346530168e+01    0.1313858    0.1129027 -85.37 6.584618e-05    1.018    0.017
        90  -8.0086     24.8138    165.8582   1.1503219978e+02   3.7237970260e+01    0.1887003    0.1508949 -66.56 0.0003661657    1.182    0.154
        91  -8.5237     85.2886    165.0025   9.8951568006e+01   2.9934716452e+01     0.201338    0.1792636 -71.59 0.0003422116    1.084    0.078
        92  -8.6953     77.0093    164.1323   1.0102947963e+02   3.1399251803e+01    0.2344031    0.1994786 -68.21 0.0003633176    1.121    0.108
        93  -7.9838     43.0021    164.1654   1.1013121818e+02   3.5789982452e+01    0.3480801    0.1934098 -31.55  0.001460345    2.937    0.659
        94  -8.8995     56.2658    162.7941   1.0641286729e+02   3.4558791665e+01    0.5610775     0.356863  23.57  0.001898097    1.871    0.465
        95  -7.5725    106.8514    163.6428   9.2966534689e+01   2.6710097154e+01    0.2077545    0.1324653  47.96 0.0009165842    1.609    0.378
        96  -9.0619     99.4111    162.9629   9.4811021666e+01   2.8148382998e+01    0.3689459    0.2212485  14.26  0.001410924    2.669    0.625
        97  -9.4360     65.0003    160.2717   1.0366766292e+02   3.4050393534e+01    0.3490041    0.2472927 -42.68 0.0005384476    1.564    0.361
        98  -7.3533    123.7638    172.9893   9.0400257000e+01   2.1502098169e+01    0.1879811    0.1253145 -52.33 0.0003623464    1.529    0.346
        99  -8.2563     19.4217    163.1952   1.1612746157e+02   3.8372693239e+01    0.1965548    0.1762983  57.80 0.0006966489    1.206    0.171
       100  -9.6069     83.3871    158.2819   9.8295932937e+01   3.1885637585e+01    0.3114311    0.2559183 -54.77  0.000521846    1.191    0.160
       101  -9.3610     86.9427    155.0202   9.6724198363e+01   3.2136769784e+01    0.3809645    0.3172796  56.84  0.001998581    1.240    0.193
       102  -8.3593     15.0646    159.1359   1.1683508462e+02   3.9727100312e+01    0.3375376    0.1189879  41.83  0.001268715    2.803    0.643
       103  -7.2400    126.7172    158.3071   8.6719115622e+01   2.4352779515e+01    0.1511399    0.1213349  81.50 0.0002437637    1.562    0.360
       104  -8.2150     35.2392    157.8084   1.1139653033e+02   3.8193254674e+01    0.5186781    0.1941556  42.13  0.002153928    2.688    0.628
       105 -14.7797     14.4405    232.5300   1.2241216198e+02   2.3324163647e+01    0.6268623    0.2785664  39.12  0.003569227    1.985    0.496
       106  -7.8206     23.4987    157.9473   1.1452686390e+02   3.9289425440e+01    0.1884404    0.1112745 -76.37 0.0004210467    1.461    0.315
       107  -8.2656     51.8408    157.1206   1.0679609280e+02   3.6516559946e+01    0.2129475    0.2009146 -15.41   0.00128869    1.262    0.207
       108  -8.6444      1.8258    155.2974   1.1984389622e+02   4.1650726018e+01    0.3900242    0.1261404 -74.28  0.001671917    2.438    0.590
       109  -9.2699      8.8393    154.9329   1.1802756006e+02   4.1234160875e+01    0.1958346    0.1658766  87.30 0.0002895747    1.071    0.067
       110  -7.7310     28.4069    162.2328   1.1372023195e+02   3.7781423847e+01    0.1871978    0.1093776 -86.60 0.0009378507    1.644    0.392
       111  -8.1534     80.1809    151.7802   9.8013678336e+01   3.3993083810e+01     0.192979    0.1643368 -35.62 0.0002488474    1.286    0.222
       112  -8.6037     14.9737    151.8223   1.1611826448e+02   4.1514411261e+01     0.208262    0.1286269 -35.99  0.001093741    2.067    0.516
       113  -7.4883     56.8042    151.4289   1.0455256312e+02   3.7332478920e+01    0.1794571    0.1402226   9.77 0.0004575335    1.612    0.379
       114  -7.1481     30.6937    151.3123   1.1181837426e+02   4.0256429100e+01    0.1367687   0.09046096  70.43 0.0003970115    1.619    0.382
       115  -8.8948    111.3992    149.7714   8.8964444155e+01   2.9233713004e+01    0.2598965    0.2482501  49.17 0.0004005564    1.058    0.054
       116  -9.5645      2.4159    146.8360   1.1894202710e+02   4.3642333927e+01    0.5251787     0.150047 -62.51  0.002207609    2.585    0.613
       117 -10.7689     68.4794    144.8566   1.0009687109e+02   3.7436972069e+01    0.7547093    0.4835761  62.75  0.002771978    1.932    0.482
       118  -7.5996    126.7935    147.3472   8.4334880232e+01   2.6896473074e+01     0.209666    0.1455976  30.14 0.0003890776    1.558    0.358
       119  -9.0031     88.7968    146.8725   9.4642889341e+01   3.3858424344e+01     0.335824    0.2063149  42.40   0.00120948    1.668    0.400
       120  -9.2790     85.9755    142.9639   9.4668719978e+01   3.5284230534e+01    0.4187421    0.2787591 -60.25  0.001940225    1.461    0.316
       121  -8.0598      8.0254    147.5390   1.1752631694e+02   4.3085222807e+01    0.1630909    0.1231171  30.96 0.0006786102    1.558    0.358
       122  -8.4237    243.5168    145.4436   5.9378463259e+01   4.4547191107e+00      0.13471    0.1137976 -25.20 0.0002283061    1.026    0.025
       123  -8.1043    133.6038    144.7627   8.1984473908e+01   2.6151361706e+01     0.216859      0.14849 -59.16 0.0009363657    1.610    0.379
       124  -7.5653    118.7922    145.2139   8.5982886333e+01   2.8941975424e+01    0.1985079    0.1773027  -3.39 0.0002773846    1.249    0.199
       125  -7.6456    113.0989    145.1220   8.7503071145e+01   3.0036724866e+01    0.2121187    0.1828033  84.55            0    1.326    0.246
       126  -8.8790     15.7487    143.6688   1.1502090222e+02   4.3451597844e+01    0.3913491    0.1171893 -67.67  0.001555984    2.561    0.610
       127  -8.8277     98.3133    143.2989   9.1215796415e+01   3.3141293872e+01    0.3066314     0.258935  77.83 0.0005506849    1.340    0.254
       128  -7.8769    101.4684    140.5064   8.9725230297e+01   3.3270592740e+01    0.2469103    0.1909969 -19.90    0.0011477    1.602    0.376
       129  -8.4010    185.9715    140.2707   6.8709590364e+01   1.6300930257e+01     0.243645    0.2060007 -38.56 0.0003903801    1.130    0.115
       130  -9.9944      4.9248    138.5159   1.1745266196e+02   4.5490906812e+01    0.5585349     0.146617 -74.13  0.002070903    3.128    0.680
       131  -7.0396    227.3248    139.3132   6.0711548898e+01   8.3694828505e+00    0.1410111    0.1038537  -3.00 0.0003096566    1.662    0.398
       132  -8.1366    129.0473    138.9592   8.1829587194e+01   2.8404808141e+01    0.2261546    0.2192383 -32.50  0.001190542    1.021    0.020
       133  -8.8862     83.1572    138.0774   9.4493827638e+01   3.6948447464e+01    0.2531602    0.2118262  58.39 0.0007258436    1.286    0.223
       134  -9.3652     13.0201    136.8837   1.1500468623e+02   4.5326597424e+01    0.3734725    0.1656488 -54.77  0.001361198    1.956    0.489
       135  -8.8788     62.6257    136.6330   1.0031792873e+02   4.0305113365e+01     0.374935    0.2765719  66.67  0.001218496    1.584    0.369
       136  -8.3900     28.9457    134.0414   1.0999931391e+02   4.4724348728e+01    0.1962213    0.1891978  36.65 0.0005004159    1.210    0.173
       137  -8.8932      9.3595    132.1057   1.1549609953e+02   4.6757351487e+01    0.2594009    0.1971424  87.22  0.001219671    1.237    0.191
       138  -8.7882    110.6241    131.3124   8.5048154830e+01   3.3807817119e+01    0.4430322    0.2546564   9.30  0.001304551    4.278    0.766
       139  -8.7293     73.2760    131.5143   9.6094134086e+01   4.0094963091e+01    0.4236095    0.2900869   4.26  0.001893345    2.066    0.516
       140  -8.2683    246.1885    130.3834   5.5781644322e+01   6.5222924768e+00    0.1717364    0.1302109  65.09 0.0009611506    1.752    0.429
       141  -7.1607    109.7139    137.7092   8.6785729751e+01   3.2447640597e+01    0.1522562    0.1211537 -15.80 0.0002060097    1.537    0.350
       142  -7.3389     96.4810    128.4668   8.8458748001e+01   3.7084492586e+01     0.152927    0.1460675 -38.19 0.0008092004    1.034    0.033
       143  -7.3938     66.4809    125.4459   9.6931210871e+01   4.2581762782e+01    0.1448756    0.1350535 -67.10 1.291852e-05    1.043    0.041
       144  -7.6809      1.3683    125.2290   1.1703765734e+02   4.8933080689e+01    0.1727132   0.09902167 -82.40 0.0006203739    1.525    0.344
       145  -7.8278     94.7411    121.0683   8.7220143761e+01   3.9177598472e+01    0.2155942    0.1884597 -50.34 0.0004085359    1.100    0.091
       146  -7.5042     64.3928    121.1393   9.6681662392e+01   4.3939346459e+01    0.1989311     0.133096 -70.39 0.0005187016    1.593    0.372
       147  -7.0311    104.2921    120.6226   8.4272069672e+01   3.7541932107e+01    0.1593002    0.1233284  89.81 0.0007021131    1.739    0.425
       148  -8.5471      5.9567    119.6892   1.1500475688e+02   5.0004041648e+01    0.1669315    0.1448139 -68.48 0.0004211404    1.076    0.071
       149  -7.2984     65.7301    116.2913   9.5191300542e+01   4.4948623216e+01    0.1385321    0.1117726  81.07 0.0002304974    1.510    0.338
       150  -7.4206    127.0000    111.9561   7.5607150091e+01   3.4971501772e+01    0.2577161   0.08842483 -45.17 0.0007918146    2.869    0.651
       151  -7.6588     59.5141    110.9545   9.6032362054e+01   4.7096061007e+01    0.2252434    0.1313042 -57.01  0.001024485    1.566    0.361
       152  -8.9815     50.6214    110.3477   9.8878438994e+01   4.8357547984e+01    0.2413634    0.2092438 -43.43 0.0002945664    1.072    0.068
       153  -7.4352     76.7329    109.6798   9.0054164844e+01   4.4917664282e+01    0.1505334    0.1088968 -26.91  0.000265279    1.559    0.359
       154  -9.7127    249.3285    106.8164   5.0304127590e+01   9.8510936474e+00    0.4232889    0.1639056 -35.16  0.001747514    2.327    0.570
       155  -7.7684      8.5325    106.5117   1.1237703046e+02   5.3032801435e+01    0.1283016      0.10411 -64.51 5.242277e-05    1.012    0.012
       156  -8.2459     68.8617    103.1552   9.1023049575e+01   4.7663773302e+01    0.3353014    0.2400766 -80.54  0.001554155    1.902    0.474
       157  -8.4309     99.4663     96.4349   7.9248566304e+01   4.3986440668e+01    0.2461867    0.2379623   3.16 0.0008210895    1.034    0.033
       158  -7.6027     26.0000     93.9739   1.0405167858e+02   5.4781310694e+01    0.2139272   0.06518258 -62.80 0.0003378788    2.801    0.643
       159  -8.2846     42.9866     92.9085   9.7590993674e+01   5.3398736900e+01    0.2047448    0.1755778 -38.26 0.0003200303    1.050    0.047
       160  -9.7865     94.6534     90.3409   7.8976414943e+01   4.6222444358e+01    0.2599461    0.2574106 -44.86 0.0002828359    1.098    0.089
       161  -7.3256     75.8462     88.3572   8.4611770812e+01   4.9960756881e+01    0.1918139    0.1347359  18.72 0.0003467776    1.611    0.379
       162  -7.7331     38.8012     82.8025   9.6643947392e+01   5.6167905771e+01    0.1643792    0.1528091 -82.08 0.0003360706    1.283    0.221
       163  -7.3304    156.7086     82.3005   6.0006474828e+01   3.4211467650e+01    0.1512429    0.1179418 -74.95   0.00024248    1.565    0.361
       164  -7.8672     81.2205     77.7413   7.9539743905e+01   5.1307016247e+01    0.2530083    0.1629973  -9.10   0.00105801    2.251    0.556
       165  -7.4842     74.0743     71.2114   7.9931774732e+01   5.3847249668e+01     0.178274     0.112376  33.25 0.0004951052    1.622    0.383
       166  -8.2844     22.9704     69.6847   9.9568342746e+01   6.0545713563e+01    0.2221938    0.1373432 -37.16 0.0001571641    1.406    0.289
       167  -8.2473    201.2710    246.2329   8.6146428644e+01  -5.1285050480e+00    0.1723105    0.1338672   9.20 0.0005361163    1.066    0.062
       168 -10.8230    198.5202     43.0662   4.2245602930e+01   3.0332670107e+01    0.4208972    0.3383872  83.45  0.001993021    1.179    0.152
       169  -9.4561     91.6231    243.0581   1.0795625352e+02   1.1775613956e+01    0.3994335    0.1775303  29.15  0.001775133    2.523    0.604
       170  -7.2975    125.0024     37.2064   5.3018241278e+01   4.8811702189e+01    0.1801174    0.1038899  57.02   0.00038717    1.599    0.375
       171  -7.8061     23.1496     31.1582   8.6759894086e+01   6.8019314766e+01    0.1484194    0.1358499  -6.45 0.0005666947    1.321    0.243
       172 -10.2150    215.4430     28.8580   3.6938656346e+01   2.8274074602e+01    0.3787162    0.2906159  43.15  0.001008981    1.699    0.411
       173  -7.1676    164.5046     40.5327   4.6480558404e+01   3.8819956888e+01    0.1388119    0.1276154  82.46 1.776345e-05    1.012    0.011
       174  -7.3764    242.0246     21.9763   3.3125429627e+01   2.3428024006e+01    0.1408408    0.1115248 -67.06 0.0003426282    1.003    0.003
       175  -8.1993     94.6686     14.9887   5.2174234499e+01   5.8197210011e+01    0.1723412    0.1527497  22.89 0.0003699651    1.083    0.076
       176  -9.8109     98.2987    241.5173   1.0641312287e+02   1.1106315165e+01    0.3787287    0.1952737  26.13  0.001773712    2.309    0.567
