#   1 NUMBER                 Running object number                                     
#   2 MAG_AUTO               Kron-like elliptical aperture magnitude                    [mag]
#   3 X_IMAGE                Object position along x                                    [pixel]
#   4 Y_IMAGE                Object position along y                                    [pixel]
#   5 X_WORLD                Barycenter position along world x axis                     [deg]
#   6 Y_WORLD                Barycenter position along world y axis                     [deg]
#   7 A_WORLD                Profile RMS along major axis (world units)                 [deg]
#   8 B_WORLD                Profile RMS along minor axis (world units)                 [deg]
#   9 THETA_WORLD            Position angle (CCW/world-x)                               [deg]
#  10 FWHM_WORLD             FWHM assuming a gaussian core                              [deg]
#  11 ELONGATION             A_IMAGE/B_IMAGE                                           
#  12 ELLIPTICITY            1 - B_IMAGE/A_IMAGE                                       
         1 -14.1253    196.4373     36.2333   5.0346423212e+01   3.1289738244e+01     1.324886     1.178351  -5.82  0.004546074    1.308    0.235
         2 -14.6710    206.9537     24.3907   4.5720017356e+01   3.0082250875e+01     1.794398     1.269474  10.98  0.002773817    2.064    0.516
         3  -9.9945    155.8229     11.1591   4.8643732106e+01   4.4748027428e+01    0.1957408    0.1505431  42.14 0.0004163772    1.298    0.230
         4 -11.0972     63.1381      8.1803   7.0263131904e+01   6.5941028152e+01    0.2026248    0.1470025  12.09 0.0008020118    1.229    0.186
         5 -12.1389    230.7074      2.0863   3.7804334784e+01   2.6734463451e+01    0.6699141    0.2328572  74.80  0.002631422    2.695    0.629
         6 -12.3579     59.2796      2.8171   6.8983211531e+01   6.7191716242e+01    0.4911261    0.2026017  36.53  0.002314431    2.286    0.562
         7 -11.3041    149.6245    188.6879   9.8243346010e+01   1.3862896501e+01    0.4425717    0.2852368 -75.34  0.001969419    2.446    0.591
         8 -12.9726     73.2305    175.5152   1.1330310645e+02   2.9546950302e+01     1.018323    0.5688482 -31.57  0.003659678    4.791    0.791
         9 -14.8023     86.8550    227.9567   1.1632456883e+02   1.6903783388e+01     2.008874     1.023476  47.71  0.003761836    1.587    0.370
        10 -17.4010     52.7350    200.9228   1.2041945787e+02   2.6804947220e+01     13.70714     6.072816 -82.82   0.06638194    2.403    0.584
        11 -10.4278     97.0120    190.4648   1.0997003618e+02   2.2718946313e+01    0.2581621    0.2570165 -31.09  0.001500649    1.291    0.226
        12  -9.7281     99.5338    187.4733   1.0900874634e+02   2.2944729866e+01    0.2148578    0.1285086 -65.28 0.0009040798    1.740    0.425
        13 -16.7125     65.6600    248.2887   1.2183974766e+02   1.6244140469e+01     8.411277     2.250614  34.69   0.02405372    5.603    0.822
        14 -10.4741     99.4432    180.8997   1.0809311247e+02   2.4364043191e+01     0.239046    0.1904934  39.66 0.0005868321    1.304    0.233
        15 -11.7617    195.4935    199.0007   9.0661364518e+01   3.5060821726e+00    0.3569912    0.2678829 -77.70  0.001738545    2.452    0.592
        16 -13.1192     50.8810    146.9199   1.1488331611e+02   3.9048942690e+01     1.222752    0.4592829  28.41  0.004916762    3.397    0.706
        17 -13.8985     57.9699    129.2696   1.1034259752e+02   4.2398882324e+01     2.530663     0.796145 -72.62  0.006789839    5.666    0.824
        18 -13.2688     84.0084    163.0899   1.0904198553e+02   3.0776872322e+01      1.35129    0.4545757  53.37 0.0004021776    4.007    0.750
        19 -13.8250     72.5670    158.4619   1.1112733177e+02   3.3527456659e+01    0.5801976    0.5607919 -22.06  0.002603896    1.332    0.249
        20 -15.0922     68.6331    144.4066   1.0997288440e+02   3.7381381331e+01       5.4013     2.106142  59.29  0.003145696    4.915    0.797
        21 -11.8244    192.3335    193.3160   9.0242570466e+01   5.0017245822e+00    0.5816155     0.360282 -56.83  0.002718876    2.389    0.581
        22 -11.6887    143.1273    171.6622   9.6621517943e+01   1.8481958991e+01    0.4370943    0.3526537 -13.07  0.002239273    1.629    0.386
        23 -10.7600    114.1064    200.3652   1.0764995536e+02   1.7907312847e+01    0.2397941    0.1877334 -82.92 0.0008157694    1.371    0.270
        24 -10.2905     96.8200    200.8180   1.1134986964e+02   2.0617851297e+01    0.2739629    0.2133019  11.19 0.0009388242    2.014    0.504
        25 -10.8861    137.8040    171.0486   9.7714615181e+01   1.9635016932e+01    0.2289972    0.1949566  78.60  0.001234595    1.272    0.214
        26  -9.5550    201.6723    169.3333   8.3665460923e+01   7.2562606868e+00    0.1373528    0.1163003 -88.70 0.0007051689    1.717    0.418
        27  -9.6858    162.9660    168.0312   9.1495809968e+01   1.5282450770e+01    0.2247297    0.1791868  83.19 0.0005323333    1.649    0.394
        28  -9.4142    205.4273    166.7668   8.2386654764e+01   6.9560946209e+00    0.2725576    0.1340205 -42.46  0.001142283    2.150    0.535
        29 -10.0240    230.3102    166.3086   7.7603868504e+01   2.2525661514e+00    0.1419653   0.09835818   6.28 0.0002954954    1.620    0.383
        30 -10.0759    192.9405    165.3999   8.4596013080e+01   9.6943711115e+00    0.2522688    0.2064428 -54.44 0.0009544023    1.446    0.309
        31 -12.4157     90.6985    155.8561   1.0625418928e+02   3.1399582023e+01    0.5831882    0.4523412 -26.97  0.003010467    1.819    0.450
        32 -11.4643    134.0000    144.0130   9.3206638651e+01   2.6221628610e+01    0.9276923    0.3100236 -57.42   0.00250028    4.625    0.784
        33 -11.1487     97.3799    148.8105   1.0334592986e+02   3.1941465839e+01    0.3467834    0.2297035  79.86  0.001064175    1.954    0.488
        34 -10.2245    174.6615    148.9455   8.4869696682e+01   1.6621813034e+01    0.2736335    0.2427434 -87.76 0.0008581203    1.353    0.261
        35  -9.3083    109.2419    147.4392   1.0008315857e+02   3.0191980337e+01     0.196104    0.1330013  54.37 0.0004002188    1.511    0.338
        36 -10.3306     86.6492    145.6780   1.0552805553e+02   3.4424219493e+01    0.2581564    0.2124816  77.70 0.0004804744    1.212    0.175
        37 -11.2166    104.2256    140.3024   9.9954917722e+01   3.2745956203e+01     0.598964    0.3421223 -33.90  0.002351301    2.582    0.613
        38 -12.5001     91.5130    140.8042   1.0337225236e+02   3.4795546827e+01    0.2792876    0.2551349 -52.72  0.000534423    1.157    0.136
        39  -9.5874    175.1370    139.1631   8.2515989836e+01   1.8464424015e+01    0.2043124    0.1839445 -85.02   0.00030176    1.297    0.229
        40 -10.9448    209.9317    199.6266   8.8001576215e+01   8.2394030320e-01    0.2249393    0.1883516 -36.78 0.0005480092    1.383    0.277
        41 -13.5479     44.4671    128.3382   1.1390503430e+02   4.4190744656e+01    0.8400227    0.4981304  81.66  0.004115465    2.007    0.502
        42 -15.7293      9.8671    206.5455   1.2893572405e+02   3.0342522752e+01     1.007131    0.7469419  87.02  0.004243261    1.148    0.129
        43 -10.4850    106.0502    130.7858   9.7484321017e+01   3.4645210846e+01    0.3394684    0.2932774 -82.86  0.001164664    1.191    0.161
        44 -10.3183    112.5903    130.7691   9.5743819971e+01   3.3435567062e+01    0.2968015    0.2402091 -12.61 0.0007292108    1.644    0.392
        45 -10.8630    135.0000    119.9901   8.7343282828e+01   3.1358609729e+01    0.5253853   0.08822335 -46.02  0.001153694    5.908    0.831
        46 -11.2226     99.8145    127.2046   9.8387413846e+01   3.6603355098e+01    0.3555326    0.2647797 -27.13  0.001340001    1.731    0.422
        47 -10.7858    126.2179    127.8481   9.1513395790e+01   3.1430774503e+01    0.3547387     0.229635 -89.10  0.001300735    2.774    0.640
        48  -9.7664    160.6606    127.3378   8.2928296885e+01   2.4113328536e+01    0.1629569    0.1259777 -86.75 0.0004478054    1.760    0.432
        49 -14.4329     21.0128    193.2956   1.2606332216e+02   3.1935504948e+01     1.166159    0.5954345  63.56  0.003039447    1.678    0.404
        50 -10.0636    108.7030    119.6522   9.4233771774e+01   3.6751972102e+01     0.228716    0.2144348 -14.54 0.0004426716    1.188    0.158
        51 -13.2450     40.7209    108.2015   1.1167466343e+02   4.9389477083e+01     0.646892    0.3707814 -37.00  0.003186981    2.104    0.525
        52 -12.4092     45.1185    116.0807   1.1174553878e+02   4.7052648864e+01    0.3795162    0.2515111 -77.38  0.001645029    1.421    0.296
        53 -10.4088    107.9780    114.0072   9.3065995607e+01   3.8196479072e+01    0.2195558     0.208073 -76.31  0.001189424    1.049    0.047
        54 -11.8288    118.1909    126.8253   9.3368584956e+01   3.3267861732e+01    0.7094682    0.4297018 -62.70   0.00296276    1.883    0.469
        55  -9.6602    167.4729    112.2795   7.7506753112e+01   2.5647843296e+01    0.2645202    0.1997815  78.23 0.0007948789    1.734    0.423
        56 -11.5394    118.4275    109.8853   8.9133238001e+01   3.7085107399e+01    0.6605822     0.433479  55.85  0.002881969    1.716    0.417
        57 -11.5419     19.9411    111.0639   1.1828648747e+02   5.0547899924e+01    0.2411176    0.1806692  36.02 0.0006497759    1.595    0.373
        58  -9.9610    205.5522    110.1720   6.9099477055e+01   1.7084235854e+01    0.2639942    0.2172577  49.14 0.0006041403    1.259    0.206
        59 -10.0574    134.8409    105.1309   8.3484729739e+01   3.4648722161e+01    0.4229918    0.1123542 -41.64  0.001134745    3.887    0.743
        60 -12.4167     46.0819    110.2806   1.1043392031e+02   4.8334425611e+01      0.36981    0.2717093 -65.36  0.002134495    1.156    0.135
        61 -10.5955     59.4057     96.8690   1.0352675259e+02   4.9952812101e+01     0.283812    0.1987399  66.16  0.001432647    1.880    0.468
        62 -11.3342     53.1693     91.1538   1.0423262617e+02   5.2046971289e+01     0.362661    0.1823661 -60.82  0.001373408    1.797    0.443
        63 -11.3665     42.1442     91.7392   1.0800995124e+02   5.3122400654e+01    0.2901159    0.2186393  -9.12   0.00132257    1.687    0.407
        64 -10.5246     61.3043     68.5323   9.5338239667e+01   5.6067680061e+01    0.2621761    0.2353609  65.37  0.001574362    1.411    0.291
        65 -10.7434    151.9706     55.2186   6.4056077418e+01   4.0081295153e+01    0.3235899    0.2531318 -83.43 0.0004442165    1.594    0.373
        66 -13.5894    186.8862     43.4819   5.3865830469e+01   3.2785538036e+01     1.099999    0.8062798  19.75 0.0009750868    1.801    0.445
        67 -11.6479    172.1696    240.8491   1.0177356177e+02   1.2553140924e+00    0.5189829    0.2522863 -58.78  0.002346058    3.815    0.738
        68 -16.0995      4.9342    249.1213   1.3165415041e+02   2.3044444270e+01     1.007816    0.7487248  34.98  0.006777041    1.891    0.471
        69 -10.6303    154.2011     49.0914   6.1569584462e+01   4.0463625546e+01    0.2888122    0.2349144  83.26 0.0004378625    1.384    0.277
        70 -11.4946     26.8275     35.2886   9.8171021605e+01   6.6581668352e+01    0.2594765    0.1845787  38.99  0.001538509    1.882    0.469
        71 -12.1183     19.0459     33.7963   1.0123176873e+02   6.7513827820e+01    0.5188849    0.1493518  32.10  0.002226677    4.029    0.752
        72  -9.9949    189.6991     15.0093   4.5169354073e+01   3.5558468306e+01    0.1917943    0.1770575 -56.24 0.0006209532    1.109    0.099
        73 -16.5684      2.2302    232.2265   1.3141523006e+02   2.6242885341e+01      8.58707          nan -75.29   0.02051604   14.965    0.933
        74 -10.8735    198.5092    222.5682   9.4125123799e+01  -5.4093287138e-01     0.220984    0.1821899  28.06 0.0004889644    1.033    0.032
        75  -9.4098    130.4384    212.5178   1.0594428479e+02   1.2840478712e+01    0.1315274    0.1105383  55.57 9.590766e-05    1.043    0.041
