#   1 NUMBER                 Running object number                                     
#   2 MAG_AUTO               Kron-like elliptical aperture magnitude                    [mag]
#   3 X_IMAGE                Object position along x                                    [pixel]
#   4 Y_IMAGE                Object position along y                                    [pixel]
#   5 X_WORLD                Barycenter position along world x axis                     [deg]
#   6 Y_WORLD                Barycenter position along world y axis                     [deg]
#   7 A_WORLD                Profile RMS along major axis (world units)                 [deg]
#   8 B_WORLD                Profile RMS along minor axis (world units)                 [deg]
#   9 THETA_WORLD            Position angle (CCW/world-x)                               [deg]
#  10 FWHM_WORLD             FWHM assuming a gaussian core                              [deg]
#  11 ELONGATION             A_IMAGE/B_IMAGE                                           
#  12 ELLIPTICITY            1 - B_IMAGE/A_IMAGE                                       
         1 -10.5188    109.2717     24.9813   7.5554860302e+01   5.3534338701e+01    0.6056525    0.2833605  24.86  0.002248226    3.912    0.744
         2 -11.1000    118.9389     19.8198   7.1745653981e+01   5.1969676348e+01    0.4619589    0.2903641 -14.81  0.002460629    1.972    0.493
         3 -11.7617    202.9468     17.8069   5.8634851397e+01   3.2879806375e+01    0.3595099    0.3060786  84.09  0.001901513    1.125    0.111
         4 -11.5274    143.0255     17.9649   6.6670817587e+01   4.6721813459e+01    0.4539834     0.327873  47.57  0.002430629    1.315    0.239
         5 -12.4686    171.9084     13.0549   6.1138246876e+01   4.0510539162e+01    0.7723562    0.5543291  15.47  0.004382254    2.186    0.543
         6 -12.1901    164.8429      7.3188   6.0622733619e+01   4.2695223516e+01    0.5864354    0.3362046 -69.12  0.003059411    2.064    0.516
         7  -9.2755      4.8113      9.4910   1.0693205662e+02   7.1362699436e+01    0.1989058    0.1178168 -30.74  0.001416052    1.413    0.292
         8 -11.1485    148.7509      1.9904   6.1403198743e+01   4.6849904978e+01    0.3429388    0.2776547   8.09  0.002266609    1.631    0.387
         9  -9.8883     79.2298      4.8008   7.6014023011e+01   6.1422656494e+01    0.2354202    0.1936498  27.83  0.001611835    1.063    0.059
        10 -12.3490    167.6021      3.9319   5.9439090984e+01   4.2368214249e+01    0.5490512    0.4049405  83.18    0.0029263    1.151    0.131
        11  -9.2817    236.6517      1.8094   5.2496709957e+01   2.7352802854e+01    0.2427437     0.126405  89.59  0.001417692    1.642    0.391
        12 -11.3106    190.0796      1.8054   5.6459784624e+01   3.7443204324e+01    0.4755012    0.1155078  66.90   0.00189275    3.060    0.673
        13  -9.8988    137.7732      4.6084   6.3751591656e+01   4.9126343447e+01    0.1773179     0.102184  75.52 0.0009494158    1.637    0.389
        14  -9.4949    159.9872    210.9959   1.1060650862e+02   6.1678828049e+00    0.3389342    0.2171217 -58.05   0.00157741    1.797    0.444
        15 -11.8558    132.7702    210.3002   1.1660735002e+02   1.1310571464e+01    0.5199144    0.3978785 -77.29  0.002643215    1.515    0.340
        16 -11.9816    100.2183    208.5830   1.2381981551e+02   1.7397360296e+01    0.5929708     0.274328  46.45  0.002466145    2.042    0.510
        17 -12.0290     96.3401    208.6674   1.2472540431e+02   1.8020423850e+01    0.8192547    0.4433039  79.08  0.002983812    3.218    0.689
        18 -12.4676    137.9971    212.6789   1.1581774842e+02   9.8450135833e+00    0.8913769    0.4489224  27.31  0.003376337    2.656    0.624
        19 -10.7293    125.7402    203.3751   1.1706719279e+02   1.4130120921e+01    0.3119044    0.2752767   6.80  0.001675968    1.374    0.272
        20 -10.8500    152.7455    197.7673   1.0982372351e+02   1.0335957248e+01    0.4323665    0.2960249 -10.44  0.001794263    2.386    0.581
        21  -9.7506    201.0665    194.6647   9.8721988915e+01   1.8817014617e+00    0.3371113    0.2068518 -41.98  0.001592985    1.597    0.374
        22 -11.9506    117.9617    206.1783   1.1933923646e+02   1.4890446644e+01      0.57212    0.4272248  -0.63  0.002653857    2.110    0.526
        23  -8.8878     28.0291    182.2829   1.3723748141e+02   3.3678574922e+01    0.1777573    0.1512756  81.03  0.000823702    1.093    0.085
        24  -8.6482    177.3285    181.3088   1.0106047755e+02   9.1182190247e+00    0.1534285    0.1184095  -2.63 0.0007039679    1.661    0.398
        25 -12.7835     33.6338    206.4245   1.3846114811e+02   2.7365387723e+01     1.596083    0.7279702  75.26  0.006791985    2.735    0.634
        26  -9.0112     25.5945    234.7843   1.4247138864e+02   2.1995537226e+01    0.2193377   0.09424638 -71.03  0.001128407    2.069    0.517
        27 -10.8201    124.6405    167.0842   1.1059683000e+02   2.2884716840e+01    0.4316382    0.3731436   1.94  0.001805617    1.431    0.301
        28  -9.8879     94.1849    167.9723   1.1860665457e+02   2.8215577548e+01    0.2564909    0.1674225 -34.38   0.00109769    2.011    0.503
        29  -9.0255    198.5035    161.0057   9.2264198170e+01   9.1719164020e+00    0.2394705    0.1417902 -44.67  0.001038854    1.611    0.379
        30  -9.5544    101.7649    157.9612   1.1468519243e+02   2.9387619107e+01    0.2104613    0.1234521 -55.30 0.0008830599    1.638    0.389
        31 -11.3237     81.4935    144.7939   1.1757983065e+02   3.6072164635e+01    0.4985982    0.4611894  70.93  0.001723682    1.117    0.105
        32 -10.1283    123.3154    144.3580   1.0604564256e+02   2.8632139997e+01    0.2546661    0.1982587 -11.47  0.001131627    1.751    0.429
        33 -11.9754     56.7257    128.6438   1.2151799464e+02   4.3575243042e+01    0.7755163    0.4363632 -41.66  0.003549517    1.829    0.453
        34 -12.5893    116.6243    121.3163   1.0233280896e+02   3.5394577207e+01    0.8970509    0.7712179 -39.88  0.004109771    1.166    0.142
        35 -11.5944    244.1308    105.6796   7.2354977602e+01   1.0724498608e+01     1.011416    0.5661693 -38.36  0.004889266    1.702    0.412
        36  -9.5674    228.9888    111.4847   7.5826426775e+01   1.2718489160e+01    0.3494882    0.2298283 -36.85  0.001729678    1.513    0.339
        37  -9.8504      2.2513    109.8546   1.3476640792e+02   5.2958930013e+01    0.4632581    0.1147723 -58.56  0.001946996    2.569    0.611
        38  -9.4264     86.3774    107.4245   1.0755587926e+02   4.4170953677e+01    0.3034217     0.109511 -39.28 0.0008759835    3.374    0.704
        39 -10.9969    160.6064    100.5021   8.5935375094e+01   3.0179350860e+01    0.6132421    0.4638896 -40.46  0.002666399    1.348    0.258
        40  -9.4765    181.0760    100.8506   8.1751529555e+01   2.5338374459e+01    0.3683168    0.2571605 -25.36  0.001549846    1.813    0.448
        41  -9.9608     47.8979     99.1928   1.1786925980e+02   5.1494508098e+01    0.3168506    0.1689848 -49.70  0.001277387    1.615    0.381
        42 -10.4042     37.7310     98.4955   1.2112355426e+02   5.2748510622e+01    0.3660878    0.3324745   9.82  0.002382972    1.227    0.185
        43  -9.8836    135.1336     98.1337   9.1320280997e+01   3.6474166417e+01    0.2372269    0.2155664   1.24  0.001233576    1.236    0.191
        44  -9.1612    107.5891     95.1911   9.7923854520e+01   4.2894815350e+01     0.214966    0.1374134 -33.11 0.0009480731    1.696    0.410
        45 -10.9164    211.3441     87.2419   7.3165699897e+01   2.0900682639e+01    0.8588122    0.3589732 -41.17  0.003420458    2.269    0.559
        46  -9.2727    241.4952     89.0164   6.9239966676e+01   1.4143290404e+01    0.2118871    0.1170214 -44.49 0.0009998942    1.595    0.373
        47  -8.6185     27.5086     89.4891   1.2257867817e+02   5.5670503059e+01    0.1284835     0.104261 -41.09 0.0001366957    1.027    0.026
        48 -10.3160     13.5222     96.0652   1.2877237571e+02   5.5326955946e+01    0.5745721    0.2222449 -50.31   0.00276241    1.959    0.489
        49 -10.5125    129.0332     83.8079   8.8863676892e+01   4.0609722717e+01    0.3754468    0.3308017  22.53  0.002005631    1.216    0.178
        50 -10.9852     84.3542     82.3882   1.0124717091e+02   4.9770876802e+01    0.5646408    0.4040753   7.95   0.00280103    1.705    0.414
        51 -10.3935    214.1263     69.9347   6.8823771130e+01   2.3186155123e+01    0.5745381    0.2940622 -51.16  0.002623282    1.856    0.461
        52 -11.0601      5.4109     66.7874   1.2537588537e+02   6.1924727558e+01    0.5287499    0.3003795 -43.80  0.003260268    1.346    0.257
        53 -10.7481    184.1975     64.5683   7.2123209314e+01   3.0979642092e+01     0.675251    0.4288185 -28.80  0.003198286    1.926    0.481
        54 -11.3229    139.6513     64.2709   8.0681857544e+01   4.1573362451e+01    0.6732163    0.5589355 -74.75  0.003161815    1.389    0.280
        55 -10.5190     86.6744     64.5069   9.4982974604e+01   5.2620475331e+01    0.4495847    0.3721916  14.85  0.002494255    1.178    0.151
        56  -8.6041    115.3917     62.1713   8.5957067054e+01   4.7317778592e+01    0.1939202    0.1298315 -47.45 0.0009457494    1.681    0.405
        57  -9.2180     19.4904     57.4794   1.1730953282e+02   6.2710196222e+01    0.2041956   0.09778181 -49.86 0.0008728625    1.786    0.440
        58  -9.2462     21.2985     54.3450   1.1564108323e+02   6.3126155406e+01    0.1929009    0.1371493 -22.70 0.0008514968    1.191    0.160
        59 -10.2730     95.7588     53.8353   8.8738860256e+01   5.2620825618e+01    0.4397435    0.3191276   9.51  0.002335928    1.594    0.372
        60 -10.9577    199.7874     46.8340   6.5525649853e+01   2.9948582203e+01    0.4758919    0.4223561  37.80  0.002909729    1.472    0.321
        61 -10.6103    198.7448     42.0649   6.4562826030e+01   3.0844771178e+01    0.4589862    0.2948357  62.73  0.002480299    1.460    0.315
        62  -8.8767    127.8372     50.1584   7.9196085015e+01   4.6378636738e+01    0.1968247     0.153907  31.95  0.001072254    1.334    0.250
        63  -8.8608     13.7565     49.0065   1.1715059350e+02   6.4672335491e+01    0.1522903   0.08084612 -47.90 0.0008861116    1.607    0.378
        64  -9.0528    235.5168     46.7283   6.1249128694e+01   2.2008765171e+01    0.2259539    0.1199583 -36.00 0.0009795227    2.064    0.516
        65 -11.1911     81.5355     43.3487   8.9490374225e+01   5.6800977087e+01    0.6377777     0.419894 -19.37  0.003500161    1.626    0.385
        66 -10.3617     50.1298     42.3463   1.0006838371e+02   6.1924063318e+01     0.432476     0.293696 -13.22  0.002600285    1.424    0.298
        67 -11.3410    140.5833     38.2979   7.2946095479e+01   4.5027302633e+01    0.4724402    0.3716339  82.18  0.001921404    1.351    0.260
        68 -10.0785     40.4966     33.0421   1.0039545082e+02   6.4526178670e+01    0.3053864    0.1711106 -34.24  0.001787697    1.678    0.404
        69 -10.9644    172.6613     36.5732   6.6913851207e+01   3.7686852503e+01     0.353818     0.327069 -51.42  0.002213032    1.209    0.173
        70 -11.6898    180.8117     26.0064   6.3133387747e+01   3.7040405309e+01     0.436092    0.3724436 -40.76  0.002529726    1.347    0.258
        71 -10.4773    109.5819    246.8473   1.2695479668e+02   7.6501274054e+00    0.4074227    0.3378411  -3.66  0.001581816    1.780    0.438
        72  -8.5499     65.2327     23.9387   8.7661541791e+01   6.2063144874e+01    0.1471234   0.09379928 -26.12  0.000872177    1.615    0.381
        73  -8.3633    180.5212    244.4700   1.1191162977e+02  -3.7163447070e+00    0.1318299    0.1145247  22.14 0.0008094868    1.016    0.016
        74 -12.5192     48.7538    208.8219   1.3545180472e+02   2.4972367299e+01     1.383031    0.7611362 -85.73  0.006822097    1.825    0.452
        75 -14.9379     73.4573    226.6026   1.3210899984e+02   1.7523717180e+01     3.238534     2.115115  55.58  0.007412383    1.372    0.271
        76  -9.0602     61.5091     17.9721   8.6586119194e+01   6.3330738223e+01    0.1690978    0.1073706 -20.18  0.001033539    1.600    0.375
        77  -8.6712    238.6873     15.6755   5.4903613240e+01   2.5369808780e+01    0.1041577   0.08726138  54.92 0.0007040803    1.660    0.398
        78 -12.4288    125.8305    225.3505   1.2054388509e+02   9.3098769992e+00    0.8031652    0.4657139  52.89  0.003740256    1.720    0.419
        79  -9.7408    149.8430    238.6487   1.1737166984e+02   2.4915537133e+00    0.3222228    0.2733338  69.10  0.001894567    1.319    0.242
        80 -10.3833    146.5312    223.0568   1.1562976120e+02   6.1339673424e+00    0.6515397    0.2650907  49.85  0.002402971    2.706    0.630
        81 -10.5729    191.4927    217.1348   1.0496644972e+02  -6.9680206430e-01     0.481369    0.4731433 -54.08  0.002990861    1.192    0.161
        82 -11.5783    115.9200    216.4231   1.2140896486e+02   1.2953825017e+01    0.4632609     0.276987 -43.89  0.002123416    1.999    0.500
        83 -10.0351    131.9915    238.0502   1.2107322801e+02   5.6620609983e+00    0.3384039    0.1865499  32.61  0.001568494    1.849    0.459
        84 -10.0649    205.8831    213.0901   1.0128623443e+02  -2.4224191821e+00     0.471657    0.1837853  36.99  0.001864384    2.560    0.609
        85 -12.8459     30.1831    216.4636   1.4009874277e+02   2.5473568013e+01     1.493121      0.76928  80.93  0.007539168    1.957    0.489
