#   1 NUMBER                 Running object number                                     
#   2 MAG_AUTO               Kron-like elliptical aperture magnitude                    [mag]
#   3 X_IMAGE                Object position along x                                    [pixel]
#   4 Y_IMAGE                Object position along y                                    [pixel]
#   5 X_WORLD                Barycenter position along world x axis                     [deg]
#   6 Y_WORLD                Barycenter position along world y axis                     [deg]
#   7 A_WORLD                Profile RMS along major axis (world units)                 [deg]
#   8 B_WORLD                Profile RMS along minor axis (world units)                 [deg]
#   9 THETA_WORLD            Position angle (CCW/world-x)                               [deg]
#  10 FWHM_WORLD             FWHM assuming a gaussian core                              [deg]
#  11 ELONGATION             A_IMAGE/B_IMAGE                                           
#  12 ELLIPTICITY            1 - B_IMAGE/A_IMAGE                                       
         1 -14.4063     68.7389    144.2082   1.0139272488e+02   3.7462937064e+01     4.425031     2.317857  71.33   0.01057875    3.656    0.726
         2 -13.4184    199.4110     41.4976   4.2997863139e+01   3.0407866747e+01     1.198219     1.133823 -23.69  0.003987219    1.272    0.214
         3 -13.5873    209.4545     31.5612   3.9389708588e+01   2.9362371326e+01     1.130164    0.8513076 -20.61  0.001676638    1.684    0.406
         4 -12.7608    234.6062      5.7367   3.1476439664e+01   2.6817743357e+01    0.8110808    0.5815426 -89.18  0.005296761    1.211    0.174
         5  -9.1598     60.0079      7.7616   6.1289339294e+01   6.6186317100e+01     0.161877   0.09045555  45.42 0.0008817447    1.615    0.381
         6  -8.8980     49.9368    213.1948   1.1507608035e+02   2.3279020224e+01    0.2263551    0.1440514  70.88 0.0006321571    1.470    0.320
         7 -10.1776    140.4223    249.7911   1.0005628312e+02   2.9680684506e+00    0.2695656    0.1833606  59.16  0.001525221    1.735    0.424
         8 -10.3907    140.0513    245.2843   9.9545837875e+01   3.7847156579e+00    0.2064845    0.1716978  63.66  0.001306238    1.367    0.269
         9 -10.8738    101.7437    246.5031   1.0753110544e+02   9.3718051309e+00    0.6273462    0.2340883 -67.31  0.002561747    3.759    0.734
        10 -14.5324     55.1631    186.3527   1.1111919854e+02   2.8790500981e+01     6.719884     2.954673  63.65   0.02542455    3.111    0.679
        11 -10.9789    194.1243    196.6276   8.0359298024e+01   3.5170274399e+00     1.136703    0.6152157 -63.99  0.003524676    5.512    0.819
        12  -9.2793     31.0360    202.9426   1.1828700877e+02   2.7751982577e+01    0.4243686    0.2078593  70.13  0.001744399    2.094    0.522
        13 -10.5194    203.6444    199.3931   7.8965669980e+01   1.4292314575e+00    0.2540905      0.17224  34.01  0.001351966    1.431    0.301
        14  -9.7248    121.0034    195.7086   9.6499181132e+01   1.6605521630e+01    0.2873607    0.2008386 -79.11  0.000897349    1.827    0.453
        15 -10.4239     60.5057    198.0739   1.1118210115e+02   2.5346188775e+01    0.3110229     0.204844  46.37 0.0008875225    1.411    0.291
        16 -10.0253    112.5000    196.7609   9.8684533088e+01   1.7815749241e+01    0.3296164    0.2151017  -4.58  0.001293619    3.064    0.674
        17 -10.8712     49.3953    217.9590   1.1561712743e+02   2.2307733328e+01     0.611504    0.3197569  24.70  0.002957249    2.519    0.603
        18  -8.6865     23.9587    193.4824   1.1907793378e+02   3.0645281521e+01    0.1820074    0.1463117 -72.37 0.0003811013    1.251    0.201
        19 -15.7706      2.8551    200.6813   1.2407582312e+02   3.0987470955e+01     17.46403          nan -75.31   0.01071054   12.436    0.920
        20 -10.3215    156.1274    217.4007   9.2074612338e+01   6.1775089159e+00    0.3916684    0.2010256 -68.64  0.001273879    5.050    0.802
        21 -13.6007     44.0939    197.9259   1.1494188891e+02   2.7423416618e+01     2.153479    0.8953957  62.33  0.007161106    2.881    0.653
        22  -8.9116    147.6651    187.3349   8.8764973935e+01   1.3667349717e+01    0.1501446    0.1153275  74.36 0.0006117475    1.740    0.425
        23  -8.5536     79.7782    183.5312   1.0469053876e+02   2.6084310525e+01    0.1952102    0.1208471  49.72 0.0009285157    1.570    0.363
        24  -9.2301     89.7940    212.0611   1.0610654264e+02   1.8058220795e+01    0.2022275     0.161849  71.64 0.0004710892    1.208    0.172
        25  -9.7307     99.3511    180.7079   9.9348458421e+01   2.3693843670e+01    0.2489211    0.2475317 -42.70 0.0006535301    1.120    0.107
        26  -8.6349     90.0378    180.7471   1.0170161262e+02   2.5183466779e+01    0.1928271    0.1783003  60.48 0.0002897379    1.050    0.048
        27  -9.5060     37.6752    180.9417   1.1475593433e+02   3.2154991586e+01    0.1858523    0.1809438  57.08 0.0003031102    1.256    0.204
        28  -9.7802    187.9379    176.1723   7.7604209512e+01   8.4505378104e+00    0.3358584    0.3237816  88.31  0.001585733    1.262    0.208
        29  -9.0269    148.4801    175.0393   8.6216827426e+01   1.6165647755e+01    0.2234386    0.1486854 -51.10  0.000716683    1.563    0.360
        30 -12.9823     70.3067    154.3251   1.0269253633e+02   3.4677206044e+01    0.6088904    0.4752576 -43.75  0.001005536    1.386    0.278
        31 -10.7044    134.5656    213.0884   9.6130676426e+01   1.0642781891e+01    0.3489226     0.231364 -31.24   0.00170214    1.949    0.487
        32 -11.3921     73.6524    167.9094   1.0395616715e+02   3.0794029205e+01    0.3777002    0.3020436 -51.04  0.000911812    1.311    0.237
        33  -9.6029    121.4878    173.4978   9.2513815040e+01   2.1555144031e+01     0.148104    0.1445367  58.09 0.0008105341    1.013    0.013
        34  -9.2549    173.9606    211.0000   8.7184041799e+01   4.3496956733e+00    0.2311974   0.07199712  38.14 0.0008056381    2.965    0.663
        35  -8.4928    194.1866    171.4015   7.5315201589e+01   8.2125431027e+00    0.1933004    0.1363994  50.41 0.0008703754    1.624    0.384
        36 -13.0681     81.3388    159.2822   1.0048993882e+02   3.1802151352e+01     2.367119    0.8914011  54.60 0.0006469292    4.481    0.777
        37 -10.7985    111.5980    204.3931   1.0005314778e+02   1.6289978529e+01    0.3740749    0.2757528  80.92 0.0007631271    1.632    0.387
        38 -10.4344    240.0143    169.2919   6.6261413987e+01   5.9727367629e-01    0.1842967    0.1611991  -6.20 0.0004546474    1.082    0.075
        39  -8.6092    185.3679    169.1581   7.6689469253e+01   1.0313236658e+01    0.2057415    0.1351185 -50.72  0.000940441    1.657    0.396
        40  -9.2208    110.8221    167.9186   9.4192753094e+01   2.4786910161e+01    0.2809794    0.2094391 -82.26 0.0009147081    1.592    0.372
        41 -17.1436     15.6951    243.1311   1.2392670988e+02   2.0937734818e+01     6.047731     3.844288  35.56   0.02115023    1.679    0.404
        42 -10.6722    107.5117    203.4975   1.0087332606e+02   1.7152811820e+01    0.3795206    0.2223861  58.22   0.00147667    1.917    0.478
        43 -11.5134     89.2070    152.3175   9.7068752704e+01   3.2303777184e+01    0.7426167    0.4803637 -28.93  0.003123135    2.194    0.544
        44 -10.5707    134.0870    147.2374   8.3913135659e+01   2.5301354553e+01     1.009804    0.2920813 -54.72  0.002586628    4.579    0.782
        45 -11.0882     54.2839    148.8988   1.0632288709e+02   3.8178544711e+01    0.9492874    0.5314032 -47.20  0.004337154    1.871    0.465
        46  -9.0723    174.9720    149.0052   7.4531589403e+01   1.6504957560e+01    0.2345147    0.1914034 -87.42  0.000630879    1.646    0.392
        47 -10.1547     38.8916    146.2318   1.1028977237e+02   4.0611939588e+01    0.3307621    0.2474701  80.61   0.00105958    1.342    0.255
        48 -10.0630    102.8732    138.4034   9.0385647066e+01   3.3421973564e+01    0.5867918    0.3635155 -23.50  0.002193002    2.619    0.618
        49 -11.6821     90.1375    138.1174   9.3981490041e+01   3.5708454864e+01    0.2982455    0.2680858 -38.20 0.0004059086    1.160    0.138
        50  -9.9690    105.8107    130.8138   8.7833148566e+01   3.4744188851e+01    0.3636374    0.3217061 -60.41  0.001176093    1.113    0.102
        51  -9.5070    111.9053    129.4111   8.5768878155e+01   3.3928613917e+01    0.3400976    0.2636301  11.90  0.001022718    1.626    0.385
        52 -11.1928     43.3249    128.9657   1.0633955412e+02   4.4509313781e+01    0.4736725    0.2512952  55.16  0.002049707    2.384    0.580
        53  -8.7313    111.5342    149.7502   9.0417897005e+01   2.9056296145e+01    0.3864993    0.2211953  67.78  0.001312172    3.086    0.676
        54  -9.3186    160.6852    127.6899   7.2715142921e+01   2.4102937993e+01    0.3314565    0.1914531 -63.04   0.00118881    2.526    0.604
        55 -10.2830     99.0229    125.2585   8.8503975993e+01   3.7346794157e+01    0.3327464      0.27056 -13.72  0.001563485    1.497    0.332
        56 -10.4097    118.4440    123.1282   8.2398094969e+01   3.4137048692e+01    0.5356154     0.345642  -4.24  0.001844441    3.104    0.678
        57  -9.3322     90.3475    123.4995   9.0686190062e+01   3.9306442088e+01    0.4812098    0.2642656  65.91   0.00149082    3.625    0.724
        58 -10.8856     34.2193    119.1282   1.0753627861e+02   4.7911198382e+01    0.2799289    0.2375415   7.90  0.001220502    1.407    0.289
        59  -9.1956    108.0399    118.4191   8.4180776679e+01   3.7306523551e+01    0.2384403    0.2059098 -35.23   0.00053284    1.174    0.148
        60 -11.4539     69.4215    172.3958   1.0573109962e+02   3.0285505352e+01    0.4884822    0.2960497 -37.22  0.002159874    2.277    0.561
        61  -9.9545    231.2311    113.6917   5.5742146126e+01   1.1820608548e+01    0.2639834    0.2507764 -64.60 0.0007677876    1.123    0.110
        62  -9.2763    244.3016    111.3401   5.3286939347e+01   9.7202631804e+00      0.13282    0.1017559  -7.63 0.0006584695    1.671    0.402
        63  -9.3541    205.3858    110.2408   5.9212887959e+01   1.7774560892e+01    0.2930432    0.2078641  47.68 0.0009622902    1.528    0.345
        64 -10.5157    116.5150    108.5122   7.9139125051e+01   3.7916679179e+01    0.4435398    0.3645208  50.95  0.002160833    1.273    0.215
        65 -11.4265     32.0094    108.4971   1.0638099893e+02   5.0754828995e+01    0.4074012    0.2640706  83.38  0.001693998    1.981    0.495
        66  -8.7274    139.2592    106.1823   7.2349086960e+01   3.3525075057e+01     0.215683    0.1855132 -80.02 0.0005796183    1.344    0.256
        67 -11.0904     45.3916    105.6778   1.0125400837e+02   5.0096065611e+01    0.2693529    0.2508854 -80.99 0.0009533431    1.140    0.122
        68  -8.5647     64.5576    103.5073   9.4188253786e+01   4.8219851325e+01    0.1456454    0.1319185 -46.44 9.128646e-05    1.007    0.007
        69 -11.3947     31.8381     99.2092   1.0464487312e+02   5.3034496928e+01    0.4761245    0.2620935  39.85  0.002325673    2.123    0.529
        70  -9.3995     52.8146     90.4134   9.5038021306e+01   5.2873767377e+01    0.1873955    0.1336148   7.17 0.0008245769    1.658    0.397
        71  -9.3373    155.5874     87.6001   6.3221107696e+01   3.3524815547e+01    0.3625329    0.2165767 -59.34  0.001107806    2.139    0.532
        72  -8.1267    120.3468     89.6855   7.2703008330e+01   4.1202563799e+01    0.1581524    0.1248739 -88.91  0.000704736    1.719    0.418
        73 -14.3989     10.3809    206.3512   1.2287831864e+02   2.9067691633e+01    0.8115982    0.7394266  27.67  0.003194012    1.494    0.331
        74  -9.4305    127.5817     94.8589   7.2232441983e+01   3.8535317240e+01    0.3010282    0.2067152  65.54 0.0007727694    1.843    0.458
        75  -8.5094    116.1634     85.3270   7.2574782717e+01   4.3003798353e+01    0.2224386    0.1400494  54.72 0.0009378477    1.760    0.432
        76  -9.0157    158.4031     82.7678   6.1227162108e+01   3.3761374759e+01    0.2063772    0.1479788 -27.82 0.0004714726    1.541    0.351
        77  -8.1305     70.2510     81.9998   8.6368216886e+01   5.2333006760e+01    0.1732186    0.1158267 -46.99 0.0002330761    1.402    0.287
        78  -8.5188     56.5018     66.5079   8.6692936940e+01   5.7629543480e+01    0.1366977    0.1227077 -24.00 3.679724e-05    1.044    0.042
        79 -13.0002    188.6034     49.4546   4.6519839911e+01   3.1880108529e+01     1.020158    0.8638332  29.39 0.0008625232    1.490    0.329
        80  -9.0703    164.3265    213.3233   8.9636139147e+01   5.5529474565e+00    0.1411344    0.1022425   0.04 0.0007048637    1.690    0.408
        81  -9.1557     67.5211     51.9876   7.7347814935e+01   5.8725864481e+01    0.2388402    0.1853073  48.48  0.000743884    1.550    0.355
        82 -10.1968     43.9976    216.4988   1.1663287943e+02   2.3277227654e+01    0.2892554    0.1963426 -72.80 0.0005828869    1.433    0.302
        83 -11.6494     20.5369     33.6432   9.1028547071e+01   6.8004169288e+01    0.4050576    0.2319135  33.59  0.002306261    2.085    0.520
        84  -8.8436     57.5020    221.3799   1.1420704293e+02   2.0553830927e+01    0.1984223    0.1529895  59.73 0.0007843879    1.094    0.086
        85  -9.1887    198.0701     23.5181   3.8681742461e+01   3.2985717076e+01    0.2164575    0.1862944  -4.21 0.0007025504    1.569    0.363
        86  -8.5941    189.6063     14.8350   3.7436567797e+01   3.5957646368e+01    0.1748001    0.1069903 -46.46 0.0009313224    1.589    0.371
        87  -8.8768     60.3790    219.1501   1.1338468140e+02   2.0658499114e+01    0.1805799    0.1229796  72.41 0.0005474905    1.375    0.273
