#   1 NUMBER                 Running object number                                     
#   2 MAG_AUTO               Kron-like elliptical aperture magnitude                    [mag]
#   3 X_IMAGE                Object position along x                                    [pixel]
#   4 Y_IMAGE                Object position along y                                    [pixel]
#   5 X_WORLD                Barycenter position along world x axis                     [deg]
#   6 Y_WORLD                Barycenter position along world y axis                     [deg]
#   7 A_WORLD                Profile RMS along major axis (world units)                 [deg]
#   8 B_WORLD                Profile RMS along minor axis (world units)                 [deg]
#   9 THETA_WORLD            Position angle (CCW/world-x)                               [deg]
#  10 FWHM_WORLD             FWHM assuming a gaussian core                              [deg]
#  11 ELONGATION             A_IMAGE/B_IMAGE                                           
#  12 ELLIPTICITY            1 - B_IMAGE/A_IMAGE                                       
         1  -9.0037     91.5359     25.0062   9.1291872636e+01   5.8425380228e+01    0.2552192    0.2004454  32.23 0.0005052824    1.284    0.221
         2  -8.9833     19.3665     19.2817   1.1984605271e+02   6.9183024437e+01    0.5010693    0.1367647 -55.11  0.002116933    2.615    0.618
         3  -9.4149     80.2113     12.6520   8.9467174759e+01   6.2465422679e+01    0.4507623      0.24712 -49.05  0.001883704    2.736    0.635
         4  -9.3781     76.7493      4.8801   8.6751973046e+01   6.4187945565e+01    0.3571543    0.2723548 -35.05  0.001812673    1.439    0.305
         5 -10.0897     50.3535     11.7479   1.0132731143e+02   6.7445164107e+01    0.3063968    0.2506768 -51.65   0.00186849    1.580    0.367
         6  -7.9121    151.0337     12.6659   7.0642533684e+01   4.5983785032e+01    0.2104691    0.1817058  45.72 0.0003867768    1.099    0.090
         7  -8.8672     40.1574      7.4950   1.0409934355e+02   6.9470202189e+01    0.2923281    0.2044736  58.40 0.0008357691    2.945    0.660
         8  -8.0882     28.0000      7.9672   1.1065372629e+02   7.0684718009e+01    0.2073846   0.05675233 -49.13 9.434976e-05    2.969    0.663
         9  -7.3936    110.2616      7.7037   7.7650953827e+01   5.6735350898e+01    0.1336634    0.1104848 -47.34 0.0001871282    1.506    0.336
        10  -8.2455     56.5250      5.3645   9.5210877309e+01   6.7584616329e+01    0.2497929    0.1858231 -60.58  0.001297086    2.417    0.586
        11  -9.3993     14.1554      3.6851   1.1643164375e+02   7.2625136070e+01    0.4576018    0.1754049 -40.17  0.002302109    1.999    0.500
        12  -7.6170     18.4580      2.5474   1.1339402973e+02   7.2517065573e+01    0.1570946    0.1009375  -3.66 8.683561e-05    1.701    0.412
        13  -7.5149     34.5305      4.4899   1.0544773141e+02   7.0636370918e+01    0.1267085   0.09730955 -25.38 0.0008098098    1.006    0.006
        14  -7.7716    250.4859      3.5061   5.5561628720e+01   2.1162036837e+01    0.1282759    0.1200896 -28.92 0.0003391978    1.024    0.023
        15  -8.0797    106.2704      3.2703   7.6615693691e+01   5.8144260327e+01    0.2329826   0.09777345 -33.48 0.0009054383    2.432    0.589
        16 -10.2436     60.1087      2.8131   9.2247128509e+01   6.7395171807e+01    0.2271528    0.1999839   0.30 0.0002759778    1.176    0.150
        17  -7.5485      3.2969      3.3059   1.2270255215e+02   7.3340169181e+01    0.1217104   0.05987366 -38.52 0.0003163478    1.587    0.370
        18  -8.3594     38.9166      1.7946   1.0171171844e+02   7.0577093846e+01    0.2329101    0.1410694  41.00   0.00102197    2.184    0.542
        19  -7.7657    116.2234      1.4385   7.3229629709e+01   5.5968234395e+01    0.1843513    0.1418615  72.39 0.0005608101    1.568    0.362
        20  -7.3801     87.7023      1.3264   8.1103660927e+01   6.2445576516e+01    0.1305929    0.1062171 -47.31 0.0004652209    1.631    0.387
        21  -7.6257     67.5387      1.5407   8.8464324905e+01   6.6310801777e+01    0.1355382    0.1111219  -4.13 8.098665e-05    1.022    0.022
        22  -8.8186    186.7627    239.5807   1.1790789895e+02   5.2371363561e+00    0.1655447    0.1206006  -1.79 0.0005558367    1.662    0.398
        23  -8.8099    249.0538    248.9311   1.0934568155e+02  -4.2680616904e+00    0.2403782    0.1202868 -29.12  0.001639002    2.603    0.616
        24  -8.8504    226.0344    250.4741   1.1304380143e+02  -1.2955472892e+00    0.2217687   0.07548914  42.99 0.0008628019    2.380    0.580
        25  -8.2437    215.5950    250.6033   1.1467307949e+02   1.2575431102e-01    0.2218625   0.05887584  33.24  0.000964721    3.357    0.702
        26  -9.4150    192.6862    248.6877   1.1804087768e+02   3.4916815091e+00    0.2505077    0.1303871  24.58  0.001184314    1.871    0.465
        27  -9.0747    187.9887    250.4708   1.1899334463e+02   3.9783259770e+00    0.1982081    0.1143235  45.11 0.0005671261    1.467    0.318
        28  -9.1000    180.0570    249.9248   1.2019280574e+02   5.1407088749e+00    0.1812228    0.1142626  12.01  0.001230355    2.010    0.503
        29  -9.3566    184.3009    249.0566   1.1941828816e+02   4.6327883232e+00    0.2181074    0.1254523  37.07 0.0007538102    1.208    0.172
        30  -8.8684    152.9834    250.5346   1.2458597992e+02   8.8265401152e+00    0.1607493   0.07325524  40.67 0.0006921033    1.541    0.351
        31  -7.9938    139.4926    250.4743   1.2673880442e+02   1.0660080943e+01    0.1808329   0.07292092  40.89 0.0006422068    1.753    0.429
        32  -7.4163    133.2840    250.6807   1.2774903928e+02   1.1463424240e+01   0.09778753    0.0612851  57.99 0.0003429685    1.589    0.371
        33  -8.1487    234.3018    239.3478   1.1028340469e+02  -1.5206442632e+00    0.1117438   0.05965597  18.04 0.0007039034    1.690    0.408
        34 -10.3006    157.2974    245.5349   1.2338309858e+02   8.7851848585e+00    0.3041904    0.2210122  20.99  0.001267062    1.472    0.321
        35  -9.2568    249.0181    237.2613   1.0772225928e+02  -3.3800994992e+00    0.2614074    0.1154726  27.39  0.001594203    1.709    0.415
        36  -7.8639    146.5462    242.4907   1.2482614091e+02   1.0625985058e+01    0.1057057   0.07653929  40.03 0.0002819831    1.028    0.027
        37  -7.7814     78.2419    238.0102   1.3558642507e+02   1.9986622412e+01    0.1294858   0.09032194  32.10  0.000551574    1.608    0.378
        38  -8.0073    194.8221    236.8774   1.1625744016e+02   4.3449655766e+00    0.1644721    0.1106025  22.56 0.0005831784    1.289    0.224
        39  -8.4092    167.4697    237.4499   1.2083214342e+02   8.2479693644e+00    0.1091025   0.07850381  37.98 6.540709e-05    1.024    0.024
        40 -10.1950    188.5670    232.6610   1.1675342965e+02   5.6944602104e+00     0.345314    0.2669876 -24.67  0.002649734    1.651    0.394
        41  -9.0075    184.6594    234.6990   1.1765606993e+02   6.0522418020e+00    0.1857927    0.1305455  -7.11  0.000941249    1.825    0.452
        42  -9.1564    178.2426    235.4738   1.1881374493e+02   6.9058222381e+00    0.2229988    0.1363842  14.67 0.0009227767    2.055    0.513
        43  -9.0992    159.9168    235.5704   1.2187731455e+02   9.5478347921e+00    0.2616107    0.1447039  25.24  0.001352383    2.007    0.502
        44  -7.9530    244.1522    235.1268   1.0816259663e+02  -2.5426494659e+00    0.1303916    0.1009662  22.64 0.0004197231    1.275    0.216
        45  -7.5545    204.5630    234.4572   1.1435658574e+02   3.1665195180e+00    0.1119412   0.07700238  27.60 3.845938e-05    1.069    0.064
        46  -7.7956    130.4981    234.4963   1.2669755991e+02   1.3816990065e+01    0.1067436   0.07885683  44.32 0.0008106819    1.004    0.004
        47  -7.3552    232.6466    234.6860   1.0989182782e+02  -8.9610322241e-01    0.1162343   0.06010902  20.17 0.0005311207    1.734    0.423
        48  -8.6418    171.0241    232.9765   1.1971882658e+02   8.2355830138e+00      0.16729    0.1257356  35.54 0.0005253299    1.035    0.034
        49  -7.5471     99.6745    233.6425   1.3177108171e+02   1.7994405968e+01   0.09129886   0.07520177  13.03  0.000704462    1.776    0.437
        50  -8.4154    115.6878    231.0264   1.2886524354e+02   1.6274150983e+01      0.14383    0.1142156  51.43  0.001106199    1.076    0.071
        51  -8.3154    241.4500    229.8034   1.0780972089e+02  -1.7265724051e+00    0.1422378   0.08311024   0.77 0.0009369279    1.745    0.427
        52  -7.7378     37.3217    229.3162   1.4158434440e+02   2.5616090165e+01    0.0730021   0.07273519 -67.77 0.0007041769    1.662    0.398
        53  -8.1250    152.0410    227.9252   1.2235094113e+02   1.1601921299e+01    0.1667532    0.1102203  23.25 0.0005268555    1.639    0.390
        54  -8.1782    184.8190    226.1492   1.1654565614e+02   6.9554753890e+00    0.1503266    0.1061352  21.03 0.0006855573    1.310    0.237
        55  -8.0377    245.0133    226.0000   1.0668821652e+02  -1.9111354220e+00    0.1850723   0.04680623  40.90 0.0008149615    3.030    0.670
        56  -7.7474    167.8405    225.1259   1.1931030989e+02   9.6153488338e+00    0.1492057    0.1054332  25.80 0.0004788435    1.298    0.230
        57  -8.2530    127.5006    224.5155   1.2621554020e+02   1.5542868213e+01    0.1653131    0.1261516  19.40 0.0006746256    1.604    0.377
        58  -7.5254    212.4451    224.5129   1.1170462781e+02   2.9801582052e+00    0.1151122   0.08045558  25.68 0.0002492924    1.055    0.052
        59  -8.2271    249.1700    223.0210   1.0558756389e+02  -2.2505663492e+00    0.1765331   0.09268528   9.35 0.0007123001    1.921    0.480
        60  -7.8333    206.8101    222.4157   1.1234171571e+02   4.0379096310e+00    0.1616029   0.07854684  31.86 0.0007099974    1.614    0.380
        61  -7.7545    175.0219    221.4589   1.1761215850e+02   8.9694250142e+00    0.1549912   0.07769653  25.40 0.0004517292    2.276    0.561
        62  -7.8562    116.4446    220.8015   1.2777002269e+02   1.7582044220e+01    0.1217788    0.1014136 -38.09 0.0009323001    1.678    0.404
        63  -7.3708     92.5455    221.4515   1.3198184229e+02   2.0623990406e+01    0.1037907   0.07977996  52.29 0.0001140993    1.029    0.028
        64  -8.0272      8.4729    221.5155   1.4573590792e+02   2.9394427396e+01   0.08975478   0.06251661  65.51 -5.676432e-07    1.037    0.035
        65  -8.4509    242.5272    219.9634   1.0616165314e+02  -1.0360662481e+00    0.1461307   0.09445297  -8.48 0.0005963119    1.557    0.358
        66  -7.3754    194.7243    218.6299   1.1384804351e+02   6.2819657419e+00    0.1145191   0.07280503  14.69 0.0003449673    1.682    0.406
        67  -7.8712    204.6519    215.6072   1.1172623589e+02   5.0809126369e+00    0.1733626    0.1056427  19.13 0.0008026797    1.575    0.365
        68  -7.5200    150.8485    216.3808   1.2121003600e+02   1.3251306119e+01    0.1549417   0.08528369  33.59  0.000285834    1.579    0.367
        69  -8.1400    248.7584    215.4023   1.0446436068e+02  -1.5414419337e+00    0.1558706   0.07549547  29.88 0.0002974167    1.543    0.352
        70  -7.6530    144.3569    215.2740   1.2223308323e+02   1.4365945679e+01    0.1107094   0.07630575  21.78 0.0002753962    1.649    0.393
        71  -7.3907    120.2244    215.0147   1.2651751626e+02   1.7884929698e+01    0.1150421   0.09098683 -63.20 0.0004173635    1.573    0.364
        72  -7.5044    137.4454    214.5031   1.2337905294e+02   1.5490053225e+01    0.1122266   0.08853807  38.90  0.000271104    1.071    0.067
        73  -8.5447    187.3497    210.2093   1.1393146410e+02   8.3917484206e+00    0.2797925    0.1697905  13.73  0.001595634    2.020    0.505
        74  -8.3876    170.3369    210.8768   1.1703570491e+02   1.0980530423e+01    0.2038175    0.1324953  22.80  0.001263128    1.563    0.360
        75  -7.7440    107.8359    209.3873   1.2817442383e+02   2.0426355109e+01    0.1507999   0.08934887  32.53  0.000474437    1.691    0.409
        76  -7.6064     77.7926    209.3700   1.3357979858e+02   2.4283766829e+01    0.1350531   0.08601346  35.47 0.0004255235    1.550    0.355
        77  -7.9327    147.2354    208.0475   1.2083428878e+02   1.4921207317e+01    0.1214801   0.09852841 -45.44 0.0003756491    1.561    0.359
        78  -7.8424    100.0773    210.7617   1.2971080020e+02   2.1256162796e+01    0.1617589    0.1177917  16.51  0.001067442    2.001    0.500
        79  -7.9794    248.1829    205.8062   1.0300037908e+02  -6.0136320994e-01    0.1654363   0.09906659  18.77 0.0005428951    1.324    0.245
        80  -7.3229    213.6781    206.2953   1.0878079783e+02   4.6694833525e+00    0.1045298    0.0856128  49.81 0.0003556846    1.617    0.381
        81  -9.8700    124.0157    206.0004   1.2485100302e+02   1.8665736405e+01    0.1606734     0.127782  46.64            0    1.003    0.003
        82  -8.2337     11.5228    205.4200   1.4470108339e+02   3.1660516779e+01    0.2088877   0.07763988  65.85  0.001305863    2.225    0.551
        83  -7.5533    207.0089    204.9823   1.0972100203e+02   5.8712830507e+00    0.1438313    0.1099083  24.18 0.0004837273    1.031    0.030
        84  -8.0681    139.5412    205.2684   1.2189991354e+02   1.6478885761e+01    0.2023021    0.1214122  26.48  0.000899893    1.858    0.462
        85  -8.0360     88.1991    204.0421   1.3124695672e+02   2.3845042240e+01    0.1467799    0.1197688 -27.42 0.0007365851    1.945    0.486
        86  -7.6948     97.7728    202.3763   1.2932502415e+02   2.2868170278e+01    0.1547991   0.09146364  33.49 0.0006950242    1.687    0.407
        87  -8.6058    177.8541    200.8742   1.1426933363e+02   1.1060602687e+01    0.2150414    0.1335964  24.77 0.0005772166    1.570    0.363
        88  -8.7090    250.4443    198.1303   1.0134425144e+02  -2.3279078753e-01    0.2812591    0.1193051 -18.42  0.001442032    2.584    0.613
        89  -8.2848    243.7186    197.7397   1.0236212849e+02   8.3517426172e-01    0.3234441    0.1405109 -11.66  0.001506315    3.088    0.676
        90  -8.3378    151.0255    198.3180   1.1886318117e+02   1.5703912780e+01    0.1890988    0.1487474  14.58 0.0007215017    1.434    0.303
        91  -8.4356    230.4003    198.0105   1.0460617113e+02   2.8934663338e+00    0.2282449    0.1219399  27.39 0.0006344072    1.537    0.350
        92  -7.7233    224.5139    195.5513   1.0518550224e+02   4.0926511832e+00    0.1246777   0.08986832  21.16 0.0003314424    1.062    0.058
        93  -8.0082    202.9564    195.0109   1.0884423756e+02   7.6750517084e+00    0.1991468    0.1201469  18.12 0.0006114956    1.708    0.415
        94  -7.4330    176.2989    195.3169   1.1372321933e+02   1.2039567867e+01     0.121031   0.08263631  15.62 0.0003005755    1.613    0.380
        95  -7.5875    195.5524    194.5003   1.1008477059e+02   8.9611824820e+00    0.1251638   0.09517131  24.61 4.374996e-05    1.070    0.066
        96  -7.9200    237.5052    191.9498   1.0238284610e+02   2.3863645849e+00    0.1626207       0.1055 -13.94 0.0008225636    1.547    0.354
        97  -7.9701    224.5220    189.5214   1.0415127290e+02   4.7458069431e+00     0.221491   0.08595724  33.22  0.000711914    2.247    0.555
        98  -8.3604    173.0557    188.2461   1.1323799060e+02   1.3536263652e+01    0.2151597    0.1562075   4.56 0.0008153784    1.642    0.391
        99  -8.1470    243.5168    187.4317   1.0059061469e+02   1.8876069299e+00     0.196259   0.09990792 -10.21 0.0006552925    2.195    0.544
       100  -7.5287    199.6443    188.6810   1.0839251500e+02   8.9946809423e+00     0.132309   0.08058498  17.29 0.0007045793    1.753    0.430
       101  -7.7447    179.5446    188.4743   1.1205542163e+02   1.2414446060e+01     0.125575    0.1004319  29.10 5.022976e-05    1.022    0.022
       102  -8.1975    237.9436    184.9768   1.0107263591e+02   3.0387965355e+00     0.227496    0.1382546   5.84  0.001308288    1.618    0.382
       103  -8.8383    230.3180    184.9163   1.0234774900e+02   4.2953516139e+00    0.2245963    0.1391283  29.12  0.000340452    1.282    0.220
       104  -7.1111    151.3214    185.3144   1.1696146602e+02   1.7571166597e+01    0.1216953   0.08893713  13.39 0.0004866016    1.657    0.397
       105  -8.6518    249.9152    182.3515   9.8623381905e+01   1.3788718269e+00    0.2460693    0.1345726  13.30 0.0005786212    1.787    0.441
       106  -7.7748    211.4119    181.7809   1.0508632934e+02   7.8379411029e+00    0.1643647    0.1083344  -9.14 0.0005611898    1.652    0.395
       107  -8.1380    182.7162    180.3868   1.1013010684e+02   1.2975192877e+01    0.2014545    0.1422743  -0.10 0.0007426778    1.685    0.407
       108  -8.3532    242.4348    175.7908   9.8629357744e+01   3.2742721764e+00    0.3136309    0.1646891   5.61  0.001309108    2.275    0.560
       109  -7.7901    189.8904    176.1716   1.0804611264e+02   1.2299431325e+01    0.1823599    0.1264442  22.54 0.0005877899    1.340    0.254
       110  -8.0393    177.0027    176.5047   1.1056393203e+02   1.4514283700e+01    0.1959314    0.1072655  38.24 0.0005713938    1.540    0.351
       111 -10.6249    101.0047    175.9938   1.2579764027e+02   2.6863059968e+01    0.1667255     0.142708  57.03            0    1.005    0.005
       112  -9.6600    246.2984    167.2103   9.6339462508e+01   3.5504291119e+00    0.2352857     0.167099  18.76 0.0002608179    1.110    0.099
       113  -7.8945    237.0708    167.0473   9.7851229838e+01   5.1419535705e+00    0.2059698    0.1224399  14.95 0.0006137269    1.631    0.387
       114  -7.4826    234.6866    161.6635   9.7192944933e+01   6.1757378083e+00    0.1388545   0.08260386  13.80 0.0002722464    1.690    0.408
       115  -7.5494    156.3254    148.3202   1.0965718291e+02   2.2668924642e+01    0.1390198    0.1017256   9.19 0.0007046548    1.680    0.405
       116  -8.3241    123.9685    146.2650   1.1643149095e+02   2.8781617501e+01     0.178593     0.156088  41.44 -0.000275831    1.070    0.065
       117  -7.4041    230.3247    141.3000   9.3689048346e+01   9.4479309354e+00    0.1437771   0.08921943  15.63  0.000341791    1.633    0.387
       118  -8.1729     65.6852    142.1314   1.2935844212e+02   3.7996852709e+01    0.1966065    0.1341539  82.16  0.001172771    1.518    0.341
       119  -7.7380    248.3535    134.2588   8.9102481346e+01   6.9231013214e+00    0.1822295    0.1103378 -29.00 0.0009447685    1.653    0.395
       120  -7.8740    241.6912    132.5216   8.9806199620e+01   8.3801029946e+00    0.2318038    0.1124788 -24.44  0.001061842    1.965    0.491
       121  -7.2233    121.5426    131.4225   1.1426139785e+02   3.2052106559e+01    0.1326186    0.1264933  33.60 6.802807e-05    1.042    0.041
       122  -8.2293    232.1429    128.9382   9.0606053903e+01   1.0671697359e+01    0.2658285    0.1718267   0.68  0.001331078    1.585    0.369
       123  -7.8207    192.5002    127.4583   9.7639436609e+01   1.8931612658e+01    0.1476456    0.1254562  16.10 4.878474e-05    1.053    0.051
       124  -8.5059    239.6987    124.1544   8.8224473173e+01   9.7970107091e+00    0.3918117    0.2096826  -0.11  0.001656522    2.368    0.578
       125  -7.6741    224.6599    119.6865   8.9742963354e+01   1.3391230387e+01    0.1531208   0.09645534  16.06 0.0007046931    1.699    0.411
       126  -8.2585    248.5868    116.2419   8.4932724581e+01   9.0355793897e+00    0.1985156    0.1154469  -9.70 0.0009472657    1.695    0.410
       127  -9.4015      7.1170    112.8615   1.4058421336e+02   4.9430492736e+01    0.1714148     0.122197  78.85 0.0009378944    1.203    0.169
       128  -8.2297    220.2392    113.0443   8.8916232929e+01   1.5217788033e+01    0.3215854    0.1463409  29.27  0.001177242    2.747    0.636
       129  -7.4483    249.6716    106.6426   8.2468431844e+01   9.9877424113e+00    0.1519552   0.09196132  13.75 0.0007044082    1.784    0.439
       130  -8.0031    241.6991    105.8493   8.3521716195e+01   1.1696422222e+01     0.229133    0.1532874   2.56 0.0009770959    1.486    0.327
       131  -9.7846      4.0677    105.7546   1.4079573588e+02   5.1122969084e+01    0.2828127    0.1362634  50.66 0.0009954898    2.135    0.532
       132  -8.3574    212.6614    102.0139   8.7500690691e+01   1.8407571477e+01    0.2468256    0.1158951  -6.02 0.0007051266    4.382    0.772
       133  -8.5439      7.5127     99.4837   1.3934582033e+02   5.2279808090e+01    0.1124598   0.08703228 -80.01 2.960667e-05    1.029    0.028
       134 -10.4342      3.0133     90.8444   1.3979186426e+02   5.4402873115e+01     0.591109    0.2226169  65.74  0.002632037    3.532    0.717
       135  -8.8462     22.7007     91.8871   1.3422385830e+02   5.2987535163e+01    0.1705539    0.1208018 -77.39 0.0004632541    1.157    0.136
       136  -7.4566    212.2706     84.6135   8.2931786735e+01   2.0972594217e+01    0.1501828    0.1121593 -51.53 0.0005828345    1.709    0.415
       137  -9.8983      2.7202     80.1595   1.3881459976e+02   5.6761225767e+01    0.3291386    0.1304117 -72.86 0.0008983712    1.868    0.465
       138  -8.4871    184.1639     77.7010   8.6262971852e+01   2.8659718240e+01    0.2587028    0.2100037 -34.11 0.0008965711    1.267    0.211
       139  -7.6611     24.9925     77.0000   1.3137964088e+02   5.6164641405e+01     0.159031   0.06984654  21.55 0.0004102652    2.831    0.647
       140  -8.7076     14.5181     71.9986   1.3404880114e+02   5.7961361180e+01    0.1868295   0.09153803 -69.75 0.0007300406    1.577    0.366
       141  -7.5473     36.3363     67.6888   1.2584840867e+02   5.7382605888e+01    0.1223682     0.089128  75.74 0.0007044802    1.685    0.406
       142  -7.4009     18.6781     61.6841   1.3094262657e+02   6.0027243177e+01    0.1254741   0.07016345 -44.80 0.0007041708    1.662    0.398
       143  -9.2898      1.2870     57.8477   1.3656440208e+02   6.1761646438e+01    0.3990496   0.08730585 -75.60  0.001281683    3.952    0.747
       144  -9.3641     33.1208     57.5773   1.2480234369e+02   5.9917772231e+01    0.2213151    0.1664224 -58.24 0.0002884389    1.077    0.072
       145  -8.2077    245.4929     54.5246   6.9661787923e+01   1.7144802323e+01    0.1415503    0.1262532 -10.17 0.0001557985    1.013    0.012
       146  -8.5359     95.0091     52.7970   1.0114352801e+02   5.2832149349e+01    0.2046683    0.1904336 -56.52 0.0004819651    1.241    0.194
       147  -8.3317     44.2647     51.8801   1.1912060288e+02   6.0169411400e+01    0.1776173    0.1748135  51.04 0.0003949687    1.235    0.191
       148  -8.5367     95.5223     45.5453   9.8346719810e+01   5.4115543338e+01    0.2590747    0.2319739 -11.75 0.0009111231    1.022    0.022
       149  -7.5953     54.4930     44.4714   1.1287314553e+02   6.0637323215e+01    0.1330943    0.1123035 -39.80 -2.079323e-05    1.018    0.018
       150  -8.9728      3.1427     44.1230   1.3367598354e+02   6.4720922787e+01    0.1932203    0.1154036 -51.47  0.001230106    1.345    0.257
       151  -7.2923    115.7119     43.7374   9.1422711687e+01   5.0361256457e+01    0.1482265    0.1100379  10.83 0.0002504685    1.493    0.330
       152  -7.7313     77.4409     40.0140   1.0251343349e+02   5.8308889757e+01    0.2045583    0.1234253 -39.96 0.0003097887    1.481    0.325
       153  -8.8986     20.8518     40.0786   1.2544947498e+02   6.4681561926e+01    0.2483768    0.1642725  17.65 0.0009234826    1.867    0.465
       154  -8.0874     15.0264     39.0000   1.2766679587e+02   6.5273014853e+01    0.1327392    0.1028225   8.87  0.000448612    1.605    0.377
       155  -9.4198     51.9904     38.4760   1.1183552631e+02   6.2177837607e+01    0.2354956    0.1593122 -44.47  0.001320074    1.234    0.189
       156  -7.6990     41.5271     39.5702   1.1654312310e+02   6.3089520812e+01    0.1277483    0.1057312 -43.88 5.813394e-05    1.031    0.030
       157  -9.0481      8.6262     37.9989   1.3017656467e+02   6.5825039385e+01    0.2374117   0.09669076 -75.34  0.001102068    2.464    0.594
       158  -7.7408     73.3976     37.2022   1.0292409513e+02   5.9487843142e+01    0.1997211    0.1205335 -49.19  0.000687591    1.699    0.411
       159  -8.1126     94.9940     33.7620   9.3883536333e+01   5.6314171400e+01    0.2177808    0.1706367   0.15 0.0004176005    1.289    0.224
       160  -9.1573     14.5251     34.1625   1.2668160866e+02   6.6352165543e+01    0.1788118    0.1584274  76.90  0.001287554    1.422    0.297
       161  -8.8484      9.1920     32.4726   1.2864556960e+02   6.6998591577e+01    0.2820609    0.1300144 -72.49  0.001321364    2.036    0.509
       162  -9.5026      4.1029     33.6938   1.3119887886e+02   6.6962616440e+01     0.294845    0.2267374 -82.98  0.002068291    1.341    0.254
       163  -8.6155      5.8079     27.9573   1.2908172583e+02   6.8127636669e+01     0.330437    0.1084076 -35.69  0.001472268    3.138    0.681
       164  -9.0389    140.7517     31.7662   8.0251308472e+01   4.6336817293e+01    0.2515329    0.2400053  -6.84 0.0002694599    1.098    0.089
       165  -9.5213     21.3565     30.2771   1.2249743372e+02   6.6756371489e+01    0.5247011    0.1738744 -64.14  0.001776281    2.924    0.658
       166  -7.6467    246.4445     31.5587   6.3363259603e+01   1.9435224810e+01    0.1371146    0.1238607   0.67 0.0002397646    1.076    0.071
       167  -8.0530      9.9449     27.2391   1.2695042537e+02   6.8084756993e+01    0.1585908    0.1223781 -48.71            0    1.062    0.059
       168  -8.0635    172.6925     25.3074   7.1419454981e+01   3.8856137815e+01    0.1535748    0.1161634 -58.03 0.0007019462    1.611    0.379
       169  -8.9277    238.3831    248.8801   1.1094826532e+02  -2.8423494117e+00    0.1569985   0.08971783 -33.78  0.001093225    2.574    0.611
       170  -8.5873      3.7441     23.8282   1.2901171391e+02   6.9097629698e+01    0.1965788    0.1342692  55.41  0.001246103    2.105    0.525
       171  -8.1195     64.7940     22.7952   1.0026616148e+02   6.3458573346e+01    0.2354262    0.1313507  -9.56 0.0009503941    2.815    0.645
       172  -7.7376    137.1814     21.8922   7.7181804220e+01   4.8517938594e+01    0.2098327     0.160404  23.84 0.0003199116    1.277    0.217
       173  -7.4714    127.5298     22.4396   7.9698138200e+01   5.0837039576e+01    0.1527483    0.1362287  14.61 0.0001601159    1.012    0.011
       174  -8.9274     84.7035     21.5716   9.2105110964e+01   6.0275843615e+01    0.2497538    0.2107987 -26.99  0.000526748    1.165    0.142
       175  -7.5464     59.4736     22.5459   1.0236738900e+02   6.4287544279e+01    0.1341627    0.1123207 -23.87 0.0003207726    1.040    0.038
       176  -9.5886    203.1901    248.2084   1.1631997657e+02   2.0627782480e+00    0.4752226    0.1961889  23.32  0.002258673    3.416    0.707
       177  -8.6516     15.9814     19.0255   1.2147186879e+02   6.9461871629e+01    0.1999926    0.1021493 -37.25 0.0004547616    1.677    0.404
       178  -7.8726    161.3970     18.8043   7.1067149150e+01   4.2587211300e+01    0.2094848    0.1412405  -1.32 0.0006755837    1.588    0.370
       179  -7.7836    156.2843     24.3336   7.4091538103e+01   4.3306460031e+01    0.1633482    0.1084162  23.81 0.0005668389    1.619    0.382
       180  -9.2020     74.9310     16.3824   9.3258226103e+01   6.2863527687e+01    0.2420764    0.2116386 -26.97 0.0004818708    1.209    0.173
       181  -7.5227     27.9737     17.7611   1.1493228100e+02   6.8814438903e+01    0.1339898    0.1000691  10.18            0    1.523    0.343
       182  -7.5704    189.4525     15.4868   6.5449615318e+01   3.5425786806e+01    0.1479993    0.1401165  24.60 0.0003626122    1.010    0.010
       183  -8.0187    146.1645     14.1804   7.2179626107e+01   4.7101999510e+01    0.2256919    0.1817945  27.67 0.0003534633    1.171    0.146
       184 -10.1095    164.0513    246.7265   1.2241412492e+02   7.7122355148e+00    0.3452841    0.1810658  25.10  0.001676176    2.178    0.541
       185  -7.5060     89.2783    249.6679   1.3461942947e+02   1.7130878000e+01   0.09736733   0.05398454  60.86  0.000426185    1.604    0.376
       186  -7.8824     27.8005     13.0023   1.1303809067e+02   6.9755621321e+01    0.1676916   0.07850197 -49.22 0.0003102049    1.718    0.418
       187  -7.6105     15.6855     10.7281   1.1855267474e+02   7.1153797071e+01    0.1218357   0.06822939 -32.63 0.0002612742    1.556    0.358
       188  -7.6743      4.3233    249.6514   1.4711812521e+02   2.5704186162e+01   0.09383338   0.03566862  60.13 0.0007049196    1.746    0.427
       189  -9.3884    218.8196    247.9153   1.1383243219e+02  -9.0376412133e-02    0.2382971     0.106367  45.40  0.001407227    2.087    0.521
       190  -7.5091    114.2831    248.3073   1.3057792067e+02   1.4223329581e+01   0.08789016   0.06832878  24.65 0.0002697129    1.563    0.360
       191  -8.9914    212.0219    246.4420   1.1470910988e+02   9.8471850929e-01    0.1504579     0.113971  19.69 0.0005145288    1.175    0.149
       192  -7.5363     62.7807    247.3842   1.3856181116e+02   2.0435778120e+01    0.1253034   0.07246064  35.34  0.000730572    1.712    0.416
       193  -9.6782    171.3109    245.6198   1.2111978009e+02   6.8117128383e+00    0.1948978   0.09871473  34.42 0.0007654039    1.509    0.337
       194  -7.8746    104.4904    245.9790   1.3195639061e+02   1.5754162576e+01    0.1073269   0.08296052 -23.04  0.000576488    2.372    0.578
       195  -8.6502    186.8570    244.8739   1.1852457350e+02   4.6876013687e+00    0.1652605    0.1264526  11.36  0.001309279    1.380    0.275
       196  -8.7831    190.9791    244.5127   1.1781869283e+02   4.1377190891e+00    0.2170819   0.07411943  37.61  0.001144373    2.112    0.527
       197  -9.1192    150.2261    244.9296   1.2447080946e+02   9.8347045492e+00    0.1508499    0.1090779   6.24  0.001085762    1.979    0.495
       198  -7.9777    130.2315     13.2112   7.5178308227e+01   5.1284719110e+01    0.2490009   0.09823769 -33.19 0.0008987444    2.513    0.602
       199  -7.6954    136.4220    245.8434   1.2680241720e+02   1.1613871144e+01    0.1106165    0.0962965 -18.14 0.0007333871    1.645    0.392
       200  -8.5940    207.5406    249.5249   1.1579652305e+02   1.3361581930e+00    0.1540571   0.07423802  43.24 0.0008206466    1.676    0.403
       201  -9.7849    168.7263    241.6688   1.2110147409e+02   7.6021494399e+00    0.1923295    0.1270611  29.78  0.001143164    1.267    0.211
       202  -7.3839    113.7170    242.6515   1.3020472941e+02   1.5007917968e+01   0.08931857   0.07190008  18.44 0.0007016479    1.649    0.394
       203  -7.3473     72.2701    242.3587   1.3680827941e+02   2.0070974689e+01    0.0767112   0.07248439  16.17 0.0003356768    1.645    0.392
       204  -8.0059    201.3468    240.2861   1.1563009133e+02   3.0673521757e+00    0.1658597   0.09518356  19.36   0.00106615    1.756    0.431
