#   1 NUMBER                 Running object number                                     
#   2 MAG_AUTO               Kron-like elliptical aperture magnitude                    [mag]
#   3 X_IMAGE                Object position along x                                    [pixel]
#   4 Y_IMAGE                Object position along y                                    [pixel]
#   5 X_WORLD                Barycenter position along world x axis                     [deg]
#   6 Y_WORLD                Barycenter position along world y axis                     [deg]
#   7 A_WORLD                Profile RMS along major axis (world units)                 [deg]
#   8 B_WORLD                Profile RMS along minor axis (world units)                 [deg]
#   9 THETA_WORLD            Position angle (CCW/world-x)                               [deg]
#  10 FWHM_WORLD             FWHM assuming a gaussian core                              [deg]
#  11 ELONGATION             A_IMAGE/B_IMAGE                                           
#  12 ELLIPTICITY            1 - B_IMAGE/A_IMAGE                                       
         1 -11.1587     14.5221     38.5784   9.2214986239e+01   6.7550809023e+01    0.8980126    0.5141211 -62.85  0.004697768    2.396    0.583
         2 -10.9692      6.3765     35.5020   9.5455336796e+01   6.8699554856e+01    0.8145748    0.4544928 -47.70  0.004837831    1.509    0.337
         3 -12.3743    107.6433     29.1857   5.1852228263e+01   5.3749521645e+01    0.4709273    0.3545094  19.03  0.002626053    1.453    0.312
         4 -12.7596    105.1598     20.8192   4.9454344762e+01   5.5226851068e+01    0.3152031    0.2862017  71.09 0.0004992096    1.200    0.166
         5  -9.3003     42.9862      9.9631   6.5453268916e+01   6.8482485233e+01    0.2386396    0.1547369  19.00 0.0007827345    1.343    0.255
         6 -10.0108     27.2078     21.0332   7.8430291498e+01   6.9222489325e+01    0.5169664    0.2869429   3.11  0.002742236    2.013    0.503
         7 -11.2479     42.5102     15.4725   6.8329929675e+01   6.7907930951e+01     0.265109     0.186345  28.70 0.0004572198    1.257    0.204
         8 -10.4281     30.8576     27.7138   7.9521720239e+01   6.7783499427e+01     0.581104    0.3346777 -22.63  0.003237093    1.652    0.395
         9 -10.8630     41.1292     21.4778   7.1766227158e+01   6.7335896412e+01    0.2565303     0.219291 -20.70 0.0003949917    1.315    0.240
        10  -9.5835     36.8833     18.4048   7.2354974021e+01   6.8348201057e+01    0.5064955    0.2323446  23.46  0.002435787    2.303    0.566
        11 -11.2473     18.9892     28.6395   8.6076519089e+01   6.8905451233e+01    0.3878544    0.3118269 -32.28 0.0005912133    1.260    0.206
        12  -9.7942     15.3269     18.4025   8.3700382726e+01   7.0885767593e+01    0.6393511    0.3084341  11.75  0.003388833    2.163    0.538
        13 -11.0975    244.0046     13.5549   2.9238691558e+01   2.4646115729e+01    0.3618022    0.2918693  26.60  0.001917125    2.189    0.543
        14 -10.2874    230.6436     14.4008   3.0360526254e+01   2.7206973583e+01    0.2884541    0.1913989 -43.43 0.0008060596    1.428    0.300
        15 -10.2681     78.0612     11.8254   5.3286277742e+01   6.1928968578e+01    0.4565017    0.1967331  44.23 0.0005976685    1.910    0.477
        16 -11.5031     73.0940      3.9767   5.1435190552e+01   6.3632558295e+01    0.5970765    0.4707655  13.17  0.003339465    1.226    0.184
        17  -9.1582     81.0360      3.0257   4.8740744277e+01   6.2084369228e+01    0.3697159    0.1530413  37.08  0.001593704    2.297    0.565
        18 -10.7699     69.7391     11.3506   5.5730423619e+01   6.3626563978e+01    0.2358446    0.1771183  29.56 0.0001965727    1.108    0.097
        19 -10.7606     62.0586     22.7639   6.3483766011e+01   6.3797608436e+01    0.8308011    0.2630247  39.02  0.003269938    2.902    0.655
        20 -11.8641     62.2842     16.9050   6.0819169954e+01   6.4444097379e+01    0.8684984    0.3660844  42.54 0.0004127828    2.034    0.508
        21 -10.8417    175.5174     12.8498   3.5142904675e+01   3.9481400779e+01    0.6959102     0.325076  73.34   0.00204405    1.911    0.477
        22 -10.9232    166.1181     18.5943   3.7790798569e+01   4.1104496449e+01    0.4243565    0.3248169 -27.96  0.001592925    1.521    0.342
        23  -9.9565    185.1839     13.7057   3.4286456034e+01   3.7160251041e+01    0.4069791    0.2681006 -40.88  0.002287004    1.560    0.359
        24 -10.6181    182.3051     18.3448   3.5738754153e+01   3.7338922836e+01    0.2937585    0.2068433  59.90 0.0004011559    1.383    0.277
        25  -7.7925     49.3436     23.3735   6.8935480559e+01   6.5846957589e+01    0.6061711    0.3459306   8.19  0.003002694    2.155    0.536
        26  -9.7881    116.7800     14.9610   4.4801967408e+01   5.3149387894e+01    0.2769499    0.2277198 -12.61  0.001051221    1.407    0.289
        27 -10.8585    208.8108      3.9923   2.9902821508e+01   3.2875871245e+01    0.3942446    0.2653948 -64.45  0.001303548    1.294    0.227
        28 -11.7836    218.4126     18.5948   3.2208254475e+01   2.9280196482e+01    0.6447156    0.4754488 -82.96  0.001222856    1.159    0.137
        29 -10.8162    210.7129     14.1476   3.1925542045e+01   3.1417638436e+01    0.3780484    0.3302411 -20.79  0.002378662    1.526    0.345
        30 -10.1781     84.5160     20.5591   5.4922747760e+01   5.9719312065e+01    0.3957465    0.2835415 -69.13  0.001492691    2.487    0.598
        31 -10.1242     31.0655     12.6242   7.2455455358e+01   6.9891610360e+01    0.5447252    0.2432982  39.35  0.002792068    2.325    0.570
        32  -9.5001      6.2481      9.2220   8.4791898856e+01   7.3078025767e+01    0.5782883    0.2470756 -23.88  0.002956052    2.380    0.580
        33 -10.9083      7.8431     15.4266   8.6717221439e+01   7.2011125712e+01    0.5349159    0.2591373  -0.26   0.00108674    2.288    0.563
        34 -10.4462     24.8752      7.1275   7.2912910652e+01   7.1382489370e+01    0.2474135    0.1698664 -33.31 0.0006137312    1.631    0.387
        35 -11.2693     20.9774      6.1655   7.4544358713e+01   7.1981057253e+01    0.3490543    0.2455103 -18.40  0.001984257    1.253    0.202
        36 -12.1609     14.1025     10.7789   8.0816528488e+01   7.2124601341e+01    0.2912796    0.1944013 -12.90 0.0002753495    1.207    0.171
        37 -11.2454     15.0969      4.2902   7.6926593368e+01   7.2891876375e+01    0.4412683    0.2374042 -11.99  0.001977583    1.861    0.463
        38  -9.5657    225.6283     17.2634   3.1329844731e+01   2.7917646468e+01    0.3287618    0.1707834 -29.68  0.001772364    2.232    0.552
        39 -10.4440    146.3857     12.4636   3.8842061726e+01   4.6398844053e+01    0.4879788    0.2817201  68.53  0.001710946    1.494    0.331
        40 -11.2653    133.0164     12.5772   4.0998371027e+01   4.9562740500e+01    0.3879291    0.2764084  68.16 0.0003025912    1.225    0.184
        41  -9.9132    126.9152      8.1031   4.0623071662e+01   5.1396200686e+01    0.3176186    0.2352087 -82.30  0.001604049    1.533    0.348
        42 -11.1925     97.9726     12.0586   4.7955325508e+01   5.7678046946e+01    0.4960261    0.4074502  30.35  0.001239562    1.149    0.129
        43  -9.2668     51.7038     12.9371   6.3145017749e+01   6.6735126666e+01    0.2619833    0.1664798 -33.16 0.0009449371    1.791    0.442
        44 -10.6220    191.6580      8.7937   3.2467190822e+01   3.6183138021e+01    0.4654915     0.285465 -35.00  0.001148227    1.744    0.427
        45 -10.9668    201.3577      8.0710   3.1412759277e+01   3.4092991755e+01    0.4741115     0.261758  78.53   0.00225302    1.597    0.374
        46 -10.5996    195.8331      3.5586   3.0886488051e+01   3.5758262691e+01    0.4267794    0.2141658  81.57  0.001212809    1.783    0.439
        47 -10.0178    224.2730      9.8866   2.9933859717e+01   2.9003507269e+01    0.3138796    0.1945699 -40.78  0.001215485    1.565    0.361
        48  -9.2303     56.0342     10.5493   6.0295872138e+01   6.6245980320e+01    0.2114337    0.1442547   2.00 0.0006529549    1.450    0.310
        49 -10.1639    232.2132      5.7012   2.8535894133e+01   2.7823929655e+01    0.3384301    0.2473728 -24.74  0.002222207    1.825    0.452
        50 -10.9295    236.3877      7.7173   2.8643121099e+01   2.6776978774e+01    0.2797325     0.212472 -47.27  0.001998673    1.303    0.232
        51 -10.2614    237.9112      3.1958   2.7682563288e+01   2.6950019953e+01    0.3384379     0.216352 -86.31  0.002273408    1.325    0.245
        52 -10.1161    166.3578      9.1386   3.5259224981e+01   4.1982295046e+01     0.298412    0.2558525  61.91  0.001417866    1.177    0.150
        53  -7.8743    113.3328      9.6293   4.3666618491e+01   5.4425159692e+01     0.130128   0.09323584 -70.35 0.0007028682    1.836    0.455
        54  -8.6993     91.1070      8.5924   4.8332009778e+01   5.9484348288e+01     0.521866    0.1207152  46.89  0.001883873    3.278    0.695
        55  -9.2461     88.1868      6.2080   4.8137890703e+01   6.0314334883e+01    0.2493961     0.168321  24.88 0.0007104113    1.487    0.328
        56  -8.3658    120.0581      8.0128   4.1817573863e+01   5.3006714873e+01    0.1479008    0.1311057  54.81  0.000355949    1.058    0.054
        57 -10.5206    248.1241      4.8318   2.7356350453e+01   2.4801099255e+01    0.2379234    0.1834586 -78.43 0.0002694341    1.095    0.087
        58 -10.8044    249.9929      1.4392   2.6633066774e+01   2.4802919602e+01    0.4483773    0.1927813  61.71 0.0003173708    2.609    0.617
        59 -10.7803    217.6223      3.1051   2.9046269854e+01   3.1089817799e+01    0.3131046     0.287923 -30.04   0.00155641    1.456    0.313
        60  -9.6437    152.8695      6.0964   3.6121385279e+01   4.5436325531e+01    0.1949337    0.1631575  44.94 0.0002896552    1.299    0.230
        61 -10.2633    106.5759      6.1162   4.3816071198e+01   5.6261962276e+01    0.3865046    0.3459091  76.40  0.001386364    1.196    0.164
        62  -8.6163    108.9871      1.1755   4.1569782891e+01   5.6097854300e+01    0.1829513    0.1028883  73.91 0.0003576139    1.797    0.443
        63 -10.0279     61.6597      6.1965   5.6185382410e+01   6.5652624638e+01    0.3522867     0.230264  62.93   0.00196352    2.026    0.506
        64  -8.8778     47.5948      6.7419   6.1873821556e+01   6.8083987381e+01    0.2735941    0.2148749 -83.33  0.001456127    3.259    0.693
        65  -9.5438     39.2237      4.7633   6.4552182053e+01   6.9632347635e+01    0.2905376    0.2528526  37.96  0.001355444    1.493    0.330
        66 -10.7251     31.0097      3.3616   6.7759702921e+01   7.0999007113e+01    0.2775361    0.1946704 -39.28 0.0009480264    1.997    0.499
        67 -10.7088    159.8136      2.9614   3.4401391745e+01   4.4072282481e+01    0.3502944     0.282352 -88.96  0.001557967    1.112    0.100
        68  -9.8403     50.1986      2.4029   5.8671760541e+01   6.8064355798e+01    0.2571238    0.2158526 -28.48 0.0009816458    1.530    0.346
        69 -11.5681    179.4255      2.1475   3.2077275084e+01   3.9592858016e+01    0.3225307    0.1667335  65.68 0.0009317079    1.663    0.399
        70  -9.9654    127.3597      1.6589   3.8490833090e+01   5.1813832849e+01    0.3823058    0.1446597  55.12  0.001093133    2.080    0.519
        71 -10.3927     90.3923      1.9993   4.5914679496e+01   6.0174291211e+01    0.3916701     0.187235  62.75  0.001294343    1.913    0.477
        72  -8.9930    135.7377      1.7406   3.7230238271e+01   4.9841466993e+01    0.1841183    0.1511648  54.78  0.001187895    1.135    0.119
        73 -10.1538    115.7109      1.9025   4.0558382077e+01   5.4502416410e+01    0.2076222    0.1539379  66.41 0.0003249204    1.165    0.142
        74  -8.6696    228.0894      1.3660   2.7967736718e+01   2.9101941714e+01    0.2096926   0.08150124  67.77  0.001082499    2.358    0.576
        75  -8.7379    166.4464      1.2972   3.3210410190e+01   4.2664955779e+01    0.2329638   0.09501431  72.40 0.0008529671    2.072    0.517
        76  -8.7018     22.7511      1.4421   7.1051631707e+01   7.2327027261e+01   0.09685553   0.08591723 -34.20  0.000210384    1.794    0.443
        77  -9.1674     20.4652    131.0834   1.1030034188e+02   4.6114409922e+01    0.1907311    0.1516418 -70.26 0.0009490637    1.081    0.075
        78  -9.5063    201.4777    249.5242   8.3276958905e+01  -5.8286087136e+00    0.2208449    0.1658861  13.34 0.0006012623    1.075    0.069
        79 -10.4820    116.0122    248.3068   1.0088415097e+02   6.6630582662e+00    0.2652936    0.2503324  20.85  0.001142441    1.137    0.120
        80 -10.0160     18.4866    126.8921   1.1034775783e+02   4.7318458477e+01      0.44583     0.160131 -51.15  0.001836138    2.369    0.578
        81 -12.3925     88.5068    127.9506   8.7985145803e+01   3.8621160336e+01     0.294132    0.2794665  29.17  0.001582323    1.086    0.080
        82  -9.9887     34.0332    126.5512   1.0529683159e+02   4.6104190987e+01    0.3131254    0.1944268 -70.57  0.001015021    1.495    0.331
        83  -9.4259     12.8160    127.0247   1.1215285978e+02   4.7684500670e+01     0.198381    0.1577351  88.27 0.0006458066    1.243    0.196
        84  -9.8303     59.3270    124.9931   9.6709433100e+01   4.3689757050e+01    0.2325342    0.2062399  -7.75 0.0007550498    1.222    0.182
        85  -8.5253    217.5885    125.2378   5.6077491397e+01   1.3233640938e+01    0.2047238    0.1236532 -30.93 0.0009502569    1.662    0.398
        86  -9.7525    241.1483    123.8912   5.2059352306e+01   9.1631082047e+00    0.2131583    0.1646504 -53.96  0.001241989    1.290    0.225
        87 -10.9267      7.6496    122.9900   1.1326622392e+02   4.9016314648e+01    0.4366967    0.2841949 -16.27  0.001553096    1.904    0.475
        88  -9.2762     39.2274    123.3289   1.0304168576e+02   4.6415710757e+01    0.2003787    0.1616168 -50.58 0.0007047782    1.121    0.108
        89  -7.9134     77.7245    122.2778   9.0108648032e+01   4.1761071584e+01    0.1432216    0.1177215  75.79  0.000690194    1.496    0.332
        90 -11.8382     21.3671    119.6331   1.0835716515e+02   4.8922324358e+01    0.7803057    0.4036864  39.41   0.00373216    2.199    0.545
        91 -10.7946     14.0738    113.5932   1.0988183651e+02   5.0940293174e+01    0.3972915    0.2904386 -29.86  0.001353268    1.450    0.310
        92  -9.4957     61.9449    120.7556   9.4959912221e+01   4.4413160295e+01    0.2531815    0.2003444 -65.08 0.0004370934    1.253    0.202
        93  -9.2118     63.2751    116.6711   9.3622634322e+01   4.5252468430e+01    0.2837448    0.1976082 -78.89 0.0009425117    1.790    0.441
        94  -9.5162     57.9656    108.0305   9.3487771411e+01   4.8081048903e+01    0.2127208    0.1945044 -39.85 0.0003113656    1.004    0.004
        95 -10.2203     62.9342    110.8983   9.2424426418e+01   4.6720592500e+01    0.2959509    0.2076132 -47.37 0.0002974889    1.311    0.237
        96 -10.5749     62.5779    105.2351   9.1199685325e+01   4.8142345402e+01    0.3985587    0.3311659 -21.85  0.001066368    1.222    0.182
        97  -9.8008    221.5921    119.2639   5.4090555302e+01   1.3545269759e+01      0.29605    0.2521003  38.61 0.0008783606    1.335    0.251
        98  -9.6004     93.7623    118.8571   8.4179478861e+01   3.9939617978e+01    0.4024215    0.2608158 -21.94  0.001628558    2.101    0.524
        99 -10.1753     44.5242    119.4455   1.0055176627e+02   4.6843012978e+01    0.4089947    0.2175922  28.00  0.001689355    2.032    0.508
       100  -9.1206     53.3568    113.2464   9.6264179924e+01   4.7378000303e+01    0.3049847    0.2009389  26.96 0.0005412165    1.637    0.389
       101 -10.0670     48.2906    115.5335   9.8492855788e+01   4.7405512787e+01    0.4259399    0.2660568  52.25 0.0008843209    2.014    0.504
       102  -9.3297     48.8369    111.7875   9.7523880466e+01   4.8273804566e+01    0.2935378    0.2275559 -70.89 0.0006482121    1.335    0.251
       103  -8.2592    103.6807    119.3136   8.1239857244e+01   3.8026278633e+01    0.1565785    0.1253557  79.70 0.0002992716    1.650    0.394
       104 -10.2896      3.7039    116.9689   1.1377289583e+02   5.0725601909e+01    0.3786686    0.2649791 -52.00  0.002190862    1.250    0.200
       105  -9.3864    239.3740    116.8475   5.0839726292e+01   1.0674511343e+01    0.1961876    0.1114221 -31.34  0.000946167    1.733    0.423
       106  -9.1054     70.3574    116.0408   9.1096957632e+01   4.4410118562e+01    0.2117595    0.1768146 -54.93  0.000411355    1.148    0.129
       107  -9.1429     27.8799    115.8546   1.0555727031e+02   4.9344427742e+01    0.2138194    0.1615187 -46.45 0.0004651643    1.202    0.168
       108 -11.1082    129.9961    113.8592   7.2268274602e+01   3.4000500271e+01    0.2742832    0.2690302 -37.88 0.0002562793    1.031    0.030
       109  -8.6123     76.6455    114.6880   8.8681530000e+01   4.3793285913e+01    0.1596576    0.1128338 -19.31 0.0007044541    1.732    0.423
       110  -9.9272     31.3020    111.4111   1.0358851831e+02   5.0153656652e+01    0.2886105    0.1361926 -49.72 0.0008122546    1.815    0.449
       111 -10.1603     34.4222    113.0073   1.0279687255e+02   4.9472482420e+01    0.5088713    0.1439456 -48.13  0.001763018    3.041    0.671
       112  -9.5152     20.0890    104.1566   1.0625377562e+02   5.2843532989e+01    0.2726211    0.1639543 -54.58   0.00140302    1.367    0.269
       113 -10.3365     20.3430    112.5766   1.0758925853e+02   5.0755233022e+01    0.3241743    0.1864729  36.47  0.001513543    1.986    0.496
       114 -10.0606     20.8886    108.6458   1.0674701246e+02   5.1685220188e+01     0.349526    0.2279736 -43.23  0.001892861    1.401    0.286
       115  -8.5588    121.2545    111.9611   7.4182056348e+01   3.6251488930e+01    0.2074795    0.1339487 -46.43 0.0008795079    1.541    0.351
       116 -10.1355     38.4616    104.4720   9.9673132181e+01   5.1186413300e+01    0.5563175    0.1890644 -42.29  0.001962734    3.023    0.669
       117 -11.0006      4.8513    109.1016   1.1235596751e+02   5.2588956218e+01     0.498347    0.3405358 -23.25  0.001865518    1.636    0.389
       118  -8.8808      3.6899    102.6598   1.1184193634e+02   5.4209894111e+01    0.3074387    0.1417522 -87.25  0.001309133    2.689    0.628
       119  -9.9945    102.8852    108.5559   7.8689942886e+01   4.0684005194e+01    0.4046995    0.2725708   3.51  0.001617946    2.233    0.552
       120  -9.9122     12.2948    106.7296   1.0944371511e+02   5.2739570683e+01    0.2169762    0.1926944 -72.80 0.0003457029    1.117    0.105
       121  -9.8940     91.2170    105.4352   8.1536139448e+01   4.3558543654e+01    0.5253534    0.3428671  81.82  0.001838627    3.368    0.703
       122  -9.1404     83.8464    105.1099   8.3868552727e+01   4.4913180420e+01    0.2261657    0.2074645 -29.36 0.0002780874    1.037    0.035
       123  -9.2037     85.3301    101.8134   8.2493092948e+01   4.5424171722e+01    0.3592393    0.2095454  37.55 0.0007990773    1.754    0.430
       124  -8.0690     43.3092    106.6403   9.8384806594e+01   5.0154806847e+01     0.141091    0.1068264  74.17 0.0007041323    1.738    0.425
       125  -9.7132     72.3717    104.2943   8.7547179250e+01   4.6948104153e+01    0.4282816    0.2064039  44.61  0.001660863    2.410    0.585
       126  -9.6343    132.0357    104.0068   6.9073952399e+01   3.5694038945e+01    0.2269621    0.2214164  -4.51  0.001203709    1.014    0.014
       127 -11.3880    101.6226    102.7704   7.7507281527e+01   4.2236239637e+01    0.4398099    0.3324485  15.52  0.001360473    1.527    0.345
       128  -9.5797    101.1817     98.6010   7.6479763448e+01   4.3246727435e+01     0.287831    0.2135992  28.63 0.0003318585    1.403    0.287
       129 -11.5342    117.6575     97.9556   7.1358447849e+01   4.0054887236e+01    0.3024449    0.2810415  23.86 0.0003223143    1.069    0.065
       130 -10.1687    114.7131    102.3389   7.3442288501e+01   3.9725126959e+01    0.2910408    0.2451819 -82.76  0.000675248    1.502    0.334
       131 -10.9628    109.9512     99.5478   7.4066567863e+01   4.1303588366e+01     0.590569    0.4238935  63.52   0.00130778    1.812    0.448
       132 -10.4866     51.0212    100.8268   9.4283892212e+01   5.0688169967e+01    0.4421195    0.3495517 -48.28  0.002411668    1.140    0.123
       133 -10.6261     43.0479     99.5086   9.6908232442e+01   5.1912202347e+01    0.6783955    0.2133989  33.21  0.001991763    3.243    0.692
       134  -8.8419     33.8214    103.2009   1.0109703447e+02   5.1943160751e+01    0.1991514    0.1404855 -35.65 0.0007657181    1.362    0.266
       135  -9.4986    127.1465    101.9177   6.9815295582e+01   3.7194626080e+01    0.3966966    0.2481878  28.58  0.001588931    1.925    0.481
       136  -9.0762     80.8368    101.7753   8.3991358247e+01   4.6191451228e+01    0.1925832    0.1737655  65.27 0.0002953733    1.311    0.237
       137  -9.8890     57.4959    100.3275   9.1809506328e+01   4.9995812217e+01    0.3491038    0.1964196  29.77  0.001576271    1.877    0.467
       138  -9.1184     59.0581     96.9838   9.0399890761e+01   5.0578112825e+01    0.2157263    0.1891861 -26.32 0.0003394725    1.070    0.065
       139  -9.6140     20.5955     98.8498   1.0510489158e+02   5.4093517057e+01    0.2790663    0.1882085  56.35 0.0008611102    1.946    0.486
       140  -9.5914     16.9020     99.0814   1.0650933222e+02   5.4297345830e+01    0.3140971    0.2020642 -37.79  0.001718809    1.458    0.314
       141  -9.0677     13.4349     95.7964   1.0720535434e+02   5.5311211575e+01    0.2771907    0.1545371 -41.20 0.0009243737    1.610    0.379
       142  -9.8311      9.0732     98.3634   1.0925183206e+02   5.4956027719e+01    0.4334495     0.279355 -85.39  0.001554638    1.693    0.409
       143  -8.9840      4.2661     97.5684   1.1087089788e+02   5.5402678473e+01    0.2990204    0.2026971 -48.43  0.001104087    1.239    0.193
       144 -10.1665      2.0934     92.2253   1.1082718985e+02   5.6775865388e+01    0.3278574    0.2216321  61.64 0.0003439885    1.932    0.482
       145 -10.2075      2.5302     86.6479   1.0973947085e+02   5.8062959631e+01    0.4888044    0.1290885 -56.09   0.00202548    2.457    0.593
       146 -10.3085      2.6212     80.7011   1.0864908502e+02   5.9432518584e+01    0.3594172    0.2280782 -66.87  0.001539868    1.380    0.275
       147  -9.5540     86.3456     96.5964   8.0714488893e+01   4.6431841574e+01    0.3911161     0.277924 -14.96  0.001772521    1.735    0.424
       148  -8.6116    184.3776     96.7839   5.5315536276e+01   2.5375202800e+01    0.1998289    0.1369019 -30.96 0.0003184924    1.547    0.354
       149  -9.4329    171.0797     97.0122   5.7995672124e+01   2.8323165424e+01    0.2184888    0.2110871 -19.72 0.0002882894    1.080    0.074
       150  -8.7429    150.1008     97.1303   6.2656263959e+01   3.3073152184e+01    0.2263995    0.2053448  10.66  0.001170353    1.206    0.171
       151  -9.1526    137.3021     97.3535   6.5861893240e+01   3.5912008112e+01    0.1597858     0.122859   0.80 0.0005320153    1.704    0.413
       152  -9.8901    125.5367     96.9872   6.8874133173e+01   3.8575925242e+01    0.3003138    0.2193695  25.35  0.001357126    1.566    0.361
       153  -9.6950     47.1976     91.9444   9.3541093910e+01   5.3237572104e+01    0.3612597    0.2046999 -43.44  0.001699467    1.590    0.371
       154 -10.3969     42.0518     88.1151   9.4558903874e+01   5.4701457679e+01    0.7008108    0.2933227  20.61  0.001882521    2.761    0.638
       155 -10.7377     32.1836     93.1130   9.9561103098e+01   5.4516281811e+01    0.5398653    0.3122283 -45.52  0.002400978    1.491    0.329
       156 -11.2281     28.8998     86.4338   9.9327257530e+01   5.6372253467e+01     1.018169    0.5041133 -25.21  0.003470192    2.482    0.597
       157 -10.5462     51.5176     82.9242   8.9486118379e+01   5.4769252189e+01     0.358036    0.3111965  -5.93 0.0006457946    1.118    0.105
       158 -10.9841     44.8093     80.7787   9.1541244564e+01   5.6054852092e+01    0.8276957    0.4604088  24.13  0.003098815    1.907    0.476
       159 -11.3885     45.2288     68.7929   8.7885529831e+01   5.8584643274e+01    0.4951013    0.2411393 -40.48 0.0002487359    1.870    0.465
       160  -8.9784    130.2970     96.3475   6.7407269099e+01   3.7668715779e+01    0.1591531    0.1224869  -0.55  0.000703441    1.678    0.404
       161  -9.8034    165.5173     94.1807   5.8415441256e+01   3.0122664710e+01    0.2604055    0.2456581  56.65  0.000288319    1.072    0.067
       162  -8.8852     80.0155     94.8876   8.2382871386e+01   4.7899745447e+01    0.2264078    0.1856849  80.86 0.0006996515    1.696    0.411
       163  -9.4870     22.8718     94.6060   1.0342976306e+02   5.4940950247e+01    0.2591968    0.1919478 -53.78 0.0006605565    1.136    0.120
       164  -9.5205    134.9371     91.2879   6.4758313443e+01   3.7654234542e+01    0.2571566    0.2188199 -27.04 0.0001886254    1.227    0.185
       165  -8.8898     52.3995     90.2494   9.1129531079e+01   5.3002826699e+01    0.2357117    0.1678901 -59.05 0.0005988771    1.435    0.303
       166 -10.7220     86.4951     88.5631   7.8347756178e+01   4.8168537261e+01     0.402352     0.346909 -10.21 0.0006545002    1.169    0.145
       167  -9.3826     86.9516     83.6611   7.6720989270e+01   4.9123379141e+01    0.2530677    0.2339915 -58.64   0.00044134    1.234    0.190
       168  -9.6276     68.6205     75.4035   8.0687391906e+01   5.3952917594e+01    0.4609394    0.2356168 -48.67  0.001550307    1.965    0.491
       169 -10.5004     71.3213     88.7549   8.3704471719e+01   5.0674834498e+01    0.4477744    0.2591234 -54.34 0.0003821255    1.809    0.447
       170  -9.8170     65.7875     85.8502   8.4889753752e+01   5.2160485590e+01    0.4181989    0.2632731  10.18  0.001428721    1.988    0.497
       171 -11.3310     79.8431     83.6799   7.9176086702e+01   5.0375951469e+01    0.6968338    0.3276434  34.45  0.002785313    2.180    0.541
       172  -9.8544     73.5316     79.2794   8.0083986823e+01   5.2359603081e+01    0.4010035    0.2850408 -18.72   0.00139462    1.553    0.356
       173  -8.8897     59.1144     89.3504   8.8358057319e+01   5.2329879473e+01    0.3540607    0.2064499 -72.64  0.001380697    2.854    0.650
       174  -9.9175      6.8461     89.1922   1.0852319809e+02   5.7254473910e+01    0.2783411    0.1983894  34.74 0.0008500412    1.707    0.414
       175  -9.8444     14.0350     88.0258   1.0552626349e+02   5.7112224975e+01    0.2736337    0.1784712 -44.01 0.0009659894    1.291    0.226
       176 -10.8884    138.1650     84.6019   6.2025730180e+01   3.8211849379e+01    0.7363867    0.3866549  32.25  0.002676181    2.614    0.617
       177 -11.2769    123.4014     86.5570   6.6442770085e+01   4.1148774033e+01    0.5367958    0.4524588 -56.51     0.002376    1.304    0.233
       178 -10.6360    128.4742     85.3399   6.4719291345e+01   4.0262141115e+01     0.493972    0.3891901  -0.11  0.001598965    1.575    0.365
       179  -9.5587    132.5716     82.5378   6.2830195684e+01   3.9873330314e+01    0.2777724    0.2439951 -57.22 0.0001172512    1.227    0.185
       180  -9.3529    104.2891     85.6005   7.1710142427e+01   4.5384845153e+01    0.3017119    0.2330365 -10.22 0.0006121942    1.515    0.340
       181  -9.7055    155.1728     85.0805   5.8188685194e+01   3.4197277613e+01    0.2278502    0.2036539  13.61 0.0004983998    1.264    0.209
       182  -9.4402    146.1828     84.3678   6.0030121157e+01   3.6412173290e+01     0.218208    0.1418969  61.18 0.0006127207    1.687    0.407
       183 -10.4951     19.9457     79.5686   1.0136512780e+02   5.8663039336e+01    0.4477175    0.3646646 -64.13  0.001320479    1.247    0.198
       184 -10.5528    152.9863     80.7473   5.7464104977e+01   3.5489850687e+01    0.3369129    0.2440996  42.68  0.001192432    1.417    0.294
       185  -9.9111    150.0000     80.0246   5.7924587700e+01   3.6316054814e+01    0.3318618    0.2072275 -40.17  0.001115482    1.619    0.382
       186  -9.9879    119.9643     79.6148   6.5307500326e+01   4.3241275561e+01    0.2652215    0.2083651 -17.04 0.0001247562    1.441    0.306
       187  -9.6737    136.9518     79.0153   6.0697228572e+01   3.9524197603e+01    0.2243028    0.2197995  60.42  0.000656952    1.028    0.028
       188  -8.6346    100.9743     78.7822   7.0640239454e+01   4.7415020187e+01    0.3300502    0.2106141 -70.12  0.001233491    2.992    0.666
       189  -8.7803     94.1616     78.7747   7.2811595987e+01   4.8763930097e+01    0.2036949    0.1660896   1.78 0.0003676544    1.323    0.244
       190 -10.5545     94.0942     70.0621   7.0035498298e+01   5.0453462316e+01    0.4849776    0.4329045  -4.67  0.002057791    1.091    0.083
       191  -9.1308     89.3924     78.1980   7.4204946807e+01   4.9788042352e+01    0.2796848    0.2234923  79.21 0.0008173364    1.874    0.466
       192 -10.2997     89.4404     74.1851   7.2910211943e+01   5.0569951574e+01    0.4143218    0.3109666  17.31  0.001079855    1.431    0.301
       193  -8.5114    231.4094     77.7459   4.3549224033e+01   1.8588941320e+01    0.1658089    0.1161367 -33.08 0.0002431872    1.456    0.313
       194  -8.7732    167.4662     78.2450   5.3760659567e+01   3.2542187082e+01    0.2066028    0.1322014 -51.16 0.0009339938    1.635    0.388
       195  -9.4217    110.9684     76.8863   6.7024561532e+01   4.5704295491e+01    0.3022633     0.282099 -38.06 0.0009243618    1.118    0.105
       196  -9.0176    111.3186     71.6630   6.5277109332e+01   4.6595634290e+01    0.3931922    0.1984509 -22.67  0.001351836    3.167    0.684
       197  -9.2520     12.4827     78.0452   1.0410534308e+02   5.9510017951e+01    0.2215353    0.1485468 -26.21 0.0004370099    1.433    0.302
       198 -10.8616    179.5268     75.0080   5.0652085734e+01   3.0282288514e+01    0.4345554      0.33924  32.06  0.001229482    1.565    0.361
       199  -9.7242    175.3212     75.2705   5.1478467990e+01   3.1214067424e+01    0.2347655    0.2104694 -80.96 0.0001748552    1.118    0.106
       200 -10.1523     27.8676     76.5539   9.7351259947e+01   5.8708071702e+01    0.3123694    0.2371838 -12.76   0.00116234    1.311    0.237
       201  -9.8040    184.9485     75.9569   4.9950550586e+01   2.8877753013e+01     0.207798    0.1953362 -71.44 0.0003070406    1.004    0.004
       202  -9.0070    126.3740     75.3095   6.2270655374e+01   4.2608571245e+01    0.2676745    0.1444694 -33.09 0.0006018147    2.020    0.505
       203  -9.0385    141.5073     75.4911   5.8569676589e+01   3.9100766986e+01    0.2214005    0.1358602  42.04 0.0002575885    1.669    0.401
       204 -10.0030    145.6042     71.7208   5.6528062166e+01   3.8795223043e+01    0.4487207    0.2710447 -21.53  0.001576129    2.201    0.546
       205 -10.7360    142.6806     67.1487   5.5843925327e+01   4.0249220147e+01    0.4706783    0.3477613  28.22  0.002273989    1.597    0.374
       206 -10.5563    141.5910     60.3369   5.4057060978e+01   4.1601222380e+01    0.4235854    0.3119302  -2.70 0.0005651683    1.840    0.457
       207 -11.0535    134.9020     64.4980   5.6844236118e+01   4.2508888840e+01    0.5426198     0.384213  81.86  0.002477886    1.913    0.477
       208 -10.2095    132.1229     58.3358   5.5603402190e+01   4.4141386436e+01    0.5927604    0.3048458  54.15  0.002441322    1.839    0.456
       209  -9.3177    136.6913     55.4931   5.3675285450e+01   4.3503063153e+01    0.2755897    0.2120496 -25.35  0.001429518    1.439    0.305
       210  -9.5492     63.4369     74.4010   8.2336204803e+01   5.4957152898e+01    0.2796146    0.2458504  83.83  0.001544347    1.611    0.379
       211 -13.2939     52.9522     74.4898   8.6469795190e+01   5.6415175880e+01    0.7026709    0.3889014 -56.73  0.001189249    1.999    0.500
       212  -9.8419    173.5321     68.9584   5.0135113087e+01   3.2665254851e+01    0.3243132    0.2035169  55.52  0.001012141    1.565    0.361
       213 -10.3513    169.9919     73.2337   5.1927812463e+01   3.2797279916e+01    0.2945232    0.2803644 -47.48 0.0007434207    1.075    0.070
       214  -9.1683    166.4928     73.4607   5.2657700586e+01   3.3580758920e+01    0.2065508    0.1442081 -23.51 0.0006680439    1.710    0.415
       215  -8.4540    116.0022     75.0000   6.4992039865e+01   4.4969956089e+01    0.4275709   0.08288702  47.70  0.001060191    5.015    0.801
       216  -8.4204    152.3702     73.2005   5.5467336167e+01   3.6951369969e+01    0.2032545    0.1334405 -48.09 0.0006068925    1.594    0.373
       217 -10.1209     10.5279     68.8437   1.0287348016e+02   6.1681149936e+01    0.3572662    0.1932942 -34.99 0.0004002292    1.624    0.384
       218 -10.0195     15.6712     61.5842   9.8753222562e+01   6.2912481040e+01    0.7316228    0.3493725 -64.58  0.002612134    2.270    0.560
       219 -10.4827     44.1876     46.8898   8.0899239938e+01   6.2938553119e+01    0.5289291    0.4716421 -19.39   0.00342976    1.177    0.151
       220  -8.6226    192.4962    248.4432   8.4881691911e+01  -4.4526926246e+00    0.1258034    0.1007101  11.60 7.184393e-05    1.021    0.021
       221  -9.4177     30.8072    247.6193   1.1847108172e+02   1.7857848835e+01    0.1738635   0.07998948  44.85 0.0009538447    1.735    0.424
       222  -9.9358     37.2623     47.3688   8.4217239881e+01   6.3712134541e+01    0.2948552    0.1955868  -4.10 0.0007414113    1.531    0.347
       223  -9.4804     31.8048     47.7767   8.6908660042e+01   6.4248679082e+01    0.1936889     0.155894 -26.39 0.0007118434    1.077    0.072
       224 -12.2217      2.4926     66.2876   1.0581498706e+02   6.2666106950e+01    0.4138236    0.2571544 -62.08 -6.776382e-05    1.405    0.288
       225 -11.5196      8.3786     51.3958   9.9373043623e+01   6.5494338873e+01    0.7819337    0.3793746  -4.37  0.003484876    2.331    0.571
       226 -10.3791      9.2672     62.7534   1.0196683058e+02   6.3074959415e+01    0.2744395    0.2135657   5.71  0.001005706    1.388    0.279
       227 -10.8338      4.4492     59.5882   1.0338819662e+02   6.4012963797e+01    0.5347885       0.2709 -30.30   0.00279879    1.786    0.440
       228 -11.3349     32.3991     63.9374   9.1911591878e+01   6.1004393515e+01    0.7047531     0.253543 -50.74  0.001584035    2.371    0.578
       229 -11.3340     28.0034     63.5168   9.3733713283e+01   6.1511519922e+01    0.5636793    0.2421771 -51.94  0.002596662    2.009    0.502
       230 -10.4114     23.6596     47.8399   9.0824762477e+01   6.5041711266e+01    0.3677468    0.2740922  16.33  0.001177716    1.380    0.275
       231 -10.3938     27.1343     44.3446   8.7922699344e+01   6.5365678448e+01    0.2940728    0.1890928 -40.89 0.0005791105    1.380    0.276
       232  -8.4841     18.2731     71.9533   1.0026528369e+02   6.0489701644e+01     0.226163    0.1448313 -17.38  0.001128873    1.597    0.374
       233 -10.1576    101.7002     70.0160   6.7616501161e+01   4.8925594746e+01    0.4554956    0.3239153  -3.34  0.001086351    1.821    0.451
       234 -11.0154     79.7868     69.9695   7.4860760760e+01   5.3159773195e+01    0.2567307    0.2253441  17.08 0.0003182839    1.083    0.076
       235  -9.5888     37.1655     69.7550   9.1571596021e+01   5.9294704705e+01    0.3999845    0.2262319 -34.88  0.001983923    1.641    0.390
       236  -8.1708    226.4780     70.4228   4.2569888796e+01   2.0708416243e+01     0.130398    0.1123356 -62.80 4.438891e-05    1.014    0.014
       237  -8.5611    215.4690     70.5096   4.4006161829e+01   2.2989458806e+01    0.1343765    0.1177729 -63.43 0.0002996937    1.008    0.008
       238  -8.1733     23.2839     70.6148   9.7768182883e+01   6.0401776248e+01    0.1215675   0.09990945  79.47 0.0007008369    1.739    0.425
       239  -9.7081    119.4539     67.7730   6.1770557875e+01   4.5496492431e+01    0.3563969    0.2742572  12.36  0.001185341    1.559    0.359
       240  -8.9135     62.8259     69.3323   8.0956307206e+01   5.6080401060e+01    0.4331777    0.1689797  22.48  0.001345534    4.247    0.765
       241  -9.3050     86.8757     68.1256   7.1789399946e+01   5.2208868957e+01    0.2194396    0.1991707   0.53 0.0002596841    1.025    0.024
       242  -9.5158     75.0694     65.7062   7.5133924447e+01   5.4799733398e+01    0.2761731    0.2042843 -39.23 0.0007858561    1.351    0.260
       243  -9.3199     77.4638     62.0578   7.3018380934e+01   5.5054817714e+01     0.296756    0.2016199  44.41 0.0005532164    1.556    0.357
       244  -9.5266     83.3930     65.1128   7.1970991440e+01   5.3418153788e+01    0.2973253    0.2046075  31.71  0.000880474    1.418    0.295
       245  -8.4789     82.6771     61.6998   7.1050988679e+01   5.4169126391e+01    0.2695999    0.1959406  14.39 0.0007326814    1.490    0.329
       246  -8.6014     67.8435     67.1076   7.8296556184e+01   5.5736770028e+01    0.1896898    0.1466116 -16.41  0.001009863    1.282    0.220
       247  -9.0595    202.2596     65.1682   4.4580429208e+01   2.6678018465e+01    0.3081056    0.2164694 -10.37 0.0008955785    2.188    0.543
       248  -9.7978     97.2651     63.6771   6.6899898999e+01   5.0969716848e+01    0.2858194     0.227232 -15.82 0.0001896102    1.330    0.248
       249  -9.2499    110.3255     62.8838   6.2724022635e+01   4.8347101407e+01    0.2242853    0.1912111  53.93 0.0004466066    1.206    0.171
       250 -10.3007     45.1835     54.9465   8.3366862296e+01   6.1337541730e+01    0.7541476    0.2265855  39.14  0.002665494    3.898    0.743
       251 -10.1592     54.0747     61.1783   8.1747689690e+01   5.8957871343e+01    0.2841429    0.2492454  87.64 0.0002815212    1.753    0.430
       252 -10.2001     53.2455     53.8935   7.9549470734e+01   6.0441732711e+01    0.4474621    0.2514978 -30.03  0.001776397    1.787    0.440
       253  -9.8733    193.4200     61.2778   4.4917859989e+01   2.9252821077e+01    0.3386609    0.3048136 -21.25  0.001236816    1.308    0.236
       254 -10.9479    168.2637     57.8860   4.8096830905e+01   3.5624931148e+01    0.4373939    0.4211221  29.13  0.001459164    1.168    0.144
       255  -9.2616    151.4284     60.6643   5.2067357361e+01   3.9213243572e+01     0.284947    0.1729721  54.33 0.0008909146    1.560    0.359
       256  -9.2061    114.5993     61.0755   6.0937628729e+01   4.7707836830e+01    0.2393083    0.1996097  61.87    0.0006567    1.289    0.224
       257 -10.1717     71.2239     60.0751   7.4618870778e+01   5.6501520104e+01     0.384699    0.2206715  36.66  0.001504488    1.707    0.414
       258  -9.7398     40.4144     59.1383   8.6872794965e+01   6.1110890266e+01    0.2482678    0.1937006 -13.30 0.0005355704    1.160    0.138
       259  -9.3489    198.9564     58.0769   4.3343253149e+01   2.8473946599e+01    0.1972252    0.1775372 -71.97 0.0003288629    1.013    0.013
       260  -8.2246    181.3276     58.3310   4.6029642828e+01   3.2480825255e+01     0.138381    0.1076121  26.81 0.0003923275    1.712    0.416
       261  -9.5868    160.2839     60.8558   5.0376290807e+01   3.7073464974e+01     0.250014    0.1925535  74.21 0.0007427918    1.337    0.252
       262  -9.7301     65.0504     56.5635   7.5735270723e+01   5.8159439170e+01    0.2451548     0.189072 -33.63 0.0003257675    1.268    0.211
       263  -8.8700     57.1000     56.4060   7.8851757200e+01   5.9420603932e+01    0.3531643    0.1626942  27.85  0.001478037    2.292    0.564
       264  -9.2243     61.5996     52.9635   7.5795614105e+01   5.9350841831e+01    0.3490518     0.189822 -22.54  0.001528382    2.251    0.556
       265  -8.4529    214.0067     56.7801   4.1068145345e+01   2.5346267800e+01    0.1606256    0.1023172  68.29 0.0003802037    1.591    0.372
       266  -9.7581    134.0234     29.2230   4.6043466019e+01   4.7613733631e+01    0.3768589    0.2709952   1.29   0.00134536    1.832    0.454
       267  -9.5692    146.0350     29.0150   4.3776567748e+01   4.4767349812e+01    0.2995083      0.16689  55.16 0.0004437302    1.593    0.372
       268 -11.1105    126.1497     46.7177   5.3323161694e+01   4.7254358970e+01    0.6153122    0.4869863 -79.80  0.001777135    1.601    0.376
       269  -9.8065    127.6094     39.6048   5.0691080421e+01   4.7869681446e+01    0.3163859    0.2496785 -16.97  0.001182419    1.448    0.310
       270 -10.1388    130.9312     35.0633   4.8517647523e+01   4.7657299689e+01    0.4526031     0.289286 -50.82 0.0009237111    1.854    0.461
       271 -10.1450    136.6459     37.3256   4.8060999802e+01   4.6019920972e+01    0.3724218    0.2820078  49.15 0.0009904448    1.228    0.186
       272 -10.4002    141.8263     33.5249   4.5889038259e+01   4.5248162586e+01    0.4257672    0.3155776   4.37 0.0009947823    1.797    0.443
       273  -9.9614    121.5872     51.7536   5.6061251218e+01   4.7585210942e+01    0.3391543    0.3111432 -63.93  0.001949074    1.234    0.190
       274  -8.9441     83.5524     51.3289   6.7071137342e+01   5.5766380612e+01    0.5267546    0.1712613 -35.12  0.001837802    3.322    0.699
       275 -10.8841     93.5743     43.9482   6.1126660962e+01   5.4885852760e+01    0.5576653    0.4569722  69.48 0.0006598975    1.545    0.353
       276  -8.7433     96.5184     48.9353   6.2023272011e+01   5.3533301171e+01    0.2074516    0.1708761  37.90 0.0004033872    1.118    0.105
       277  -9.9419     88.0926     48.9928   6.4705426154e+01   5.5246637643e+01    0.3996127    0.3459623 -50.11  0.001616814    1.410    0.291
       278  -9.6452     92.5282     54.9831   6.5412726249e+01   5.3402303532e+01    0.5444331    0.2986535  45.47  0.001784067    1.743    0.426
       279 -10.2041     92.8638     50.9367   6.3871942005e+01   5.3980735553e+01    0.2838879    0.2458135 -20.35 0.0003248907    1.180    0.152
       280  -9.6088     79.6937     54.1775   6.9440091735e+01   5.6026944355e+01    0.2507457    0.2376894  79.88 0.0008622209    1.393    0.282
       281 -10.4209     71.5894     51.2122   7.1295689568e+01   5.7986085014e+01    0.5787396    0.3727853  -4.97  0.002740347    1.974    0.493
       282  -9.3423     68.2111     48.8062   7.1674054800e+01   5.8970950506e+01    0.2364086    0.2076924  61.12 0.0007862537    1.563    0.360
       283 -12.3306     61.9329     44.3056   7.2406309157e+01   6.0756691965e+01    0.4303552    0.2589954  33.03 0.0004246271    1.570    0.363
       284  -9.6486    146.0705     52.4380   5.0747778451e+01   4.1725734856e+01    0.2951433    0.2237192 -62.17  0.001277977    1.509    0.337
       285  -9.3064    106.9142     52.9007   6.0349975522e+01   5.0703642379e+01    0.2889026     0.186056  41.85 0.0008529922    1.453    0.312
       286 -10.2037    174.5926     50.7062   4.5109326173e+01   3.5164886227e+01    0.2996942    0.2479658 -19.83 0.0004794442    1.444    0.307
       287 -10.5938    153.8501     48.1677   4.7982079301e+01   4.0468649845e+01    0.4116534     0.312259 -89.00 0.0006877698    1.479    0.324
       288  -8.6353    182.1980     48.7785   4.3437185180e+01   3.3645365808e+01    0.1805069    0.1605421  38.11 0.0008730376    1.326    0.246
       289  -9.9225    164.0290     46.9325   4.5825692496e+01   3.8200313366e+01    0.3401102    0.2663975   6.05  0.001282251    1.749    0.428
       290 -10.2486    114.7602     46.4090   5.6019360564e+01   4.9918529382e+01    0.3736732    0.2630728 -15.56 0.0007174902    1.673    0.402
       291  -9.6346    112.9539     41.2271   5.4719696507e+01   5.1042724346e+01    0.2211189    0.1941707  -6.45 0.0002493291    1.222    0.181
       292 -10.8310     79.1784     43.8763   6.5810395562e+01   5.7765765638e+01     0.549209    0.4560809  12.52  0.002657219    1.111    0.100
       293  -9.5836    234.9403     46.9757   3.6622206206e+01   2.2344166348e+01    0.1804761    0.1542474 -64.52 0.0003737843    1.066    0.062
       294  -9.9140    202.4842     46.5734   4.0136195449e+01   2.9302366816e+01    0.2273189    0.2038354  76.02  0.000360119    1.145    0.127
       295  -9.5735    145.8747     46.1207   4.8906039939e+01   4.2662302764e+01    0.2115885    0.1788153 -85.28 0.0004922338    1.271    0.213
       296 -11.8596     27.1370     54.4642   9.1353296304e+01   6.3432552180e+01     1.124293    0.6811878 -16.87  0.004610408    1.687    0.407
       297 -10.1881    244.5006     44.5004   3.5213979312e+01   2.0785740936e+01    0.2515505    0.2127276  41.32  0.001687645    1.698    0.411
       298  -9.3674    186.9112     44.2171   4.1606483104e+01   3.3167250689e+01    0.3152072    0.1720677  65.98 0.0009109737    1.743    0.426
       299  -9.3735    177.5804     44.1069   4.2915075968e+01   3.5362965583e+01    0.3001133    0.1872604  76.69  0.001489189    1.640    0.390
       300 -10.0771    104.8373     42.8309   5.7436958727e+01   5.2634534204e+01    0.5489439    0.2573141  44.65  0.002355683    1.947    0.486
       301 -11.2392    103.6672     38.5317   5.6233335675e+01   5.3474040446e+01    0.3030646    0.2528687 -26.17 0.0002423178    1.294    0.227
       302  -9.6795     98.6690     55.0619   6.3520442276e+01   5.2126244273e+01    0.2456064    0.2340344 -22.77 0.0006918005    1.136    0.120
       303  -9.3988     71.9114     42.3646   6.7830051821e+01   5.9341580631e+01    0.2513614    0.1815284 -15.23 0.0006319605    1.418    0.295
       304  -9.9712    227.8084     41.3988   3.6160320528e+01   2.4537102503e+01    0.2582662    0.2171969  58.75  0.001704188    1.417    0.294
       305 -10.4746    228.1516     37.8679   3.5382383499e+01   2.4922616958e+01    0.2376669    0.1842064 -64.03 0.0005506385    1.084    0.077
       306  -8.6692    191.4989     42.0848   4.0460800334e+01   3.2390937313e+01    0.1868697    0.1220553 -41.85  0.000581224    1.505    0.336
       307 -10.0722    131.9973     44.3619   5.1245635567e+01   4.6205758805e+01    0.3373259    0.2472492  57.85  0.001094339    1.261    0.207
       308  -9.4943     35.7031     40.9929   8.2561656293e+01   6.5028444081e+01    0.4332928    0.2152943   8.68  0.001648906    2.722    0.633
       309 -10.5799     40.6150     39.0664   7.9512308032e+01   6.4746442306e+01    0.3672367    0.2073243  -3.42  0.001024626    2.297    0.565
       310  -9.7628    221.5898     40.7755   3.6656412627e+01   2.5917216657e+01    0.3348828    0.1946487  58.77  0.001827277    1.830    0.454
       311  -8.5600    196.6032     40.7655   3.9488828668e+01   3.1398244410e+01     0.174032    0.1109691 -48.19 0.0004896681    1.491    0.329
       312  -9.7109    158.2510     39.7538   4.4797574777e+01   4.0534560345e+01    0.3224879    0.2763511 -81.30 0.0008770226    1.174    0.148
       313  -9.9787    192.1638     53.1158   4.3085541733e+01   3.0730869149e+01    0.3307645    0.1686336  52.35  0.001328043    2.043    0.511
       314  -8.7458    165.5120     38.9551   4.3388664116e+01   3.8898277065e+01    0.2784525    0.1346006 -31.53  0.001233487    2.247    0.555
       315  -8.6976    163.4925     36.0000   4.2895430293e+01   3.9751449578e+01    0.3083468   0.07075579  63.49 0.0009418481    3.992    0.750
       316  -9.3750    120.5363     37.8652   5.1728463202e+01   4.9744403692e+01    0.4030815    0.2255535 -33.57  0.001552967    1.935    0.483
       317  -9.3897    238.3144     37.2865   3.4322730892e+01   2.2936864709e+01    0.1886269    0.1771357 -79.41  0.000889712    1.265    0.210
       318  -8.1812    192.5591     38.4919   3.9446791672e+01   3.2613031578e+01    0.1315703    0.1140158 -79.32 9.617382e-05    1.024    0.023
       319 -10.6232    178.3470     37.0788   4.0981053104e+01   3.6091942051e+01    0.3321858    0.2560643  87.61 0.0004500962    1.239    0.193
       320 -10.0411    116.2172     34.3238   5.1551957451e+01   5.1184795175e+01    0.5901641    0.2684478  36.63  0.001836864    2.644    0.622
       321 -10.0580     73.3101     36.8314   6.5153216508e+01   5.9897773252e+01    0.3788108    0.3070276  26.87 0.0007658852    1.091    0.084
       322  -8.9795     74.8871     23.1065   5.9024124528e+01   6.1367955861e+01    0.1900895    0.1647773 -18.11  0.001210849    1.262    0.207
       323 -10.6534     79.9714     32.2127   6.1016052153e+01   5.9250767503e+01    0.5398126    0.3432064  33.24     0.002854    1.446    0.309
       324 -10.9884     71.5106     30.5338   6.3262514170e+01   6.1091787491e+01    0.8578624    0.2960469  43.87  0.003458521    2.587    0.613
       325  -9.6895     76.3616     27.8905   6.0493061598e+01   6.0505913696e+01    0.3162483    0.2769577  85.54  0.001905906    1.691    0.409
       326  -9.4391    186.1663     36.5328   3.9785207002e+01   3.4334299542e+01    0.3753365    0.1993657 -50.71   0.00181671    1.895    0.472
       327  -9.6448    183.7171     31.9225   3.8949308443e+01   3.5470264916e+01     0.261114    0.1814604  81.62 0.0008665081    1.358    0.263
       328  -8.4601     90.6532     37.1478   5.9504862148e+01   5.6439864164e+01    0.1770289    0.1227554 -13.14 0.0003114985    1.618    0.382
       329 -10.1446    249.1302     35.4681   3.3043318834e+01   2.1059316670e+01    0.2949409    0.1401484  64.86  0.001617674    2.206    0.547
       330  -9.8133     96.1900     35.0423   5.7068189324e+01   5.5550251697e+01    0.3931193    0.2122417  50.95  0.001429814    1.689    0.408
       331  -9.5265     93.5263     30.2593   5.6047429717e+01   5.6716529661e+01    0.3866825    0.1744652  42.34 0.0009442875    2.005    0.501
       332  -8.1640     86.2856     36.3503   6.0569575244e+01   5.7442296387e+01    0.2116996    0.1208055  41.04 0.0005445998    1.576    0.365
       333 -10.2824     87.6205     32.7605   5.8771905389e+01   5.7640637203e+01    0.3415476    0.3127818 -71.71  0.001652533    1.460    0.315
       334 -10.7551     55.9819     34.3049   7.0823221597e+01   6.3264522144e+01    0.4801583    0.2591293 -43.63  0.002364835    2.192    0.544
       335 -10.2873     48.9795     33.6624   7.3540609118e+01   6.4442225686e+01    0.4814816    0.1974115  28.96  0.001078979    2.556    0.609
       336  -9.4688    223.4498     34.7153   3.5168695589e+01   2.6300447609e+01    0.2123468    0.1748025 -89.11 0.0006145934    1.120    0.107
       337  -8.7751     61.0238     34.5229   6.8866236333e+01   6.2404145195e+01     0.202322    0.1599296 -19.78 0.0008821085    1.232    0.188
       338  -9.5079    209.1128     32.9194   3.6226282559e+01   2.9600190802e+01    0.2804555    0.1749658 -39.08  0.001364744    1.579    0.367
       339 -10.0648    118.0731     52.3338   5.7142512116e+01   4.8301743768e+01    0.4637541    0.2139251 -33.04 0.0002636857    2.336    0.572
       340  -9.7788    100.8355     26.3465   5.2568273149e+01   5.5591316549e+01    0.4149487    0.1610288  56.73   0.00168769    2.377    0.579
       341  -9.9810    163.6753    246.0513   9.0419111853e+01   2.8080611076e-02    0.1818158    0.1588206   4.12  0.001180393    1.100    0.091
       342  -8.3859    219.6714    245.6482   7.9164715384e+01  -7.6423708794e+00    0.1305149   0.07711054  -3.18 0.0007047566    1.769    0.435
       343  -9.1427     43.4945     32.4708   7.5494826323e+01   6.5414127064e+01    0.2080966    0.1651836 -23.61 0.0006162141    1.211    0.174
       344  -8.7436     42.0000     29.0135   7.4709359795e+01   6.6143792839e+01    0.2208967    0.1558246 -33.78  0.001333631    1.445    0.308
       345 -10.2525    248.5385     30.2166   3.2079655902e+01   2.1824434801e+01    0.3132692    0.2240592 -29.34  0.001830925    1.707    0.414
       346  -8.5845    179.4792     32.4630   3.9640371104e+01   3.6394658841e+01    0.1328082    0.1147109 -86.12  0.000101608    1.040    0.038
       347  -9.1981    154.5491     32.0189   4.3215089052e+01   4.2375827342e+01    0.3146169    0.2151514  72.81  0.001673515    1.382    0.276
       348  -8.5396     25.5355     27.4367   8.2120445077e+01   6.8434346345e+01    0.1861895    0.1055987  21.53 0.0001098756    1.672    0.402
       349  -8.6143      1.3884    244.2021   1.2382895388e+02   2.1478926420e+01    0.1519819   0.08081335  80.48 0.0004490367    1.603    0.376
       350  -9.4326     24.9410     31.3252   8.4046421155e+01   6.7866932073e+01    0.2466467     0.196139 -25.43 0.0008967943    1.158    0.137
       351  -9.5745    102.1518    242.1874   1.0315584708e+02   9.8248384486e+00    0.2963176    0.0980906 -63.00  0.001113761    3.849    0.740
       352  -8.5779    206.6773    240.6861   8.0845703249e+01  -5.2199808536e+00    0.1307765    0.0820479  -1.24 0.0007040591    1.659    0.397
       353  -9.0109    128.1317    240.6434   9.7284670953e+01   6.2855859699e+00    0.2867046   0.09335428  40.91  0.001101251    2.657    0.624
       354  -8.6693    247.2483    238.9899   7.3059754161e+01  -1.0073809545e+01    0.1487032   0.08342478 -30.71 0.0008867002    1.588    0.370
       355  -8.7770    188.6763    239.6830   8.4269046682e+01  -2.5631970072e+00     0.133574   0.08694542  -0.59 0.0005751085    1.668    0.401
       356  -9.7160     34.5316     31.3842   7.9265407387e+01   6.6762902261e+01    0.3041648    0.2050057  29.36  0.001827157    1.502    0.334
       357 -10.1380     36.9922     26.4559   7.5958057696e+01   6.7202368078e+01    0.3088672    0.2134736  -6.82  0.001011444    1.318    0.241
       358 -10.7555    234.2075     30.1845   3.3245876906e+01   2.4646905525e+01    0.3752603    0.2023323  57.45   0.00102157    2.108    0.526
       359  -8.8935    125.6562     29.7051   4.7890720968e+01   4.9537578754e+01    0.1912507    0.1611964  15.01 0.0006201993    1.333    0.250
       360  -9.0202    221.2412    237.3924   7.7508230099e+01  -6.6622421401e+00    0.1576609     0.103179  31.81 0.0006572243    1.536    0.349
       361  -9.5570     17.6483     21.3309   8.3705802119e+01   7.0209715154e+01    0.2572949    0.1848915  45.11  0.001553176    2.319    0.569
       362  -9.0465    156.6450    237.6925   9.0668582297e+01   2.5013062698e+00    0.1372708    0.0942445   1.33 0.0006894422    1.722    0.419
       363  -9.3040    189.4589     29.0266   3.7523451713e+01   3.4488133191e+01    0.2256491    0.1601958  57.65 0.0005477827    1.432    0.301
       364  -9.0943     52.0951     28.8817   7.0168425013e+01   6.4662980839e+01    0.1727449    0.1508183  11.80 0.0003639961    1.153    0.132
       365  -9.8742    222.2107     26.5864   3.3560493298e+01   2.7554172499e+01    0.2666545    0.2461984  77.15  0.001455164    1.283    0.220
       366  -8.5570    116.1809     27.8511   4.9346469853e+01   5.1956110040e+01     0.177886    0.1393777  32.58 0.0002328012    1.274    0.215
       367  -8.7277    182.6969     27.1415   3.7880351449e+01   3.6271809696e+01    0.2168152    0.1430825 -57.80  0.001189755    1.514    0.339
       368  -8.5423    139.8370    236.7932   9.4188521698e+01   5.2232646680e+00    0.1771748    0.1426575  49.89 0.0004409431    1.316    0.240
       369  -8.6506    230.6852     26.6563   3.2829942769e+01   2.5789100404e+01    0.1711701    0.1444576 -27.04 0.0006133548    1.524    0.344
       370 -10.1345    232.5583     23.5550   3.2044649128e+01   2.5775134033e+01    0.3773615    0.2117765 -80.68  0.001793402    1.769    0.435
       371 -10.1690    233.4208     18.2668   3.0918114386e+01   2.6211227112e+01    0.2791595    0.1806742 -66.93  0.001070333    1.308    0.235
       372  -8.9699    221.9758    233.5050   7.6715167181e+01  -6.1884612186e+00    0.1797464    0.1064193  26.22 0.0005967385    1.546    0.353
       373 -10.1553    205.5872     24.7614   3.4752266745e+01   3.1352140525e+01    0.3801306    0.2317342 -72.38 0.0008504784    1.630    0.387
       374  -8.9134     32.0273    232.4728   1.1722959244e+02   2.0808152359e+01    0.1833576    0.1382619  88.17 0.0006226415    1.208    0.172
       375  -9.6960    186.9939    230.8311   8.3171401740e+01  -8.8201640268e-01    0.2235393     0.135069   6.81  0.001087763    1.956    0.489
       376  -8.8232    177.9623    231.2145   8.5114567158e+01   3.9906809001e-01    0.1856655   0.09507449  33.20 0.0008835273    1.749    0.428
       377  -9.2851     72.1535     15.1504   5.6576583693e+01   6.2774916068e+01    0.2228626     0.191449  -3.00 0.0004005586    1.200    0.167
       378  -9.0766    162.6679    225.7580   8.7501701976e+01   3.7081556643e+00     0.352788     0.243926  79.85  0.001491581    3.367    0.703
       379  -9.0080    223.9094    225.1444   7.4913923895e+01  -5.1924828626e+00    0.1770528    0.1513079   8.18  0.000605364    1.201    0.168
       380  -8.1764    143.3177    225.7175   9.1777189233e+01   6.7629634985e+00     0.133011    0.1009994  57.42 0.0002467683    1.583    0.368
       381 -11.1559      2.0811     25.2794   9.4187252719e+01   7.0805050889e+01    0.2118609    0.1476326 -36.78 0.0003432441    1.175    0.149
       382  -9.0917    131.8713    225.1529   9.4275786901e+01   8.6774480230e+00    0.2050592     0.174203  52.15 0.0004356324    1.232    0.188
       383  -7.9769      1.7003    224.2980   1.2283832191e+02   2.5504119582e+01    0.1211887   0.06435018  63.03 0.0002161136    1.577    0.366
       384  -8.9164    196.4041    221.8438   7.9716216587e+01  -7.7712381490e-01     0.187811    0.1109155 -26.99 0.0009451591    1.739    0.425
       385  -9.3818     88.9954    220.7699   1.0356314297e+02   1.6109490878e+01    0.2351756    0.1961744 -49.81 0.0008750042    1.355    0.262
       386 -10.1652    177.1274     21.8798   3.7241756796e+01   3.8162532022e+01    0.4027921    0.2245417 -35.97  0.001233676    1.872    0.466
       387 -10.7474    173.0872     22.9648   3.8031839265e+01   3.8991986682e+01    0.3927684    0.2761757  74.26  0.001031248    1.266    0.210
       388  -9.8533    131.5407     21.9914   4.4229999136e+01   4.8991847996e+01    0.3895382    0.2501845  -2.70  0.001954207    2.164    0.538
       389  -8.8943    242.3635    209.8509   6.8834497886e+01  -5.3078062079e+00     0.181756    0.1373297 -36.94 0.0007187902    1.427    0.299
       390 -10.7053    246.2091     22.0990   3.0703683346e+01   2.3244348850e+01    0.2902761    0.2323781 -75.03   0.00149502    1.075    0.070
       391 -10.2897    153.6977     22.9165   4.0750455135e+01   4.3605817702e+01    0.2376346    0.1856599  60.65 0.0003303135    1.157    0.136
       392  -8.7961    124.8849     23.4995   4.6013903501e+01   5.0404558190e+01    0.1951788    0.1168903  59.64 0.0003229754    1.455    0.313
       393 -12.0007    117.0850     22.2166   4.7217029336e+01   5.2359473747e+01    0.2605957    0.2218304  18.74 0.0004185975    1.265    0.209
       394  -7.9224    145.3088    210.3092   8.8856025470e+01   9.4788214365e+00    0.1431681    0.1063081  -5.35  0.000258089    1.618    0.382
       395  -8.4611     80.1222     22.6951   5.7142956031e+01   6.0379163111e+01    0.2261557    0.1421721 -42.31  0.001182531    2.015    0.504
       396  -8.2756    230.5392    209.5000   7.0889908225e+01  -3.6688258564e+00    0.1316014      0.10158  -8.39 0.0001080028    1.079    0.073
       397  -8.2416    194.3414    209.3122   7.7909113997e+01   1.6931084426e+00    0.1436356   0.09582146  -2.58 0.0007046313    1.699    0.411
       398  -8.5129    123.8928    206.1069   9.3216493255e+01   1.3895465024e+01    0.1808025    0.1588931  -7.10            0    1.249    0.199
       399  -8.0461    148.3296     22.6660   4.1521094149e+01   4.4916851729e+01    0.1379015   0.09373723 -71.65 0.0007052032    1.724    0.420
       400  -9.4411     35.0420    201.0578   1.1408289179e+02   2.7448857301e+01    0.2190967    0.1279256  64.73  0.001129398    1.695    0.410
       401  99.0000     10.2238     22.2147   8.8273080843e+01   7.0736302401e+01    0.3097297    0.2400865 -89.83  0.001703604    3.379    0.704
       402  -8.3613    120.0285    199.5100   9.3089468752e+01   1.5976494109e+01    0.1989084    0.1121907  55.59 0.0005031905    2.229    0.551
       403  -8.8842      6.4255    194.7877   1.2014546726e+02   3.1617468582e+01    0.2117488    0.1426014 -68.18 0.0009248465    1.401    0.286
       404  -8.1333     96.4662    195.4966   9.8323026843e+01   2.0677550113e+01    0.1429199    0.1337212  58.96 0.0001164945    1.022    0.022
       405  -8.4439    241.9714    193.9419   6.5961977651e+01  -2.7761178631e+00    0.1520787    0.1242505  -7.45 0.0003911861    1.064    0.061
       406  -8.2860     55.4860    181.4752   1.0692576687e+02   2.9815290035e+01    0.1395933    0.1239022  78.82 5.284627e-05    1.046    0.044
       407 -10.6555    101.0044    176.0059   9.3986313253e+01   2.4601524758e+01    0.2075578    0.2034086  61.15  0.001160898    1.003    0.003
       408  -9.8538     18.5209    174.1742   1.1565830073e+02   3.5494864388e+01    0.2430459    0.1995366 -27.61 0.0008123657    1.562    0.360
       409  -9.4851    199.7907     18.4975   3.3910554144e+01   3.3345013316e+01    0.2423013    0.1878839 -21.42   0.00110671    1.662    0.398
       410  -8.2196    193.4465     20.0095   3.4913115995e+01   3.4605906308e+01    0.1563293    0.1193314 -38.32 3.831257e-05    1.409    0.290
       411 -10.1183      7.1493    166.2262   1.1784182149e+02   3.8347212518e+01    0.2555055     0.208325 -28.39 0.0008673269    1.558    0.358
       412  -9.5342    144.3792     16.7267   4.0402514699e+01   4.6468042198e+01    0.3512728    0.2258305  -8.17  0.001669134    2.130    0.530
       413 -10.0978     15.2451    165.0499   1.1565159656e+02   3.8010165194e+01    0.2358932    0.1953518 -55.47  0.001121557    1.259    0.206
       414  -9.1585    151.7210     18.3045   3.9733109792e+01   4.4558696718e+01    0.1922602    0.1676114 -81.98 0.0002085208    1.136    0.120
       415  -9.3693    148.5706     17.4462   3.9962275014e+01   4.5396849452e+01    0.2274351    0.1733124  77.98 0.0006281483    1.197    0.165
       416  -8.6934    111.8990     15.1380   4.5887092849e+01   5.4257583122e+01    0.1859837    0.1631026  71.41 0.0005993154    1.166    0.143
       417  -9.9531     11.9730    163.7315   1.1638210906e+02   3.8593885901e+01    0.3728313    0.1463625 -69.21  0.000516451    2.072    0.517
       418 -10.1957     33.9724    150.7096   1.0887297155e+02   3.9953847408e+01    0.3742569    0.2503577 -37.31  0.001570719    1.710    0.415
       419 -12.2310     35.7827    158.5866   1.0937301651e+02   3.7772902117e+01    0.9622278    0.4233039  50.41  0.003962711    2.592    0.614
       420  -8.7348     85.1643     14.3651   5.2239491996e+01   6.0219806753e+01     0.249583    0.1342136  53.77 0.0005645025    1.636    0.389
       421  -9.4216     88.6466     13.6869   5.0994450932e+01   5.9549861163e+01    0.4040411    0.1307578  55.52  0.001620571    2.619    0.618
       422 -11.9991     29.8125    153.9880   1.1048439583e+02   3.9516182950e+01    0.6053388     0.469607  85.55  0.002702814    1.247    0.198
       423 -10.6726     23.2809    162.6591   1.1328200035e+02   3.7925036092e+01    0.4329049    0.2506107  37.99  0.001835987    1.796    0.443
       424  -9.8411      8.1622    162.0483   1.1722214265e+02   3.9294274796e+01    0.1920411    0.1467585 -61.57 0.0004644382    1.245    0.197
       425 -10.0809     10.7220    158.4245   1.1621875364e+02   3.9997753131e+01     0.290973    0.1638718  59.33  0.001491438    1.883    0.469
       426 -10.5064      1.9715    155.4708   1.1827056634e+02   4.1334226231e+01    0.4327286    0.1541772 -74.57  0.001882208    2.268    0.559
       427  -9.7139    249.0392    153.9639   5.7011780729e+01   2.7671117544e+00     0.208299    0.1661727 -24.34 0.0006991088    1.087    0.080
       428 -10.3519     20.0293    151.3395   1.1293801861e+02   4.1039358981e+01     0.344376    0.2098394 -48.55   0.00110912    1.649    0.393
       429 -11.2049     13.0194    150.7187   1.1483203042e+02   4.1741125066e+01    0.4326918    0.2752424   4.88  0.001943071    2.095    0.523
       430  -8.5625     45.9082    151.5009   1.0550083822e+02   3.8509917458e+01     0.185359     0.140103  28.34 0.0003486546    1.451    0.311
       431  -8.3722     63.0408    149.0228   1.0002847365e+02   3.7068765043e+01    0.1651468    0.1608816 -80.91 0.0002948825    1.045    0.043
       432 -10.4694      4.3370    146.4350   1.1681451541e+02   4.3404749057e+01     0.416742    0.2141357  60.24  0.002030011    2.200    0.545
       433 -10.3500     13.0000    145.0045   1.1422927994e+02   4.3170466624e+01    0.3492467    0.1738269 -77.56  0.001597672    1.775    0.437
       434 -10.6443     15.9837    142.5543   1.1309271888e+02   4.3565250876e+01    0.3332921    0.2622303 -13.02  0.001984934    1.579    0.367
       435  -8.7666    139.6920     19.8258   4.2101390523e+01   4.7275956459e+01    0.2447516    0.1916657 -21.66  0.001444605    1.498    0.332
       436  -8.5423     19.6120    146.6994   1.1252452253e+02   4.2241148705e+01    0.1397331   0.08653796 -40.26 0.0002408411    1.791    0.442
       437  -8.3561     80.1482    144.8530   9.4131034527e+01   3.5705961481e+01    0.2043554    0.1702904 -31.35 0.0005243047    1.290    0.225
       438  -8.4203     38.2754    143.3186   1.0656906948e+02   4.1415224695e+01    0.1419066   0.09423716 -42.35 0.0001918971    1.571    0.363
       439  -9.8775     22.4859    139.6500   1.1081600155e+02   4.3789644504e+01    0.3995727    0.1399533 -52.98  0.001604656    2.456    0.593
       440  -9.5489      1.8434    139.7492   1.1686721121e+02   4.5209887565e+01    0.3263958    0.1633454  76.53  0.001519441    2.288    0.563
       441 -10.7443      2.3932    132.9133   1.1601283839e+02   4.6866603211e+01    0.5295331    0.2540551 -80.00  0.002084092    1.841    0.457
       442 -10.1706      8.2880    133.1102   1.1427963735e+02   4.6461787058e+01    0.3512379    0.2006502 -38.06  0.001810772    1.922    0.480
       443 -10.0302     41.5386    138.5526   1.0484563348e+02   4.2299855499e+01    0.2839133    0.2319618  74.74 0.0009280909    1.318    0.241
       444  -9.2726    230.8285    136.9021   5.6403468946e+01   8.7085967125e+00    0.2059337    0.1710389 -15.13 0.0006201589    1.239    0.193
       445  -8.6650    220.3315    136.9886   5.8185033603e+01   1.0576558212e+01    0.2338068    0.1062453 -23.51 0.0007048793    4.309    0.768
       446 -10.0584     34.5782    136.1980   1.0664077398e+02   4.3598313304e+01    0.4250087    0.2080692 -46.93  0.001876303    1.985    0.496
       447  -8.9812    236.0081    136.7484   5.5537990969e+01   7.8351421556e+00    0.1571443    0.1174618  45.02 0.0005110181    1.558    0.358
       448  -9.5996     15.0808    135.6439   1.1253793820e+02   4.5367778885e+01     0.176205    0.1632701 -59.11 0.0006974128    1.125    0.111
       449  -8.3013     83.3112    135.7105   9.1304835931e+01   3.7528093533e+01    0.1515909    0.1179676  71.40 0.0003248158    1.583    0.368
       450  -8.6627     58.6674    134.9305   9.8854974189e+01   4.1246740260e+01    0.3982959    0.1415516 -55.80  0.001439536    2.428    0.588
       451  -9.8676     61.7083    130.9597   9.7127424639e+01   4.1867003658e+01    0.2529689    0.2193166   6.77 0.0004235643    1.279    0.218
       452  -9.0766    248.7093    134.0323   5.3040441320e+01   6.1677952719e+00    0.1911567    0.1384934 -36.02 0.0004214608    1.150    0.131
       453  -9.6894     41.4852    133.5250   1.0405150535e+02   4.3591451174e+01      0.23495     0.195594 -65.84 0.0007421429    1.081    0.075
       454 -10.8027     44.4077    130.5057   1.0260785499e+02   4.4052328252e+01    0.4390754    0.3816514  35.74  0.001925696    1.262    0.208
       455 -10.0263     28.8046    132.1918   1.0784683994e+02   4.5146893132e+01    0.2224972    0.2049098 -79.41 0.0003300501    1.075    0.070
