#   1 NUMBER                 Running object number                                     
#   2 MAG_AUTO               Kron-like elliptical aperture magnitude                    [mag]
#   3 X_IMAGE                Object position along x                                    [pixel]
#   4 Y_IMAGE                Object position along y                                    [pixel]
#   5 X_WORLD                Barycenter position along world x axis                     [deg]
#   6 Y_WORLD                Barycenter position along world y axis                     [deg]
#   7 A_WORLD                Profile RMS along major axis (world units)                 [deg]
#   8 B_WORLD                Profile RMS along minor axis (world units)                 [deg]
#   9 THETA_WORLD            Position angle (CCW/world-x)                               [deg]
#  10 FWHM_WORLD             FWHM assuming a gaussian core                              [deg]
#  11 ELONGATION             A_IMAGE/B_IMAGE                                           
#  12 ELLIPTICITY            1 - B_IMAGE/A_IMAGE                                       
         1 -15.3576     68.7138    144.2988   1.0712497201e+02   3.7137717895e+01     5.702221     2.678998  62.99  0.008412774    3.636    0.725
         2 -14.3735    213.9781     23.2760   4.1984285583e+01   2.9016607827e+01     1.261164    0.9442824  25.28  0.006827085    1.870    0.465
         3 -14.3688    201.2774     36.1161   4.6832991656e+01   3.0500844849e+01     2.049802     1.382349  32.97  0.007991348    1.974    0.493
         4 -12.1096      2.3319     23.9738   1.0290605787e+02   7.0316277287e+01    0.4661056    0.2806003 -60.37  0.002909933    1.722    0.419
         5 -12.8399      3.0339      6.4669   9.5358603296e+01   7.3277961871e+01    0.9571531    0.3807151 -40.05  0.005390075    1.859    0.462
         6 -10.3810     45.6683      5.6746   7.2863294932e+01   6.8716829221e+01    0.1287178   0.07735719   7.07 0.0005816952    1.708    0.414
         7 -11.7152    238.5619      1.9521   3.4808069269e+01   2.5739894005e+01    0.6083772    0.1978298  75.61  0.002446679    2.957    0.662
         8 -10.3041     65.9964      2.7563   6.3429962768e+01   6.5662489827e+01    0.1600172   0.09352758  45.19 0.0006757342    1.589    0.370
         9  -9.6610    189.7001     14.9890   4.2532172197e+01   3.5852262663e+01     0.186479    0.1687373 -58.52 0.0006218681    1.106    0.096
        10 -10.3413    140.1174    249.8693   1.0599115549e+02   4.4572495506e+00    0.1898935    0.1398006  52.78  0.001233135    1.260    0.206
        11 -15.2387     85.8130    228.9008   1.1408501740e+02   1.6155135112e+01     3.194255     1.419761  39.37   0.01610212    1.981    0.495
        12 -13.0338     11.3715    189.0796   1.2549611097e+02   3.3052173263e+01    0.4474243    0.2451596  24.62  0.001292313    2.441    0.590
        13 -14.4680     42.3209    204.3261   1.2043590206e+02   2.6670968681e+01     1.091534    0.8048856  86.65  0.004657208    1.144    0.126
        14 -15.0346     51.4382    194.5000   1.1767654820e+02   2.7695014172e+01     2.021321     1.228928  63.98   0.01150668    1.530    0.346
        15 -11.6686    193.2085    194.8687   8.7054488882e+01   4.5958627436e+00     0.905717    0.4794384 -62.82  0.002736365    6.069    0.835
        16 -10.0091     81.6931    194.7803   1.1116339620e+02   2.3633348016e+01    0.3128882    0.2246885  69.34  0.001783689    1.347    0.258
        17  -9.3706     97.5766    190.2387   1.0702946212e+02   2.2232064705e+01      0.18238    0.1214939 -50.62 0.0009429181    1.657    0.397
        18 -10.1060     71.1481    185.6551   1.1239723795e+02   2.7114144665e+01    0.2112451    0.1581577  88.74 0.0004341158    1.264    0.209
        19 -10.7466    146.9462    183.7634   9.4826214669e+01   1.5119847018e+01    0.2708087    0.1905403  54.50  0.001342219    1.499    0.333
        20 -10.8735     98.9802    181.2366   1.0540320587e+02   2.3983283177e+01    0.3560552    0.2641185   3.57    0.0015592    2.130    0.531
        21 -12.2103     67.2367    177.8880   1.1233377872e+02   2.9393583265e+01    0.4090295    0.2829129 -41.06  0.002179953    1.905    0.475
        22 -12.1892     71.9187    172.6750   1.1055644594e+02   2.9956541938e+01    0.3272519    0.2772102 -45.12   0.00124876    1.403    0.287
        23 -11.5909    140.6135    173.3276   9.4343942196e+01   1.8453311567e+01    0.6667339    0.4037765  73.37  0.002446405    3.187    0.686
        24 -13.3948     87.5265    156.0897   1.0418581849e+02   3.1575880597e+01     1.794786    0.8910261 -70.18  0.007256825    2.332    0.571
        25 -12.5907     80.8171    163.0466   1.0700140356e+02   3.0939276147e+01     0.637071    0.4230043  57.49 0.0005155762    1.557    0.358
        26 -13.5906     68.3489    159.0167   1.0951008424e+02   3.3647006986e+01    0.5685325     0.432534 -49.64  0.001384068    1.414    0.293
        27 -10.1278    134.3481    248.7937   1.0694708307e+02   5.5048269241e+00    0.2082122    0.1137751 -66.74  0.001089233    2.694    0.629
        28 -14.5424     30.7853    247.4776   1.2545261603e+02   1.9631675562e+01     1.012001    0.8404017  -8.20  0.006638358    2.464    0.594
        29 -10.9673     37.3472    160.7341   1.1735904179e+02   3.6928033973e+01    0.3873618     0.188083  75.40  0.001699506    2.595    0.615
        30 -16.5370      9.3148    241.1104   1.2865945925e+02   2.2992043369e+01     2.854018     1.861221 -65.51     0.021124    1.865    0.464
        31  -9.0279    112.5195    150.5382   9.6763716623e+01   2.8716968697e+01    0.1479667    0.1400253  85.48 9.715559e-05    1.037    0.035
        32 -10.4147    174.5893    149.1922   8.1575838995e+01   1.6732641925e+01    0.2886763    0.2141859  42.25 0.0008096586    1.346    0.257
        33 -11.5195    133.7254    143.4005   8.9893437486e+01   2.6353833923e+01     1.016783    0.2782402 -52.88  0.002738955    4.325    0.769
        34 -11.3717     38.8179    146.3172   1.1528377027e+02   4.0195323493e+01    0.3006716    0.2055894  47.26   0.00101117    1.541    0.351
        35 -11.7987     28.0822    143.7011   1.1771778781e+02   4.1858878374e+01     0.344663    0.2723336  21.84  0.002185558    1.616    0.381
        36 -10.1469     83.6041    143.2443   1.0295095040e+02   3.5256073360e+01    0.2937052     0.209887  75.32 0.0007919275    1.660    0.398
        37 -10.3008    100.6750    142.3266   9.8211924317e+01   3.2724239347e+01    0.3177552     0.261046 -89.83 0.0009217495    1.331    0.248
        38 -10.0745    103.2339    139.1549   9.6883121677e+01   3.3039332675e+01    0.4124244    0.2827198 -23.25    0.0016204    2.121    0.528
        39 -12.3397     89.0184    140.9334   1.0106096227e+02   3.4974415169e+01    0.2922796    0.2530122 -48.12 0.0004160906    1.176    0.150
        40  -9.4938     79.5184    139.9327   1.0344782368e+02   3.6670288666e+01    0.2027151    0.1888435  70.36 0.0005026908    1.093    0.085
        41 -10.0842     35.3246    139.9796   1.1537908395e+02   4.2066971496e+01    0.1860855    0.1412599 -75.89  0.001060647    1.101    0.092
        42 -11.4701     25.8100    137.4702   1.1756862238e+02   4.3547266640e+01    0.2983473    0.2217925  45.78  0.001220043    1.481    0.325
        43 -10.2839    106.1264    130.8114   9.4309567428e+01   3.4511556268e+01    0.3416853    0.3088759 -83.54  0.001232365    1.147    0.128
        44 -10.2184    111.2184    130.9993   9.2969071452e+01   3.3540540869e+01     0.326683    0.2494022  19.59 0.0008031423    1.598    0.374
        45 -15.9200     64.0985    247.6669   1.1974779264e+02   1.5652886645e+01     8.718686     2.616469  29.95  0.009678393    9.730    0.897
        46 -10.1686    126.5295    128.2482   8.8252515984e+01   3.1235402150e+01    0.3449509    0.2272307 -86.34  0.001275195    2.722    0.633
        47 -10.0909    160.9938    127.9975   7.9641980523e+01   2.4029101304e+01    0.2546954    0.1992894 -81.65  0.001140599    1.738    0.425
        48 -11.0705     98.2534    127.1370   9.5668388130e+01   3.6769759662e+01    0.3118168    0.2557744 -23.99 0.0007244049    1.430    0.301
        49 -10.8601    135.5409    123.4929   8.4754632217e+01   3.0471541325e+01    0.3128981    0.1486014 -43.11 0.0007960976    2.093    0.522
        50 -11.0670    117.1453    125.5046   9.0093612393e+01   3.3709062012e+01    0.3747705    0.2584125 -53.45  0.001529809    1.429    0.300
        51 -10.0741    107.7074    119.6892   9.1293985979e+01   3.6848546681e+01    0.2311494    0.2103475 -24.20 0.0003718485    1.167    0.143
        52 -10.7230    209.7536    199.2707   8.4629443431e+01   1.0042615924e+00    0.2677369    0.2190051 -68.01 0.0008922841    1.984    0.496
        53  -9.7611    168.3590    113.3251   7.4203834669e+01   2.5429847085e+01    0.3142905    0.2289364 -80.41  0.001304884    2.064    0.516
        54 -11.3886    112.6525    198.1047   1.0478988763e+02   1.8158553481e+01    0.3480284     0.233501  77.09  0.001732139    1.885    0.470
        55 -10.6064    135.0000    112.1449   8.1978717323e+01   3.3105453019e+01    0.4311352   0.08804903 -44.82  0.001034822    4.786    0.791
        56 -11.9568     23.1241    109.2217   1.1448471024e+02   5.0536767026e+01    0.3146749    0.2941271  86.01  0.001268292    1.186    0.157
        57  -9.9151    205.5275    110.1738   6.5772956588e+01   1.7591698960e+01    0.2549342    0.2163252  47.25 0.0005743462    1.247    0.198
        58  -9.9027    134.5986    105.7687   8.0366034458e+01   3.4583340621e+01    0.3187203    0.1487158 -40.11  0.001148393    2.154    0.536
        59 -11.1470     41.6299    104.1289   1.0783175394e+02   5.0115364046e+01    0.2512769    0.1989549  74.29  0.001175116    1.472    0.321
        60  -9.8863     91.2641    102.5639   9.1802903602e+01   4.3774541998e+01    0.2571693    0.2166334  89.43 0.0009129076    1.440    0.306
        61 -10.0923     66.4631    103.4825   9.9768030243e+01   4.7349117736e+01    0.2816857      0.14264  31.72  0.001225192    2.217    0.549
        62  -8.9887    105.4833    102.3843   8.7507301754e+01   4.1262915143e+01     0.147826    0.1448773 -60.05 0.0001806315    1.057    0.054
        63 -10.3648     33.2499    100.4035   1.0981169096e+02   5.1798886160e+01    0.2040133    0.1626798  42.98 0.0005330762    1.478    0.323
        64  -9.0556    129.6859     96.3200   7.9015072257e+01   3.7673354151e+01    0.1572621    0.1259128 -83.28 0.0007038958    1.653    0.395
        65 -10.7266     41.5811     91.8043   1.0530435407e+02   5.3043430833e+01     0.243378    0.2073163 -52.34 0.0004217528    1.016    0.016
        66 -10.3260     53.0883     90.3467   1.0105224137e+02   5.2131043231e+01    0.2629236    0.1608878 -47.17  0.001323704    1.421    0.296
        67  -9.2257    158.5381     81.4677   6.7520862419e+01   3.3986309529e+01    0.1538237    0.1513732 -15.13 0.0002595653    1.007    0.007
        68  -9.6978     54.1040     65.3182   9.3805648108e+01   5.7563299445e+01       0.1753    0.1623297  -4.66 0.0004281776    1.145    0.126
        69 -10.4913     13.4627     59.9266   1.0834857270e+02   6.2492936802e+01    0.2158721    0.1814055 -56.33 0.0004415278    1.137    0.120
        70 -10.7167    108.1149    203.8363   1.0657676964e+02   1.7717586651e+01    0.2067759    0.1634335  66.26 0.0005406449    1.225    0.184
        71  -9.8437    173.0021    244.2669   9.9069375547e+01   1.9934504339e-01    0.2780598    0.1632847 -65.83  0.001307237    3.577    0.720
        72 -12.0969    192.4210     42.5757   4.9833918662e+01   3.1829040047e+01    0.5220681    0.4882936  24.55 0.0009662237    1.214    0.176
        73 -10.1345    198.5561    222.7413   9.0916415386e+01  -7.1940567901e-01    0.2274038    0.1488789  34.19 0.0004975606    1.321    0.243
        74 -10.1124    145.8942     42.5417   5.8031282135e+01   4.3494910468e+01    0.2551079    0.2076502 -42.17 0.0005168453    1.289    0.224
        75  -9.8980      5.5020     38.5615   1.0607697025e+02   6.7363992514e+01     0.117681   0.08828794 -41.38 0.0001085227    1.011    0.011
        76 -16.5714      7.6599    201.7711   1.2698432114e+02   3.0725865790e+01     7.615846     1.168797 -75.15   0.00758731    4.906    0.796
        77 -12.6657    184.0354    215.1140   9.2469601287e+01   2.8461642247e+00     0.495475     0.402968 -33.20  0.003046514    1.354    0.262
        78  -9.5248    136.8805     13.5111   4.9891524651e+01   4.9183783139e+01    0.2001944    0.1259323  64.97 0.0005195637    1.485    0.327
        79 -10.6804    143.3038     48.2476   6.0488317040e+01   4.3304346334e+01    0.3244839    0.2464128 -85.16 0.0008112467    1.732    0.423
        80  -9.5494    130.6990    213.0633   1.0306198333e+02   1.2234952852e+01     0.172076    0.1636839  67.50 0.0003699446    1.101    0.092
        81 -15.0918     45.4596    222.5083   1.2125715256e+02   2.2621724947e+01      2.01834     1.477289  17.23  0.001277508    2.170    0.539
        82 -10.6533    113.6065    208.0959   1.0597736827e+02   1.5985705261e+01    0.2313141    0.1617302  52.96 0.0006246327    1.308    0.236
