#   1 NUMBER                 Running object number                                     
#   2 MAG_AUTO               Kron-like elliptical aperture magnitude                    [mag]
#   3 X_IMAGE                Object position along x                                    [pixel]
#   4 Y_IMAGE                Object position along y                                    [pixel]
#   5 X_WORLD                Barycenter position along world x axis                     [deg]
#   6 Y_WORLD                Barycenter position along world y axis                     [deg]
#   7 A_WORLD                Profile RMS along major axis (world units)                 [deg]
#   8 B_WORLD                Profile RMS along minor axis (world units)                 [deg]
#   9 THETA_WORLD            Position angle (CCW/world-x)                               [deg]
#  10 FWHM_WORLD             FWHM assuming a gaussian core                              [deg]
#  11 ELONGATION             A_IMAGE/B_IMAGE                                           
#  12 ELLIPTICITY            1 - B_IMAGE/A_IMAGE                                       
         1 -11.8954    176.5043     30.0900   2.8993489300e+02   6.4009602622e+00   0.06403538   0.04022984 -37.57  0.006267466    1.773    0.436
         2 -10.6836    180.2551     22.9637   2.8984951750e+02   6.4614249687e+00   0.02680105   0.02534127  39.61 0.0009404466    1.075    0.070
         3  -8.3983    236.7459      1.7375   2.8907898173e+02   6.3780994669e+00    0.0105227  0.008979165   1.61  0.001237428    1.279    0.218
         4 -10.3993    169.1926    239.5788   2.9126667181e+02   4.0228092656e+00   0.02524126   0.01478852  -8.45  0.002159063    2.711    0.631
         5 -13.9380     82.9291    196.3079   2.9199175733e+02   5.0209618253e+00     0.396297    0.2916409  85.13    0.0425361    1.628    0.386
         6 -11.8796     11.3147    206.9752   2.9287095092e+02   5.3095136171e+00   0.04397939   0.02090276  28.48  0.002812997    2.107    0.525
         7 -12.9979     66.9179    244.5675   2.9246008738e+02   4.5548779211e+00   0.06284887   0.04206901  30.91  0.002111364    1.500    0.333
         8 -12.9958     55.8063    221.2920   2.9244881336e+02   4.8881034041e+00   0.05368655   0.04502168  47.10   0.00185486    1.230    0.187
         9 -14.1090     15.6155    246.7765   2.9305724894e+02   4.8242642473e+00    0.1127584   0.07517447  55.47   0.01161062    1.719    0.418
        10 -14.8141     46.4709    247.1442   2.9270811412e+02   4.6426997595e+00    0.1415603    0.1060458 -32.76   0.01248441    1.461    0.316
        11 -10.1138     31.2281    204.7317   2.9263075699e+02   5.2210646142e+00   0.01942068   0.01576253  24.61  0.001756998    1.265    0.209
        12  -9.5673    198.8412    200.4552   2.9069688876e+02   4.3036732904e+00   0.01900016   0.01559903   9.77  0.002207339    1.320    0.242
        13 -12.6617     38.3148    245.1952   2.9278944931e+02   4.7121432912e+00   0.02181294   0.01814705  43.51 0.0009248654    1.229    0.186
        14  -8.5558     35.0504    200.1721   2.9256020060e+02   5.2518470232e+00   0.01650557  0.008911838  31.06 0.0009520666    1.836    0.455
        15 -10.1045    183.2355    196.2195   2.9084920424e+02   4.4428929342e+00   0.01086631   0.01072978 -63.45 0.0002356328    1.008    0.008
        16  -8.9476    191.7350    192.9527   2.9073307156e+02   4.4314954251e+00   0.03304874   0.01528965 -84.44   0.00212025    4.644    0.785
        17  -9.7268    159.5045    235.2007   2.9135086992e+02   4.1293790829e+00   0.01668616   0.01327232  71.07  0.001883939    1.429    0.300
        18  -7.8064    129.1230    235.1628   2.9169631460e+02   4.3051879214e+00  0.008750079  0.007509436  75.85 0.0003823416    1.269    0.212
        19  -8.1646     41.1021    187.1436   2.9241403870e+02   5.3677868354e+00   0.01000478  0.008609166 -18.78 0.0007580798    1.261    0.207
        20  -7.2270      7.2794    187.3568   2.9280084467e+02   5.5596917167e+00  0.006988105  0.004738648 -34.09 0.0006776264    1.660    0.398
        21  -7.6610    201.1945    182.6033   2.9056385762e+02   4.4963777279e+00  0.009160185  0.006384732   9.28 0.0006527198    1.671    0.402
        22  -9.4018     91.3480    180.8091   2.9180384514e+02   5.1517164961e+00   0.01796261   0.01157987 -40.60  0.001067046    1.651    0.394
        23  -9.4960     94.0934    175.7879   2.9174274303e+02   5.1939647729e+00   0.01791405   0.01117557 -39.69 0.0008682949    1.739    0.425
        24  -7.4116    183.5713    181.4972   2.9075777198e+02   4.6111281174e+00  0.006506918  0.006289466  89.97 2.815411e-05    1.047    0.045
        25  -9.7488    182.4453    235.8303   2.9109369320e+02   3.9895784864e+00   0.01615966    0.0115956  47.53  0.001751988    1.468    0.319
        26  -9.6522     28.6078    180.9142   2.9251954247e+02   5.5117026041e+00   0.02138353   0.01009337  25.32  0.001882795    2.210    0.548
        27  -7.9942     20.4885    179.4995   2.9260372450e+02   5.5747330329e+00  0.006558133  0.006290815 -41.38 -6.827358e-05    1.039    0.038
        28  -7.7277     13.0032    176.6828   2.9267237971e+02   5.6503252159e+00  0.009276815  0.008464963  22.76 0.0004717501    1.123    0.110
        29  -8.6397    134.2789    230.7986   2.9161174506e+02   4.3259057416e+00   0.01753033  0.008618265 -64.21 0.0008400638    2.029    0.507
        30  -8.8234     22.7993    167.5318   2.9250645424e+02   5.6999170740e+00    0.0143132   0.01080178  -8.63  0.001521795    1.582    0.368
        31  -8.7149     99.2974    166.2999   2.9162707257e+02   5.2736885080e+00   0.01153021   0.01092482 -54.92 0.0003698052    1.033    0.032
        32  -8.1443    177.5137    220.4734   2.9105852119e+02   4.1955993804e+00  0.006578558  0.006268519 -38.11 6.033988e-05    1.052    0.050
        33 -10.7762     88.5862    161.2862   2.9171935397e+02   5.3934467764e+00    0.0196113   0.01402442 -24.71 0.0009272302    1.658    0.397
        34  -8.4224      8.5052    218.9700   2.9297390055e+02   5.1868472437e+00   0.01748749  0.009993455 -35.93  0.001618967    2.079    0.519
        35  -8.0408      7.5813    162.3235   2.9264913477e+02   5.8475975526e+00   0.01130858  0.008064426  -7.13  0.001169742    1.748    0.428
        36  -8.6733    102.8856    160.3363   2.9155073769e+02   5.3219576971e+00   0.01391025  0.009489111 -61.95 0.0005877544    1.431    0.301
        37  -8.3783    104.4172    155.7743   2.9150616115e+02   5.3658780676e+00   0.01454704  0.009865449 -57.07  0.001546381    1.419    0.295
        38  -8.2380     27.8995    158.2757   2.9239340860e+02   5.7776827668e+00   0.01447072  0.009606257 -46.40  0.001300963    1.509    0.337
        39  -7.7494     22.3711    157.2894   2.9245061111e+02   5.8208707404e+00   0.01180228  0.008152883   9.29  0.001221195    1.690    0.408
        40  -7.1801      2.6254    156.7262   2.9267249220e+02   5.9408086624e+00  0.006883603  0.004905224 -22.66 0.0007001907    1.688    0.408
        41  -8.8216     10.7738    154.0771   2.9256384366e+02   5.9246647670e+00   0.01685644   0.01084981   5.72  0.001651029    1.956    0.489
        42 -11.3988     68.7512    144.3740   2.9184499544e+02   5.7033697269e+00   0.03874534   0.02799112  71.77  0.003926929    1.687    0.407
        43 -13.7446     26.6258    236.0540   2.9286850507e+02   4.8850899322e+00    0.1101841   0.06974683 -36.68  0.006610037    1.774    0.436
        44  -7.2852      5.2659    147.3363   2.9258671273e+02   6.0342760367e+00  0.006826675  0.004756245 -34.63 0.0002764292    1.589    0.371
        45  -7.6003    111.6451    144.3002   2.9135554067e+02   5.4568425638e+00  0.007001464  0.004846479  60.50 0.0007037309    1.703    0.413
        46  -8.8970    101.9560    143.2077   2.9145948199e+02   5.5253964394e+00   0.01212999   0.01075062  20.70 0.0005024865    1.163    0.140
        47  -8.5689    128.5318    142.5347   2.9115258983e+02   5.3797360512e+00   0.01082203   0.01026032 -41.53 0.0003416587    1.052    0.049
        48  -8.0085    113.5057    140.9741   2.9131454428e+02   5.4845592672e+00   0.01023743  0.004492336 -42.27 0.0008103217    2.621    0.618
        49 -10.2196     67.7446    134.6912   2.9179893123e+02   5.8211495398e+00   0.01572014    0.0136997 -78.27   0.00117879    1.179    0.152
        50  -8.5108     79.6791    135.9187   2.9167012213e+02   5.7381715303e+00   0.01268046  0.009548115  33.77 0.0008105078    1.336    0.252
        51  -8.0998     32.1696    134.8219   2.9220552147e+02   6.0244255075e+00   0.01633615  0.008443767 -58.97  0.001524824    1.838    0.456
        52  -8.1832    193.2554    132.6785   2.9035670695e+02   5.1192651888e+00  0.009960141  0.008694856  18.25 0.0002848621    1.190    0.159
        53  -8.1142    117.8895    132.8931   2.9121648430e+02   5.5526756658e+00   0.01019482  0.008700533 -29.37 0.0005353224    1.240    0.194
        54  -8.3830    133.9385    146.7710   2.9111620025e+02   5.2995231989e+00   0.01503671  0.009336007 -69.14  0.001502643    1.676    0.403
        55  -7.7122     51.7677    133.2062   2.9197234557e+02   5.9303418694e+00  0.008834596  0.007362298 -30.00 0.0003446283    1.278    0.218
        56  -7.8986      3.0000    128.9450   2.9250349305e+02   6.2600201028e+00   0.01107121  0.003670435 -62.96 0.0008041083    2.954    0.661
        57  -7.3237    106.6227    128.1805   2.9131686988e+02   5.6722120899e+00   0.00915911  0.005680652 -51.06 0.0001517849    1.565    0.361
        58  -7.3286    160.1158    126.7798   2.9069890782e+02   5.3792563268e+00  0.008948703  0.007360229 -31.51 0.0004490826    1.294    0.227
        59  -8.4072     64.4778    125.9593   2.9178428512e+02   5.9409477224e+00  0.009411567  0.005652595  82.97 0.0008095086    2.511    0.602
        60 -10.4088    239.2208    124.3089   2.8978379003e+02   4.9495311198e+00   0.01265022    0.0123109  -2.18 0.0003176534    1.054    0.051
        61  -6.8727    112.5116    121.4762   2.9120982062e+02   5.7157186433e+00   0.00660607  0.006240534 -36.57 -9.01197e-05    1.065    0.061
        62  -7.5515     27.9897    110.0240   2.9210593024e+02   6.3352388705e+00  0.007953983   0.00747504  25.78 0.0004682026    1.086    0.079
        63  -8.0020    196.7023    107.6105   2.9016792146e+02   5.3888958889e+00    0.0110198  0.007772181  38.90 0.0006008902    1.431    0.301
        64  -8.7995    242.4668    105.6881   2.8963568549e+02   5.1457040366e+00   0.01608448   0.01112169  84.19 0.0008021819    1.837    0.456
        65  -7.3154     15.4361    214.5531   2.9286881672e+02   5.1981581613e+00  0.006589449  0.006166909 -37.17 0.0002297588    1.077    0.071
        66  -8.2160    166.8522    210.3331   2.9111953653e+02   4.3744419991e+00   0.01661243  0.009475599 -87.44  0.001421352    2.573    0.611
        67  -7.5301    209.7663     84.0214   2.8987834322e+02   5.5855729725e+00  0.008828295  0.008260597 -57.52  0.001090381    1.045    0.043
        68  -7.2876     42.4753     68.9816   2.9169642206e+02   6.7263183042e+00  0.008864611  0.005592058  80.03  0.000414439    2.250    0.555
        69  -7.1121    248.6926     65.6573   2.8932562342e+02   5.5715747794e+00  0.007024471  0.004809567 -31.06 0.0007043228    1.691    0.409
        70  -9.0539    193.5408     62.2631   2.8993310385e+02   5.9308643080e+00   0.01223684   0.01156454  86.15 0.0004945165    1.086    0.079
        71 -10.4531    161.1992     52.3771   2.9024257955e+02   6.2324339112e+00   0.02812299   0.01306192 -44.34  0.002411999    2.308    0.567
        72 -10.7559    164.0150     44.9745   2.9016624650e+02   6.3015742813e+00   0.02552647   0.02037272  75.88  0.001988653    1.431    0.301
        73 -10.0580    248.1967     48.6525   2.8922954472e+02   5.7706240705e+00   0.01936568   0.01272866 -47.75 0.0004422028    1.510    0.338
        74  -8.1256    133.1156     51.6660   2.9055858409e+02   6.4032153921e+00  0.008772261  0.008186292  10.69 0.0003462308    1.110    0.099
        75  -7.8732    171.3822    245.7346   2.9127832354e+02   3.9389995686e+00  0.009861441  0.005574928 -51.35 0.0009460241    1.708    0.415
        76  -8.3792    248.7209     37.8054   2.8915867169e+02   5.8926781195e+00    0.0116069  0.009177316   3.96 0.0009940589    1.427    0.299
        77  -8.0534    189.0767     35.9208   2.8982648145e+02   6.2607711067e+00  0.009567239  0.009168833 -46.47 0.0003237454    1.032    0.031
        78  -9.2361    104.0411    239.1876   2.9200563904e+02   4.4032829604e+00   0.01902153   0.01329196  85.51  0.001269708    1.786    0.440
        79  -9.8231    142.9296     27.7802   2.9030393875e+02   6.6221471716e+00   0.01174688  0.009860135 -60.64 0.0002774294    1.164    0.141
