#   1 NUMBER                 Running object number                                     
#   2 MAG_AUTO               Kron-like elliptical aperture magnitude                    [mag]
#   3 X_IMAGE                Object position along x                                    [pixel]
#   4 Y_IMAGE                Object position along y                                    [pixel]
#   5 X_WORLD                Barycenter position along world x axis                     [deg]
#   6 Y_WORLD                Barycenter position along world y axis                     [deg]
#   7 A_WORLD                Profile RMS along major axis (world units)                 [deg]
#   8 B_WORLD                Profile RMS along minor axis (world units)                 [deg]
#   9 THETA_WORLD            Position angle (CCW/world-x)                               [deg]
#  10 FWHM_WORLD             FWHM assuming a gaussian core                              [deg]
#  11 ELONGATION             A_IMAGE/B_IMAGE                                           
#  12 ELLIPTICITY            1 - B_IMAGE/A_IMAGE                                       
         1 -12.8414     10.6742     49.8205   9.5489998035e+01   6.5770197866e+01     1.636233    0.4536052 -45.23  0.006932474    2.673    0.626
         2 -12.3045     26.8762     51.4045   8.8237552259e+01   6.4071534050e+01     1.137397    0.3233725 -52.57  0.004290534    3.420    0.708
         3 -13.4021     36.9351     48.5885   8.2634365525e+01   6.3475557049e+01    0.9904317      0.68771 -42.57  0.005796168    1.407    0.289
         4 -10.9902      8.0820     33.6132   9.1452473645e+01   6.8980816062e+01    0.7887724    0.5780477  58.33   0.00460956    2.662    0.624
         5 -10.3500     22.5616     13.2312   7.4934984025e+01   7.0733952626e+01    0.2224225    0.0972072 -30.91  0.001158767    2.205    0.546
         6 -10.9117     14.6921     22.6532   8.3507121091e+01   7.0235266956e+01    0.3332218    0.1685009 -22.85  0.000982217    1.977    0.494
         7  -6.5804     21.1997     18.4750   7.8127340348e+01   7.0173447758e+01    0.7935142     0.668075  83.53  0.004753037    2.930    0.659
         8 -12.3576    128.8877     18.9562   4.2821627109e+01   4.9744704092e+01    0.2726334    0.2391851  16.57 0.0004680882    1.328    0.247
         9 -12.1114      4.5880     17.9473   8.7230702136e+01   7.1861157705e+01    0.4192682    0.3439316  40.73  0.002022263    1.918    0.479
        10 -10.7983      9.5590     16.0550   8.3486204165e+01   7.1722861830e+01    0.2425475    0.1496352 -15.12  0.001528635    1.409    0.290
        11 -11.7236    237.9944     17.9471   3.0026890311e+01   2.5569531030e+01    0.2596799    0.1783626 -75.01 0.0003242817    1.186    0.157
        12 -10.7987     33.5069     16.3531   7.0909549844e+01   6.8908081789e+01    0.4253568     0.210002  17.15  0.001615942    2.452    0.592
        13 -11.6226     48.6632     15.6634   6.3841398472e+01   6.6693747275e+01    0.7860873    0.4157495  27.52  0.004171905    1.827    0.453
        14 -11.2502     39.8258     11.1266   6.5495516795e+01   6.8616174392e+01    0.2765551    0.2162759  46.07   0.00058724    1.590    0.371
        15 -11.4693     40.1093     15.6133   6.7497205556e+01   6.8046139767e+01    0.2770862    0.2247417   3.15  0.001059034    1.067    0.063
        16  -9.8708     43.3300      8.4847   6.2697642586e+01   6.8354727356e+01    0.3042161    0.2232082 -28.94  0.001879168    1.550    0.355
        17 -10.7085     70.8754     13.4104   5.4768704398e+01   6.2930955535e+01    0.3902092    0.2304536   8.29  0.002020766    2.133    0.531
        18 -11.2743     77.7438     11.1891   5.1755711350e+01   6.1779558816e+01     0.388244    0.1854078  47.69 0.0009343647    1.715    0.417
        19 -10.1270     74.1614      2.3737   4.9125872384e+01   6.3267354813e+01    0.2132693    0.1737963  88.51 0.0008054201    1.692    0.409
        20 -10.2220     61.9698     14.6033   5.8276685792e+01   6.4494055533e+01    0.2924621    0.1776816  56.41  0.001364361    1.874    0.466
        21 -12.3957    128.5509     11.3021   4.0496963431e+01   5.0555595795e+01    0.3858116    0.2744257 -88.16 0.0005925856    1.524    0.344
        22 -10.5993    117.9076     11.6009   4.2484973489e+01   5.2985859003e+01    0.4517231    0.2181263 -20.74  0.002176039    2.540    0.606
        23  -9.9276    100.0107     12.8992   4.6656604973e+01   5.6898739612e+01    0.2766905    0.1602447   3.71    0.0011883    2.467    0.595
        24  -9.9266     15.0151     13.9614   7.9401196998e+01   7.1487754406e+01    0.1969829    0.1493172  -6.83 0.0007785665    1.013    0.013
        25 -10.7218     15.9584      6.7285   7.5307994986e+01   7.2349916405e+01     0.471282    0.2371028 -35.01  0.002795788    1.937    0.484
        26 -10.8870     12.0603      2.2453   7.5208552121e+01   7.3345991094e+01    0.2600071    0.1489623   3.05  0.001008373    1.686    0.407
        27 -11.5858     21.8264      5.4914   7.1455648468e+01   7.1794514611e+01    0.5399722    0.4047719 -44.43  0.003602977    2.052    0.513
        28 -10.9638     26.6269      2.6239   6.7473305869e+01   7.1483659135e+01    0.2678998      0.17866  41.74  0.001221187    1.709    0.415
        29 -10.5255    157.1793     11.8372   3.6436438700e+01   4.3822025721e+01    0.2509847    0.1524041 -47.57  0.000916544    1.728    0.421
        30 -10.6138     72.3435      5.4159   5.0935845802e+01   6.3380436605e+01    0.2788938    0.2232439 -75.58 0.0008779701    1.925    0.481
        31 -11.7837      8.0913      8.9510   8.0998089227e+01   7.2881465322e+01    0.4417805    0.2640381  18.90  0.002326874    1.512    0.339
        32 -10.8015    177.8243     10.1783   3.3605718676e+01   3.9225552008e+01    0.2855573    0.1715774  56.29  0.001468036    1.675    0.403
        33 -10.0364    138.1516     10.9592   3.8855540770e+01   4.8349949606e+01    0.1902393    0.1525673 -80.66 0.0003948037    1.274    0.215
        34 -10.1470    240.9834      9.6658   2.8265082458e+01   2.5921815147e+01    0.1568697    0.1130821 -79.52 0.0004104216    1.117    0.105
        35 -11.7897    164.1495      7.7858   3.4520274189e+01   4.2590237352e+01    0.3808805    0.2870481  -3.87 0.0009174884    1.888    0.470
        36 -12.6587    214.0575      5.8921   2.9412251827e+01   3.1733388678e+01    0.7663042    0.3924007 -80.10  0.004234185    1.867    0.464
        37 -11.3738    146.1286      7.0655   3.6585531408e+01   4.6839565171e+01    0.3925341    0.2360522  56.20  0.002200952    1.491    0.329
        38 -11.4848    148.5265      2.2553   3.4933012776e+01   4.6697396667e+01    0.4257003    0.2985325  86.16   0.00168735    1.288    0.224
        39 -11.1300    190.0212      6.7696   3.1603479770e+01   3.6824367993e+01    0.4260404    0.2786223  88.61  0.002610747    1.318    0.241
        40 -11.1256    194.4280      2.0637   3.0161215552e+01   3.6312411932e+01    0.3384433    0.1617013 -88.01  0.001724995    2.061    0.515
        41 -10.6307    156.1839      6.2741   3.5072618284e+01   4.4572171338e+01    0.2119844    0.1776902  56.57 0.0004358889    1.232    0.189
        42 -10.8982     90.3709      6.7442   4.6640082704e+01   5.9534822069e+01    0.5809758    0.1612919  50.99   0.00236907    2.650    0.623
        43  -9.6132     81.5964      5.7918   4.8494685184e+01   6.1466224465e+01    0.1512097    0.1124515 -33.28  0.000464164    1.607    0.378
        44 -10.9629     98.2195      4.0070   4.3819758549e+01   5.8052878348e+01     0.308524    0.2518514  32.10  0.002037264    1.204    0.169
        45 -10.9779    223.4019      3.8565   2.8331350691e+01   3.0019237461e+01    0.2311408    0.1512158  69.05  0.001109926    1.540    0.351
        46  -9.2728    118.6335      4.2725   3.9957786708e+01   5.3444118233e+01    0.1246286   0.08770934 -80.70  0.000700143    1.667    0.400
        47 -10.9343     67.8742      3.7765   5.1581054238e+01   6.4400408318e+01    0.2285222    0.1522382  44.96 0.0008917861    1.230    0.187
        48 -10.3366    243.2712      3.0221   2.6906046321e+01   2.6199782405e+01     0.156992    0.1127375 -62.31 0.0005557074    1.099    0.090
        49 -10.3195    126.5131      2.6292   3.8136062828e+01   5.1765304551e+01    0.2232714    0.1720658  39.62 0.0005853316    1.360    0.265
        50 -10.5573    237.2362      2.3732   2.7150719322e+01   2.7427227554e+01    0.1583591   0.08346094 -86.92 0.0009554857    1.679    0.404
        51 -10.2105    230.9336      1.4686   2.7374101895e+01   2.8755914068e+01    0.1576926   0.09166455  81.96 0.0003629653    1.512    0.339
        52  -9.1252    158.6479      1.7280   3.3580992678e+01   4.4402887399e+01    0.1238991    0.0785616  50.70 0.0002622895    1.634    0.388
        53  -9.5620    108.2031      1.3842   4.0876103391e+01   5.6035430668e+01     0.163688    0.1038464  73.30 0.0003379251    1.498    0.332
        54 -11.8211    178.9786      4.1507   3.2040971606e+01   3.9545611052e+01    0.2235064    0.1833515 -77.10 0.0003099441    1.083    0.077
        55 -10.1729     32.7946      1.3975   6.3840183039e+01   7.0723260447e+01    0.2127312    0.0978823  45.50  0.001128968    2.208    0.547
        56  -9.8651      9.7443    162.4650   1.1520833188e+02   3.9218075993e+01    0.2370224    0.1091432  33.18  0.001138002    2.261    0.558
        57 -10.6761    249.9892    246.7041   7.2474747592e+01  -1.1512841792e+01    0.2013701    0.1238363 -19.20 0.0008463949    1.339    0.253
        58 -10.0622    239.9651    250.7412   7.4850441000e+01  -1.0940467954e+01    0.1427004   0.08339799  22.55 0.0008864317    1.547    0.353
        59 -12.6161    226.1797    245.7031   7.6498783148e+01  -8.6480829807e+00     0.621742    0.3377273  -8.29  0.003264615    2.155    0.536
        60 -12.3755    232.7717    244.8843   7.5177580610e+01  -9.3205260624e+00    0.5703124    0.2057573 -32.67  0.002680557    2.662    0.624
        61 -11.5335     89.0213    249.5115   1.0517377413e+02   9.8986818346e+00    0.3028754    0.2275934  37.84 0.0007590357    1.172    0.147
        62 -10.3569     72.5274    250.0333   1.0870572787e+02   1.2027703967e+01    0.2134786    0.1870082  -6.70  0.001391667    1.548    0.354
        63 -13.0625     18.9884    237.2172   1.1870971396e+02   2.0995711343e+01     1.441234     0.385232  54.79  0.005675074    3.520    0.716
        64 -11.6967      4.8186    235.9097   1.2142006795e+02   2.2663274696e+01    0.4199977    0.3094913  48.41  0.002390129    1.257    0.205
        65 -13.3301      5.8779    245.2691   1.2168381268e+02   2.0648337185e+01    0.9447036    0.6372953  34.90  0.005121124    1.554    0.357
        66 -12.6931     22.0897    249.0487   1.1880442809e+02   1.8250241846e+01    0.8706854    0.2465179  33.62  0.003879404    3.018    0.669
        67 -11.2355     17.2749    247.4079   1.1963539317e+02   1.9082456135e+01    0.2755153    0.1638491  51.46  0.000821874    1.353    0.261
        68 -11.9078     18.9808    158.0759   1.1226426200e+02   3.9566791852e+01    0.3557292    0.2248886 -71.08 0.0003603173    1.352    0.260
        69 -12.1540     23.7279    156.9773   1.1081997360e+02   3.9428008420e+01     0.551664    0.4302382  87.58  0.002404777    1.193    0.162
        70 -10.1671     11.2529    153.2558   1.1389170164e+02   4.1405718250e+01    0.2494424    0.1679792  37.81  0.001408653    1.617    0.381
        71  -9.9802    177.3243    150.8570   6.8274881424e+01   1.6007958301e+01    0.2788104    0.2058364  70.61    0.0012735    1.907    0.476
        72 -10.2683    207.0392    146.6640   6.1435995164e+01   1.1208767196e+01    0.1892896    0.1817226  12.50 0.0005901575    1.124    0.110
        73  -9.5785    216.2184    155.1749   6.1564189254e+01   7.9638206925e+00    0.1795772    0.1538361 -57.52 0.0003327078    1.308    0.236
        74 -10.7238     18.2047    146.7759   1.1119507513e+02   4.2494229211e+01    0.3383984    0.2029639 -13.72  0.001054276    2.449    0.592
        75 -13.0304     49.3938    161.7026   1.0418328439e+02   3.5532143941e+01    0.5401619    0.4270133  44.65    0.0029587    1.307    0.235
        76  -9.9771    220.2897    143.9786   5.8512863558e+01   9.3296083019e+00    0.2012465    0.1593138 -39.24 0.0006138702    1.108    0.097
        77  -9.3617     49.2998    142.2743   1.0120615341e+02   4.0553134956e+01    0.1416627     0.103399 -34.45  0.000220028    1.533    0.348
        78 -10.4502     14.0730    140.1179   1.1161326829e+02   4.4505116889e+01    0.1959806    0.1547515 -50.31 0.0002812398    1.243    0.196
        79 -10.2430     55.1918    138.9221   9.8801437876e+01   4.0697228616e+01    0.3695411    0.2405431  41.30  0.001210757    1.631    0.387
        80  -9.6215    230.3409    139.6933   5.5955702457e+01   8.3588410322e+00    0.1323408    0.1010715 -69.35 0.0004867075    1.685    0.406
        81  -9.2323    143.6711    137.3015   7.2963496454e+01   2.5742869411e+01    0.1572713    0.1252311  85.23 0.0007032484    1.645    0.392
        82 -10.6584      9.2283    136.6346   1.1264771741e+02   4.5732301846e+01    0.2339004    0.1510306 -73.70  0.000281059    1.304    0.233
        83 -10.3331      2.6083    136.2944   1.1458022441e+02   4.6249272879e+01    0.2661335     0.108757 -78.92  0.001150276    2.202    0.546
        84  -9.2832     39.9843    135.1977   1.0293534156e+02   4.3420497858e+01    0.1672226    0.1123908  25.64            0    1.657    0.397
        85  -9.5371     20.9945    135.0380   1.0885862958e+02   4.5247721619e+01    0.1762402    0.1286744 -69.53  0.000978602    1.177    0.150
        86  -9.8509    249.1912    134.1960   5.1996359354e+01   6.1845127713e+00     0.172062    0.1353229 -55.99 0.0004845947    1.304    0.233
        87 -11.2120     54.5318    132.6148   9.7852055447e+01   4.2398691110e+01    0.3575019    0.2678065  49.75  0.001152477    1.470    0.320
        88 -11.3349     36.2829    130.5163   1.0334214877e+02   4.5002012960e+01     0.505155    0.2493218 -45.54  0.002199901    1.992    0.498
        89 -11.1035     73.8153    129.2702   9.1028196471e+01   4.0578641784e+01     0.335416    0.3066291 -63.93  0.000983743    1.069    0.064
        90  -9.1350      9.3075    129.3109   1.1173682393e+02   4.7564168358e+01    0.1367424   0.08202884 -45.39 0.0002750857    1.619    0.382
        91 -10.5353     48.3807    125.7796   9.8554141633e+01   4.4888097981e+01    0.2417612     0.207867  89.43 0.0008328315    1.249    0.199
        92 -10.9538     24.1869    125.9931   1.0653357493e+02   4.7274317532e+01    0.2474969    0.1959428  27.98 0.0004876076    1.435    0.303
        93 -10.7634     21.3669    121.3596   1.0674200271e+02   4.8674030827e+01    0.4176971    0.2153912 -30.93  0.001198979    2.403    0.584
        94 -10.3129     17.6651    125.6749   1.0859855561e+02   4.7879188810e+01    0.2576078    0.1956528 -18.99  0.001272685    1.542    0.352
        95 -10.7203     13.4611    126.0057   1.0999445693e+02   4.8105850296e+01    0.2261255    0.1941034 -45.92   0.00035968    1.166    0.142
        96 -11.2024     10.8338    122.8520   1.1040943639e+02   4.9076423568e+01    0.3089237    0.2511775  87.43  0.001292314    1.241    0.194
        97  -9.7831    220.1525    124.1735   5.4317226248e+01   1.2986793684e+01    0.1894809     0.151003 -60.37 0.0005138846    1.300    0.231
        98 -10.4724      2.8237    122.8703   1.1297696585e+02   4.9571817803e+01    0.2304638    0.1363279 -60.97 0.0003100155    1.369    0.269
        99  -9.8389      1.4218    119.0185   1.1295028503e+02   5.0601369392e+01     0.194851    0.1054123 -72.14 0.0003174865    1.530    0.346
       100  -9.2840     32.6202    121.7061   1.0304838415e+02   4.7598021216e+01    0.1477511   0.09284625 -33.70 0.0007020546    1.750    0.429
       101 -11.3757     15.1416    117.0636   1.0815882093e+02   5.0219626513e+01     0.443112    0.2417226 -48.96  0.002134131    1.616    0.381
       102 -10.2388     72.4695    117.7086   8.8875771262e+01   4.3660603981e+01    0.2885306    0.1453149 -59.75 0.0009535516    2.033    0.508
       103  -9.4882    179.4527    116.4828   5.9896662373e+01   2.2629186420e+01    0.1488174    0.1399199 -50.70 0.0003100304    1.006    0.006
       104  -9.7304     86.2508    116.3589   8.4094448926e+01   4.1759189156e+01    0.1567879    0.1126444 -27.11 0.0003088767    1.608    0.378
       105  -9.7965    214.0203    115.3649   5.3387991827e+01   1.5758156340e+01    0.1813611    0.1766144  85.84 0.0004505166    1.131    0.116
       106 -11.2069    249.4374    112.4025   4.7610991390e+01   9.8005759047e+00    0.2505441    0.1877851 -57.58 0.0005902583    1.271    0.214
       107 -10.0733     94.9094    112.3631   8.0368395139e+01   4.1176533041e+01      0.26425    0.2140366 -60.72  0.001148366    1.301    0.231
       108 -11.6362     37.0789    110.2192   9.9366216262e+01   5.0025896565e+01    0.4458311    0.2961893  65.68  0.002125197    2.078    0.519
       109 -12.0116     55.0810    109.6133   9.2900298729e+01   4.8095560262e+01    0.4583046     0.261607 -47.79 0.0005600223    1.599    0.375
       110 -10.6520      1.7402    107.6780   1.1134467537e+02   5.3356175511e+01    0.4343523   0.08021948 -61.36  0.001558833    3.136    0.681
       111 -11.2978     23.6222    106.5891   1.0345980982e+02   5.2155811713e+01     0.279078    0.2558858  43.73  0.001755301    1.264    0.209
       112 -10.8580     70.5432    108.6539   8.7347024998e+01   4.6151159340e+01    0.2699131    0.2482925 -62.06 0.0002175382    1.121    0.108
       113 -10.1357    243.5428    104.5123   4.6781223220e+01   1.2131256712e+01    0.1304085    0.1074363 -49.12 7.105786e-05    1.004    0.004
       114 -11.1538    120.2856    101.1051   6.9883100594e+01   3.8675182393e+01     0.704509    0.2947566 -30.75  0.001947224    4.389    0.772
       115 -12.3435     13.5591    109.4325   1.0751065326e+02   5.2214732599e+01    0.5314881    0.3347642  -0.90  0.002823764    1.948    0.487
       116  -9.9304     37.8728    103.6022   9.7707240899e+01   5.1561727549e+01    0.2325171    0.1593665 -65.70  0.000843788    1.423    0.297
       117 -10.8325     21.7195     99.6030   1.0283412724e+02   5.4003673397e+01    0.4802594    0.2649511 -11.55  0.002220764    2.386    0.581
       118 -11.4873    143.5913     98.5348   6.3182642488e+01   3.4119616251e+01    0.6681539    0.3709886  53.21  0.002742231    1.875    0.467
       119 -11.1032     62.1334     98.8671   8.7799599373e+01   4.9704298351e+01    0.3618314    0.2962032  12.45  0.001256701    1.298    0.230
       120 -10.7609     66.7561     98.2528   8.6001454127e+01   4.9170950866e+01    0.2749553    0.2032626 -36.97 0.0003585526    1.309    0.236
       121  -9.6108     40.8194    100.6169   9.5970852929e+01   5.1968082467e+01    0.1835823     0.125526  37.17  0.000495295    1.633    0.388
       122 -12.7789    166.0237     85.1411   5.4715006695e+01   3.1569411692e+01     1.409709    0.9034437 -20.64  0.006036995    2.198    0.545
       123 -10.2423    173.2152     83.7841   5.2981596196e+01   3.0168804138e+01    0.2190571    0.1933289 -74.10  0.000665809    1.125    0.111
       124 -12.2501    158.3046     89.9805   5.7571914015e+01   3.2448038671e+01    0.4735253    0.2884045 -43.38  0.001943447    1.617    0.382
       125 -11.7770    157.3156     82.6694   5.5824338121e+01   3.4013796850e+01    0.8530206    0.5227329  30.36  0.003490714    2.375    0.579
       126 -11.7391     14.5806     97.0083   1.0500302847e+02   5.5153082813e+01    0.6590626    0.2138834 -67.99  0.002500198    2.876    0.652
       127 -10.7824     10.3822     91.0289   1.0548374270e+02   5.6843155505e+01    0.2488422    0.2109245 -34.12  0.000878136    1.130    0.115
       128  -9.5217     10.3242     87.6932   1.0486987286e+02   5.7625569977e+01    0.1369081    0.1076056 -46.05  0.000694781    1.063    0.059
       129 -10.2844      4.7102     97.9933   1.0882895946e+02   5.5526872998e+01    0.2506741    0.1699805 -15.65  0.001446811    1.659    0.397
       130  -9.7047      1.2329     95.9891   1.0978479793e+02   5.6185457910e+01    0.1916395    0.1107826 -67.09 0.0004330764    1.435    0.303
       131  -9.0348     33.2797     97.3222   9.8041117000e+01   5.3530775653e+01    0.1436938   0.08911309 -35.55 0.0002357502    1.586    0.370
       132 -11.3387     37.5769     94.8525   9.5861059739e+01   5.3682221520e+01    0.3196163    0.2444388  46.73 0.0009563798    1.570    0.363
       133  -9.4413    250.3107     95.7002   4.4161578618e+01   1.2369803252e+01    0.1276868   0.08357115 -64.22 0.0003803814    1.602    0.376
       134 -10.2457     21.0096     92.9054   1.0176397277e+02   5.5654227245e+01    0.4996247   0.06917427 -59.06   0.00151806    4.152    0.759
       135 -10.9055     25.6099     91.3045   9.9648063261e+01   5.5652877320e+01    0.3339926    0.1999033 -55.19  0.000945466    1.420    0.296
       136  -9.9829    112.9951     93.7256   6.9861023720e+01   4.1759904542e+01    0.2106074    0.2017883  26.56  0.001137115    1.036    0.035
       137  -9.4665     46.5410     92.5493   9.1910880423e+01   5.3216520846e+01    0.1381908    0.1263729 -38.29  7.15872e-05    1.042    0.040
       138 -11.4321     21.9323     87.2449   1.0019725934e+02   5.6902707296e+01    0.2898442    0.2735918   2.54  0.001013477    1.191    0.161
       139  -9.8279     50.9384     99.2846   9.1945566808e+01   5.1103811036e+01    0.1881608    0.1765905  -4.19 0.0004810963    1.099    0.090
       140 -10.5838     96.1931     89.7471   7.3746335146e+01   4.5975129979e+01    0.3571835    0.2411272  19.42  0.001574624    1.846    0.458
       141  -9.9347     83.1295     88.8178   7.7719141724e+01   4.8594867905e+01    0.2054458     0.201418 -45.82 0.0005413514    1.107    0.097
       142 -10.5812     78.2793     87.9705   7.9120373816e+01   4.9620520652e+01    0.3390877    0.2951657 -58.97  0.001647456    1.268    0.211
       143 -10.2586     65.0496     87.5044   8.3670731261e+01   5.1852017492e+01    0.2348067    0.2104298 -38.61  0.001329657    1.076    0.070
       144 -10.8010     66.9674     83.7126   8.1876929066e+01   5.2381636197e+01    0.4280847    0.2390427  35.96  0.001933849    1.835    0.455
       145 -11.5266      5.3169     84.2740   1.0619067749e+02   5.8709098927e+01    0.6984444     0.173699 -43.83  0.002616098    3.236    0.691
       146 -10.8956     57.3237     90.1130   8.7234859609e+01   5.2386465762e+01    0.4028217    0.2558763  15.30  0.001555091    1.829    0.453
       147  -9.5940    120.8198     86.8125   6.5689902790e+01   4.1490093082e+01    0.1994808    0.1796169 -81.61  0.001041196    1.258    0.205
       148 -10.7353     46.3718     87.0406   9.0554620210e+01   5.4495794069e+01    0.2595544    0.2059098 -81.12   0.00138701    1.642    0.391
       149 -11.4684     30.7380     81.8427   9.5394360770e+01   5.7360162618e+01    0.3615032    0.2927734 -17.33  0.001165089    1.203    0.168
       150 -10.3348     74.1284     82.1159   7.8832168418e+01   5.1564830207e+01     0.235171    0.1895988 -13.23  0.001235554    1.303    0.232
       151 -12.0727     36.9542    243.9623   1.1554304301e+02   1.7646287365e+01    0.6770719    0.3074504 -87.19  0.003026874    2.437    0.590
       152 -11.2770      6.0277     42.9096   9.5678144761e+01   6.7421146259e+01    0.6504398    0.1219305 -44.19  0.002432505    3.510    0.715
       153 -11.9451     21.8306     80.3691   9.8666664996e+01   5.8480098973e+01    0.7518091    0.2508768 -58.14  0.002983077    2.482    0.597
       154 -12.2032     31.3072     62.6158   8.9816212171e+01   6.1419244514e+01    0.8549224    0.7137788 -86.59  0.005084819    1.776    0.437
       155 -12.9278     10.2737     75.2655   1.0230229947e+02   6.0456369016e+01      1.06166    0.5679528  27.36  0.005619259    2.120    0.528
       156 -13.1053     75.7312    238.5815   1.0690658553e+02   1.3911988103e+01    0.7877833    0.6851655  38.17  0.005096819    1.155    0.134
       157 -10.6412     88.6270    241.4130   1.0439323885e+02   1.1555183169e+01    0.2409129    0.1778789 -21.26   0.00130988    2.017    0.504
       158 -11.3078     15.2351     59.5699   9.6169240721e+01   6.3478896442e+01    0.3086018    0.2004586 -16.97 0.0005059397    1.505    0.335
       159 -12.3221      6.1346     68.0033   1.0243245485e+02   6.2300203081e+01    0.2439662    0.1779005 -32.94 0.0004244106    1.180    0.153
       160 -12.6046      3.0347     62.7683   1.0258591344e+02   6.3594773518e+01    0.4402109    0.3051175  89.90   0.00191584    2.062    0.515
       161 -10.2103     71.1171     79.0705   7.8981525571e+01   5.2696776919e+01    0.2098892    0.1978462 -17.21 0.0005451643    1.053    0.050
       162 -10.5477     60.8875     78.1532   8.2476497157e+01   5.4484192790e+01    0.3452131    0.2889995  61.33  0.001614893    1.575    0.365
       163 -10.6700     61.8207     72.4567   8.0365964022e+01   5.5516885972e+01    0.4885586    0.2390151 -36.24   0.00093266    2.121    0.529
       164 -11.5615     51.6403     62.7482   8.1226949979e+01   5.8918302239e+01    0.4274565    0.3732968  73.42  0.002489191    1.685    0.407
       165 -10.5024     54.0097     74.2739   8.3946839741e+01   5.6279268223e+01    0.2932161    0.2440319  45.97  0.001503206    1.439    0.305
       166 -12.2697     50.3249     68.6411   8.3666909407e+01   5.7935477809e+01     0.495609    0.3850876 -10.21  0.001201346    1.275    0.216
       167 -12.7586     44.6754     75.2297   8.7947825493e+01   5.7293036406e+01    0.2688056    0.2525315   1.18 0.0004708352    1.136    0.120
       168 -10.7940     90.8712     75.0247   7.0961109926e+01   4.9969639235e+01    0.3264421    0.2010603 -37.57  0.001008131    1.648    0.393
       169 -10.9799     75.5806     74.8965   7.6090230639e+01   5.2793092605e+01    0.4154931    0.2990181   7.86  0.002042421    1.638    0.390
       170 -11.4222     77.9870     70.1800   7.3731379616e+01   5.3291402027e+01    0.4835322    0.2759163  33.85  0.001477332    1.766    0.434
       171 -10.7233    207.4977     73.4381   4.4913465487e+01   2.4299777310e+01    0.2189711    0.1990889 -71.15 0.0002246469    1.052    0.049
       172  -9.9653    145.6897     74.0062   5.5913205046e+01   3.8231524200e+01    0.2117224    0.1888623 -45.05  0.001153737    1.142    0.125
       173  -9.4202    152.0246     71.9961   5.4000927831e+01   3.7100749032e+01    0.1738824    0.1640918  74.53 0.0005618525    1.021    0.020
       174  -9.5728    137.4343     71.4469   5.7032177285e+01   4.0583025399e+01    0.1452639     0.137461  86.82 2.898292e-06    1.071    0.066
       175  -9.8580    128.9996     71.4064   5.9026452573e+01   4.2522779592e+01    0.2082956    0.1780983  48.68 0.0003840358    1.131    0.116
       176  -9.1978    100.3104     71.6732   6.6947046683e+01   4.8719177648e+01    0.1429172      0.11766 -86.54 0.0003724846    1.660    0.398
       177 -10.3570    167.8430     69.8397   5.0344747717e+01   3.3772000587e+01    0.1965433    0.1876499  46.86  0.000298414    1.152    0.132
       178  -9.9567    122.8674     69.1359   5.9874936329e+01   4.4302275008e+01    0.1981611     0.170861   1.57  0.000342258    1.325    0.245
       179  -9.8050     42.8959     68.5129   8.6669283974e+01   5.8913158207e+01    0.1925056    0.1273646  24.25 0.0009815682    1.552    0.355
       180 -10.5077     93.4856     66.9425   6.7524876540e+01   5.0959937310e+01    0.2479055    0.1984086  44.27 0.0003287682    1.236    0.191
       181 -11.1161     96.3234     64.6742   6.5897655244e+01   5.0789770315e+01    0.5036278    0.1664684  52.18  0.001576339    3.714    0.731
       182 -10.9630    122.8947     64.1523   5.8336902015e+01   4.5138280527e+01    0.2556529    0.2484523 -66.63  0.000284037    1.086    0.079
       183 -10.5520    119.9641     60.8403   5.8043474626e+01   4.6341055650e+01    0.2976817    0.1961457  50.90  0.001087357    1.437    0.304
       184 -10.5621     76.8483     63.9436   7.2062633663e+01   5.4658670591e+01    0.2972747    0.2937196 -11.94  0.001816248    1.174    0.148
       185 -10.4065    153.0378     63.6981   5.1481950986e+01   3.8221923981e+01    0.2041948    0.1710765  58.04 0.0003964899    1.152    0.132
       186  -9.4924    143.7941     64.5584   5.3622869066e+01   4.0251495195e+01    0.1882621    0.1350932  70.58 0.0002423908    1.491    0.329
       187 -10.3425    201.8920     61.6325   4.2956048504e+01   2.7337017934e+01    0.2002588    0.1785188 -44.43 0.0005100664    1.194    0.163
       188  -9.1453    127.5193     66.5015   5.7912622071e+01   4.3697049918e+01    0.1439363    0.1380175  50.03 0.0008103726    1.005    0.005
       189  -9.4210     98.4007     60.4505   6.3868078082e+01   5.1086049479e+01    0.1387585    0.1318144  19.61 -2.866487e-07    1.027    0.026
       190 -10.1237     69.4053     59.8222   7.3331716118e+01   5.6704425190e+01    0.2025116    0.1212666 -28.90 0.0009517503    1.782    0.439
       191 -11.4165     59.2785     58.8392   7.6844491452e+01   5.8528599755e+01     0.381878    0.2642249 -31.16  0.001315355    1.396    0.284
       192 -10.7282     62.1931     51.9034   7.3243741491e+01   5.9291218381e+01    0.4535494    0.2036139 -32.39  0.001905181    2.450    0.592
       193 -10.6313    147.4585     57.3689   5.0797561508e+01   4.0515613572e+01    0.3590609    0.2252378 -61.52  0.001630118    1.983    0.496
       194 -11.4276     75.2333     56.1776   6.9952732510e+01   5.6319311879e+01    0.2264859    0.2108442 -16.99 0.0003106392    1.116    0.104
       195  -9.7100     68.2069     56.3879   7.2573541155e+01   5.7515837476e+01    0.1797256    0.1241877  44.37 0.0002334121    1.544    0.352
       196  -9.6473    230.6116     55.2005   3.8118236201e+01   2.2250427391e+01    0.1659414    0.1113667 -33.59 0.0009444267    1.616    0.381
       197 -10.0911    132.8514     54.3719   5.2984372854e+01   4.4390614537e+01    0.2627229    0.1718628  49.06  0.001286075    1.448    0.309
       198 -11.6917    129.2732     49.3212   5.2228725645e+01   4.5961403020e+01    0.4600653    0.3837639 -16.64  0.001729561    1.375    0.273
       199 -12.6553    105.2409     52.5746   5.9259100670e+01   5.0897185081e+01    0.3719372    0.2754567  43.10 0.0004102651    1.259    0.206
       200  -9.8133     82.1325     54.3808   6.6943114725e+01   5.5338332278e+01    0.1849079    0.1621301  30.33 0.0004371222    1.080    0.074
       201  -9.7878     55.7423     53.5817   7.6397294528e+01   6.0015528980e+01    0.2940938     0.170511   2.19  0.001249249    2.635    0.621
       202 -10.0200    120.1815     52.5769   5.5372419863e+01   4.7575958694e+01    0.2701218    0.1849892  30.68 0.0008750145    1.674    0.403
       203 -10.0245    168.9584     51.9605   4.5428706145e+01   3.6249751650e+01    0.2240105    0.1523498 -73.30 0.0009302382    1.684    0.406
       204 -10.5425     87.9663     51.3313   6.3961468827e+01   5.4689905866e+01    0.2585148    0.1971036 -18.96 0.0008146812    1.397    0.284
       205  -9.5752    237.2488     51.0003   3.6587206089e+01   2.1525684708e+01     0.160356   0.09010742 -42.00 0.0008830167    1.574    0.365
       206 -11.3853    199.5697     49.7838   4.0499873631e+01   2.9565157264e+01    0.3640107    0.2134591  56.75 0.0004708442    1.770    0.435
       207  -9.7672     77.4726     50.6668   6.7202245465e+01   5.6820836366e+01    0.2392137    0.1761062  28.61 0.0007177213    1.294    0.227
       208 -10.2094     78.7454     47.1181   6.5474831954e+01   5.7139619300e+01    0.2050642     0.174642 -35.84 0.0004019176    1.282    0.220
       209 -10.5087     53.2662     49.9368   7.6081364078e+01   6.1024181935e+01    0.2499475    0.1779383  21.20 0.0006430421    1.348    0.258
       210 -14.0769     16.6329     67.5199   9.7688700229e+01   6.1707119329e+01    0.5605285    0.4416167 -24.76  0.001190981    1.135    0.119
       211 -10.4672    142.9840     45.2460   4.8156060217e+01   4.3314814102e+01    0.2394406    0.2098561 -70.19 0.0004537618    1.190    0.160
       212 -10.7379    139.1210     43.1648   4.8291917969e+01   4.4506480706e+01    0.2766601    0.2529299  13.62 0.0007964363    1.260    0.206
       213  -9.8667    112.5066     46.0470   5.5154650820e+01   5.0255627278e+01    0.2289699    0.1690446  52.22  0.001221298    1.251    0.200
       214 -10.3980     83.5996     45.1060   6.3127847745e+01   5.6505913399e+01     0.306196    0.2063901  66.08  0.001220649    2.132    0.531
       215 -10.2419    101.1461     36.6085   5.4878855688e+01   5.4036719049e+01    0.2417859    0.1768467 -58.54  0.001215621    1.818    0.450
       216 -10.5388     95.6098     43.1170   5.8725334154e+01   5.4344768322e+01     0.315617    0.1437259 -25.44  0.001254646    2.769    0.639
       217 -10.1700     97.8117     39.5533   5.6833054449e+01   5.4368015235e+01     0.326758    0.1824696  40.56  0.001556036    1.697    0.411
       218 -10.0796     92.0000     43.9936   6.0102942827e+01   5.4973242201e+01    0.3064484    0.1912867 -27.05  0.001530079    1.749    0.428
       219 -10.0464     90.5114     40.5099   5.9293154813e+01   5.5771279391e+01    0.2272568    0.1953082 -55.25 0.0009331648    1.445    0.308
       220 -10.7857    124.6368     42.7242   5.1191402584e+01   4.7949798754e+01    0.3610727    0.2473605 -49.22  0.001809442    1.652    0.395
       221  -8.8457     62.7280     40.5959   6.8779769970e+01   6.1020435464e+01    0.2900805    0.1500498  47.46   0.00114705    2.120    0.528
       222 -11.3003     72.4045     42.9203   6.6110251577e+01   5.8959838263e+01    0.3682303    0.2836145 -59.00  0.001242004    1.879    0.468
       223 -11.1314     67.4712     41.9361   6.7517757438e+01   5.9995363191e+01    0.3191852    0.2375039  23.59  0.001075661    1.254    0.203
       224 -10.3029     69.4349     37.7968   6.5201947528e+01   6.0250945084e+01    0.2880636    0.2055596   2.60 0.0008198406    1.536    0.349
       225 -10.2886     70.2688     34.3642   6.3557575391e+01   6.0577006303e+01    0.2060328    0.1415404  27.32  0.000728275    1.371    0.271
       226  -9.8422    106.9274     42.8540   5.5515637777e+01   5.1939735931e+01     0.205213    0.1680468  34.21 0.0003575427    1.175    0.149
       227 -11.9701     74.4886    233.4899   1.0665411729e+02   1.5144748812e+01    0.4288977    0.2225985  38.75  0.001956992    1.682    0.406
       228 -10.3072      1.5238     25.7587   9.2178185553e+01   7.0809617501e+01    0.2287004      0.11937 -32.38 0.0005435151    1.551    0.355
       229 -11.2817     23.7048     41.3055   8.6222774829e+01   6.6245237643e+01    0.6962568    0.5003237  34.55  0.004299473    1.671    0.401
       230  -9.8560    195.4214    238.7125   8.1209529610e+01  -3.6125784858e+00    0.2230034    0.1379686   9.71  0.001189539    1.705    0.414
       231 -10.9220      8.2055     24.9647   8.8076602895e+01   7.0444751624e+01    0.4460758    0.1497724  21.68  0.002092636    2.953    0.661
       232 -10.7750    244.0448    237.2741   7.1945792804e+01  -9.5775621285e+00    0.1927858    0.1398806 -38.67  0.001270271    1.610    0.379
       233 -10.5005     31.3312    236.6752   1.1617663446e+02   1.9792937998e+01    0.1965658    0.1015128 -89.38 0.0009828163    1.953    0.488
       234 -11.5711     17.7790     31.1164   8.5347289109e+01   6.8577945844e+01     0.945038     0.329538  31.19  0.004372424    2.915    0.657
       235 -11.6536     22.6647     25.7075   8.0564920415e+01   6.8938657201e+01    0.3317981    0.2354862 -13.68  0.001106505    1.193    0.162
       236 -12.7433     27.7096     38.0563   8.3043313305e+01   6.6385646948e+01    0.3456143    0.2763719  -1.68 0.0003966694    1.084    0.077
       237 -11.5434     24.4778     35.0005   8.3451014682e+01   6.7251354170e+01    0.2378667    0.1801721 -11.89 0.0003736045    1.099    0.090
       238 -10.0954    130.9848     41.8723   4.9551378445e+01   4.6587722510e+01    0.2223261    0.1973596 -35.72  0.000792178    1.228    0.185
       239 -11.6267     53.2197     40.8177   7.2640568351e+01   6.2533472201e+01    0.3769653    0.2537753  34.40 0.0009340325    1.431    0.301
       240 -12.9167     57.5492     34.5749   6.8402041208e+01   6.2777953864e+01    0.3196966    0.2654677  -6.15 0.0002693645    1.111    0.100
       241 -10.7641    152.5892     39.1215   4.4650315122e+01   4.1851174365e+01    0.2406391    0.2025818  74.97 0.0004236399    1.087    0.080
       242 -11.7224     43.7789     38.1245   7.5600972192e+01   6.4353639305e+01    0.4942523    0.2978765  46.64  0.002559545    2.182    0.542
       243 -11.1188    225.0876     38.2582   3.5151603220e+01   2.5670960755e+01    0.2518465    0.1753303 -84.47 0.0004502305    1.327    0.247
       244  -9.6315     85.8413     38.8429   6.0108432458e+01   5.6953751898e+01    0.1638632    0.1485556  57.53 0.0002455099    1.244    0.196
       245 -11.5996     81.8502     36.1250   6.0347465290e+01   5.8120788790e+01    0.3773255    0.3319555  -4.15  0.001510934    1.141    0.124
       246 -11.7362     75.0149     35.7860   6.2469733492e+01   5.9494278023e+01    0.6066248    0.3315162  16.23  0.002346718    2.898    0.655
       247  -9.4703    160.4233     38.4045   4.3165263106e+01   4.0091515678e+01    0.1331154    0.1175853  85.21 4.435198e-05    1.025    0.025
       248 -10.0903      1.6122     37.7955   9.6348253020e+01   6.8659199322e+01    0.1899208    0.1074891 -35.94 0.0007829985    1.394    0.283
       249  -9.4630    172.9969     35.7525   4.0593319479e+01   3.7477909472e+01    0.1668818    0.1023917  68.35 0.0003594006    1.497    0.332
       250  -9.3777    134.4954     35.5018   4.6882206457e+01   4.6578806264e+01    0.1350859    0.1218957  70.10 9.762528e-05    1.029    0.028
       251  -9.8001    201.8959     34.3092   3.6667092336e+01   3.1104250208e+01    0.1751187     0.141414  86.34 0.0004205075    1.116    0.104
       252 -10.2815    107.9701     34.2018   5.2285944127e+01   5.2837356889e+01     0.246687    0.1638696  49.93 0.0005550332    1.336    0.251
       253 -11.2020    221.7362     32.1649   3.4199189909e+01   2.7136653822e+01    0.2158286    0.1666682 -69.07 0.0002663244    1.063    0.060
       254 -10.4410    205.8203     32.5865   3.5859593870e+01   3.0462365242e+01    0.1880251    0.1613119 -43.74 0.0005007928    1.286    0.222
       255 -10.9553    235.8161     30.7915   3.2685546552e+01   2.4459995053e+01    0.3324462    0.1804413  46.70  0.001688434    2.983    0.665
       256 -10.1960    166.5055     32.0680   4.0551457671e+01   3.9446377670e+01     0.183893    0.1288587 -34.98 0.0005447532    1.552    0.356
       257  -9.6223     44.4321     31.5012   7.2608782216e+01   6.5272092292e+01    0.1967024    0.1639645 -20.53  0.000663184    1.198    0.165
       258 -11.3420     48.2756     31.8369   7.1085001589e+01   6.4649172662e+01    0.2445508     0.182884  15.55   0.00150398    1.189    0.159
       259 -10.6572     50.5023     27.5233   6.8326817604e+01   6.4907210675e+01     0.276404    0.1686114  15.23   0.00126663    1.771    0.435
       260 -12.4701    100.9985     28.8143   5.2150577044e+01   5.5024564639e+01    0.5375378    0.3272598  49.93 0.0005070005    1.433    0.302
       261  -9.8507     89.2644     31.4827   5.6333859345e+01   5.7211787501e+01    0.2431553    0.1121299  47.62 0.0008564096    1.898    0.473
       262 -10.6270    111.0498     27.9826   4.9419112008e+01   5.2884052336e+01    0.3159805    0.2331096  18.70  0.001073551    1.593    0.372
       263 -10.7816     60.0232     26.9894   6.4310352308e+01   6.3390898251e+01    0.2212336    0.1787924 -33.97 -0.003769674    1.427    0.299
       264 -11.5200     59.6089     22.0099   6.2352956208e+01   6.4083163336e+01    0.3455747    0.2830681  71.92   0.00195864    1.914    0.477
       265 -11.2115    193.6125     26.1136   3.5691352999e+01   3.3935301825e+01    0.2994929    0.1657502 -59.46   0.00156182    1.788    0.441
       266 -10.6119    132.5397     25.8238   4.4284984770e+01   4.8167023064e+01    0.2404671    0.1958613  -9.56  0.001126899    1.495    0.331
       267 -10.0748    128.0084     26.5606   4.5369583450e+01   4.9144912230e+01    0.2651989    0.1958012  57.71 0.0006994586    1.190    0.160
       268 -10.4076    128.5008     23.4784   4.4307630824e+01   4.9365704828e+01    0.2489508    0.1766634  51.02  0.001082341    1.280    0.219
       269 -11.7585     29.7968    233.2014   1.1624962770e+02   2.0698060049e+01      0.36606     0.275319 -80.12  0.002392565    1.292    0.226
       270 -10.8713     69.3992     26.4955   6.0700006951e+01   6.1758448369e+01    0.3754106    0.1903992  32.32  0.001252125    1.991    0.498
       271  -9.9540    214.2725     25.7516   3.3540197021e+01   2.9481957040e+01    0.1499991     0.134617  68.49 0.0006235649    1.335    0.251
       272  -9.9146    204.3961     26.1906   3.4584870595e+01   3.1548786162e+01    0.1771185    0.0949964 -49.06 0.0005329858    1.698    0.411
       273 -12.0128    165.1104     23.0915   3.8382317633e+01   4.0808092846e+01    0.2802003    0.2087589  69.21            0    1.192    0.161
       274 -12.0312    160.2434     21.6033   3.8648159416e+01   4.2108802180e+01    0.4870913    0.2849675  48.38  0.002527485    1.815    0.449
       275 -10.0731     90.2443     20.5814   5.1949941505e+01   5.8254668704e+01    0.2776053     0.159172  46.71  0.001118324    1.487    0.328
       276 -10.5312    103.3012     19.7570   4.8355160359e+01   5.5505896169e+01    0.2366024    0.2257172 -33.36  0.001129545    1.211    0.174
       277 -11.2326    108.0174     17.7174   4.6566913150e+01   5.4657101463e+01    0.3227946    0.2079798  38.14  0.001766385    1.529    0.346
       278 -11.0773     99.1898     22.7076   5.0411112070e+01   5.6102909113e+01    0.4326775    0.2522311  50.46  0.002268468    1.467    0.318
       279 -10.3627     94.0037     22.6605   5.1726134650e+01   5.7231283170e+01    0.2502638    0.2223354  47.93 0.0008816286    1.074    0.069
       280 -10.5534     67.0592     21.4354   5.9417561007e+01   6.2798192910e+01    0.3945837    0.1375285  51.57  0.001597785    2.874    0.652
       281 -10.2431    159.8202    236.1531   8.8135078222e+01   1.9784500863e+00    0.1808654    0.1423104  -0.51 0.0003782732    1.305    0.234
       282  -9.7923    177.3199    235.3265   8.4328919305e+01  -4.7724805499e-01    0.1353966   0.09144859  -3.48 0.0007046912    1.682    0.405
       283 -10.1443    109.5022    242.8922   1.0000461253e+02   8.2656646312e+00     0.250816     0.150218  48.62 0.0007137374    1.582    0.368
       284 -10.4615    172.8337     20.1471   3.6637960429e+01   3.9335761454e+01     0.199094    0.1489972 -77.51 0.0006250863    1.258    0.205
       285  -9.5182    139.7582     19.9859   4.1268758221e+01   4.7094410602e+01    0.1932044    0.1177415  48.00  0.001010233    1.606    0.377
       286 -10.2471     24.0804    232.5212   1.1738205953e+02   2.1456987931e+01    0.2005637    0.1725707 -61.82 0.0006736387    1.421    0.296
       287 -10.1842     38.2323    232.8313   1.1445794895e+02   1.9833416308e+01    0.1807174    0.1384086  69.61 0.0005038552    1.107    0.096
       288 -10.4704    152.5892    229.8286   8.8720021274e+01   4.2343008603e+00    0.1771605    0.1320582 -63.73 0.0009545189    1.755    0.430
       289  -9.5483    169.9976    229.0392   8.4850755688e+01   1.7102603783e+00    0.1604935    0.1418834   4.72  0.000538493    1.034    0.033
       290 -10.0256    185.9684     22.9300   3.5785853727e+01   3.6021671774e+01    0.1964856    0.1595756 -86.34 0.0006549555    1.051    0.049
       291 -11.1957      4.5416    226.6395   1.2098888680e+02   2.4646059707e+01    0.3062917    0.1779541  58.68  0.001871003    1.428    0.300
       292  -9.6429    194.8787     17.1032   3.3490648123e+01   3.4673644958e+01    0.1506979    0.1332888  69.19 0.0003579204    1.263    0.208
       293  -9.3777     82.4850     17.5409   5.2938252995e+01   6.0189971004e+01    0.1283369     0.106993  35.75 0.0001164259    1.016    0.016
       294 -10.0703     74.9922     16.3400   5.4693604607e+01   6.1825759245e+01    0.3723783    0.1286583  49.10  0.001598555    2.384    0.581
       295 -11.2474    120.8500    226.3304   9.5288560253e+01   9.8547149168e+00    0.2211206    0.1909848 -79.19 0.0008306301    1.344    0.256
       296 -10.0298     66.0496    226.2086   1.0778493735e+02   1.7841050090e+01    0.1820975    0.1753601  26.45  0.000573241    1.233    0.189
       297 -10.6634     21.0869    221.8694   1.1728719188e+02   2.4080884582e+01    0.2314268    0.1302335  78.32 0.0009592773    1.666    0.400
       298  -9.9214    184.6300     15.1009   3.4068691835e+01   3.7180049937e+01     0.154603    0.1197937 -13.73  0.000942841    1.795    0.443
       299  -9.5178    142.3266    220.6942   8.9568763211e+01   7.6078734048e+00    0.1371531    0.1047305  62.40 0.0004507972    1.649    0.394
       300  -9.8429     37.9829    217.6709   1.1328518493e+02   2.3199756504e+01    0.1795274    0.1469889  52.12 0.0007958268    1.141    0.124
       301 -11.8807      9.7534    217.2091   1.1937602815e+02   2.6220816895e+01    0.3584111    0.2166847  49.84  0.001978285    1.455    0.313
       302 -11.2693     29.6925    215.8320   1.1497670239e+02   2.4531121801e+01    0.3319966    0.2742018  -0.46  0.001602532    1.729    0.422
       303  -9.9852    136.7716    215.8069   9.0059546360e+01   9.4883832890e+00    0.2342744    0.1459836  -9.08 0.0009455478    2.754    0.637
       304 -10.5532     24.0704    216.3137   1.1624871239e+02   2.5014220933e+01    0.1818153    0.1655053 -68.03  0.000961102    1.297    0.229
       305 -10.3650     21.4024    212.5638   1.1655625521e+02   2.6135570507e+01    0.3006197    0.1174978  56.79    0.0013199    2.526    0.604
       306 -11.8312    236.7506    213.6947   6.9165814313e+01  -5.2249756914e+00    0.5479531    0.2856069   3.76  0.002223693    3.048    0.672
       307  -9.3324    190.4954    226.4788   8.0176093929e+01  -9.0042724989e-01    0.1330831    0.1104815   1.51 -3.717657e-05    1.049    0.046
       308 -10.3524    169.5034     12.9702   3.5221168772e+01   4.0852613446e+01    0.1523968    0.1040985  22.40 0.0004071852    2.325    0.570
       309  -9.7024    208.8316    211.8823   7.3991345220e+01  -1.0944131155e+00    0.2058609    0.1528441  -9.04 0.0007754734    1.278    0.217
       310  -9.8575     31.0729     12.6854   7.0338336777e+01   6.9704816091e+01    0.1601724    0.1200025  15.02  0.000485654    1.094    0.086
       311 -10.5640     10.8048    208.2877   1.1857851545e+02   2.8131153541e+01    0.2273727    0.1769493 -59.90 0.0003789766    1.447    0.309
       312 -12.0663      5.1223    208.0434   1.1979398634e+02   2.8697302402e+01    0.5645154    0.3119633  82.22  0.003155085    1.602    0.376
       313  -9.1973    188.2697    205.3216   7.6918346810e+01   3.1944799080e+00    0.1384659   0.09754136 -10.32    0.0002948    1.567    0.362
       314 -10.8427     20.1702    199.9829   1.1587061778e+02   2.9170816708e+01    0.4437425    0.2494399 -69.25  0.002388266    1.618    0.382
       315  -9.2720     65.6375     11.7270   5.5759241781e+01   6.4103887791e+01    0.1314383   0.07662801  28.32 0.0007002329    1.659    0.397
       316 -10.8753    244.8300    202.6077   6.5786264054e+01  -4.5423293400e+00    0.3117098    0.1491116  42.82   0.00153586    2.702    0.630
       317 -10.4469    175.3731    202.6817   7.9160563973e+01   5.7766618794e+00    0.2338569    0.2050546  29.07 0.0004931699    1.146    0.127
       318  -8.8803    107.6731     10.6513   4.4184947238e+01   5.5395207475e+01    0.1363068   0.08115411  35.66 0.0007049227    1.756    0.430
       319 -10.9849     16.6117    193.2803   1.1616462266e+02   3.1097273426e+01    0.3285213    0.2545276  21.67  0.001529016    1.579    0.367
       320  -8.9515    101.6916    192.2966   9.4779789894e+01   2.0414517056e+01    0.1490884    0.1087185  66.95 0.0003054638    1.591    0.372
       321 -10.1304    244.7805    188.2423   6.3152992263e+01  -2.2407956250e+00    0.1756849    0.1245972 -14.40 0.0005180849    1.332    0.249
       322  -9.7259    212.2271    188.4081   6.8966999859e+01   2.5050167376e+00     0.175331    0.1267163  45.48 0.0007978583    1.664    0.399
       323 -11.4374     16.0628    183.1191   1.1545296930e+02   3.3596414560e+01    0.5262337    0.2552085  86.27  0.002423629    2.127    0.530
       324 -10.3392    167.9788    183.8092   7.7212531669e+01   1.0833975976e+01    0.2355502    0.1714622  64.40 0.0008203535    1.961    0.490
       325  -9.7885     58.7945    182.1761   1.0442638241e+02   2.9166894631e+01    0.1908327    0.1635994 -39.72  0.000993948    1.341    0.254
       326 -10.8418     41.5201     19.4737   6.8647271377e+01   6.7353648414e+01    0.2465082    0.1700061  27.31 0.0009935275    1.267    0.211
       327  -9.5633      1.5506    180.5271   1.1876272038e+02   3.5426559133e+01    0.1255623    0.1013962  88.77 0.0001452449    1.008    0.008
       328  -9.9018    244.4718    178.4854   6.1366066353e+01  -5.9302076765e-01    0.2354923    0.1001018 -31.33  0.001025543    2.294    0.564
       329 -10.8175     46.5201    177.8026   1.0710948305e+02   3.1775737473e+01     0.322863    0.2535183 -77.52  0.001085663    1.170    0.145
       330  -9.3205     69.4544    178.4200   1.0107091656e+02   2.8677965274e+01    0.1401763    0.1345861 -77.49 0.0002623871    1.068    0.064
       331 -10.9936     34.0847    174.1448   1.0996857084e+02   3.4074294332e+01    0.2594245    0.1832328 -65.48 0.0004552396    1.297    0.229
       332 -10.7481     18.0957    173.1889   1.1404255628e+02   3.5856720351e+01    0.3639436    0.2066312  60.02  0.001742113    1.810    0.448
       333 -12.3052     37.1443    164.6322   1.0800966679e+02   3.6160978135e+01     0.791764    0.5564123 -67.24  0.004259472    1.277    0.217
       334  -9.2649    177.2797    168.6988   7.2107652238e+01   1.2293556999e+01    0.1382066    0.1183008 -84.65 0.0002089407    1.545    0.353
       335  -9.8468      4.5997    168.8090   1.1710295766e+02   3.8041596412e+01    0.1781209    0.1021611  89.75  0.000401623    1.562    0.360
       336  -9.4390     99.3549    164.8079   9.0640486539e+01   2.7493056585e+01    0.2079367    0.1352891 -47.85 0.0002417244    1.546    0.353
       337  -9.3073    111.7052    164.3499   8.7201291397e+01   2.5471548935e+01    0.1579376    0.1202582  78.91 0.0007032304    1.678    0.404
       338  -8.8947    200.3313    162.6591   6.6096198268e+01   9.3265181968e+00    0.1402111    0.1137888 -78.43 2.061369e-05    1.747    0.428
