#   1 NUMBER                 Running object number                                     
#   2 MAG_AUTO               Kron-like elliptical aperture magnitude                    [mag]
#   3 X_IMAGE                Object position along x                                    [pixel]
#   4 Y_IMAGE                Object position along y                                    [pixel]
#   5 X_WORLD                Barycenter position along world x axis                     [deg]
#   6 Y_WORLD                Barycenter position along world y axis                     [deg]
#   7 A_WORLD                Profile RMS along major axis (world units)                 [deg]
#   8 B_WORLD                Profile RMS along minor axis (world units)                 [deg]
#   9 THETA_WORLD            Position angle (CCW/world-x)                               [deg]
#  10 FWHM_WORLD             FWHM assuming a gaussian core                              [deg]
#  11 ELONGATION             A_IMAGE/B_IMAGE                                           
#  12 ELLIPTICITY            1 - B_IMAGE/A_IMAGE                                       
         1 -10.8139      7.0000     56.9896   9.7762855312e+01   6.4844513540e+01    0.2037482   0.06115793 -59.33 0.0008032674    2.948    0.661
         2 -10.8024    144.2488      5.9978   3.3952503847e+01   4.7269560686e+01    0.1418564    0.1067554 -29.08  0.000848317    1.584    0.368
         3 -10.2340    158.3021    231.6544   8.5477933847e+01   2.4396830522e+00    0.1292067    0.1074336  63.39  0.000374985    1.685    0.406
         4 -10.7381     33.6130    230.4020   1.1412027739e+02   2.0047904427e+01    0.1923989    0.1794888  82.16 0.0003449569    1.171    0.146
         5 -12.0959    248.7237    226.1306   6.6481011763e+01  -8.6671052413e+00    0.4259064    0.1313176 -40.94  0.001839872    2.915    0.657
         6 -10.7936     16.0502    221.6470   1.1733533846e+02   2.3832493457e+01    0.2110919    0.1429154  76.94 0.0005479427    1.291    0.225
         7 -12.0038    240.1109    205.6447   6.4329453521e+01  -4.4524899645e+00    0.2596841    0.2531314 -86.67  0.001792553    1.682    0.406
         8 -10.2642    140.3799    200.2419   8.4319538067e+01   1.1743958423e+01    0.2036711    0.1434422 -61.86 0.0008834544    1.692    0.409
         9 -10.2941    149.3524    198.6721   8.1862417221e+01   1.0580747069e+01    0.1488719       0.1178  69.11 0.0007047389    1.768    0.435
        10 -10.6025    159.9988    193.5017   7.8365595343e+01   9.8943874206e+00    0.2027203     0.123888  56.26 0.0006223444    2.440    0.590
        11 -10.4939    138.5604    189.2563   8.2742569287e+01   1.4531030325e+01    0.2839058    0.1506031 -55.19  0.001087688    2.053    0.513
        12  -9.8699    217.6819    188.3127   6.5129202850e+01   1.6109361164e+00    0.1222186     0.108416 -70.19 0.0007036144    1.646    0.392
        13 -10.7479    156.1783    186.6010   7.7927400083e+01   1.2052877256e+01    0.2842255    0.1135506 -50.71  0.000992687    2.623    0.619
        14 -10.5218     94.5999    186.4076   9.3723510273e+01   2.2574483868e+01    0.2983595    0.1454994 -75.74 0.0009561792    3.434    0.709
        15 -10.4953    109.3309    186.0073   8.9698766873e+01   2.0292986460e+01    0.2442744    0.1311421 -81.33 0.0007050137    4.322    0.769
        16 -10.5454     66.0000    184.9763   1.0129860769e+02   2.7114181619e+01    0.2408304   0.08009899 -64.33 0.0007203525    2.923    0.658
        17 -10.0790    174.0000    182.9667   7.3074925811e+01   9.7286528525e+00     0.245079   0.08060686 -46.03 0.0007137491    2.934    0.659
        18  -9.8266    137.6807    179.3276   8.1040601502e+01   1.6985352613e+01     0.154627     0.123803  75.55 0.0007047051    1.683    0.406
        19 -10.4922    191.7174    177.1037   6.8041156909e+01   7.8963568323e+00    0.3569828    0.1166872 -42.02  0.001219117    2.830    0.647
        20 -10.4187    101.0012    175.9752   9.0156175205e+01   2.4170369149e+01    0.2122325    0.2105597  54.69  0.001151849    1.012    0.012
        21 -10.1022    159.4063    175.2112   7.4860141312e+01   1.3998663622e+01     0.216451     0.144409 -56.99 0.0008806495    1.709    0.415
        22 -10.3403    206.4786    170.5278   6.3718536360e+01   6.7218758274e+00    0.2549023    0.1241102 -51.36  0.001027249    2.325    0.570
        23 -10.7900    121.3820    169.7540   8.3386050997e+01   2.2208370261e+01    0.3656034    0.2352479 -80.71  0.001360355    2.576    0.612
        24 -10.5312    138.8710    164.5392   7.7693379398e+01   2.0253036581e+01    0.3204408    0.2166875 -68.48  0.001275318    1.965    0.491
        25 -10.4627     80.3003    164.7290   9.4016759267e+01   3.0348726018e+01    0.3782368    0.1987465  68.22  0.001143376    3.952    0.747
        26 -10.7024     92.7997    160.2056   8.9513993765e+01   2.9561120839e+01    0.2745739    0.1649317  69.99 0.0009574906    2.848    0.649
        27 -10.2051    237.0000    158.0397   5.5748259946e+01   4.1842487550e+00     0.228076   0.06381395 -41.61  0.000804843    2.959    0.662
        28 -10.4858    105.2731    158.1187   8.5484341105e+01   2.7981912369e+01    0.3163997     0.199836  60.02  0.001237101    2.132    0.531
        29 -10.3132    119.3125    154.9868   8.0859649185e+01   2.6233824453e+01    0.2550085    0.1351686 -73.41 0.0007041426    4.207    0.762
        30 -10.5598    132.8535    152.5731   7.6650041991e+01   2.4256797556e+01     0.303147    0.2165627  87.64  0.001196311    2.278    0.561
        31 -10.3331     38.6831    147.3493   1.0376217741e+02   4.0301226114e+01    0.1516226    0.1035048  69.11  0.000704776    1.731    0.422
        32 -10.6777    148.7230    144.9419   7.0817636627e+01   2.2925803199e+01    0.4523571    0.2908378 -84.57  0.001484345    3.501    0.714
        33 -11.3495    107.4688    145.6959   8.2180564998e+01   3.0738899244e+01    0.5041811    0.2575801  61.09  0.001446039    4.085    0.755
        34 -10.8054     55.2453    145.2399   9.8190885423e+01   3.8977200997e+01    0.3306013    0.1939889  67.18  0.001286864    2.512    0.602
        35 -10.7995    124.8516    143.1492   7.6662381819e+01   2.8086827755e+01    0.3985941     0.230301 -75.46  0.001204947    3.737    0.732
        36 -10.9153     87.7080    143.7124   8.7679612690e+01   3.4677778296e+01    0.3184118    0.1972865 -81.59  0.001171943    2.504    0.601
        37 -10.5301      1.3663    136.1779   1.1391293262e+02   4.6187458854e+01    0.1914617    0.1076198 -85.60 0.0007339277    1.672    0.402
        38 -10.9366     83.3861    132.3078   8.6532359364e+01   3.8326304318e+01    0.3563636    0.2218221  65.10   0.00133259    2.538    0.606
        39 -10.5333    131.5227    131.0391   7.1939034509e+01   2.9645101628e+01    0.2324867    0.1424674 -70.41 0.0008099921    2.648    0.622
        40 -10.4851    168.4770    129.5020   6.2502046017e+01   2.2307144153e+01    0.1536158    0.1453052 -40.41 9.062218e-05    1.008    0.008
        41 -10.8677    152.6137    127.7414   6.5741429742e+01   2.6008012574e+01    0.4992737     0.185369 -51.78  0.001531094    3.111    0.679
        42 -11.7608     98.3214    126.3390   8.0403330084e+01   3.7250528105e+01    0.8432297    0.3471716 -61.72  0.002449886    3.643    0.726
        43 -11.1612     82.5394    125.7752   8.5295650239e+01   4.0127719750e+01    0.4010037    0.1544216 -56.94  0.001315647    2.672    0.626
        44 -10.6796     59.4367    124.9325   9.2851208838e+01   4.3777434013e+01    0.4100521    0.2251307  72.25  0.001217002    4.573    0.781
        45 -10.3925    117.4080    125.2239   7.4414272956e+01   3.3869909092e+01    0.2311443    0.1522107 -59.41 0.0009497384    1.708    0.415
        46 -11.7055     43.2413    122.1684   9.7898242150e+01   4.6449260192e+01    0.7637632    0.3684983 -83.82  0.002405295    4.011    0.751
        47 -11.0565     28.8419    123.3474   1.0313438466e+02   4.7559795765e+01    0.2793904    0.1804682  83.45  0.001291384    1.981    0.495
        48 -10.7612    141.2585    118.6564   6.6266567268e+01   3.0425334402e+01    0.3036029    0.1923644 -55.65  0.001251449    1.736    0.424
        49 -10.3144    130.4848    118.4982   6.9044703910e+01   3.2747186474e+01    0.1571838    0.1541593 -63.08 1.637017e-06    1.055    0.052
        50 -11.2323    108.5020    112.5458   7.3740919006e+01   3.8617769385e+01    0.7668129    0.2815768 -54.17  0.002298402    3.317    0.699
        51 -10.8255      2.0000    115.0326   1.1116057775e+02   5.1537204242e+01    0.2272413   0.06341694 -71.36 0.0008058486    2.966    0.663
        52 -11.3680     92.3633    112.1041   7.8670520161e+01   4.1791801994e+01    0.6399231    0.3382132 -64.07  0.002239169    2.718    0.632
        53 -11.2852     78.7887    112.2241   8.3215472369e+01   4.4109531392e+01    0.5706359    0.3387586 -79.51   0.00190237    3.456    0.711
        54 -11.0396     13.6046    110.3648   1.0635828892e+02   5.2046468485e+01    0.3437001    0.1616281 -87.10  0.001313089    3.033    0.670
        55 -11.6385     45.2288    102.2400   9.2864732716e+01   5.1255494188e+01    0.5792609    0.3272936  72.29  0.001800464    4.908    0.796
        56 -10.6559    150.0000    103.0108   6.0041122069e+01   3.1833239814e+01    0.2594822   0.08600505 -42.22 0.0008058865    2.966    0.663
        57 -10.5264      6.4153    102.1690   1.0766788464e+02   5.4517145158e+01    0.3147299    0.1219603 -79.89  0.001146212    3.261    0.693
        58 -11.8469    109.0711     98.6878   6.9736941464e+01   4.1606723228e+01    0.7877889    0.5466333 -84.08  0.003061908    2.595    0.615
        59 -12.0349     63.8436     98.6606   8.4957222122e+01   4.9682348820e+01     0.703906    0.2882038 -58.29  0.002468774    2.767    0.639
        60 -10.3611     82.3105    100.6511   7.8916997631e+01   4.6260188915e+01     0.151913    0.1237128  82.09 0.0005132412    1.714    0.416
        61 -11.0074     20.3882     99.1861   1.0178579197e+02   5.4356094502e+01    0.1972993    0.1217365 -75.15 0.0009569106    1.750    0.429
        62 -10.7116     94.5670     97.0075   7.3784411399e+01   4.4848471739e+01    0.3159594    0.2049978 -64.55  0.001294963    2.113    0.527
        63 -10.3724    124.3285     91.6497   6.3360906241e+01   3.9829744563e+01    0.1582729    0.1232392 -84.85 0.0007048377    1.764    0.433
        64 -10.9725     34.4776     89.1652   9.3917811277e+01   5.5540898802e+01    0.5679712    0.1892197 -66.09  0.001687808    4.550    0.780
        65 -11.2152     86.1024     86.4763   7.3482718760e+01   4.8708946791e+01    0.3572966    0.2548595 -70.99  0.001563912    2.121    0.528
        66 -10.9875     48.2812     84.7072   8.7120865905e+01   5.5012378614e+01    0.3192621    0.1976821  68.48   0.00114352    3.959    0.747
        67 -11.6259    104.1939     82.6449   6.6460150814e+01   4.5932131810e+01    0.4776389    0.2658776 -59.84  0.001763491    2.774    0.639
        68 -10.5739     24.3157     80.9746   9.6119801705e+01   5.8370018775e+01    0.2060305    0.1110599 -85.45 0.0007048159    4.304    0.768
        69 -10.9772    103.2695     75.9845   6.4667628433e+01   4.7406427201e+01    0.3253794    0.2008098  52.43 0.0009770514    1.731    0.422
        70 -10.9808     62.5623     73.3099   7.7956554989e+01   5.5447510693e+01     0.276048    0.1368244 -50.43  0.001153575    2.151    0.535
        71 -10.6088     94.6066     70.4189   6.5576182136e+01   5.0221767070e+01    0.2887838    0.1264573 -52.97 0.0009592747    3.464    0.711
        72 -10.5487     42.4773     72.9657   8.6090445143e+01   5.8290992744e+01    0.1802411    0.1253352 -80.13 0.0008100183    2.562    0.610
        73 -10.0661    235.4341     69.4901   3.7907920897e+01   1.9517863870e+01    0.1261102    0.1011747 -60.05 3.077495e-05    1.013    0.013
        74 -11.2424     81.9749     72.5401   7.0500986643e+01   5.2279287285e+01    0.3936862    0.2437228 -64.02  0.001568508    2.786    0.641
        75 -10.6568      8.8433     65.8697   9.9232265579e+01   6.2849284440e+01    0.2058219    0.1370918 -34.52 0.0005647333    1.235    0.190
        76 -10.3736    160.0000    238.9675   8.6261694809e+01   8.3359353636e-01    0.2047462   0.07536431 -48.22 0.0008049663    2.960    0.662
        77 -11.1105     30.7475     51.0654   8.4213179693e+01   6.4009629327e+01     0.347093    0.1869668 -60.97  0.001538139    2.886    0.653
        78 -10.7457     91.7266     48.5866   5.9014602766e+01   5.4430522514e+01    0.3563665    0.1082188 -40.71  0.001213114    3.648    0.726
        79 -10.6707    143.6881     46.2992   4.5533466396e+01   4.2989114120e+01    0.1386382     0.101858 -77.22 0.0007013935    1.604    0.376
        80 -10.7612     82.2156     45.9234   6.1100965754e+01   5.6758061604e+01    0.1948068    0.1908323  54.32 0.0006196101    1.244    0.196
        81  -9.8850    105.3408     53.0141   5.6551424325e+01   5.0856617673e+01    0.2270148    0.1015611 -54.16 0.0007051382    4.409    0.773
        82 -11.6420    122.3667     20.4273   4.1757221552e+01   5.1032122638e+01    0.2659408    0.2376124 -24.07  0.000724583    1.304    0.233
        83  -9.7901     33.2903     20.3255   7.0315787554e+01   6.8629883665e+01    0.1260175   0.07840324   1.08 0.0003309067    1.614    0.380
