#   1 NUMBER                 Running object number                                     
#   2 MAG_AUTO               Kron-like elliptical aperture magnitude                    [mag]
#   3 X_IMAGE                Object position along x                                    [pixel]
#   4 Y_IMAGE                Object position along y                                    [pixel]
#   5 X_WORLD                Barycenter position along world x axis                     [deg]
#   6 Y_WORLD                Barycenter position along world y axis                     [deg]
#   7 A_WORLD                Profile RMS along major axis (world units)                 [deg]
#   8 B_WORLD                Profile RMS along minor axis (world units)                 [deg]
#   9 THETA_WORLD            Position angle (CCW/world-x)                               [deg]
#  10 FWHM_WORLD             FWHM assuming a gaussian core                              [deg]
#  11 ELONGATION             A_IMAGE/B_IMAGE                                           
#  12 ELLIPTICITY            1 - B_IMAGE/A_IMAGE                                       
         1 -12.1530    198.9851     42.8297   4.1648679084e+01   3.0783211378e+01    0.8790093    0.7840881 -66.36  0.003338221    1.038    0.036
         2 -12.3801    208.4233     33.7806   3.8379727095e+01   2.9825122914e+01    0.6795011    0.6538689  34.09  0.001382276    1.300    0.231
         3 -11.1640     24.3688     13.2224   7.7382635458e+01   7.0192009695e+01    0.4991668    0.2350018 -11.36  0.002211612    3.141    0.682
         4 -11.0093    234.9866     11.4974   3.1163188637e+01   2.6773285228e+01    0.7002539    0.3250813  78.44  0.003807422    2.076    0.518
         5 -11.3902    234.0674      3.9172   2.9717534059e+01   2.7743890128e+01    0.7433527    0.4599747  82.16  0.004808518    1.470    0.320
         6 -10.4717     32.5504      6.3970   6.9919757401e+01   6.9996267876e+01    0.4206868    0.1011828 -33.42  0.001652933    4.068    0.754
         7 -11.1461     56.8257    209.9583   1.1122794751e+02   2.3220085771e+01    0.7492093    0.4599255  56.18  0.002522089    1.566    0.361
         8  -8.8520    140.6985    249.8800   9.7877375360e+01   3.6109546130e+00    0.2760018    0.1870689   2.22  0.001343729    1.937    0.484
         9  -9.3114     72.2981    250.2877   1.1182755404e+02   1.3018790626e+01    0.2039259    0.1391365  45.52 0.0005926686    1.227    0.185
        10  -9.3733     72.2760    245.0445   1.1135699433e+02   1.4015399725e+01    0.3566287    0.2124773  81.51  0.001396341    2.032    0.508
        11 -13.2253     42.5788    195.5397   1.1301055210e+02   2.8139613586e+01     6.333701     2.468331  67.84    0.0198243    5.134    0.805
        12  -9.8124    120.0596    212.1657   9.7052674344e+01   1.3811560437e+01    0.2117426    0.1847231   4.20 0.0007735951    1.257    0.204
        13  -9.5286    135.1605    234.9389   9.7009491465e+01   7.0488832080e+00    0.1991049    0.1664452  54.87 0.0007424013    1.293    0.227
        14  -7.9527     88.8256    210.2200   1.0396558996e+02   1.8922112975e+01    0.1656331    0.1522979 -24.71 0.0002761497    1.283    0.221
        15  -7.8660    168.7770    233.5760   8.9731299056e+01   2.1939342235e+00    0.1770065    0.1092122  41.44  0.000693151    1.599    0.375
        16  -9.0408     41.3488    207.6826   1.1445050503e+02   2.5522021929e+01    0.3314604    0.1812251  84.66    0.0011528    1.987    0.497
        17  -8.7543     64.9151    205.3975   1.0889707266e+02   2.3229235505e+01    0.2586355     0.167756  83.78  0.001341792    1.718    0.418
        18  -8.3006    107.4602    204.2070   9.8788156615e+01   1.7461267336e+01    0.1797603    0.1333708 -78.64 0.0008346905    1.594    0.373
        19  -9.6019    110.9559    203.2118   9.7816397397e+01   1.7134124310e+01    0.2146857    0.1745476  59.87 0.0004808323    1.291    0.225
        20  -8.1487     32.4423    202.4503   1.1595439421e+02   2.7644731212e+01    0.1823126    0.1055265  88.99 5.409512e-05    1.685    0.407
        21  -8.2598     29.0531    201.4792   1.1662071646e+02   2.8208397563e+01     0.213233    0.1061572  37.27 0.0005320593    1.935    0.483
        22 -10.1451    122.1845    198.6746   9.4450344312e+01   1.6323265867e+01    0.3706996    0.2570665 -72.56  0.001432276    1.831    0.454
        23  -8.6731     59.8028    197.1544   1.0914831612e+02   2.5748449371e+01    0.1851148    0.1567294  79.30 0.0003356515    1.094    0.086
        24  -9.5457     49.4601    250.5882   1.1629640812e+02   1.5744003895e+01    0.1976607     0.103876  38.53 0.0001951726    1.654    0.395
        25 -14.3362      6.6324    206.3316   1.2174864257e+02   2.9211284622e+01     1.343227      1.04566  70.71  0.007334794    1.078    0.072
        26  -7.8070     82.3336    194.6603   1.0342897862e+02   2.3331095252e+01     0.147628   0.09805988  67.42 0.0007051505    1.750    0.428
        27  -7.9757     23.5842    193.4829   1.1716830003e+02   3.0559555056e+01    0.1238249     0.102075  85.26 0.0001151659    1.014    0.014
        28 -15.2693      2.1959     85.4930   1.1031958725e+02   5.7974214835e+01     16.53035     1.915727 -68.97   0.03629734    9.491    0.895
        29  -9.4076    191.6086    192.2688   7.7728549181e+01   5.8857694987e+00    0.4355794    0.2829634 -74.66  0.001513729    4.643    0.785
        30 -11.6439     56.2471    185.2610   1.0859517740e+02   2.8970271681e+01    0.7204245    0.6397707 -84.99  0.002960611    1.037    0.036
        31  -9.4698     49.9912    217.4684   1.1346156574e+02   2.2393314354e+01    0.4342187    0.2268831  22.47   0.00210249    2.461    0.594
        32  -8.3252    146.3358    186.2749   8.6566269830e+01   1.4890402341e+01    0.1473609    0.1110457  -1.77 0.0001414002    1.605    0.377
        33  -8.8563     49.2261    180.1407   1.0971778492e+02   3.1022139868e+01    0.2208757    0.2019202 -83.79 0.0005652858    1.052    0.050
        34  -8.7237     99.3874    180.8539   9.7100240089e+01   2.4001135371e+01    0.2569359    0.2089183  23.46 0.0006058363    1.320    0.242
        35  -8.6581     37.1229    181.0119   1.1280596116e+02   3.2135422395e+01    0.1953468    0.1707575  87.38 0.0006239727    1.012    0.012
        36  -9.2411     43.3940    178.0534   1.1092858077e+02   3.2176739249e+01     0.441816    0.2796306 -14.76  0.001203314    2.711    0.631
        37  -9.3207    186.8871    174.9291   7.5250265921e+01   9.9737799247e+00    0.3525844    0.2905241 -37.63  0.001167655    1.197    0.164
        38  -9.9074    104.8809    172.8559   9.4317152440e+01   2.5005143697e+01    0.3745446    0.2210059  21.52  0.001565129    2.128    0.530
        39  -9.8473    101.6549    170.1721   9.4674394315e+01   2.6165767781e+01    0.4872966    0.2812472  15.87  0.001899305    2.587    0.613
        40  -9.1041    240.3961    169.7549   6.4043737914e+01   1.9433368785e+00    0.1973889    0.1064145 -28.64  0.000742284    1.706    0.414
        41 -10.3599     69.4379    171.6382   1.0338875626e+02   3.0580013197e+01    0.4227528    0.2843001 -33.49  0.001603749    1.883    0.469
        42  -8.6764     28.3115    168.6426   1.1367479534e+02   3.5982479913e+01    0.2343438     0.140185 -85.96 0.0009987303    1.601    0.375
        43 -10.6091     73.9720    166.9880   1.0147030046e+02   3.1102605721e+01    0.6653463    0.3905072 -73.12 0.0009081964    1.858    0.462
        44 -10.6798     82.2343    158.7758   9.7848789109e+01   3.1943402882e+01    0.5736808    0.4390967  46.78  0.002955138    1.355    0.262
        45 -11.8994     70.9389    153.4207   1.0005636201e+02   3.4877120837e+01     0.603287    0.4820469   9.62  0.001211845    1.499    0.333
        46 -12.1213     68.9168    144.2751   9.9010891707e+01   3.7434915859e+01    0.9271082    0.6914487 -86.39  0.003293035    1.536    0.349
        47  -8.1007     32.6035    156.2159   1.1111349034e+02   3.8621098854e+01    0.1990029    0.1034281 -60.15 0.0009561817    1.663    0.399
        48 -10.5162     89.0885    151.8454   9.4667414797e+01   3.2610830171e+01    0.6653952    0.4171668 -26.19  0.001974496    2.251    0.556
        49  -8.0756    111.2148    149.6040   8.8104580240e+01   2.9471736341e+01    0.3216407    0.1883498 -84.99 0.0009548179    4.346    0.770
        50  -7.7791    174.6917    149.3325   7.2347685856e+01   1.7387512865e+01    0.1478502    0.1219582 -81.64 0.0003617346    1.669    0.401
        51  -8.7674     53.7760    149.6209   1.0429294293e+02   3.8012463192e+01    0.1879401    0.1247297  42.27 0.0009396957    1.601    0.375
        52  -9.8499    133.9554    144.2334   8.0898913346e+01   2.6513273853e+01    0.8949564    0.2295569 -52.08   0.00226979    4.709    0.788
        53  -9.1964     38.6501    146.1762   1.0809050984e+02   4.0525382027e+01    0.2704962    0.2183218  76.18  0.000802949    1.294    0.227
        54  -9.2673    102.5950    138.4981   8.8093173810e+01   3.3645124854e+01    0.4830168    0.3120049 -22.51    0.0019679    2.166    0.538
        55 -10.5964     90.4700    137.5633   9.1376993901e+01   3.5900465537e+01    0.2980933     0.254221 -31.63  0.001549657    1.209    0.173
        56 -11.3331     58.5995    132.8376   9.9971364944e+01   4.1634477594e+01    0.9198985    0.4769621 -77.36  0.003548037    2.636    0.621
        57  -8.9528    105.9971    131.0312   8.5425411739e+01   3.4832915287e+01    0.3377552    0.2756493 -63.11  0.001268415    1.302    0.232
        58  -8.7224     32.3293    131.3276   1.0774412473e+02   4.4837564781e+01    0.2011885    0.1441072  15.78   0.00110156    1.666    0.400
        59  -9.5789    135.4632    128.5138   7.6779266069e+01   2.9766850662e+01    0.4319343    0.1951282 -47.41  0.001569026    2.185    0.542
        60  -9.3980    112.1934    128.9892   8.3184520898e+01   3.4183924766e+01    0.2891397    0.2289243  21.16 0.0008260962    1.387    0.279
        61  -8.7773     43.1858    129.3677   1.0409197675e+02   4.4263667996e+01    0.1905641    0.1223878  39.19 0.0009552095    1.721    0.419
        62  -9.3310     99.2092    124.8856   8.5941434323e+01   3.7495185556e+01    0.2978489    0.2358384   0.55 0.0006471205    1.512    0.339
        63  -9.7066    118.3904    122.8516   7.9946630991e+01   3.4429275083e+01     0.449583    0.2787339  16.49  0.001720919    2.395    0.582
        64  -7.4044     90.4750    123.4622   8.8211968234e+01   3.9321857291e+01    0.1493917    0.1437484 -64.69 0.0001762264    1.083    0.077
        65  -8.0947    108.0928    118.1468   8.1681207566e+01   3.7467550428e+01    0.2246379    0.1967863 -15.06 0.0003173799    1.196    0.164
        66  -9.8365     53.8467    117.8675   9.8523527551e+01   4.5924261892e+01     0.268085    0.1895591 -64.25  0.001367668    1.352    0.261
        67 -10.4938     30.5733    117.5222   1.0604600156e+02   4.8413461202e+01    0.4857866    0.2217817  28.24  0.001635597    2.416    0.586
        68  -8.6960    231.3142    113.8565   5.3680643968e+01   1.3021774727e+01    0.2253507    0.2018636  42.82 0.0008928594    1.280    0.219
        69  -9.1931    135.1527    109.8569   7.2064395224e+01   3.3900694601e+01    0.3979445    0.1072081 -41.32  0.001097417    3.774    0.735
        70  -8.8318    115.2972    109.3635   7.7318993461e+01   3.8068547526e+01    0.1619618    0.1193426 -11.91 0.0007032602    1.717    0.418
        71 -11.0144     31.4460    107.7665   1.0398726285e+02   5.0718638091e+01     0.480536     0.285729 -47.55  0.002466552    1.458    0.314
        72 -10.4453     46.3139    106.2493   9.8580839168e+01   4.9611767410e+01    0.4059291    0.2097741  36.93  0.001842044    2.158    0.537
        73  -8.4259    205.7786    110.2920   5.7019783827e+01   1.8665548401e+01    0.2139217    0.1832615  84.67 0.0006981058    1.391    0.281
        74  -9.2106    113.9989    102.9976   7.5954490050e+01   3.9716299736e+01    0.2852147    0.1715694  16.56  0.001042604    2.648    0.622
        75 -10.6974     31.1994     99.0896   1.0234873863e+02   5.2822419181e+01    0.4074562    0.3343342 -56.76  0.002453317    1.082    0.076
        76  -8.9291    126.5148     94.0209   6.9949538207e+01   3.9013116185e+01    0.2296663    0.1482578 -42.30  0.001011329    1.533    0.348
        77 -16.5211      9.8112    243.5764   1.2321947341e+02   2.1272862868e+01     4.609776     2.259649  23.27   0.02564295    2.755    0.637
        78  -9.8130     33.2015     87.6535   9.9084637734e+01   5.5312626707e+01     0.338646    0.1198355 -53.33   0.00138416    2.235    0.553
        79  -8.6420    155.9803     88.0156   6.1062197000e+01   3.3647955707e+01    0.2448791     0.185979 -77.97  0.000820129    1.759    0.432
        80  -8.3329    115.0749     84.7027   7.0355218912e+01   4.3271922923e+01    0.2101276    0.1913631  32.98 0.0006095807    1.094    0.086
        81 -11.6031    188.0365     51.4397   4.5296941869e+01   3.2116038150e+01    0.5852141    0.4537345  50.34  0.001545795    1.367    0.268
        82  -9.8048    119.9109    245.6621   1.0162908504e+02   7.3606585512e+00    0.1961261    0.1740185 -28.15 0.0009296061    1.318    0.241
        83  -8.8959     44.0547    215.6092   1.1457184086e+02   2.3477785911e+01    0.2522231    0.1463512  57.28  0.001382742    1.614    0.380
        84  -8.0194     68.5402     52.5247   7.4702601240e+01   5.7955955695e+01    0.1364524    0.1196377  -3.03 2.202878e-05    1.020    0.020
        85  -9.1243     46.4958    211.0849   1.1363099283e+02   2.4190009429e+01    0.1917652    0.1368352  80.57  0.000638336    1.325    0.245
        86 -10.3276     32.5836     31.2553   8.1422222767e+01   6.6564917455e+01    0.3507393   0.09832606 -39.77  0.001386225    3.204    0.688
        87 -10.0156    139.4892    216.4913   9.3333852882e+01   9.8642453529e+00    0.2542759     0.226675  30.42  0.001531375    1.034    0.033
        88  -8.4296     62.7881    214.2394   1.1034120960e+02   2.1541857244e+01    0.1637439     0.150136 -35.78 0.0007100533    1.355    0.262
        89  -8.7150    115.2793    243.3478   1.0231126256e+02   8.4481517883e+00    0.1202214     0.094945 -10.11 0.0007010294    1.640    0.390
