#   1 NUMBER                 Running object number                                     
#   2 MAG_AUTO               Kron-like elliptical aperture magnitude                    [mag]
#   3 X_IMAGE                Object position along x                                    [pixel]
#   4 Y_IMAGE                Object position along y                                    [pixel]
#   5 X_WORLD                Barycenter position along world x axis                     [deg]
#   6 Y_WORLD                Barycenter position along world y axis                     [deg]
#   7 A_WORLD                Profile RMS along major axis (world units)                 [deg]
#   8 B_WORLD                Profile RMS along minor axis (world units)                 [deg]
#   9 THETA_WORLD            Position angle (CCW/world-x)                               [deg]
#  10 FWHM_WORLD             FWHM assuming a gaussian core                              [deg]
#  11 ELONGATION             A_IMAGE/B_IMAGE                                           
#  12 ELLIPTICITY            1 - B_IMAGE/A_IMAGE                                       
         1 -15.7595    206.4379     83.2108   1.2585431008e+01   2.2131224933e+01     1.560071    0.7354119 -49.18  0.006983788    2.003    0.501
         2 -14.1836     84.2505     65.4092   3.5284291388e+01   5.3527417460e+01     0.836948    0.7378083 -53.25  0.003947355    1.222    0.181
         3 -15.9921    220.0643     11.2418   3.5512185603e+02   2.8951109803e+01     2.178393    0.6410357 -44.57    0.0100655    2.475    0.596
         4 -15.8906    202.4842      5.9418   3.5510945821e+02   3.3267165615e+01      2.10657    0.8370507 -58.46  0.009927986    2.258    0.557
         5 -12.7559    137.6715     16.9505   4.7183174891e+00   4.7750350195e+01    0.4202101    0.2313416  85.69  0.001923214    1.860    0.462
         6 -15.6618     16.8499      8.0353   4.4343702630e+01   7.5241282220e+01     1.509156    0.7996987  28.57  0.007275689    1.723    0.419
         7 -15.5849     50.4786      6.3505   2.3007598034e+01   6.9870433137e+01     1.751962    0.6873398  52.81  0.007580074    2.310    0.567
         8 -15.1475    212.0280    207.1939   3.6528942437e+01   7.6530740028e-01    0.6824977    0.6248393 -38.96  0.003843977    1.514    0.339
         9 -13.1352    226.5901    249.3085   4.0503540426e+01  -6.5556823986e+00    0.4007558    0.2150486  20.19  0.002148879    1.560    0.359
        10 -12.1469    195.5938    249.7570   4.6097402552e+01  -3.2003941119e+00    0.2230911     0.113553  18.78  0.001261762    1.726    0.420
        11 -16.0836     96.9857    247.6463   6.6416571582e+01   9.8400218764e+00     2.447891     1.027193  31.99   0.01165915    1.856    0.461
        12 -16.7672     74.2044    238.5148   7.0746228921e+01   1.4501129797e+01     2.190168     1.031237  42.44  0.009564693    1.684    0.406
        13 -15.2540      6.7958    248.8132   8.6212597039e+01   1.9985446985e+01     1.770234    0.4022112  25.47  0.006783713    4.154    0.759
        14 -15.6347      3.2768    237.2713   8.6586408976e+01   2.2556352819e+01     1.079536    0.6034966  57.06   0.00441561    1.373    0.271
        15 -15.7789     86.2563    215.0111   6.5510731725e+01   1.7645049590e+01     1.550804    0.9775845  23.52  0.005633397    1.558    0.358
        16 -14.4834     85.6905    207.7604   6.4816758399e+01   1.9277693948e+01    0.7108623     0.547366 -16.48  0.003130148    1.715    0.417
        17 -13.2468    239.5750    216.8649   3.3412424629e+01  -3.8835005558e+00    0.4358493    0.2765343 -16.78  0.002925299    1.308    0.236
        18 -14.5251     64.2384    217.8237   7.1273666186e+01   2.0002581246e+01    0.4096625    0.2976793  52.79  0.001735572    1.216    0.178
        19 -16.2239     49.6004    201.5478   7.3527562973e+01   2.5457329504e+01     1.691748    0.9441057  73.26  0.006660245    2.032    0.508
        20 -13.1554    197.0853    210.1167   3.9786588585e+01   2.3037816074e+00    0.3034517    0.2521227  29.30  0.001847891    1.325    0.245
        21 -15.2982      9.3524    194.8199   8.3497937124e+01   3.1205434693e+01     1.204163    0.6233029 -74.44   0.00622064    1.896    0.473
        22 -15.2562    197.5751    195.0169   3.7133863994e+01   4.6303789060e+00    0.6443297    0.6079412  40.78  0.003765557    1.418    0.295
        23 -15.9624    184.3589    189.2390   3.8712144773e+01   7.5675385164e+00     1.775526     1.310375  37.27  0.009021004    1.398    0.284
        24 -15.8691    189.3131    172.8226   3.4699000511e+01   9.6654209765e+00     1.410867     1.195902  74.17  0.008038889    1.771    0.435
        25 -15.5738    199.4409    165.6385   3.1379193603e+01   9.2846092205e+00      0.86851    0.7626998  38.76  0.003462572    1.287    0.223
        26 -15.6673    199.1181    155.3175   2.9411550446e+01   1.1136974738e+01      1.15195    0.9010953 -16.61   0.00511948    1.272    0.214
        27 -14.4817    212.3245    184.9897   3.2634291443e+01   4.1291798119e+00      1.06573    0.6087262  -9.32   0.00509905    2.373    0.579
        28 -13.4022     94.3960    181.4494   5.8999385046e+01   2.3923808273e+01    0.6295878    0.4127896  39.38  0.003005468    1.372    0.271
        29 -12.9409     23.8063    174.1743   7.8300717285e+01   3.4884750353e+01     0.298588    0.2518151  19.02  0.001168732    1.327    0.246
        30 -15.4394    178.8817    151.2732   3.2523902231e+01   1.5426613790e+01     2.982288     1.249858 -27.95  0.008988145    4.471    0.776
        31 -15.3967    171.7829    126.6219   2.8628320132e+01   2.1561563437e+01     1.166792    0.7265264 -38.10  0.005386107    1.590    0.371
        32 -15.8947    178.7891    121.4036   2.6026010280e+01   2.1142088842e+01      1.67991    0.7988471 -53.74  0.006396617    2.565    0.610
        33 -13.9677      3.4197    194.7809   8.4995366102e+01   3.1712208987e+01     0.777818    0.2982611 -75.35  0.003549543    2.470    0.595
        34 -14.2152     91.0074    159.8333   5.6487989594e+01   2.9684295710e+01    0.6888353    0.4573521  30.94  0.002845246    1.467    0.318
        35 -11.8431     66.9782    160.4911   6.3841180975e+01   3.3242267326e+01     0.415324    0.1407156  29.85  0.001387044    2.824    0.646
        36 -15.0157     95.2262    143.8040   5.2261436519e+01   3.2944597173e+01     1.799421    0.9676208  55.34  0.006702318    2.288    0.563
        37 -14.5197     80.3336    139.0325   5.6008132632e+01   3.6710370546e+01    0.8243612    0.4802338 -66.80  0.003391374    1.887    0.470
        38 -14.5257     79.0719    130.5146   5.4741547361e+01   3.9110308922e+01    0.8541572    0.7344934  78.68  0.002721114    1.247    0.198
        39 -13.1100     42.0675    148.4561   7.0100760130e+01   3.9606045508e+01     0.526421     0.428615  78.20  0.002825045    1.204    0.170
        40 -14.2131     33.9809    145.8423   7.2444508242e+01   4.1180739474e+01    0.7620916     0.539517 -88.24  0.003090645    1.400    0.285
        41 -14.0453     19.3346    143.7947   7.7068204502e+01   4.3098669074e+01    0.5076209     0.340555  51.78  0.002632963    1.440    0.306
        42 -14.4764      3.0608    130.3466   8.1379899689e+01   4.7788751182e+01    0.9786265    0.3526128 -78.28    0.0039087    2.463    0.594
        43 -14.9209     31.1527    123.7625   7.0595375017e+01   4.7342711688e+01    0.9063716    0.7346008  48.69  0.003249453    1.241    0.194
        44 -13.2150     46.3409    124.8263   6.5164759398e+01   4.5382313967e+01    0.5469818    0.3099431 -62.49  0.002221386    1.687    0.407
        45 -14.2156    223.3118    119.0138   1.7974002735e+01   1.3143155417e+01    0.4311388    0.3762908  64.70   0.00277967    1.366    0.268
        46 -14.9109    210.8433    116.8438   1.9394670836e+01   1.5730412669e+01    0.6706624    0.6056885 -76.18  0.003775866    1.241    0.194
        47 -15.2890      8.1246    105.1288   7.7090223338e+01   5.4086744511e+01     1.182545    0.5028951 -57.14  0.005134781    2.038    0.509
        48 -13.7869     41.5437    107.6326   6.3930706313e+01   5.0509590876e+01    0.6824362    0.4914028 -64.97  0.002497788    1.342    0.255
        49 -14.0467     34.3817    102.6898   6.5918090411e+01   5.2598523863e+01     1.009788    0.4754778 -66.73  0.004142744    2.034    0.508
        50 -16.2593    186.5785     84.2437   1.5797482691e+01   2.6179382482e+01     1.645551     1.198192 -12.38  0.008043938    1.961    0.490
        51 -14.8599      6.9326     82.1637   7.4550185128e+01   6.0056558334e+01     1.159514    0.3179113 -64.91  0.004319374    2.785    0.641
        52 -13.0766    188.1743    241.2794   4.6303528257e+01  -1.1560831579e+00    0.3382919    0.2206457  30.62  0.001574349    1.410    0.291
        53 -14.0689     88.0134     74.6036   3.7005597009e+01   5.0843713090e+01    0.8352863     0.683199  49.04  0.003785021    1.190    0.159
        54 -13.1187    233.0472    238.8175   3.7878557647e+01  -5.9574633830e+00    0.3825278    0.2249533   5.04  0.001991724    1.503    0.335
        55 -13.4848     47.8754     61.1956   4.9184078819e+01   6.1047825156e+01    0.3896639    0.2949507  24.25  0.002014712    1.298    0.230
        56 -14.4000     18.0944     91.2036   7.0888921064e+01   5.7042055882e+01    0.5384544    0.3265925 -67.66  0.001751629    1.516    0.340
        57 -15.4564    175.9785     53.0497   9.5165502759e+00   3.3554443596e+01    0.8297343    0.6929595  52.89  0.002764502    1.340    0.254
        58 -13.3657    132.6026     56.6228   1.8373334782e+01   4.3688868889e+01    0.3741386    0.2618157 -50.90  0.001795444    1.497    0.332
        59 -14.5296      3.7028     47.2590   6.9551947954e+01   6.8609500622e+01    0.8122446    0.6463429  89.49  0.004976938    1.510    0.338
        60 -14.1641      4.5026     40.3340   6.7223265049e+01   7.0110809012e+01    0.8126525    0.4342698 -43.05  0.004304877    1.592    0.372
        61 -11.6826     34.5870     72.2565   5.9031770417e+01   6.0244818080e+01    0.2056705    0.1193377 -48.76 0.0009514671    1.615    0.381
        62 -13.0209     51.1791     37.7974   3.8527921816e+01   6.5168865181e+01    0.4088879     0.274957 -12.62  0.001988583    1.883    0.469
        63 -14.3925    191.1451     33.7225   2.6888515960e+00   3.2641826036e+01    0.9398644     0.427444  86.85   0.00394527    2.653    0.623
        64 -14.5472    196.7341    230.2832   4.3042981772e+01  -6.5666378622e-01    0.7624439    0.4948907  32.31  0.004259816    1.502    0.334
        65 -14.9851      8.5650    219.6560   8.4793211865e+01   2.5718910424e+01     0.975223    0.3650942  49.61  0.003275942    2.020    0.505
        66 -12.3394    169.7752     19.0001   1.2028029719e+00   3.9472246038e+01     0.253338    0.1741027  79.35  0.001412752    1.290    0.225
        67 -13.4049      2.4762    218.9978   8.6159152085e+01   2.6398608762e+01    0.3681223    0.1828483  89.54  0.001490801    1.932    0.482
        68 -14.7522    212.9539    219.8471   3.8423697529e+01  -1.1819935092e+00    0.7223125    0.4763146  28.21  0.003990232    1.456    0.313
