#   1 NUMBER                 Running object number                                     
#   2 MAG_AUTO               Kron-like elliptical aperture magnitude                    [mag]
#   3 X_IMAGE                Object position along x                                    [pixel]
#   4 Y_IMAGE                Object position along y                                    [pixel]
#   5 X_WORLD                Barycenter position along world x axis                     [deg]
#   6 Y_WORLD                Barycenter position along world y axis                     [deg]
#   7 A_WORLD                Profile RMS along major axis (world units)                 [deg]
#   8 B_WORLD                Profile RMS along minor axis (world units)                 [deg]
#   9 THETA_WORLD            Position angle (CCW/world-x)                               [deg]
#  10 FWHM_WORLD             FWHM assuming a gaussian core                              [deg]
#  11 ELONGATION             A_IMAGE/B_IMAGE                                           
#  12 ELLIPTICITY            1 - B_IMAGE/A_IMAGE                                       
         1 -15.0524      9.5974    144.7828   1.4102826462e+02   4.4167170154e+01     9.313693     3.164456 -84.67   0.03250003    4.271    0.766
         2 -13.1403    197.9841     31.0250   6.6334826364e+01   3.2188270662e+01     1.291866     1.168699  58.83  0.007204605    1.230    0.187
         3 -13.3303    214.1933     11.2690   5.9909880527e+01   3.0671942199e+01     1.142009      0.86133  50.29  0.003534334    1.598    0.374
         4 -11.3279      2.0000     14.4727   1.1528623790e+02   7.0650830794e+01    0.4868777    0.1159813 -48.72  0.002074733    4.170    0.760
         5 -11.0206      2.3364      3.8469   1.1069405853e+02   7.2068664073e+01    0.3100737    0.1728255 -46.00  0.002058664    2.150    0.535
         6 -10.4261     52.6012    237.5881   1.4115998033e+02   1.8968923652e+01    0.2310538    0.1613346  69.05  0.000663094    1.134    0.118
         7 -11.4101    249.2295    248.1824   1.0501956366e+02  -1.4200147285e+01    0.3283455    0.2798792 -29.83  0.002358332    1.468    0.319
         8 -10.5333    139.8939    250.2787   1.2594710881e+02   3.0397975307e+00     0.327181    0.1376047  37.26  0.001438711    2.240    0.553
         9 -10.7167    125.3667    250.1746   1.2874060063e+02   5.4963271918e+00    0.3676099    0.1290405  38.10  0.001476322    2.736    0.634
        10 -10.2554     65.5311    248.9331   1.3980397091e+02   1.4987554735e+01     0.261748    0.1732231  79.30 0.0008107197    1.334    0.250
        11 -11.1532     28.8412    249.5808   1.4619459849e+02   1.9596140441e+01    0.3524739    0.1588301  49.94  0.002086167    1.795    0.443
        12 -11.8813     36.3125    243.6621   1.4452594415e+02   1.9839216395e+01    0.4299757    0.3835023 -45.05   0.00315825    1.879    0.468
        13 -12.5080     12.4636    241.0806   1.4836571859e+02   2.3067602722e+01    0.6492429    0.5141374  44.34  0.004984825    1.599    0.375
        14 -11.4099      4.2066    248.8397   1.5011412326e+02   2.2455943572e+01    0.6964809    0.2447312  48.04   0.00403877    2.226    0.551
        15 -10.3715      2.2965    240.8603   1.4999727125e+02   2.4162634943e+01    0.3185903    0.1246418 -86.57  0.001775057    2.158    0.537
        16  -9.5698    233.9572    237.4738   1.0591878729e+02  -1.0569125906e+01     0.156304    0.1031864  56.15 0.0008085651    2.442    0.591
        17 -11.1736     16.8263    249.4878   1.4815070980e+02   2.0986172370e+01    0.4192795     0.183893  56.06  0.002531277    1.777    0.437
        18 -14.1835    100.9661    228.3739   1.3086081839e+02   1.3682432840e+01     9.341012    0.1292375  46.28   0.01484937   16.408    0.939
        19 -10.8254    162.9292    249.3131   1.2134126231e+02  -7.1642224560e-01     0.283051    0.1629643  45.16  0.001499035    1.481    0.325
        20 -10.5545      3.5140    228.4939   1.4911050647e+02   2.6458463986e+01    0.3338211    0.1223241  65.80  0.001692782    2.532    0.605
        21 -10.7501      9.5178    226.5615   1.4797681501e+02   2.6244169427e+01    0.2629519    0.1134733 -77.39   0.00149564    1.902    0.474
        22 -10.4280      6.0324    226.0258   1.4853886122e+02   2.6703048297e+01    0.2264217   0.09420574  61.70  0.001254829    2.059    0.514
        23  -9.0067    229.3364    229.6709   1.0540158934e+02  -8.7397965531e+00    0.1140127    0.1021957  73.79 0.0007051994    1.729    0.422
        24 -12.4041      9.3835    207.3359   1.4671661040e+02   3.0234367684e+01    0.6743453    0.5921447  34.91  0.003310262    1.621    0.383
        25  -8.6760    152.6756    213.0119   1.1780924749e+02   7.6556924599e+00      0.18002    0.1749597 -83.59 0.0003309879    1.108    0.097
        26  -9.6548      6.9606    215.2764   1.4769828672e+02   2.8806195534e+01    0.1550454    0.1168231  77.38 0.0004422562    1.088    0.081
        27 -11.3070     58.5964    197.0647   1.3591907295e+02   2.6841181972e+01    0.2844438     0.230122 -58.93 0.0005547795    1.390    0.280
        28  -9.5778    192.2739    193.6386   1.0593034527e+02   3.8418802555e+00    0.6002279    0.2919897 -64.33  0.001485907    7.333    0.864
        29 -11.5811     65.1413    188.8820   1.3348255376e+02   2.7821501049e+01    0.2836372    0.2433453 -57.45 0.0004218364    1.328    0.247
        30  -8.2674    221.6932    213.3400   1.0387030664e+02  -4.9726737708e+00    0.1215937    0.1078531  89.61 0.0007042296    1.683    0.406
        31 -10.5998     75.6382    176.3219   1.2931554054e+02   2.9256449118e+01    0.2502783    0.2222577 -84.87 0.0002958148    1.046    0.044
        32 -12.9729     62.2763    174.1240   1.3215613245e+02   3.1678565740e+01    0.5352779    0.2807205 -46.18  0.002007369    2.319    0.569
        33  -9.6041     95.1893    171.9201   1.2391186736e+02   2.7207263994e+01    0.2872589    0.1906503  45.49 0.0009648486    1.505    0.336
        34 -11.5050     83.2058    167.4028   1.2607839676e+02   3.0231206289e+01    0.6136793    0.4891073 -49.04  0.002144645    1.351    0.260
        35 -12.5019     30.9715    230.4018   1.4448666756e+02   2.3117631028e+01     0.298072    0.2488586 -80.80 0.0007395849    1.338    0.253
        36 -11.7594     85.0140    150.6606   1.2266121509e+02   3.3984673467e+01     0.307388    0.2507243 -45.47 0.0004474097    1.295    0.228
        37  -8.8387     99.7622    147.4375   1.1817991058e+02   3.2294578384e+01    0.1891118    0.1473206  24.92 0.0005546576    1.548    0.354
        38 -12.0355     67.5209    143.5465   1.2596164341e+02   3.8310303339e+01    0.6872152    0.4540546  65.89  0.002841601    1.825    0.452
        39  -9.2690    108.6220    137.1223   1.1364476858e+02   3.3151852763e+01    0.3961205    0.2470514 -20.08  0.001406001    3.068    0.674
        40  -9.6903     96.4931    151.7051   1.1988199458e+02   3.1835218466e+01    0.2757576    0.2634924 -89.05  0.000726568    1.052    0.049
        41 -10.1573     95.7838    134.0864   1.1642237095e+02   3.6182365047e+01    0.2396574    0.2231105 -12.64 0.0003737274    1.229    0.187
        42 -13.5697     36.6098    223.3867   1.4290916458e+02   2.3893002783e+01    0.7340845    0.5736242  69.04  0.002346531    1.117    0.105
        43  -8.7487    106.1498    123.6386   1.1119291126e+02   3.6773423945e+01    0.1938042    0.1822637  34.23 0.0003448468    1.128    0.114
        44  -9.8873    167.6969    112.6923   9.2975056234e+01   2.5917089580e+01     0.296452    0.2560886 -78.81  0.000714426    1.257    0.204
        45  -8.4806    203.4617    111.5004   8.5390809810e+01   1.7771856943e+01    0.1497711     0.145105 -45.23 0.0003045466    1.070    0.065
        46 -11.4654    243.3540     93.2903   7.4665644898e+01   1.2198174255e+01    0.4347657     0.218602 -40.32  0.001946859    1.802    0.445
        47  -9.1140    158.5138     77.4751   8.5516866584e+01   3.4905791916e+01    0.1503869    0.1439104  79.34  0.000273925    1.019    0.019
        48  -9.0386     56.9768     75.2176   1.1349631909e+02   5.5063524915e+01    0.1747241    0.1716439 -70.11 0.0004135777    1.255    0.203
        49  -9.2196     47.8341     69.9401   1.1514426238e+02   5.7207714674e+01    0.1872642    0.1774444  37.87 0.0002414435    1.320    0.242
        50 -12.1243      6.0932     51.4775   1.2559145637e+02   6.4319502003e+01    0.5739045    0.3348182  39.29  0.003080873    2.481    0.597
        51 -10.3695     81.7542    248.9854   1.3685523378e+02   1.2633252289e+01    0.2387562    0.1233769  55.24  0.001284313    1.628    0.386
        52 -10.4142     46.2314    248.3903   1.4316398349e+02   1.7682319552e+01    0.3126648     0.156042  79.16  0.001448115    1.992    0.498
        53 -11.6106    238.2076    248.8926   1.0709185712e+02  -1.2732277392e+01    0.3794641    0.1887653  28.48  0.002028814    1.840    0.457
