#   1 NUMBER                 Running object number                                     
#   2 MAG_AUTO               Kron-like elliptical aperture magnitude                    [mag]
#   3 X_IMAGE                Object position along x                                    [pixel]
#   4 Y_IMAGE                Object position along y                                    [pixel]
#   5 X_WORLD                Barycenter position along world x axis                     [deg]
#   6 Y_WORLD                Barycenter position along world y axis                     [deg]
#   7 A_WORLD                Profile RMS along major axis (world units)                 [deg]
#   8 B_WORLD                Profile RMS along minor axis (world units)                 [deg]
#   9 THETA_WORLD            Position angle (CCW/world-x)                               [deg]
#  10 FWHM_WORLD             FWHM assuming a gaussian core                              [deg]
#  11 ELONGATION             A_IMAGE/B_IMAGE                                           
#  12 ELLIPTICITY            1 - B_IMAGE/A_IMAGE                                       
         1 -10.6611     23.9302     17.8027   3.3813580125e+01   7.3975972314e+01    0.4066908    0.2247489 -58.64  0.001353635    2.752    0.637
         2 -10.9729     19.7810     16.2720   3.5960252455e+01   7.4845417771e+01    0.3292372    0.2187068 -28.45  0.001306925    1.570    0.363
         3 -10.8220    183.3401     14.9080   3.5142840868e+02   3.7717566697e+01    0.3448623     0.173528 -64.71    0.0014613    1.840    0.457
         4  -9.3728    179.2866      1.3349   3.4820611272e+02   3.9984441233e+01    0.1085634   0.09136105  44.04 0.0001974076    1.627    0.385
         5 -12.0539    178.1665      7.5451   3.4989764639e+02   3.9629325751e+01    0.4698655    0.2437841 -45.18  0.001966265    1.607    0.378
         6 -11.6208    174.5422      3.5872   3.4910304258e+02   4.0830256101e+01    0.3197378    0.2489766 -75.36 0.0008953962    1.067    0.063
         7 -10.9981    113.1582     14.1479   3.5907207350e+02   5.4620644678e+01     0.521363    0.1858306  72.40   0.00197783    2.670    0.626
         8 -12.0412     49.6019     14.1314   1.6713651894e+01   6.9809574729e+01    0.8398479    0.4720179  17.60  0.003169684    3.118    0.679
         9 -10.8411     45.3937     12.1239   1.7474990514e+01   7.0943848451e+01    0.4164449    0.2243146  38.11 0.0005363494    1.855    0.461
        10 -10.4871     35.1001     13.7441   2.3986129117e+01   7.2735039735e+01    0.2649045    0.2153558   1.43 0.0008503415    1.293    0.226
        11 -11.2503     32.2476     10.1685   2.3375195178e+01   7.3766179076e+01    0.2544826    0.2135831   2.29  0.001023475    1.199    0.166
        12 -10.4615     27.6942     10.6833   2.6642750023e+01   7.4499977003e+01    0.1964334    0.1594971 -15.57 0.0008584228    1.257    0.204
        13 -10.3032    162.3890     11.9039   3.5233958761e+02   4.2793230511e+01    0.2265196     0.152356 -81.57 0.0007050183    1.332    0.249
        14  -9.4599    105.2956      9.9515   3.5875644600e+02   5.7020454454e+01    0.1720602    0.1626587 -71.73 0.0003273472    1.113    0.101
        15 -10.1212     69.7665      9.5271   6.6616762926e+00   6.5807336731e+01    0.2540913    0.1880204  31.86 0.0009444895    1.467    0.319
        16 -10.1311    218.8491      8.6532   3.4775187726e+02   3.1042864428e+01     0.168381    0.1332618 -46.27 0.0004207653    1.196    0.164
        17  -9.0115    213.3785      8.2729   3.4794658490e+02   3.2148167248e+01    0.1015344   0.08467899  51.84 0.0006999089    1.696    0.410
        18 -11.2861    124.1780      7.0057   3.5484155399e+02   5.2561271528e+01    0.4057067    0.2241293 -87.11  0.001953699    1.812    0.448
        19  -9.4806    115.4771      8.5198   3.5658190565e+02   5.4598602625e+01    0.1350801    0.1159226 -86.23 0.0001349365    1.033    0.032
        20 -11.6404    113.8950      2.5198   3.5453434238e+02   5.5538163136e+01    0.4075387    0.2756235 -42.39  0.001217848    1.504    0.335
        21 -10.9876     97.4947      6.5344   3.5872383969e+02   5.9301576126e+01    0.4605536    0.1952334 -50.24  0.001893779    2.713    0.631
        22 -11.4451     85.3427      7.0957   1.4248199099e+00   6.2273719644e+01    0.3013561    0.2497991 -83.63  0.001091732    1.215    0.177
        23 -10.6940     79.5873      7.7406   3.0826894113e+00   6.3624569050e+01    0.2970914    0.2462973  68.21  0.001779123    1.076    0.070
        24  -8.9621     40.2852      8.3217   1.7617459527e+01   7.2463010654e+01    0.1306385   0.09147775  20.39 0.0003926952    1.596    0.373
        25  -9.3706    235.7180      7.3820   3.4670581104e+02   2.8032404545e+01    0.1325341   0.09266052  78.74 0.0007822487    1.611    0.379
        26  -9.7890     16.2186      4.6068   3.0887791505e+01   7.7250530082e+01    0.1708632    0.1046111  26.97 0.0004605909    1.567    0.362
        27  -9.2361    131.4582      3.5026   3.5276932181e+02   5.1071354691e+01    0.1309301    0.1118267 -84.53 0.0001277758    1.017    0.017
        28  -9.3327    101.2815      3.6869   3.5686868461e+02   5.8605984626e+01    0.1348675   0.08983984 -64.67 0.0002698039    1.571    0.364
        29 -10.6635     13.6826    117.0022   6.7511111723e+01   5.0910263657e+01    0.3185861    0.1887331 -33.81  0.001430976    2.002    0.500
        30  -9.7982     91.7098    116.2948   3.8377220580e+01   4.0550308129e+01    0.2068269    0.1808656 -19.39 0.0009406498    1.329    0.248
        31 -10.1905     20.9152    115.7307   6.4454769426e+01   5.0679689385e+01    0.3488125    0.1771931 -46.84  0.001453146    2.071    0.517
        32  -9.7892     96.0518    111.9635   3.5962797070e+01   4.0785573351e+01    0.2298523    0.2199865 -48.07 0.0004501386    1.071    0.066
        33  -9.5441     79.4399    110.7269   4.1094628557e+01   4.4162610402e+01    0.2109777    0.1432157 -45.54 0.0007195966    1.528    0.346
        34  -9.6639    163.5122    109.5068   1.8543710663e+01   2.7671339306e+01    0.1418759     0.130812 -47.02 -5.606107e-06    1.009    0.009
        35 -10.9689     25.1266    107.4138   6.1535448053e+01   5.2585896844e+01    0.4468105     0.228112 -30.10  0.001681332    2.689    0.628
        36  -9.4250    102.8434    105.6376   3.2280461862e+01   4.0947224819e+01    0.2353387    0.1383277  53.18 0.0009511734    1.846    0.458
        37  -9.1254     47.5475    105.5480   5.1877419296e+01   5.0529193603e+01    0.1511544    0.1418575  78.48 -6.357829e-08    1.056    0.053
        38  -9.7831     13.2930    105.6868   6.6336008633e+01   5.4045913688e+01    0.1487258   0.09807347  60.65 0.0002291259    1.594    0.373
        39 -10.5735      1.8454    104.6783   7.1138275189e+01   5.5036993857e+01    0.2704786    0.1615521 -58.66 0.0008043436    1.548    0.354
        40  -9.1828    108.1387    100.8427   2.9452729633e+01   4.0960777469e+01    0.1983836    0.1817528   1.30 0.0003157254    1.272    0.214
        41 -11.4528     28.1820     99.7146   5.8935344778e+01   5.4387303739e+01    0.4201371    0.2615514 -28.20  0.001850371    1.976    0.494
        42 -11.4150     64.6280     96.1994   4.2877657890e+01   5.0389861805e+01    0.3617517    0.2947129  39.38 0.0006186808    1.231    0.188
        43 -10.5764    103.0107     95.4206   2.9466958795e+01   4.3248588690e+01    0.2762408    0.2183376 -52.21 0.0001678673    1.254    0.203
        44  -9.7771      4.9778     95.5333   6.8781274941e+01   5.7349717838e+01    0.3122498   0.09432391 -45.63  0.001036019    3.416    0.707
        45 -10.8798     90.2314     94.2959   3.3161219367e+01   4.6122829931e+01    0.2736704     0.243783  75.06 0.0004671908    1.171    0.146
        46 -11.1595     16.2343     94.3516   6.3430044193e+01   5.6912402338e+01    0.3222836    0.2781197  -4.21  0.001020657    1.271    0.213
        47  -9.4898     70.0135     98.5225   4.1427584378e+01   4.8887916648e+01    0.2358877    0.1513171  36.37  0.001025452    1.571    0.363
        48  -9.4759      2.2255     88.0569   6.9181513689e+01   5.9509817842e+01    0.1871027     0.103581 -74.80  0.000499763    1.627    0.385
        49 -10.7018    248.7714     87.2301   1.8614606995e+00   1.6097883656e+01    0.1856369   0.07950141 -28.80 0.0008848992    2.460    0.594
        50 -10.6520     12.0744     85.6911   6.4037156894e+01   5.9549830105e+01    0.1913991    0.1796343 -25.76 0.0005288632    1.112    0.101
        51  -9.7367    186.4001     81.7937   7.9724853021e+00   2.7928417984e+01    0.2789692     0.149545 -80.78  0.000972987    4.148    0.759
        52  -9.4673    160.1704     81.1937   1.2039054102e+01   3.3548301566e+01    0.1965073    0.1525649 -66.43 0.0003833406    1.310    0.237
        53 -12.3783     54.3253     78.7921   4.2301909308e+01   5.6408130328e+01    0.3209249    0.3016708  68.06 0.0004257903    1.103    0.093
        54  -9.8460    143.7095     77.1559   1.4067254032e+01   3.7933238202e+01    0.2426719    0.1936956  76.62 0.0007340657    1.318    0.241
        55  -9.6324    152.1736     76.1879   1.2150245031e+01   3.6194095136e+01    0.2026706    0.1597769 -71.76 0.0008419059    1.313    0.238
        56 -10.6697      2.8660     75.1283   6.7104848089e+01   6.2902184433e+01     0.205413    0.1812037  67.32 0.0005619463    1.202    0.168
        57  -9.2742    202.4992     79.5177   5.2675869044e+00   2.5125121455e+01    0.1301848    0.1091103 -49.72 0.0003125085    1.010    0.010
        58 -11.6124     64.1015     69.5655   3.5190467949e+01   5.6875938956e+01    0.2553194    0.2306455 -50.04 0.0002415141    1.114    0.102
        59 -10.1700      7.9164     68.9738   6.3284361119e+01   6.4211331547e+01    0.2099974    0.1887742 -53.20 0.0006267481    1.023    0.022
        60 -10.5769    101.5169     67.0393   2.1187997483e+01   4.9549727191e+01    0.3114704     0.256163 -52.14  0.000651401    1.222    0.182
        61 -10.9883    100.3230     63.2597   2.0252712236e+01   5.0546573963e+01    0.4517068    0.2998765 -72.87  0.001913775    2.079    0.519
        62 -10.2048    192.0587     65.8729   3.3532551597e+00   2.9250983725e+01     0.193681    0.1636776 -56.79 0.0003695327    1.008    0.008
        63  -9.0907     40.2478     65.9935   4.4982508468e+01   6.1628090145e+01    0.1844326    0.1203249 -57.02 0.0004054017    1.515    0.340
        64 -10.4869    250.4502     65.0296   3.5736789060e+02   1.8781730291e+01    0.1781029   0.08563364 -37.34 0.0006221817    1.579    0.367
        65  -9.3616    204.4975     65.5387   1.8068262793e+00   2.6816645681e+01    0.1298447    0.1044789 -54.73 0.0001698108    1.036    0.035
        66 -10.6297      4.1968     63.7447   6.4426340271e+01   6.5767425909e+01     0.303821    0.2116292 -69.89 0.0008400646    1.335    0.251
        67 -11.1055      2.9854     59.5257   6.4333942416e+01   6.6897369934e+01    0.4120339    0.2501296  -9.40  0.001494581    1.803    0.445
        68  -9.5805     75.2331     64.4509   2.9001737887e+01   5.5807442531e+01    0.2072539    0.1396744  56.45 0.0007026594    1.587    0.370
        69  -9.8018     78.4582     62.5629   2.7132101451e+01   5.5524851168e+01    0.2325884    0.1881628  41.70 5.771768e-05    1.232    0.189
        70 -11.5965    248.8357     52.5493   3.5503030469e+02   2.0619430435e+01    0.2950832    0.2086622 -60.00  0.002107146    1.222    0.182
        71 -10.1003    114.3101     60.4388   1.5531207101e+01   4.7789959626e+01    0.3551776     0.206561 -51.14  0.001540414    1.789    0.441
        72 -12.0440     20.5615     58.5816   5.3483975992e+01   6.5794087885e+01    0.5275493    0.3726818  -6.62  0.001927942    1.584    0.369
        73 -10.4746    124.8501     59.8941   1.2874476014e+01   4.5374717924e+01    0.2301362    0.2019532  68.33 0.0003770278    1.115    0.103
        74  -9.7887     66.3928     58.0089   3.0108158996e+01   5.8924515055e+01    0.3261926     0.198639  78.88  0.001080151    3.834    0.739
        75 -11.2911    231.3552     60.1259   3.5795595639e+02   2.2599927038e+01    0.2683937    0.1635855  87.48  0.001013137    2.012    0.503
        76  -9.0322     45.4775     56.5049   3.9074460327e+01   6.3016224827e+01    0.1399441    0.1378767   9.22 7.747544e-05    1.029    0.028
        77  -9.9442     88.5951     52.8339   2.0065156642e+01   5.5161199244e+01    0.2386048    0.1910776  44.32 0.0004881464    1.254    0.203
        78 -10.5530    149.6867     49.2022   4.8492282237e+00   4.1139561624e+01    0.4543547    0.1667721 -32.86  0.001683093    2.826    0.646
        79 -10.7595     15.6486     51.0458   5.4256594152e+01   6.8066045149e+01    0.1904895    0.1680762 -45.48 0.0006309201    1.062    0.058
        80  -9.5324    112.4482     50.5308   1.2606024864e+01   4.9921621629e+01    0.2695626    0.1191785  47.58 0.0007167421    2.398    0.583
        81 -11.5550     93.9742     48.5333   1.6787214097e+01   5.4667508558e+01    0.2883434    0.2084683 -45.94 3.105892e-05    1.424    0.298
        82 -11.2257    249.0105     45.3201   3.5358980188e+02   2.1476696718e+01    0.3659091    0.1562018 -48.06  0.002085267    1.716    0.417
        83 -10.2144      5.2918     46.9319   5.9928398877e+01   6.9845853395e+01     0.349152    0.1432939 -28.81  0.001354398    2.943    0.660
        84  -9.2925    157.4825     45.5125   2.5886950633e+00   3.9837183393e+01    0.1384384    0.1212359 -70.21 0.0002561442    1.003    0.003
        85 -10.7543     38.9845     43.5438   3.7350222417e+01   6.6810418233e+01    0.3831363    0.2808654  37.61  0.001508314    1.347    0.257
        86  -9.6391     31.8419     43.6832   4.1522749349e+01   6.7849411871e+01    0.2627068    0.1254207  23.08 0.0009182503    2.438    0.590
        87  -9.9819    118.8511     41.4679   7.9966685366e+00   4.9762709495e+01    0.2728397    0.2001527  -7.21   0.00131373    1.956    0.489
        88 -10.3637    158.8627     39.1980   5.7873234860e-01   4.0383893138e+01    0.2249978    0.1898615 -69.46 0.0003682668    1.036    0.035
        89  -8.9871      1.0000     39.9588   6.1087390638e+01   7.1743740987e+01    0.2017218   0.06845672 -68.96 0.0004840844    2.806    0.644
        90  -9.8502    218.2913     38.3047   3.5431713172e+02   2.7789942174e+01    0.1015052   0.09283965   3.55 0.0002107115    1.573    0.364
        91  -9.4202     96.0029     38.0024   1.2123769181e+01   5.5866986687e+01    0.1740908    0.1520309  66.16 0.0003986412    1.073    0.068
        92  -9.9714     63.7272     38.4241   2.3098931234e+01   6.3169388082e+01    0.2695517    0.1327904  53.30  0.001036927    2.060    0.515
        93 -10.3187     47.1534     35.8886   2.9516322128e+01   6.6892713591e+01     0.265521    0.2003056 -42.99  0.000277845    1.382    0.276
        94 -10.8052     50.1542     32.5311   2.6392738588e+01   6.6920172639e+01    0.4373004     0.212233  53.74  0.001250791    2.354    0.575
        95  -9.4985    144.9684     35.9518   1.5598397150e+00   4.4130056216e+01    0.1638535    0.1445772 -71.74            0    1.023    0.022
        96 -10.6476     40.2666     35.7262   3.3106184540e+01   6.8139894050e+01    0.3609936     0.213121  46.50  0.001183511    1.767    0.434
        97 -10.6026    119.2141     34.9657   5.6330537079e+00   5.0594580925e+01    0.2404652    0.1896492  64.15 0.0003159039    1.208    0.172
        98  -9.5968    189.8898     32.8954   3.5543830787e+02   3.4213778489e+01    0.3222834    0.1333095 -28.11  0.000856326    2.631    0.620
        99  -9.0375    174.2839     34.6690   3.5746144226e+02   3.7424755828e+01    0.1404831   0.08195094 -60.60 0.0007008311    1.612    0.380
       100  -9.9690     31.2276     33.4165   3.7326364748e+01   7.0027805051e+01    0.2831791    0.1115358  41.58  0.001123237    2.599    0.615
       101  -9.7444     27.5047     31.4456   3.8753677786e+01   7.0956224219e+01    0.1960118    0.1630813  63.84 4.527219e-05    1.569    0.363
       102  -9.4751    153.8357     32.1398   3.5917311747e+02   4.2493870151e+01    0.1723578    0.1538272  55.12 0.0004293965    1.310    0.236
       103 -10.5760     92.5802     31.1485   1.0260704485e+01   5.7686029925e+01    0.2603772    0.2138272  68.94  0.000440166    1.144    0.126
       104 -10.3149     17.8060     31.2091   4.5357041327e+01   7.2255346110e+01    0.2098426     0.194266  -7.76 0.0004693679    1.042    0.040
       105  -9.3991     80.6606     31.6670   1.3936510436e+01   6.0459113180e+01    0.1472413    0.1054304  26.67 0.0007051652    1.747    0.428
       106  -9.9796      3.6928     31.0381   5.6167230315e+01   7.3600893346e+01    0.1742934    0.1498384 -38.37  0.000405418    1.053    0.050
       107 -11.0509     59.3113     28.3935   2.0180117229e+01   6.5735042137e+01      0.42813    0.3095321  -5.78  0.001603585    1.835    0.455
       108 -10.0721    129.0453     28.8978   1.7553096676e+00   4.8948202296e+01    0.2059789    0.1777797 -86.53 0.0003635597    1.041    0.040
       109  -9.9686     65.1595     28.6507   1.7948343092e+01   6.4432200542e+01    0.2708131    0.1947736  26.60  0.001374789    1.624    0.384
       110  -9.7357    103.9998     28.0779   6.2399402237e+00   5.5290681934e+01    0.2093316    0.1885295  82.37 0.0003389844    1.018    0.017
       111 -11.3979     47.1856     26.6740   2.4876603473e+01   6.8470169242e+01    0.3073833    0.2476245   9.87 0.0001791928    1.378    0.274
       112 -10.0152    160.6363     27.1312   3.5688235666e+02   4.1502394776e+01    0.2154454    0.1586453 -82.28 0.0003884059    1.249    0.199
       113 -10.2986     88.2550     25.0689   8.8317281635e+00   5.9551063571e+01    0.2569678      0.17856 -53.05  0.001069794    1.582    0.368
       114 -10.5403    110.7846     24.9222   3.6025608468e+00   5.3996623759e+01    0.2619712    0.1882532  79.07 0.0007871423    1.327    0.247
       115  -9.3909    129.1075     23.8644   2.9110979912e-02   4.9546236576e+01    0.1779775    0.1539009  51.14 0.0003631007    1.293    0.227
       116  -9.6351    241.6935     23.7116   3.4971914201e+02   2.5230054066e+01    0.0898108   0.08507756  -5.12 0.0002358657    1.571    0.364
       117 -10.8362     98.4704     22.5918   5.2709277374e+00   5.7349885349e+01    0.2548342    0.2348215  75.13 0.0004387297    1.029    0.028
       118 -10.1413     43.5316     22.8262   2.4673053067e+01   6.9784912972e+01    0.2406742    0.1741493  43.24 0.0005649719    1.295    0.228
       119  -9.7014     38.6045     22.8889   2.7403219346e+01   7.0689559772e+01    0.1749164    0.1617799 -26.20 0.0005019211    1.138    0.121
       120 -10.5842      2.1688     22.1858   5.3960702621e+01   7.5612166211e+01    0.3220349     0.173127 -79.34  0.001467619    2.823    0.646
       121  -9.2631    138.6846     21.6997   3.5792987034e+02   4.7428768503e+01    0.1305637   0.09919907  42.63 0.0003018371    1.613    0.380
       122 -10.9083     66.5671     20.7967   1.3529703233e+01   6.5222201051e+01    0.2399593    0.2088507  54.19 0.0002584014    1.055    0.052
       123  -9.2002    159.4326     20.4913   3.5509535187e+02   4.2560030401e+01    0.1326253    0.1102006 -69.85 5.128101e-05    1.018    0.018
       124  -9.3986    103.9942     20.5059   3.2394984433e+00   5.6220840717e+01     0.201798    0.1255151  69.10  0.000336857    1.473    0.321
       125 -10.2163     83.7009     19.8860   7.7479327643e+00   6.1302654628e+01    0.3573005    0.1890651  74.01  0.001519671    2.122    0.529
       126  -9.7140     16.4908     18.4978   3.9856403806e+01   7.4891561981e+01     0.189846    0.1578509   7.24  0.001190067    1.110    0.099
       127 -10.0275     41.5128    244.5122   6.9186197980e+01   1.7220586286e+01    0.1220273   0.09518591  41.92 0.0003798033    1.007    0.007
       128 -10.1418      1.4920    182.1043   7.6071100563e+01   3.4599587705e+01    0.3476799    0.1111823  86.68  0.001283186    3.227    0.690
       129 -10.5944    109.0625     18.5476   1.4815575976e+00   5.5174359477e+01    0.2652476    0.1757439 -52.71   0.00136378    1.557    0.358
       130  -9.8827     48.1594     19.1748   2.0296146362e+01   6.9420694412e+01    0.2004185    0.1633959 -86.44   0.00111226    1.686    0.407
       131 -10.1340     85.7587     15.8378   5.3638895214e+00   6.1271307498e+01    0.2497303    0.1580687  56.40 0.0007299556    1.421    0.296
       132 -10.6416     20.3011    174.8629   7.0283444361e+01   3.4878817132e+01    0.2478095    0.1588381  41.52 0.0007528869    1.389    0.280
       133 -10.3684    224.3491    173.1711   2.1117878805e+01   6.9840646189e+00    0.1695596   0.09115392 -43.41 0.0009516238    1.776    0.437
       134 -10.7100     21.4696    170.3336   6.9611766789e+01   3.5928047508e+01    0.2489789    0.2377765  66.19 0.0005079466    1.107    0.097
       135  -9.7049     27.6061    158.7942   6.6754454132e+01   3.8359063025e+01    0.2003002    0.1243314  84.30 0.0005701146    1.631    0.387
       136 -10.5638      2.9872    156.1809   7.4410893095e+01   4.1074277066e+01     0.274261    0.1755207 -78.34 0.0004032154    1.462    0.316
       137 -10.2458     39.9545    147.8665   6.1536409928e+01   3.9986289541e+01    0.2268329    0.1992338  62.27 0.0005930857    1.071    0.066
       138  -9.7629     11.2965    147.6120   7.1159082965e+01   4.2747347696e+01    0.1579314   0.08609869  60.06  0.000205382    1.779    0.438
       139 -10.2532     25.0128    146.2533   6.6408748076e+01   4.1954799481e+01    0.2875828    0.2514246  52.40   0.00106311    1.090    0.082
       140 -11.1816     22.4791    141.9838   6.6854457640e+01   4.3342098608e+01    0.3281112     0.270353  54.13 0.0007185994    1.150    0.131
       141  -9.7709     18.4891    141.4545   6.8191300383e+01   4.3832523663e+01    0.2178938    0.1460157  58.17 1.334211e-05    1.439    0.305
       142  -9.2885     74.7819    143.8713   4.9485483024e+01   3.6412158613e+01    0.2065959    0.1676211  63.98 0.0004299155    1.283    0.220
       143  -9.7821      6.5652    142.9337   7.2423488174e+01   4.4344872816e+01    0.2135775    0.1244345 -80.23  0.001018221    1.579    0.367
       144 -10.2438     28.5063    138.1896   6.4331552329e+01   4.3810342025e+01    0.2415359    0.1994194  28.05 0.0003734334    1.253    0.202
       145  -9.3528     13.6765    137.6964   6.9543007453e+01   4.5241809346e+01    0.1443544   0.09955505 -42.28 0.0002402538    1.638    0.389
       146 -10.5850      3.5133    136.4685   7.3039263711e+01   4.6287990641e+01    0.2939567    0.1253683 -81.39 0.0009689805    2.146    0.534
       147  -9.5165    136.5261    134.0214   3.0094427632e+01   2.7947896617e+01    0.2226079    0.1409992 -47.86 0.0006914586    1.538    0.350
       148 -10.1728     11.3227    133.9632   7.0061624959e+01   4.6435073294e+01    0.1981842    0.1707668 -88.27 0.0005919441    1.065    0.061
       149  -9.7020    108.6460    132.4569   3.7004661517e+01   3.3509194171e+01      0.39443    0.1324395 -48.70  0.001271228    2.936    0.659
       150  -9.4838     26.6513    133.7146   6.4478068152e+01   4.5212496417e+01     0.148431    0.1051359 -35.53 0.0003829957    1.654    0.396
       151 -10.5938     18.3541    132.5899   6.7378860182e+01   4.6260466627e+01    0.3860178    0.1825576  42.94 0.0008405879    2.023    0.506
       152 -10.6675    134.9061    124.6283   2.8355095291e+01   3.0279065109e+01    0.2830562    0.2142883 -54.54 0.0005940936    1.323    0.244
       153  -9.6507      5.4886    125.4994   7.1504034772e+01   4.9142391697e+01    0.1402333    0.1259249  84.80 0.0008105868    1.001    0.001
       154 -10.1012     62.0376    120.5212   4.9409208795e+01   4.4471430693e+01    0.2320372    0.1484997  33.95 0.0009257979    1.556    0.357
       155  -9.1977     67.2780     13.3176   9.4287609309e+00   6.5977369300e+01     0.134594   0.09556457  30.23 0.0001591126    1.574    0.365
       156 -10.9428      2.3193    118.2706   7.2135092936e+01   5.1305024005e+01    0.2492346    0.2061543  65.03 0.0003553893    1.159    0.137
       157  -9.6053     55.8839    117.4713   5.1060073084e+01   4.6183033988e+01    0.2170919    0.1503076  29.87 0.0003699832    1.477    0.323
