#   1 NUMBER                 Running object number                                     
#   2 MAG_AUTO               Kron-like elliptical aperture magnitude                    [mag]
#   3 X_IMAGE                Object position along x                                    [pixel]
#   4 Y_IMAGE                Object position along y                                    [pixel]
#   5 X_WORLD                Barycenter position along world x axis                     [deg]
#   6 Y_WORLD                Barycenter position along world y axis                     [deg]
#   7 A_WORLD                Profile RMS along major axis (world units)                 [deg]
#   8 B_WORLD                Profile RMS along minor axis (world units)                 [deg]
#   9 THETA_WORLD            Position angle (CCW/world-x)                               [deg]
#  10 FWHM_WORLD             FWHM assuming a gaussian core                              [deg]
#  11 ELONGATION             A_IMAGE/B_IMAGE                                           
#  12 ELLIPTICITY            1 - B_IMAGE/A_IMAGE                                       
         1 -18.2996    171.7304    148.7998   8.3930866370e+01   1.7321042584e+01     6.145365     5.687873  18.04   0.02015184    1.088    0.081
         2 -11.4176    240.0239     12.2003   3.8303415545e+01   2.4303716546e+01    0.4716067    0.2623656  65.75  0.002502046    1.811    0.448
         3 -11.5959    247.5032     13.3828   3.7976110568e+01   2.2511633868e+01    0.6181555    0.3302244 -19.71  0.002974076    2.485    0.598
         4 -12.4094    243.2887      7.0350   3.6882003009e+01   2.4152722793e+01    0.4523325    0.3035617 -56.50    0.0026992    1.273    0.214
         5 -10.8582    226.9881     12.9991   3.9600890101e+01   2.7195643178e+01    0.2777221    0.1758598  -7.03  0.001354891    2.408    0.585
         6 -12.3843    220.8220      4.6282   3.8116588551e+01   2.9547182277e+01     0.430154    0.4052275  69.30   0.00287683    1.228    0.185
         7 -12.7751    172.1835      5.2275   4.3337798627e+01   4.1454604024e+01    0.5838997    0.3518468  27.09  0.002731973    2.250    0.556
         8 -11.4998    202.8398      3.5703   3.9483145330e+01   3.3973113104e+01    0.2521394    0.1992262  42.99  0.001475637    1.492    0.330
         9 -12.1035    191.3280      4.3400   4.0858324238e+01   3.6736459216e+01    0.2684706    0.2394833  81.73   0.00167165    1.049    0.047
        10 -11.5103    162.3642      2.7404   4.3853165590e+01   4.4157382040e+01    0.2557432     0.185307  65.50  0.001412134    1.229    0.186
        11 -11.6331    101.8743    155.2893   1.0193144721e+02   2.9390997706e+01    0.2714709     0.230897 -60.64 0.0002494461    1.156    0.135
        12 -11.7901    191.9248    248.7110   9.7735058550e+01  -3.2534462640e+00     0.262236    0.1965412  28.57 0.0009845112    1.056    0.053
        13 -11.7509    232.6609    227.6549   8.7192413840e+01  -6.6938932721e+00    0.3575689    0.1951201  11.25  0.001813875    2.222    0.550
        14 -10.6889    173.2862    227.8965   9.8185590816e+01   2.6410554116e+00    0.2673665    0.1868161 -26.30  0.001341174    1.762    0.433
        15 -12.5191    242.7738    222.4773   8.4554739194e+01  -7.5263652651e+00    0.2720537    0.1957207  16.38 0.0008555455    1.140    0.123
        16 -11.1185    211.1600    223.8310   9.0413695212e+01  -2.9056352462e+00    0.2108327    0.1718899  21.57 0.0003224698    1.037    0.036
        17 -11.3287    182.6880    220.6079   9.5255412783e+01   2.2060915247e+00     0.387702     0.226551 -44.11  0.001831119    1.991    0.498
        18 -11.5742    136.2247    218.6053   1.0414382382e+02   1.0341971226e+01    0.5534323    0.2481778 -44.19  0.002275385    2.814    0.645
        19 -14.6946    215.2932    124.6459   6.9384728677e+01   1.2695662984e+01     1.997571     1.757522 -89.81  0.008543639    1.420    0.296
        20 -14.2147    170.4687    108.2012   7.4247738138e+01   2.5940561049e+01     2.254256     1.508735  86.69  0.008217407    2.622    0.619
        21 -14.4360    183.2983    100.8833   6.9543867445e+01   2.4376092772e+01     2.124122     1.594578  80.90  0.009535484    1.748    0.428
        22 -15.0858    127.7853    138.7979   9.2100196387e+01   2.8506700518e+01     3.077169     1.071524 -41.24   0.00932481    3.535    0.717
        23 -14.4656    156.8950    111.1325   7.8137286259e+01   2.8455489855e+01      2.25195     1.367917  -3.05  0.006607417    4.324    0.769
        24 -15.0213    186.6781    178.7575   8.7035184256e+01   8.5453190587e+00     1.853394     1.308743 -69.20  0.008610148    2.263    0.558
        25 -10.4965    176.7635    244.9439   9.9969984769e+01  -4.1266837190e-01     0.272271     0.141293  38.67 0.0008600206    1.552    0.356
        26 -11.8189    103.0015    151.0278   1.0087257239e+02   3.0199529384e+01    0.2973118    0.2414543  53.93 0.0008339277    1.228    0.186
        27 -11.5049     89.7252    150.7296   1.0419161096e+02   3.2443738045e+01    0.2811558    0.2237298 -71.30   0.00112062    1.188    0.159
        28 -13.1747    238.6634    143.5057   6.9623352595e+01   4.7438841104e+00    0.5839722    0.3344618 -24.66  0.001165539    1.767    0.434
        29 -12.4453     97.2655    141.8392   1.0061000992e+02   3.3344412102e+01    0.3561799    0.2777279  19.08 0.0006033672    1.630    0.387
        30 -11.8897     82.0221    188.2833   1.1157300907e+02   2.4998153603e+01    0.2519539    0.2185834  74.86  0.000328434    1.020    0.020
        31 -10.4059     56.8027    189.1909   1.1714964526e+02   2.8210575673e+01     0.153716    0.1409252 -74.77 0.0004067763    1.285    0.222
        32 -11.2521    112.7463    141.9127   9.6600777940e+01   3.0626697817e+01    0.2563264    0.2419678 -71.45 0.0007396819    1.024    0.023
        33 -12.5763    110.8014    134.4198   9.5528197084e+01   3.2744649319e+01    0.5940892    0.2868273 -53.84  0.002343807    2.010    0.502
        34 -11.6805    100.4680    137.9209   9.8991864832e+01   3.3739797778e+01    0.2194253    0.1976083  50.07 0.0004968055    1.148    0.129
        35 -11.0324     88.2545    137.3577   1.0213747921e+02   3.5883223801e+01    0.3153605    0.2322066 -26.82  0.001523006    1.839    0.456
        36 -11.9427    120.9227    134.9668   9.3005287505e+01   3.0721336866e+01    0.3560741    0.3245414  31.77  0.001513728    1.175    0.149
        37 -11.8515    216.1091    215.8064   8.8147324997e+01  -2.5752340611e+00    0.3752805    0.2240797  16.69  0.001354484    1.833    0.455
        38 -11.4063    116.8234    129.3450   9.2813110267e+01   3.2815111052e+01    0.2602904    0.2107981 -67.69  0.001290019    1.278    0.218
        39 -12.2178     95.4944    126.1520   9.7880262530e+01   3.7404632941e+01     0.495093    0.2708067 -73.15  0.001831349    2.594    0.614
        40 -10.5201     77.6256    127.0175   1.0304980773e+02   4.0010028733e+01    0.2316684    0.1906843  64.06 0.0005787823    1.294    0.227
        41 -12.0864    114.2990    122.1986   9.1826799277e+01   3.4967439072e+01    0.5623346     0.269845 -59.76  0.001244313    2.435    0.589
        42 -12.4485    114.3541    117.1692   9.0597672353e+01   3.6130138800e+01    0.5013512    0.4435873 -44.52 0.0003321658    1.106    0.095
        43 -10.6144     80.2131    123.5164   1.0161570143e+02   4.0477145923e+01    0.2483148    0.1843756 -59.42 0.0003363075    1.227    0.185
        44 -10.6032    224.1651    205.1502   8.4780400249e+01  -2.3582375549e+00     0.206136    0.1494566   7.02  0.001209291    1.326    0.246
        45 -11.9581    124.9950    115.3950   8.7283201019e+01   3.4431681001e+01    0.4630972    0.2451261 -41.96  0.001256693    1.904    0.475
        46 -11.9497    129.3766    114.0882   8.5790639447e+01   3.3825935673e+01     0.347404    0.2811008  46.69  0.001443766    1.273    0.214
        47 -10.9304    126.1627    111.0556   8.5854738151e+01   3.5175590015e+01    0.2378014    0.2260873 -42.32 0.0003375296    1.029    0.028
        48 -11.8009    168.0085    204.0515   9.5473016228e+01   7.4580439196e+00    0.2387935    0.2268667  65.28  0.000645858    1.186    0.157
        49 -10.6227    227.2937    111.2853   6.4049514384e+01   1.2506177862e+01    0.2946844    0.2253926   3.58  0.000706768    1.611    0.379
        50 -11.6814    120.9959    123.5036   9.0344961732e+01   3.3368407981e+01    0.3466313    0.2515264  33.09 0.0009089279    1.517    0.341
        51 -10.7667     87.9845    108.3214   9.5966628951e+01   4.2916294381e+01    0.1974358    0.1936015  14.91 0.0004420388    1.116    0.104
        52  -9.9621    226.0980    106.4734   6.3075037343e+01   1.3595242853e+01    0.2041448    0.1477757  55.70  0.000751593    1.535    0.348
        53 -12.1400    151.6875    104.7289   7.7655946614e+01   3.0987901081e+01    0.5208384    0.3789859 -38.50  0.001018962    1.358    0.264
        54 -11.2335    149.4133     99.1164   7.6652239048e+01   3.2681226426e+01    0.5186076    0.3568226  47.94  0.002298758    1.486    0.327
        55 -10.8508     57.8478    205.1269   1.1847431006e+02   2.4688330301e+01    0.2794882     0.147759  46.48  0.001039522    1.667    0.400
        56 -11.0281    218.0020    102.5258   6.3457823557e+01   1.6059859979e+01    0.3012637    0.2144446 -34.94 0.0007098804    1.305    0.234
        57 -11.7631     95.1782    177.8314   1.0719170776e+02   2.5317019557e+01    0.2357364    0.2102966  73.18 0.0006181579    1.015    0.015
        58 -10.1005    109.9636    103.5092   8.8326828291e+01   4.0125092549e+01     0.216163    0.1527012  42.13 0.0002016574    1.487    0.328
        59 -11.0152    212.4802    102.0506   6.4295232576e+01   1.7383668652e+01    0.2988894    0.2391299  52.92  0.001519992    1.338    0.252
        60  -9.7627    245.2606    175.4368   7.5286285009e+01  -1.4615533135e+00     0.150831    0.1239792  40.31 0.0002889811    1.408    0.290
        61 -10.4880    112.5009     98.7949   8.6324088546e+01   4.0696274896e+01    0.3817039    0.2174708 -47.54  0.001592112    1.678    0.404
        62 -12.3192    123.0282    214.4215   1.0625140234e+02   1.3276237066e+01    0.5592437    0.4297344 -78.86  0.002545076    1.483    0.326
        63 -10.4397    246.2469     96.5915   5.7587144699e+01   1.0996691826e+01    0.2229458    0.1859285 -53.72 0.0004638019    1.201    0.168
        64 -11.0430    128.5967    211.0636   1.0465485502e+02   1.2989215722e+01    0.2537158    0.1719058  43.81 0.0004765684    1.294    0.227
        65 -11.3887    120.5883     93.9491   8.2682986696e+01   4.0124757748e+01    0.3460593    0.2888561 -64.74 0.0009162023    1.318    0.241
        66 -10.8717    166.2535     93.8234   7.1238826337e+01   2.9801659707e+01    0.3573843    0.2549885  79.15   0.00102544    1.924    0.480
        67 -12.9193    199.0780     86.9515   6.2734660541e+01   2.3193485577e+01    0.3739272    0.3431404 -39.46 0.0006705976    1.041    0.039
        68 -11.2662    171.8792     90.1605   6.8978326159e+01   2.9160903750e+01     0.345622    0.2878962  79.64 0.0008037243    1.387    0.279
        69 -11.6664    143.7362     87.5231   7.4704563315e+01   3.6363415743e+01    0.7308532    0.3036938 -39.39  0.002530341    2.374    0.579
        70 -12.4424     99.1470    195.8285   1.0880550920e+02   2.0797943763e+01    0.5064577    0.2424529  37.48  0.001449031    2.053    0.513
        71 -10.1025    123.9264     89.1791   8.0370931547e+01   4.0441976363e+01    0.2240518    0.2064553 -78.78 0.0004639227    1.202    0.168
        72 -12.5611    100.5434    169.9293   1.0472908365e+02   2.6236132669e+01    0.5798427    0.2353008 -66.65   0.00183572    3.054    0.673
        73 -11.2507    248.3149     88.4054   5.5364131984e+01   1.1880515635e+01    0.2575319    0.1989621 -51.10 0.0003180502    1.233    0.189
        74  -9.9673    240.0618     85.8781   5.5902576185e+01   1.4023752656e+01    0.2078366    0.1723319 -58.85 0.0003523565    1.217    0.178
        75 -11.6749    183.4964     89.3193   6.6343052370e+01   2.6512852253e+01    0.4691391    0.3187831  67.07  0.002048078    1.718    0.418
        76 -10.5221    239.7725     81.3128   5.4836597486e+01   1.4815776689e+01    0.2410496    0.2094177 -51.44 0.0005415009    1.073    0.068
        77  -9.8711    106.5486     78.4633   8.2080502124e+01   4.6273327399e+01    0.1507004    0.1409574 -22.97 5.203517e-05    1.024    0.023
        78  -9.2774    153.2219     77.6647   6.9465408714e+01   3.6038375672e+01     0.153895    0.1166399 -60.83 0.0002412625    1.522    0.343
        79 -10.4141    178.2007     77.9691   6.4190127145e+01   2.9871210659e+01    0.4920281    0.1423142 -41.46  0.001165329    3.291    0.696
        80  -9.5996    111.4490     75.4380   7.9678642276e+01   4.5904143398e+01     0.150341    0.1421657 -17.64 0.0001026587    1.017    0.017
        81 -14.7300    154.4070    159.0255   9.0035124011e+01   1.8745973343e+01     1.122655     0.753811 -88.13   0.00444125    2.682    0.627
        82  -9.7618     70.2539     73.0104   9.2127244951e+01   5.3718775334e+01    0.1957555    0.1576835 -41.18 0.0002901597    1.103    0.093
        83  -9.3289    154.2922     70.6685   6.7075221596e+01   3.7062736468e+01    0.1583554    0.1206279 -69.35 0.0003423325    1.631    0.387
        84  -9.9730    215.1299     66.8148   5.4711054656e+01   2.2731217160e+01    0.1818463    0.1669224  21.37 0.0002453861    1.263    0.208
        85 -10.5968    173.5146     66.3300   6.1705574458e+01   3.3055906279e+01    0.3483371    0.2400428  40.83   0.00104473    1.578    0.366
        86 -10.0818    147.0140     61.5213   6.5842505280e+01   4.0439075230e+01    0.2165536    0.1991516 -27.75 0.0002306788    1.091    0.083
        87 -10.9518    229.9886    168.0877   7.6462503843e+01   2.3161395004e+00    0.3122462    0.2723213 -72.57  0.001359009    1.703    0.413
        88 -11.5600    105.7191    190.1548   1.0659243273e+02   2.0948724161e+01    0.3332908     0.174115  46.24  0.001287259    1.756    0.431
        89 -10.5052    243.5087     35.4946   4.3389815664e+01   2.0676378541e+01      0.13312     0.114285 -60.20 6.615936e-05    1.008    0.008
        90  -9.3600    200.3075     32.3226   4.7498254839e+01   3.1334980772e+01    0.1398766    0.1066672  31.78 0.0007034583    1.644    0.392
        91 -10.8333    229.8907    155.1819   7.3727575252e+01   4.4497930603e+00    0.3096959    0.1848388 -34.58 0.0005196204    1.564    0.361
        92 -10.2727    226.7325     22.1197   4.1840347802e+01   2.6195344850e+01    0.2527449    0.1536683  45.16  0.001240294    2.095    0.523
        93 -10.0449    229.5479    150.6732   7.2801409104e+01   5.2688372551e+00     0.253958     0.156858 -23.65 0.0006429573    1.648    0.393
        94  -9.9680    207.8287    241.1999   9.3773526731e+01  -4.6957117289e+00    0.1682547    0.1387333  30.12 0.0005706274    1.167    0.143
        95 -10.5203    192.8662    238.4221   9.6074175030e+01  -2.0297164565e+00    0.2338612    0.1646424   6.25  0.001421681    1.587    0.370
        96  -9.9791    182.2016    237.7903   9.7954028611e+01  -2.6209481029e-01    0.1683484    0.1258049  17.71 0.0006118444    1.315    0.240
        97 -10.1341    127.8357    238.1105   1.0825725535e+02   8.3318160210e+00    0.1855161    0.1349348  59.15 0.0004906206    1.292    0.226
        98 -10.4007    231.6590    237.5599   8.8992437146e+01  -7.7592795556e+00    0.2138779   0.09283191  33.34   0.00074399    1.950    0.487
        99  -9.8331    118.0024    234.6956   1.0973254002e+02   1.0431381115e+01    0.1718354    0.1336734  47.23 0.0003857408    1.079    0.073
       100 -10.3115    124.7670    234.0763   1.0836716608e+02   9.4877040180e+00    0.2252249    0.1381991  57.46 0.0004987945    1.580    0.367
       101 -10.6562    190.9586    231.1922   9.5335804851e+01  -7.1929286675e-01    0.1894283    0.1698926   6.56 0.0005508591    1.146    0.127
       102 -11.2348    164.6888    230.8050   1.0025918276e+02   3.6008265495e+00    0.2843424    0.1946912  51.04 0.0009006659    1.437    0.304
