#   1 NUMBER                 Running object number                                     
#   2 MAG_AUTO               Kron-like elliptical aperture magnitude                    [mag]
#   3 X_IMAGE                Object position along x                                    [pixel]
#   4 Y_IMAGE                Object position along y                                    [pixel]
#   5 X_WORLD                Barycenter position along world x axis                     [deg]
#   6 Y_WORLD                Barycenter position along world y axis                     [deg]
#   7 A_WORLD                Profile RMS along major axis (world units)                 [deg]
#   8 B_WORLD                Profile RMS along minor axis (world units)                 [deg]
#   9 THETA_WORLD            Position angle (CCW/world-x)                               [deg]
#  10 FWHM_WORLD             FWHM assuming a gaussian core                              [deg]
#  11 ELONGATION             A_IMAGE/B_IMAGE                                           
#  12 ELLIPTICITY            1 - B_IMAGE/A_IMAGE                                       
         1 -14.4664    194.2731    157.2536   5.8108772103e+01   1.3815777585e+01     10.44525     8.470841 -83.20   0.04788098    2.335    0.572
         2 -15.3503    248.9450     70.1098   3.1675786079e+01   1.6533560744e+01     9.179411     2.068854 -24.59   0.02419643    7.073    0.859
         3 -16.0356    246.0422     81.1130   3.4393990198e+01   1.5695460620e+01     5.093844        1.522  46.75   0.02036541    4.394    0.772
         4 -14.6368    233.0542     84.9720   3.6655652965e+01   1.7472726204e+01     1.970461    0.4038281 -34.12  0.004220686    3.500    0.714
         5 -14.9509    173.4499     89.7195   4.6426074820e+01   2.8755510810e+01     3.654762     2.718868 -33.50    0.0188145    1.271    0.213
         6 -14.3857    235.3206     40.5682   2.6027233352e+01   2.2479781563e+01      2.66738     1.025619 -24.53   0.01037042    2.435    0.589
         7 -14.6962    244.8304     28.1383   2.2478324940e+01   2.2012199171e+01     3.832243     1.882217 -84.75    0.0198762    2.590    0.614
         8 -11.7266    197.3300     56.7225   3.3834378957e+01   2.8420902254e+01     1.179998    0.4371657 -22.25  0.003019232    3.445    0.710
         9 -11.0427    176.6524     49.0957   3.4329198547e+01   3.4263741433e+01    0.7520556    0.3734157 -39.97  0.003261067    1.794    0.443
        10 -12.8463    247.8250     15.4510   1.9430223498e+01   2.2731941271e+01    0.3597394    0.3031237 -23.91  0.001033781    1.269    0.212
        11 -14.6731    226.5759     48.6943   2.8708262958e+01   2.3258123015e+01     3.952806     1.680002 -20.95   0.01683996    2.585    0.613
        12 -10.5338    147.6727     26.4474   3.1007763551e+01   4.4585389709e+01    0.3236596    0.1969211  24.71  0.001320442    2.498    0.600
        13  -9.1581    189.8678     14.7990   2.2770884743e+01   3.5161829322e+01     0.254021    0.1899453 -51.39  0.001014331    1.154    0.133
        14 -10.1423    191.6112      7.7574   2.0620586773e+01   3.5437569639e+01    0.4937855    0.2186896 -49.54  0.002044268    1.940    0.485
        15 -10.7867    180.8245      4.5705   2.0409885320e+01   3.8343761985e+01    0.4531378    0.4115972  65.74  0.002842325    1.248    0.199
        16  -8.5966    157.7994      4.8961   2.2301653876e+01   4.4167796080e+01    0.2737441    0.1553919  13.76  0.001136863    2.746    0.636
        17 -10.1311    120.0150    234.4856   8.4623723194e+01   1.2665452584e+01    0.1721638     0.163647   8.10 -7.048498e-07    1.263    0.208
        18  -9.1504    250.3160    249.9689   6.3970855481e+01  -3.7840780838e+00    0.1358687   0.08661543  -0.17 0.0007667599    1.086    0.079
        19 -13.7739      6.8696    145.3713   1.0563853586e+02   4.3836106127e+01     2.291708     1.445991  -3.32   0.00797252    2.165    0.538
        20 -12.5480     53.6424    134.1121   8.9509205247e+01   4.2072740596e+01    0.8338996    0.5581814 -60.70   0.00164095    1.515    0.340
        21 -13.8414     45.5552    134.7975   9.2273421887e+01   4.2891988595e+01      2.58777     1.545726   1.00  0.009671293    2.630    0.620
        22  -8.8685     71.6625    225.4184   9.4061893756e+01   2.0040181397e+01    0.1560815   0.09665065  24.69 0.0006607259    1.489    0.328
        23 -10.6821    133.8767    145.1494   6.8327157209e+01   2.6420381251e+01      1.11205    0.3266478 -54.53  0.003032511    5.394    0.815
        24 -10.1891    145.3985    147.9252   6.6172092430e+01   2.3790040376e+01    0.3103763    0.2441532 -66.44  0.001418108    1.644    0.392
        25  -8.8496    143.9188    222.1414   7.8374079341e+01   1.1420543833e+01    0.1663192    0.1295446  35.21  0.001138701    1.202    0.168
        26 -10.1121    236.8527    171.2287   5.3807542756e+01   5.7721448212e+00    0.2634109    0.1354696 -33.92 0.0008295375    1.804    0.446
        27  -9.6432    158.4763    143.1776   6.2292869781e+01   2.2296565088e+01    0.2725115    0.2510369 -38.87 0.0009998138    1.160    0.138
        28 -11.6701    155.9495    137.5347   6.1640499486e+01   2.3798357246e+01    0.6202906    0.3632182  44.89  0.002896681    1.717    0.418
        29  -9.3042      3.9460    205.0217   1.0837765400e+02   3.0728469598e+01    0.1685881    0.1324971  52.10   0.00029378    1.067    0.062
        30 -10.1076    208.2700    127.0508   4.9507223835e+01   1.5993261973e+01    0.2690066    0.2158808  30.57  0.001078466    1.307    0.235
        31 -11.9126    207.9989    135.5417   5.1362676525e+01   1.4792476646e+01    0.5595239    0.4010873 -71.63  0.002751023    2.832    0.647
        32 -11.6677    211.7197    132.7530   5.0180057573e+01   1.4576367857e+01    0.5003381    0.2988046 -43.32  0.002653586    1.767    0.434
        33 -13.8670    249.5569     43.2070   2.5597691650e+01   1.9522156310e+01    0.7390473    0.5042256  -1.35  0.001075047    1.936    0.483
        34 -10.9228    192.7824    194.5641   6.5018382222e+01   8.7055175187e+00    0.7574283    0.4126649 -56.75  0.003036987    5.206    0.808
        35 -10.8852     67.7033    143.9573   8.6455970372e+01   3.7721642403e+01     2.140783     1.155058 -77.79  0.007758193    2.174    0.540
        36  -9.7258    218.0501    122.5327   4.7027259366e+01   1.4973082283e+01    0.2304391    0.1538746 -11.92   0.00127359    1.555    0.357
        37  -8.8200     93.0600    122.2987   7.4702410200e+01   3.8930885526e+01    0.2129288    0.1876034  45.21   0.00044427    1.098    0.089
        38  -9.4714    214.2814    120.8243   4.7218855570e+01   1.5860993791e+01    0.2421567    0.1373622 -29.01  0.000459549    1.567    0.362
        39  -9.6209    154.5009    169.9710   6.8326856378e+01   1.8223568151e+01    0.2308664    0.1751472  29.24 0.0003357388    1.198    0.165
        40 -12.0365     37.6836    136.9880   9.5131446200e+01   4.3217958706e+01    0.6697881    0.4092572  20.34 0.0009094903    1.807    0.447
        41 -10.2663     70.1240    109.0293   7.9423670720e+01   4.6126092422e+01    0.2460831    0.2061729  48.32            0    1.168    0.144
        42  -8.6215    108.9809    108.7788   6.6748620470e+01   3.9051766209e+01    0.2000725    0.1243781  42.05 0.0003279616    1.590    0.371
        43 -10.4057    142.1625     98.4808   5.5272715453e+01   3.4128944740e+01      0.34813    0.2917717 -75.17 0.0005947629    1.396    0.283
        44 -10.3541    119.0470     97.4734   6.0875583581e+01   3.9437707409e+01    0.2461268    0.2040216 -47.48 0.0005105612    1.208    0.172
        45  -9.3815    157.5027     90.5782   4.9728829716e+01   3.2167445332e+01    0.2530037    0.2403203 -39.67 5.444005e-05    1.014    0.014
        46 -10.3445    126.8964     74.8510   5.1986019188e+01   4.2273426170e+01    0.3384055    0.2399342 -42.86  0.000551246    1.391    0.281
        47  -8.7383    158.5072     73.0826   4.4492313587e+01   3.4979283419e+01    0.2189029    0.1423216 -35.21 0.0004275531    1.480    0.324
        48  -9.5551    151.0462     71.5163   4.5477119905e+01   3.7037946517e+01    0.2861221    0.2093335 -40.40 0.0004902987    1.311    0.237
        49  -9.3540    200.3416     69.3997   3.6834654250e+01   2.6014269765e+01    0.3492976   0.09523526 -36.02  0.001216702    2.921    0.658
        50  -9.9732    193.1425     68.3301   3.7517895817e+01   2.7730469417e+01     0.385153    0.2971446 -53.79  0.001191061    1.277    0.217
        51  -8.6785      7.8426    189.3617   1.0702804195e+02   3.3641242941e+01    0.1592327    0.1250847  42.21 0.0004181086    1.145    0.126
        52  -8.7760    138.9583     66.6956   4.6494601367e+01   4.0834714956e+01    0.2165981    0.1891512  58.66 0.0005313802    1.161    0.138
        53  -8.6996    186.0747     64.2781   3.7396785839e+01   2.9900117288e+01    0.1943486    0.1708276 -48.72 0.0005822461    1.052    0.049
        54  -8.9395    206.4826     57.5331   3.2973700939e+01   2.6313473532e+01    0.2359754     0.133215  65.93 0.0006821282    1.996    0.499
        55  -9.3809    209.0686     54.7028   3.1948030570e+01   2.6128738230e+01    0.2404897    0.1673461 -38.89 0.0003046072    1.223    0.183
        56  -8.3837    108.3923     56.2168   5.0455711088e+01   5.0320533244e+01    0.2042819    0.1430818 -49.42 0.0002331924    1.459    0.315
        57  -9.9423    245.6263    184.9420   5.4911553414e+01   3.0987302443e+00    0.1851229    0.1410206  43.67  0.001323388    1.998    0.499
        58 -10.2609    206.6589     47.7016   3.0366165501e+01   2.7537862706e+01    0.3742574    0.2895788   0.53  0.001200179    1.611    0.379
        59 -10.9474    233.9237    179.2772   5.5656482511e+01   5.1875869824e+00    0.3260254    0.2111159  -3.46  0.000527764    1.382    0.277
        60  -8.8150    111.0996     68.8719   5.4248669028e+01   4.7224956048e+01    0.3320921    0.1863376 -44.04  0.001066499    1.772    0.436
        61  -9.1069    152.0301    247.6935   7.9825799498e+01   6.9554872156e+00    0.1599828    0.1354654   2.27 0.0009323706    1.240    0.193
        62  -9.5735    159.2088     40.8184   3.4230117865e+01   3.9735771832e+01    0.1972447     0.174238  25.91 0.0004568913    1.336    0.252
        63  -9.5776    196.3546     38.2574   2.8860163303e+01   3.1012084248e+01    0.3640826    0.2506483  69.69  0.001250936    1.560    0.359
        64  -9.6451    189.8125     40.3945   3.0159316136e+01   3.2267922327e+01    0.3048495    0.1852923  43.97  0.001071024    2.049    0.512
        65  -9.2864    190.2054     36.5556   2.9017336265e+01   3.2649322816e+01    0.2774954    0.2040477 -38.37 0.0009731372    1.208    0.172
        66  -9.8261    193.2211     33.3111   2.7784089477e+01   3.2331013809e+01    0.2449793    0.2224087 -21.33 0.0007021645    1.197    0.164
        67 -10.8116    123.5678     37.3845   3.9362881260e+01   4.9548585371e+01    0.4255958    0.2932734  -3.33  0.001847844    2.001    0.500
        68 -10.9079    185.5876     45.9773   3.2257587020e+01   3.2547206293e+01    0.4800787    0.3450162  28.35 0.0004671036    1.862    0.463
        69  -8.4210    203.9367     35.7450   2.7433728957e+01   2.9592660087e+01    0.1553096    0.1125317  74.30 0.0005043728    1.497    0.332
        70 -10.4888    183.8618     32.6758   2.8561192026e+01   3.4630395245e+01    0.3323228    0.2195641 -16.28 0.0006762967    1.703    0.413
        71 -10.2212    144.3766     32.2984   3.3598754531e+01   4.4727014431e+01    0.3944836    0.1961685 -10.90  0.001375623    3.158    0.683
        72  -8.9931    138.3413     33.3149   3.4970631462e+01   4.6193442147e+01    0.1547928    0.1114126  33.31 0.0003201693    1.706    0.414
        73  -8.4124    155.3875     29.8257   3.1103496007e+01   4.2145951228e+01    0.1867684     0.139632 -13.03  0.000316951    1.547    0.354
        74  -9.8631    123.7587     29.5634   3.6213841220e+01   5.0586698599e+01    0.2739101    0.1929456 -10.71 0.0009775428    1.731    0.422
        75 -10.1554    210.1461    164.3625   5.6725133454e+01   1.0356008070e+01    0.2892625    0.2455368  88.48  0.001082177    2.310    0.567
        76 -10.4468    179.4449     24.0080   2.6416264363e+01   3.6712146832e+01    0.4954385     0.375793 -85.49  0.002486541    1.309    0.236
        77  -9.5106    154.0320     19.9939   2.7897402951e+01   4.3648915252e+01    0.1749787      0.15736 -78.77 0.0003820461    1.036    0.035
        78  -8.3278     97.9812    162.0106   8.0551215021e+01   2.8997689999e+01    0.1575254    0.1444467  45.07 -0.005334738    1.014    0.014
        79 -14.5661    249.5069     57.5437   2.8824019399e+01   1.7912258483e+01     1.163319    0.8006868  30.00  0.003608452    2.045    0.511
        80  -8.3469    152.9933    243.0416   7.9121518865e+01   7.4280784339e+00     0.128164   0.09994771  18.12 0.0009591464    1.067    0.063
