#   1 NUMBER                 Running object number                                     
#   2 MAG_AUTO               Kron-like elliptical aperture magnitude                    [mag]
#   3 X_IMAGE                Object position along x                                    [pixel]
#   4 Y_IMAGE                Object position along y                                    [pixel]
#   5 X_WORLD                Barycenter position along world x axis                     [deg]
#   6 Y_WORLD                Barycenter position along world y axis                     [deg]
#   7 A_WORLD                Profile RMS along major axis (world units)                 [deg]
#   8 B_WORLD                Profile RMS along minor axis (world units)                 [deg]
#   9 THETA_WORLD            Position angle (CCW/world-x)                               [deg]
#  10 FWHM_WORLD             FWHM assuming a gaussian core                              [deg]
#  11 ELONGATION             A_IMAGE/B_IMAGE                                           
#  12 ELLIPTICITY            1 - B_IMAGE/A_IMAGE                                       
         1  -9.2456    185.7905     11.9172   4.6476596926e+01   3.6933219517e+01    0.3357096    0.1790798 -16.95  0.001390873    2.208    0.547
         2  -9.1718    122.9395     11.9779   5.6915047494e+01   5.2902484522e+01    0.1973175    0.1796909  32.47  0.001171488    1.021    0.021
         3 -11.2930     11.5462      7.2644   9.5617015901e+01   7.2252947764e+01    0.3119074    0.1901315 -20.99  0.001739064    1.376    0.273
         4  -9.1661     50.8092      2.8438   7.4420680196e+01   6.8280315888e+01    0.1815675    0.1317307   4.29 0.0003703735    1.158    0.136
         5  -8.9832    175.0731      4.6355   4.5623438520e+01   4.0415334946e+01    0.1914655    0.1548434  69.37 0.0003351301    1.127    0.113
         6  -8.5239    124.0537    206.0041   1.0819935292e+02   1.5387178974e+01    0.1464307    0.1257192  57.17 -0.001877172    1.003    0.003
         7 -10.0661    102.8193    248.8164   1.1698443179e+02   1.1375947701e+01    0.3506502    0.2040097  43.16  0.002222527    1.428    0.300
         8  -8.9889      1.5118    186.1882   1.3030881922e+02   3.5039226820e+01    0.2574069   0.07837222 -76.42  0.001293664    2.547    0.607
         9 -11.1491      6.1120    169.6554   1.2842489003e+02   3.8067942524e+01    0.2659603    0.1662329  87.48  0.001521904    1.213    0.176
        10  -8.6997     25.3014    164.3337   1.2405718309e+02   3.7518076957e+01    0.1122888   0.07851053 -54.55 0.0003837259    1.656    0.396
        11 -10.2721      7.9357    157.0167   1.2714428398e+02   4.0627899001e+01    0.1732893    0.1266859  87.52            0    1.030    0.029
        12  -9.2801      1.5018    157.4577   1.2852608095e+02   4.1026288344e+01    0.1654907   0.08211754  89.62 0.0002025745    1.619    0.382
        13 -10.2710      2.5696    154.0563   1.2805928303e+02   4.1681019128e+01    0.2352896    0.1534221 -85.86 0.0005731471    1.142    0.125
        14 -10.6163     17.3825    155.7531   1.2500977574e+02   4.0123109536e+01    0.2907358    0.1516482  70.06  0.001623259    1.873    0.466
        15  -9.9146      9.6707    149.8151   1.2619380785e+02   4.2068004613e+01    0.1521431    0.1261114 -87.79 0.0005185427    1.139    0.122
        16 -10.0273     21.7410    142.4747   1.2276027645e+02   4.2718058594e+01    0.3157969    0.1680357  70.96  0.001152321    1.984    0.496
        17 -10.2760      5.6019    141.3731   1.2639234569e+02   4.4242761961e+01    0.3505439    0.1527954 -48.37  0.001229505    2.829    0.646
        18 -10.0588     15.2380    141.1089   1.2414769098e+02   4.3568568597e+01    0.1759699    0.1301327 -66.55 0.0006203177    1.250    0.200
        19 -11.7870    233.5153    110.2132   6.6410026558e+01   1.0911980825e+01     1.450043      1.01022 -76.20  0.006351843    2.375    0.579
        20 -12.4545    220.0067    119.8765   7.1123340611e+01   1.2231267754e+01     1.522962    0.8074295 -26.46  0.006192898    1.999    0.500
        21 -13.1071    231.2108    134.4483   7.2639674657e+01   7.4062294623e+00     1.701408     1.094168   5.88  0.007463426    2.131    0.531
        22 -12.8425    215.2428    133.6507   7.5343331053e+01   1.0882564487e+01     1.526069    0.9168812 -47.73  0.006690738    1.874    0.466
        23  -8.3267     11.6061    134.3073   1.2434174081e+02   4.5385302271e+01    0.1254375   0.07017992  68.45 0.0001971386    1.827    0.453
        24  -9.2623      3.6847    133.9859   1.2619186272e+02   4.6022808354e+01    0.1625477    0.1102878 -80.84 0.0002208347    1.102    0.093
        25  -9.0482     28.3283    138.2720   1.2072270663e+02   4.3091409515e+01    0.1151631    0.0830224 -48.09 0.0003449231    1.584    0.369
        26 -10.6375     37.3512    127.1233   1.1701597536e+02   4.4823570752e+01    0.2414449    0.1805438 -85.91 0.0009074499    1.186    0.157
        27  -8.0331     71.2626    131.3499   1.0873096422e+02   3.9832329216e+01    0.1365455   0.09723165 -40.87 0.0002871803    1.611    0.379
        28  -9.3156     32.4803    129.4872   1.1860157991e+02   4.4739346850e+01     0.229984   0.08217257 -59.15  0.001023134    2.245    0.555
        29  -9.4495     12.3523    128.0889   1.2352486515e+02   4.6740638869e+01     0.176303    0.1200036 -80.38 0.0008910776    1.135    0.119
        30  -8.9360     33.6775    133.6636   1.1883686622e+02   4.3654884165e+01     0.129479    0.1041066 -78.61 0.0008332998    1.018    0.018
        31 -10.5554     24.0077    126.0034   1.2033758191e+02   4.6301350622e+01    0.2359318    0.1728138  69.17            0    1.388    0.280
        32  -9.9441     27.5292    125.4705   1.1935853849e+02   4.6122422097e+01    0.2331621    0.1713535 -68.94   0.00065543    1.119    0.106
        33  -9.4556     53.1355    126.1536   1.1267732284e+02   4.3361040115e+01    0.1992074    0.1605214 -55.51 0.0004447692    1.207    0.172
        34  -9.3501     36.4219    131.7037   1.1788434143e+02   4.3844562409e+01    0.2515565    0.1613892 -65.27 0.0008854521    1.301    0.231
        35  -9.7154     40.2872    121.0066   1.1533356886e+02   4.5967795369e+01    0.1873492    0.1713808 -86.12 0.0007604389    1.133    0.117
        36  -9.5861     98.2129    117.9962   9.8728672068e+01   3.8811075919e+01    0.3859307    0.2268366  23.10  0.001566905    2.499    0.600
        37  -9.0048     93.3850    121.7915   1.0089197091e+02   3.8739764849e+01    0.2838563    0.1888196 -39.69  0.001338105    1.644    0.392
        38  -9.1334     90.2976    122.2835   1.0183813395e+02   3.9128871008e+01    0.1929584    0.1688138  88.48 0.0001804139    1.176    0.149
        39  -9.2878     68.5194    122.5327   1.0785746198e+02   4.2293425459e+01    0.1385118    0.1205481 -78.21 1.009086e-05    1.057    0.053
        40  -8.3045    143.4304    121.5364   8.7818841233e+01   2.9163518490e+01    0.1547141    0.1480181 -10.95 6.690423e-05    1.089    0.081
        41 -10.0186     26.6742    116.9730   1.1844489662e+02   4.8173622896e+01    0.3269555    0.2399921  21.96  0.002062374    1.772    0.436
        42 -10.0118     75.5643    118.2971   1.0507227725e+02   4.2317472821e+01    0.2877856    0.2092846  80.54 0.0006774021    1.662    0.398
        43  -9.0879     45.3773    118.7477   1.1357962098e+02   4.5974185400e+01    0.1858626   0.09920385 -57.74 0.0004395546    1.578    0.366
        44 -10.1770     57.8036    117.7584   1.0994585534e+02   4.4796267115e+01    0.2354821    0.2093801 -64.38 0.0007621258    1.070    0.065
        45 -11.5295     38.7246    114.1539   1.1468670034e+02   4.7735687933e+01    0.4821595    0.3901839 -25.05   0.00300911    1.573    0.364
        46 -11.6109     11.5690    114.7990   1.2223271862e+02   4.9833146575e+01    0.2278559    0.1823911 -77.97 0.0003532284    1.051    0.048
        47  -9.2980      1.3478    112.5355   1.2468323134e+02   5.0997042182e+01    0.2966173   0.08964227 -83.75  0.000759758    3.715    0.731
        48  -8.6333    124.5146    113.0038   9.0447785174e+01   3.5002730598e+01    0.2204498    0.1477086 -46.64  0.000982907    1.446    0.309
        49  -9.8808     62.0179    112.6691   1.0778206403e+02   4.5480398773e+01    0.2604984    0.1651475 -43.34  0.001314621    1.631    0.387
        50 -10.3139     84.3121    111.7322   1.0118774988e+02   4.2555057014e+01    0.2848278    0.2155498  68.50  0.001449898    1.582    0.368
        51 -11.7943     80.5536    103.8893   1.0045872307e+02   4.4966175133e+01    0.6170563    0.4078965   3.28  0.002114652    2.559    0.609
        52 -10.2283     72.0429    111.6368   1.0468458812e+02   4.4390417748e+01    0.2238355    0.2140395 -30.64 0.0006050639    1.171    0.146
        53 -11.5065     71.8599    107.8564   1.0392186490e+02   4.5306728747e+01    0.5603217    0.2533045 -43.46  0.001413337    2.338    0.572
        54  -9.8249     49.8699    112.1423   1.1117350797e+02   4.7047544534e+01     0.193908    0.1607675 -86.97 0.0003978228    1.183    0.154
        55  -9.2695     13.7659    109.9538   1.2103531480e+02   5.0793471156e+01    0.1721685    0.1273577 -74.66 0.0006795658    1.044    0.042
        56  -9.5802    101.5324    108.9581   9.5657664514e+01   4.0318090156e+01    0.2189911    0.1187126 -32.16 0.0008096154    2.564    0.610
        57 -10.2833     28.5150    108.9426   1.1675467705e+02   4.9890372127e+01    0.3491437     0.155641  47.87   0.00128149    2.716    0.632
        58  -9.8052     22.6432    108.2400   1.1831853425e+02   5.0533755994e+01     0.260466     0.203897 -15.39  0.001683957    1.726    0.421
        59  -9.9371      6.7867    108.4136   1.2275848704e+02   5.1604944908e+01    0.2207263    0.1409164 -60.93  0.000340208    1.289    0.224
        60  -9.5858      8.8452    104.4350   1.2169323239e+02   5.2383925076e+01    0.2231905    0.1548569  68.77 0.0008828861    1.573    0.364
        61 -10.2950      7.9560    100.1070   1.2137932346e+02   5.3426367568e+01    0.1969167    0.1299334 -68.95   0.00125903    1.140    0.123
        62 -10.5621    123.0616    105.8073   8.8951840820e+01   3.6892818225e+01    0.5047476    0.2089878 -43.07  0.001777479    2.372    0.578
        63 -11.9518     61.8815    102.3378   1.0568139199e+02   4.7933304363e+01    0.6423222     0.314922 -47.72  0.002901156    1.867    0.464
        64 -10.9284     65.6898    100.1438   1.0404054240e+02   4.7953671196e+01    0.2999401    0.2241477 -69.78 0.0009435958    1.317    0.241
        65 -10.5579     86.5050    104.6485   9.8895306418e+01   4.3860275852e+01    0.3211532    0.2259568 -88.30  0.001474058    1.984    0.496
        66  -9.9323     16.3163    104.4859   1.1958090828e+02   5.1873436640e+01    0.2325371    0.1878128 -52.68  0.001272197    1.241    0.194
        67  -9.0536    143.1903    103.7571   8.3205735526e+01   3.3009345906e+01    0.3252324    0.1975377  44.26  0.001352804    1.683    0.406
        68 -10.1664     95.0883    101.8887   9.5710742653e+01   4.3068275495e+01    0.3305377    0.2321329 -33.34  0.001255013    1.560    0.359
        69 -10.0117    114.3027    102.1729   9.0350256348e+01   3.9455175853e+01    0.2896598    0.2054904  75.16  0.001152991    2.051    0.512
        70  -8.9241     27.1595    101.8702   1.1602480915e+02   5.1651129449e+01     0.164562    0.1178111 -53.22            0    1.248    0.198
        71 -10.7601     52.8842     99.5417   1.0781752613e+02   4.9674138790e+01    0.3962121    0.1855182 -61.45  0.001793361    1.850    0.459
        72 -10.4147    122.7406     98.0785   8.6923098678e+01   3.8647131476e+01    0.2203468    0.2013003 -39.94 0.0007949905    1.054    0.051
        73  -9.0287     47.3940     98.1409   1.0921292912e+02   5.0610614324e+01    0.1919525    0.1123596 -71.51 0.0009472597    1.683    0.406
        74 -10.7106     97.2366     96.4693   9.3661528577e+01   4.3921660463e+01    0.2829646    0.1965303 -48.96 0.0006844501    1.337    0.252
        75  -9.0129    147.3096     95.6278   7.9899117575e+01   3.3754504413e+01     0.234284    0.1845368 -77.04 0.0006830642    1.649    0.393
        76 -11.6839     90.6257     93.1493   9.4725258710e+01   4.5811108825e+01    0.4824093     0.268721 -55.92  0.001573869    1.789    0.441
        77 -11.9346     79.4020     95.1050   9.8640771242e+01   4.7169829253e+01    0.5261608    0.2690014  37.50  0.002303952    2.161    0.537
        78 -11.4434     80.3693     90.9107   9.7251367767e+01   4.7975705767e+01    0.4714397    0.2699738  43.64  0.001978043    1.961    0.490
        79 -11.6859     84.2316     86.8885   9.4958285880e+01   4.8267167231e+01    0.4945314     0.291871  46.80  0.002259733    1.952    0.488
        80 -12.7620    100.3597     82.7999   8.8845172392e+01   4.6355780334e+01    0.9668787    0.4785442 -53.60  0.003772625    2.200    0.545
        81 -13.3820    108.7875     90.9245   8.8767979867e+01   4.3004415578e+01     1.625807    0.8600935 -24.51  0.005384888    3.358    0.702
        82 -12.5317    108.5986     83.0322   8.6488801484e+01   4.4728794596e+01    0.8699232    0.4392532 -29.38  0.003130812    2.641    0.621
        83 -11.1867    104.6190     78.6047   8.6293945871e+01   4.6431289405e+01    0.4151804    0.3578229 -24.29 0.0004947916    1.144    0.126
        84 -11.6357    124.5733     85.3452   8.2712919817e+01   4.0950922131e+01    0.5606967    0.3001551 -51.25 0.0008609677    2.043    0.510
        85 -11.6402    121.3188     88.3174   8.4491544024e+01   4.1025605427e+01    0.5940339    0.2450145 -37.92  0.002045701    2.519    0.603
        86 -10.8468    119.0575     85.2907   8.4207607478e+01   4.2132154901e+01     0.335558     0.280324  49.38 0.0003898636    1.270    0.213
        87 -11.8549     60.1849     89.8103   1.0333047955e+02   5.1055156830e+01    0.6140271    0.4276976  -8.70  0.003112213    2.022    0.506
        88  -9.1882     44.5718     91.0244   1.0860546411e+02   5.2560973840e+01    0.1995289    0.1093598 -60.56 0.0003415838    1.522    0.343
        89  -9.9805     71.3296     91.8394   1.0030648443e+02   4.9102935990e+01    0.2164978     0.108537 -46.39 0.0009421496    1.797    0.443
        90  -9.9396     69.0833     87.8325   9.9989499698e+01   5.0330164865e+01    0.2041817     0.185455 -86.01 0.0007539169    1.236    0.191
        91 -10.0303      8.0407     86.7590   1.1943264323e+02   5.6450945634e+01    0.2963437    0.2085996  10.15  0.001451655    1.903    0.474
        92 -10.3286    149.7974     84.7746   7.6098208690e+01   3.5330731341e+01     0.321056    0.2318399 -48.80  0.001441303    1.438    0.305
        93 -11.1472    134.2983     85.6062   8.0216089560e+01   3.8756468032e+01    0.3661111    0.2642139  27.53  0.001634721    1.613    0.380
        94  -8.6653    173.7853     84.9616   7.0749701915e+01   2.9454845725e+01    0.2093057    0.1268352 -34.65 0.0004230277    1.630    0.386
        95 -10.7190    132.5289     94.0192   8.3168196416e+01   3.7419524560e+01    0.2916813    0.2218842  63.42 0.0007322184    1.539    0.350
        96  -9.1741     26.9699     84.6584   1.1298846432e+02   5.5633289815e+01    0.1634672    0.1397586 -58.33 0.0003820677    1.078    0.072
        97 -10.5148     79.3967     80.1093   9.4556343722e+01   5.0529150912e+01    0.4265294    0.2157739 -63.48  0.001006509    2.833    0.647
        98 -10.5302     75.9091     82.9038   9.6473564220e+01   5.0449005485e+01    0.3644751    0.2480432 -68.65 0.0003751015    1.783    0.439
        99  -9.9165     76.3357     75.8273   9.4289822364e+01   5.1930919629e+01    0.3259125    0.1531947  34.50  0.001367967    2.404    0.584
       100  -9.2995     72.1907     77.6220   9.6180894335e+01   5.2161548755e+01    0.2100232    0.1693117 -45.82 0.0005825468    1.096    0.088
       101 -11.5554     52.0023     81.5348   1.0396630502e+02   5.3920305140e+01    0.3921093      0.35439  43.95  0.002494056    1.313    0.238
       102 -10.5470     86.3407     82.0677   9.2923430104e+01   4.8982741143e+01    0.2484704    0.2116598  44.46 0.0006503437    1.308    0.235
       103 -10.2128     45.3563     80.2358   1.0588154499e+02   5.4943247082e+01    0.2723985    0.1933804 -64.65  0.001044222    1.310    0.237
       104 -10.6316      6.5120     80.2365   1.1887811601e+02   5.8002441400e+01    0.2543079    0.2071919  32.80 0.0006795147    1.583    0.368
       105 -10.3411    127.9710     79.6832   8.0056220531e+01   4.1355515547e+01    0.2729103    0.2176701  -6.61 0.0006108957    1.467    0.318
       106  -8.9328     37.6347     80.2812   1.0850400545e+02   5.5701548300e+01    0.1225963   0.09396941  75.33 0.0007014837    1.683    0.406
       107 -11.2277    114.0067     76.1958   8.2805756666e+01   4.5044946489e+01    0.3709041    0.2710288  24.92  0.001737645    1.578    0.366
       108 -11.0566     93.4696     74.1919   8.8297081025e+01   4.9427332947e+01    0.3557134    0.3438931   2.40  0.002066049    1.089    0.082
       109 -12.1525    104.1258     68.8128   8.3292391593e+01   4.8509954893e+01    0.6667274    0.4927815  -6.95  0.003170559    1.655    0.396
       110 -10.7951    110.0140     64.1304   7.9974545036e+01   4.8223765223e+01     0.491188    0.2508958  28.91  0.001780267    2.791    0.642
       111 -10.2626    109.3692     60.0909   7.8765714726e+01   4.9108027805e+01    0.4907186     0.194925 -30.20  0.001306011    3.059    0.673
       112 -11.1893     98.3221     75.5386   8.7226154787e+01   4.8261692777e+01    0.5066324     0.232702 -48.12  0.001329747    2.134    0.531
       113 -10.6034     97.3222     69.5921   8.5619550177e+01   4.9660763776e+01    0.4155848     0.217183 -40.19 0.0009428566    1.794    0.443
       114 -11.3115    152.1956     74.0168   7.2221455299e+01   3.6781464467e+01      0.44882    0.2667006  37.80  0.001582173    1.871    0.465
       115 -10.2789     82.9197     74.0851   9.1614524143e+01   5.1260230270e+01     0.357801    0.2048271 -33.71  0.001095193    1.823    0.451
       116 -11.3437     45.3403     73.1694   1.0410626695e+02   5.6521849952e+01    0.4909211    0.3675103 -18.52  0.002569089    1.514    0.340
       117 -11.3939    143.6055     70.9267   7.3283369639e+01   3.9421518979e+01    0.5116516    0.2744023 -42.43  0.002027051    1.869    0.465
       118 -11.4719    137.7906     71.8900   7.5031288965e+01   4.0619931234e+01    0.4904837    0.3569734 -79.16  0.001615305    2.092    0.522
       119 -11.0012    109.3919     72.4219   8.2921633337e+01   4.6744214696e+01    0.3307212    0.2561499  -9.86  0.001091234    1.491    0.329
       120  -9.7181     88.1351     72.2633   8.9368176723e+01   5.0765752498e+01    0.2918326    0.2111819 -18.87  0.001430436    1.581    0.368
       121 -10.6050     62.8846     71.3380   9.7483547927e+01   5.4824192740e+01    0.3133717    0.2625348 -52.10  0.001070495    1.131    0.116
       122 -11.1766    119.8732     72.1087   7.9838520603e+01   4.4614194987e+01    0.3132227    0.2083063  51.11  0.001410539    1.611    0.379
       123 -10.6023    153.0211     67.0010   6.9807792401e+01   3.7832823051e+01    0.3314402    0.2140904 -34.43 0.0008894736    1.534    0.348
       124  -8.5327     17.7797     68.9856   1.1289744223e+02   5.9820765747e+01    0.1644301   0.07888152 -61.97 0.0003813254    1.613    0.380
       125 -10.3682     71.0123     67.5002   9.3519602737e+01   5.4496938113e+01    0.3085803    0.2371526  45.70 0.0009048184    1.549    0.354
       126  -9.9515     76.2056     66.3934   9.1401208259e+01   5.3937874963e+01    0.2581515     0.209112  38.32  0.000635993    1.384    0.278
       127  -8.8571      5.2059     68.0602   1.1717820448e+02   6.0767226352e+01    0.1836845    0.1115766 -52.52 0.0003774201    1.267    0.211
       128 -11.0054    126.4805     65.0309   7.5696770657e+01   4.4488760895e+01    0.3274996    0.2464816  -6.69  0.001265811    1.572    0.364
       129  -8.8106     87.9963     66.0049   8.7378339747e+01   5.2066410632e+01    0.1702812    0.1560607 -20.86   -0.0213525    1.025    0.024
       130 -10.3358    133.1376     63.8769   7.3575587714e+01   4.3168801698e+01     0.227149    0.2110061 -65.69  0.000429006    1.207    0.171
       131  -9.7438     32.3763     63.9251   1.0635466311e+02   5.9796459093e+01      0.20683      0.16985 -17.53 0.0005057407    1.310    0.237
       132  -8.8379    195.3506     63.2866   6.0275655452e+01   2.7714623595e+01    0.1576849    0.1159081  26.88 0.0003102545    1.661    0.398
       133 -10.6866     90.2050     60.0005   8.4618728067e+01   5.2851416930e+01    0.3794939    0.1830088  34.22  0.001538654    2.374    0.579
       134  -9.9919     98.1847     54.6199   8.0178974709e+01   5.2354600600e+01    0.3685276    0.1419559  41.29  0.001347867    2.734    0.634
       135 -10.7776     67.0255     62.2718   9.3225724410e+01   5.6156120062e+01    0.4582068    0.2195732 -38.97  0.001715586    1.933    0.483
       136  -9.5887     69.4038     56.8148   9.0553083679e+01   5.6903491726e+01    0.3006763    0.1647738 -38.57  0.001422048    1.636    0.389
       137  -9.4965    172.1481     62.1820   6.4218619950e+01   3.3826112403e+01    0.3372424    0.1570286  39.48  0.001154251    2.657    0.624
       138  -9.2509    216.4751     60.5269   5.6145937257e+01   2.2841393325e+01    0.1474471    0.1386296 -52.33 5.102489e-06    1.009    0.009
       139 -11.5185    159.8394     58.7008   6.5639070125e+01   3.7526363357e+01    0.5676034    0.3416589 -27.42  0.001442871    1.736    0.424
       140  -9.7046    103.9527     59.0068   7.9987945532e+01   5.0413816453e+01    0.2161165    0.1991468 -18.42            0    1.022    0.021
       141  -9.8126    150.5033     57.9177   6.7420326328e+01   3.9997691043e+01    0.2335951    0.1514899 -31.14 0.0005557991    1.549    0.354
       142  -9.8964     61.8318     57.8126   9.3609730856e+01   5.7785947094e+01    0.2060511    0.1635591 -24.89 0.0005551907    1.169    0.144
       143  -9.5404     33.9839     57.7511   1.0404800923e+02   6.0967580061e+01    0.2477105    0.1614559 -58.80 0.0009956431    1.396    0.284
       144  -9.0114     30.0641     57.7165   1.0554667474e+02   6.1322335817e+01      0.17568    0.1522845   7.73 0.0002981852    1.353    0.261
       145  -9.4913    126.7941     56.8415   7.2808671768e+01   4.5867307829e+01    0.2002837    0.1819735 -74.92 0.0004020508    1.312    0.238
       146  -8.9941    120.7585     57.4538   7.4631891656e+01   4.7126666131e+01    0.2162002    0.1362576  36.01 0.0009436325    1.687    0.407
       147  -9.7106    223.9902     55.9963   5.3862608097e+01   2.1672866977e+01    0.1782229    0.1663451 -53.31 0.0008097234    1.003    0.003
       148 -10.6746    201.2162     56.1139   5.7242065418e+01   2.7324192074e+01    0.2799714    0.2196871  71.85 0.0006115327    1.330    0.248
       149  -9.3370    112.1891     55.8308   7.6445835204e+01   4.9279607286e+01    0.2147981    0.2008922 -44.70 0.0004728824    1.165    0.142
       150 -11.3396     77.1386     55.0701   8.7235563958e+01   5.6036520219e+01    0.5950782    0.2641664  43.92  0.001363173    2.580    0.612
       151  -9.9590     82.4811     52.5163   8.4491510964e+01   5.5622393915e+01    0.2445704    0.2092338  10.83  0.001401919    1.176    0.150
       152  -9.9118     85.8283     51.7979   8.3108460344e+01   5.5168636510e+01     0.342636    0.1910533 -38.66  0.001092008    1.661    0.398
       153  -9.8772     83.7954     48.0085   8.2372186617e+01   5.6209469283e+01    0.2640631    0.1922268 -34.28  0.001010582    1.265    0.209
       154  -8.5331    107.2483     55.3475   7.7705049699e+01   5.0402985407e+01    0.1486603    0.1094986  -4.31 0.0002021582    1.581    0.368
       155  -9.3038     45.3590     54.6891   9.8742207114e+01   6.0452798748e+01    0.2408828    0.1769605 -29.58 0.0009368167    1.239    0.193
       156 -10.2918    174.1934     53.1351   6.1007122520e+01   3.4725634275e+01    0.3473664    0.2457998 -30.38 0.0008130151    1.424    0.298
       157  -9.6926    175.2956     49.3354   5.9615261089e+01   3.5009642911e+01    0.2073619    0.1919288  12.06 0.0004465634    1.147    0.128
       158 -11.0008    206.3830     50.7483   5.4925704177e+01   2.6800686602e+01    0.4080186    0.2931473   4.89  0.001869864    1.887    0.470
       159  -9.3437     31.9591     51.6634   1.0304088871e+02   6.2415688566e+01    0.1637604    0.1418349 -30.14   0.00039134    1.121    0.108
       160  -9.0335    186.3243     51.3470   5.8289272433e+01   3.1855767676e+01    0.1600556    0.1150792  24.14 0.0007049796    1.744    0.427
       161  -9.7703    150.8164     51.5752   6.5237333763e+01   4.0935498917e+01     0.215059    0.1492428  71.17 0.0009467637    1.694    0.410
       162  -9.5939    116.1617     50.9171   7.3557867675e+01   4.9261064507e+01    0.2351355    0.2090805  37.07 0.0002815507    1.129    0.114
       163  -8.8036     18.8082     51.1127   1.0815364674e+02   6.3581292876e+01    0.1744515    0.1072282 -41.98 0.0005844251    1.309    0.236
       164  -8.9241    134.4543     50.4912   6.8648100494e+01   4.5121003192e+01    0.1508908    0.1430962   9.76 9.588532e-05    1.011    0.011
       165  -9.3839    233.2081     48.8061   5.0790700345e+01   2.0478995060e+01    0.2603954    0.1259991 -61.47 0.0009595364    2.869    0.651
       166 -12.0453     59.2298     47.4872   9.0965227637e+01   6.0156548804e+01    0.4196048    0.2594719 -25.09  0.002150467    1.654    0.395
       167 -11.1972     67.2411     46.0019   8.7428208719e+01   5.9281153748e+01     0.346081    0.3418591 -11.65 0.0005510623    1.280    0.219
       168  -9.8943     48.6173     48.7428   9.5496375598e+01   6.1268066493e+01    0.3836109    0.1669539  23.30 0.0009586668    2.991    0.666
       169  -9.6470    124.8462     48.1390   7.0225272115e+01   4.7754842352e+01    0.2313287    0.2059965 -64.33  0.001216621    1.339    0.253
       170 -10.8934     57.1220     41.4567   8.9510964653e+01   6.1561122689e+01    0.5553215    0.3189642   9.44  0.002196519    2.496    0.599
       171 -10.9656     94.0122     44.3565   7.7643379639e+01   5.4945619285e+01    0.3377259    0.2732006  16.91  0.000322311    1.237    0.192
       172  -9.0475     29.2131     46.0189   1.0239455169e+02   6.3802934903e+01    0.1901568    0.1406094 -84.65  0.001084389    2.135    0.532
       173 -10.8516    167.7960     43.6396   5.9186723934e+01   3.7777075419e+01    0.4695252    0.2920341  57.16  0.002093274    1.551    0.355
       174 -10.2846     75.9535     43.7424   8.3431467305e+01   5.8303895264e+01    0.4107757    0.1552135  40.14  0.001622929    2.823    0.646
       175 -10.1084    195.9123     38.7385   5.3021743688e+01   3.1144628078e+01      0.35908    0.1661362 -52.55  0.001314871    2.615    0.618
       176  -9.1678    143.6497     42.7062   6.3777624842e+01   4.4061363944e+01    0.1599228    0.1097779  26.70 0.0007031229    1.677    0.404
       177  -8.8638    103.7966     41.1788   7.3427224019e+01   5.3488857482e+01    0.2017607    0.1572835  10.12  0.000504743    1.337    0.252
       178 -10.2642     81.9471     37.7134   7.8962514324e+01   5.8283172691e+01     0.333376    0.2334584 -11.17    0.0012613    1.484    0.326
       179  -8.4564    134.5018     38.5148   6.4360203292e+01   4.6910151099e+01    0.1479548    0.1395206  22.34 2.286978e-05    1.001    0.001
       180  -8.9917    115.9851     37.7374   6.8681641213e+01   5.1362265623e+01      0.20428    0.1781393  40.54  0.000370877    1.132    0.117
       181  -9.9888     68.1277     38.1515   8.4036173869e+01   6.0530531449e+01    0.2142741    0.1597753 -10.97 0.0008154515    1.301    0.231
       182  -9.3577    128.0486     36.5664   6.5174783280e+01   4.8734932410e+01    0.2261714    0.1959239 -35.31 0.0003887526    1.211    0.174
       183  -8.2236    166.3223     36.3226   5.7083393662e+01   3.9161825885e+01    0.1575542    0.1095128  29.00  0.000370757    1.678    0.404
       184  -9.6193     41.8506     35.8244   9.3501301773e+01   6.4489060326e+01    0.1528887    0.1446176 -40.23 0.0004627053    1.346    0.257
       185  -9.3930    150.0338     34.4559   5.9555462933e+01   4.3597759901e+01     0.216121    0.1933132 -19.94 0.0002820709    1.149    0.130
       186  -8.6176    161.4985     34.5126   5.7365608265e+01   4.0649607521e+01    0.1464426    0.1423932  68.26 -7.242293e-05    1.031    0.030
       187 -10.3268     71.1136     32.0625   8.0424258282e+01   6.1049280619e+01    0.3467464    0.1845647  36.35 0.0007809887    1.948    0.487
       188  -9.2992    179.5241     29.0494   5.2568083173e+01   3.6644530889e+01    0.2175398    0.1408649 -31.28 0.0007877755    1.569    0.363
       189  -9.1064     64.9527     29.3918   8.1565609754e+01   6.2460753070e+01    0.2070816    0.1529515   2.22  0.001014504    1.335    0.251
       190  -9.6758    174.2991     27.9650   5.3045942029e+01   3.8140777209e+01    0.1968418    0.1917597 -45.09 0.0004319157    1.064    0.060
       191  -9.9044    164.5614     21.9382   5.2672531712e+01   4.1383383220e+01    0.2700764    0.2345307  42.16 0.0004844709    1.141    0.123
       192  -8.9794    238.9123     22.1276   4.3461717809e+01   2.2557419468e+01    0.2136673    0.1595103 -59.22 0.0007283247    1.224    0.183
       193  -9.0126    141.4874     22.0295   5.6865878285e+01   4.7282715846e+01    0.1981599    0.1421296 -20.64 0.0003568543    1.464    0.317
       194  -8.8789    207.2380     21.0553   4.6500589280e+01   3.0431512729e+01    0.1886912    0.1695112 -56.35 0.0001941747    1.076    0.070
       195  -8.0048    110.2712     20.6164   6.3391653559e+01   5.4906703478e+01     0.137368    0.1050702 -53.81   0.00069939    1.704    0.413
       196  -8.6470     69.7342     18.5576   7.4933287098e+01   6.3253917147e+01    0.1601511    0.1239799  48.22 0.0009374854    1.573    0.364
       197  -9.3022    154.9460     17.0621   5.2641811238e+01   4.4403897758e+01    0.2119671     0.196013  39.21 0.0003815836    1.058    0.055
       198  -9.0989     75.2476     17.0684   7.2298947235e+01   6.2477638243e+01     0.183732    0.1476661  -8.10 0.0003975281    1.096    0.087
       199  -9.2338    181.2518     14.2766   4.7774505166e+01   3.7867452385e+01    0.2382987    0.1906524  75.27 0.0006565686    1.181    0.153
       200  -8.3017    144.2928     14.7381   5.3706333727e+01   4.7363870623e+01    0.1344327    0.1070339 -70.20 0.0002861894    1.500    0.333
       201  -8.8793    147.4252    241.2869   1.0831241229e+02   5.7031875041e+00    0.2182909    0.1176062  54.58  0.001184974    1.816    0.449
       202 -12.8334     77.1400    219.6259   1.1884463858e+02   2.0015404675e+01     1.629333    0.6161013  48.94   0.00295704    2.173    0.540
       203 -12.4259     69.0492    218.4956   1.2023216749e+02   2.1319005425e+01     1.657214     0.632914  66.12   0.00654571    3.908    0.744
       204 -10.3926    130.8237    206.1331   1.0685988500e+02   1.4223767867e+01    0.5343965    0.2320455  45.35   0.00242913    1.991    0.498
