#   1 NUMBER                 Running object number                                     
#   2 MAG_AUTO               Kron-like elliptical aperture magnitude                    [mag]
#   3 X_IMAGE                Object position along x                                    [pixel]
#   4 Y_IMAGE                Object position along y                                    [pixel]
#   5 X_WORLD                Barycenter position along world x axis                     [deg]
#   6 Y_WORLD                Barycenter position along world y axis                     [deg]
#   7 A_WORLD                Profile RMS along major axis (world units)                 [deg]
#   8 B_WORLD                Profile RMS along minor axis (world units)                 [deg]
#   9 THETA_WORLD            Position angle (CCW/world-x)                               [deg]
#  10 FWHM_WORLD             FWHM assuming a gaussian core                              [deg]
#  11 ELONGATION             A_IMAGE/B_IMAGE                                           
#  12 ELLIPTICITY            1 - B_IMAGE/A_IMAGE                                       
         1 -12.6292    242.1894     16.4135   6.5931399681e+01   2.3301299617e+01     1.020786    0.6850009  -6.98  0.004247964    1.555    0.357
         2 -10.7474    248.9986      4.7997   6.2532470011e+01   2.2917242042e+01    0.8620729    0.2774713 -25.50  0.003709296    2.447    0.591
         3 -11.7933    242.2394      3.6468   6.2660722238e+01   2.4431434482e+01    0.7585364    0.5603698  63.68  0.004677697    1.518    0.341
         4 -10.6247    233.3030     14.3493   6.6073880966e+01   2.5409787709e+01    0.3441379    0.1990667  14.74  0.001489397    2.382    0.580
         5 -11.0883    229.4665      9.2270   6.4998239240e+01   2.6724237048e+01    0.4083695    0.2114576 -32.24  0.001475878    1.637    0.389
         6  -9.8633    201.5159     11.7620   6.8120608892e+01   3.3021148914e+01    0.3465353    0.1916514  51.00  0.001181224    1.886    0.470
         7  -9.6602    218.4815     11.0103   6.6362811677e+01   2.9058943078e+01    0.2012291    0.1203911 -22.57 0.0004357595    1.530    0.346
         8 -10.0756    211.4663      7.9460   6.6081981018e+01   3.0976117999e+01    0.3611372      0.17744 -22.84  0.001238979    1.859    0.462
         9  -9.0970    139.1643      6.6093   7.4252199999e+01   4.9502689878e+01    0.3633499    0.1800987   4.16  0.001187241    2.659    0.624
        10 -10.1098    223.1167      5.8976   6.4570669084e+01   2.8448257813e+01     0.212288    0.1579381 -47.07 0.0005306169    1.253    0.202
        11  -8.2562    180.2173      6.4205   6.8629684794e+01   3.8821647852e+01    0.1900194    0.1329382 -87.58 0.0008016148    1.590    0.371
        12  -8.9781    134.1085      3.9784   7.4010428652e+01   5.1060150921e+01     0.220936    0.2064324  26.55 0.0006244009    1.011    0.011
        13  -8.3009    109.4832      2.5175   7.8147855609e+01   5.7505127761e+01    0.1453884    0.1310524  23.54 0.0002055982    1.007    0.007
        14  -8.5272    173.3008    235.3326   1.2452608623e+02   7.3013593478e+00    0.1087635   0.06909626   9.99 0.0007033679    1.652    0.395
        15 -10.3829    232.5098    185.4411   1.0674660958e+02   4.8819442364e+00    0.7060274    0.3516203  -2.23   0.00341901    2.583    0.613
        16 -10.4725    238.0681    188.7568   1.0642610414e+02   3.7337388061e+00    0.5032199    0.2606823 -23.59  0.002947146    1.816    0.449
        17 -10.6975    224.2938    244.0300   1.1718073444e+02   1.1452387610e-02    0.4957021    0.2609992 -38.76  0.003185232    2.880    0.653
        18 -11.1710    233.0251    214.4631   1.1150528730e+02   1.7339009405e+00    0.9292023    0.6107153 -47.65  0.005341953    3.467    0.712
        19 -10.5604    245.3575    203.8195   1.0783360151e+02   1.1959892999e+00    0.5108602    0.4055661  46.49  0.003538127    2.203    0.546
        20 -10.1231    236.9031    208.2692   1.0990029853e+02   1.8510667659e+00     0.651359    0.4137232 -44.83  0.003780767    3.138    0.681
        21 -10.8450    235.5541    197.2444   1.0829723303e+02   3.1696345137e+00     0.576707    0.5055929  54.81  0.004000776    2.226    0.551
        22 -10.2922    249.9420    179.6599   1.0291023180e+02   3.0630046792e+00    0.7541122    0.1660878 -30.21  0.002915193    4.178    0.761
        23 -11.2565    247.2250    193.0467   1.0571761740e+02   2.0349245857e+00    0.6254066    0.3928385 -28.87   0.00410398    1.752    0.429
        24 -10.2872    243.4791    182.3415   1.0441407187e+02   3.6743923151e+00    0.5579268    0.4996703 -65.69  0.003657061    2.560    0.609
        25 -10.8305    248.4999    215.4987   1.0922982128e+02  -3.2102412484e-01    0.5562658    0.3225515 -30.44  0.003676404    2.038    0.509
        26 -10.9065    233.5889    245.9708   1.1599192025e+02  -1.2563800436e+00     0.459009    0.2633868  -7.39  0.002488343    1.670    0.401
        27 -11.1187    231.9744    237.2040   1.1503777058e+02  -2.9347710343e-01    0.7709881    0.3943268 -12.96   0.00501892    2.054    0.513
        28 -11.2773    242.6698    245.9855   1.1460545122e+02  -2.3051774031e+00    0.4608417    0.2336164 -11.84  0.002022259    1.972    0.493
        29 -11.1833    241.6026    238.2620   1.1369383055e+02  -1.5294992629e+00    0.5440553      0.28069 -23.87  0.002708452    2.011    0.503
        30  -9.8388    211.1399    247.5914   1.1973880468e+02   1.2654188590e+00    0.3497531    0.2012993 -45.80  0.002212534    3.332    0.700
        31  -9.0331    200.3304    249.7518   1.2175459047e+02   2.3709861848e+00    0.2575936    0.1286808  13.90  0.001539302    2.199    0.545
        32  -8.2303    124.3556    250.3251   1.3465095954e+02   1.1637561772e+01    0.1007013   0.06902601  11.32 0.0007045847    1.770    0.435
        33  -9.3005    194.9459    232.7096   1.2046896635e+02   4.7842065493e+00     0.231521    0.1550809 -41.43  0.001621069    2.123    0.529
        34  -9.1104    186.7437    231.1485   1.2166560505e+02   6.0228933566e+00    0.1971106    0.1810966 -88.15  0.001521598    2.024    0.506
        35 -10.1730    216.1328    233.8665   1.1710386198e+02   1.9651165704e+00    0.4186742    0.3341022 -59.15  0.002774911    3.218    0.689
        36  -8.4618    226.4741    230.9886   1.1502887481e+02   9.5356644013e-01    0.1679278     0.133539 -47.95 0.0007711774    2.669    0.625
        37  -9.0694    223.1707    226.9491   1.1497887565e+02   1.7576009979e+00    0.1987142    0.1567751  -5.17  0.001364856    1.322    0.243
        38 -12.4641    248.2411    237.8552   1.1262549518e+02  -2.2667475678e+00     1.445945    0.4585174 -34.61  0.007481491    4.143    0.759
        39  -9.3828    206.6040    225.4938   1.1750740320e+02   4.0378208347e+00    0.3056882    0.1215471 -36.12   0.00167186    2.975    0.664
        40  -9.1549    149.6954    226.2679   1.2764762649e+02   1.1521697756e+01    0.1922074    0.1568158  56.47  0.001418362    1.529    0.346
        41  -9.1526    199.8932    224.8959   1.1856050200e+02   4.9840463249e+00     0.193305    0.1398724 -21.96  0.001413441    1.527    0.345
        42  -9.4143    161.7807    224.9578   1.2528694709e+02   1.0076418617e+01    0.2774063    0.1636904 -49.47  0.001749075    2.337    0.572
        43  -9.4430    217.0670    223.5702   1.1548570175e+02   2.8772531241e+00    0.3010004    0.1803587 -38.98  0.001726121    2.358    0.576
        44  -8.9112    181.2034    224.5948   1.2176451255e+02   7.5099941213e+00    0.2186159    0.1351891  45.85  0.001375685    1.831    0.454
        45  -9.4772    229.5778    222.8034   1.1333375590e+02   1.3525373081e+00    0.2050858    0.1543174  -5.49  0.001219326    1.275    0.216
        46 -10.0020    226.4934    219.3887   1.1331881166e+02   2.0837440230e+00    0.2777084    0.2084992  -7.73  0.001423991    1.289    0.224
        47  -9.6023    192.3325    221.1128   1.1933388236e+02   6.4169395454e+00    0.2153557    0.2055476  36.09   0.00158918    1.600    0.375
        48  -8.9388    210.4955    219.7811   1.1602651143e+02   4.1344009641e+00    0.1705258    0.1575154 -40.99  0.001251541    1.880    0.468
        49  -8.7152    168.4693    215.7460   1.2286695106e+02   1.0340686180e+01    0.1684341    0.1136226 -46.61 0.0008911918    1.971    0.493
        50  -9.9382    131.6995    213.4441   1.2951565627e+02   1.5717015744e+01    0.3186152    0.1797998 -57.94  0.001882379    2.364    0.577
        51 -10.4643    215.2184    209.7474   1.1370755458e+02   4.5885715553e+00    0.4467583    0.3269273 -26.06  0.003171133    1.562    0.360
        52  -9.1730    210.8893    201.3052   1.1310689463e+02   6.1413574497e+00    0.2333682    0.1844068 -10.47  0.001563459    1.262    0.208
        53  -9.5749    209.9439    195.6071   1.1233649416e+02   6.9464653285e+00     0.280801    0.2352591 -55.45  0.001391559    2.206    0.547
        54  -8.7411    161.3875    212.2723   1.2371145951e+02   1.1785761907e+01    0.1336676     0.112503 -53.76 0.0007565888    1.657    0.397
        55 -10.7627    224.7564    193.4211   1.0942913961e+02   5.0839969392e+00    0.4852753    0.3494273 -40.05  0.003115386    2.035    0.509
        56 -10.0452    204.3465    207.5083   1.1522628521e+02   6.3395001546e+00    0.2920246    0.1939819 -13.80   0.00141775    1.509    0.337
        57  -9.1765    176.6967    211.3512   1.2074675705e+02   9.7551515115e+00    0.2371975    0.1373846  47.59   0.00135053    2.022    0.506
        58  -8.6998    147.6736    210.3457   1.2605644072e+02   1.3971217596e+01    0.1130484   0.08262092  57.70 0.0001611868    1.746    0.427
        59  -8.9987    191.8910    208.3465   1.1755434122e+02   7.9876362768e+00    0.1759516    0.1511151 -17.33  0.000877547    1.361    0.265
        60  -9.7642    185.5624    213.0031   1.1937603492e+02   8.3064276197e+00    0.2472231    0.1961016 -20.83  0.001183304    1.398    0.284
        61  -9.7811    196.3113    204.4912   1.1617495515e+02   7.8307145396e+00    0.2982181    0.2120991  49.83  0.001451642    1.961    0.490
        62  -9.0064    183.8958    202.4064   1.1810378978e+02   9.8762185241e+00    0.2331157     0.142342 -12.89  0.001335494    1.961    0.490
        63  -9.0047    221.7360    201.1273   1.1122743380e+02   4.6449098081e+00    0.2247626    0.1789352 -41.74  0.001525379    2.019    0.505
        64  -8.9002    163.3208    201.5001   1.2183731672e+02   1.2990853471e+01    0.2474611    0.1092773 -42.83  0.001254473    2.661    0.624
        65  -8.7565    203.1667    198.1766   1.1395202697e+02   7.6154764856e+00    0.1517246    0.1277495  29.41  0.001064813    1.348    0.258
        66  -9.0365    148.5685    196.7931   1.2404332568e+02   1.5830711239e+01    0.2339405    0.1199989 -57.39  0.001147493    2.962    0.662
        67  -9.7476    215.9056    194.8181   1.1117071228e+02   6.1826941199e+00    0.3150372    0.2402504 -47.78  0.001988175    2.240    0.554
        68  -9.1683    185.2144    193.5019   1.1646089098e+02   1.0851992287e+01    0.2861924    0.1605016 -29.68  0.001606391    1.952    0.488
        69  -8.8031    210.3475    189.3969   1.1121611442e+02   7.6368370181e+00    0.2174978     0.138387 -30.19  0.001327948    1.673    0.402
        70  -9.5617    227.4402    210.1737   1.1173829187e+02   2.9010534578e+00    0.2794139      0.16771  -0.90  0.001790878    1.560    0.359
        71  -8.4283    191.2637    187.6335   1.1436605692e+02   1.0722938297e+01    0.1029735   0.09914228  75.41 0.0004318538    1.649    0.393
        72  -9.4638    226.9757    205.4505   1.1105909001e+02   3.4598368710e+00    0.2873391    0.1855992  -4.70  0.001581639    1.382    0.276
        73  -9.6429    147.5498    178.8122   1.2154601200e+02   1.8811078676e+01    0.3480655    0.1222061 -45.04  0.001449706    3.176    0.685
        74  -9.3796    228.6680    200.8431   1.1002597209e+02   3.7231061670e+00     0.255311    0.1575935  -0.07  0.000903205    1.475    0.322
        75  -8.0895    191.4994    177.4657   1.1255781405e+02   1.2068595739e+01    0.1279846    0.1030704  13.19 0.0001248124    1.011    0.011
        76  -9.0098    204.3254    211.6602   1.1586687612e+02   5.8646742212e+00    0.2107779   0.09265607  38.65 0.0009032626    1.997    0.499
        77  -8.6580    175.8151    170.6638   1.1437373191e+02   1.5575318173e+01    0.2327761    0.0953555 -37.01    0.0010147    2.626    0.619
        78  -8.3993    137.2426    161.2420   1.2085359786e+02   2.3470292311e+01     0.217587   0.09359454  46.59 0.0008922497    2.449    0.592
        79  -8.6787    243.2375    155.4338   9.9311480732e+01   6.7568239334e+00    0.1446808    0.1127102  36.90 0.0004296356    1.522    0.343
        80  -8.2318    229.4117    153.5076   1.0116509497e+02   9.1644663773e+00    0.1288196    0.1012075   0.45 8.007676e-05    1.018    0.017
        81  -9.5500    133.6955    152.1596   1.2004131254e+02   2.5724165555e+01    0.1964767    0.1643637  41.56  0.001145229    1.160    0.138
        82  -8.2814    118.4839    152.5097   1.2367862892e+02   2.8128913386e+01    0.1316382    0.1234749  29.48 0.0008103678    1.012    0.012
        83  -9.3240    240.9165    149.4167   9.8453027149e+01   7.8357467858e+00    0.2159959    0.1533648 -30.72 0.0006784485    1.509    0.337
        84  -8.0023    234.3241    146.3254   9.8869421824e+01   9.2720619215e+00    0.1365415   0.08300474   7.15 0.0004398623    1.689    0.408
        85  -7.9721    244.6766    144.7099   9.6885880548e+01   7.8083404302e+00    0.1309688   0.08013952   8.34 0.0007012241    1.609    0.379
        86  -8.7489    248.4152    142.7345   9.5897645289e+01   7.4539174770e+00    0.1799958   0.09988505 -14.96  0.000954923    1.609    0.379
        87  -8.0551    241.3521    138.2872   9.6043581520e+01   9.1248162605e+00    0.1348675   0.08247223  10.13 0.0007023263    1.666    0.400
        88  -8.6623    121.7815    133.9260   1.1940667077e+02   3.1304334205e+01    0.1776083    0.1124277 -46.96 0.0003632804    1.616    0.381
        89  -8.1557    113.3337    134.6907   1.2169636732e+02   3.2562857998e+01    0.1401771     0.107136  71.18 0.0002940964    1.674    0.403
        90  -8.8462    235.9705    130.0139   9.5084253421e+01   1.1064475727e+01    0.1964613    0.1610556  -8.07 0.0006691211    1.080    0.074
        91  -8.4103    231.3695    129.8613   9.5786078804e+01   1.1877124062e+01    0.1892457    0.1064807 -14.79 0.0004635782    1.721    0.419
        92  -9.2149    200.8912    125.8092   1.0015342996e+02   1.7991043129e+01    0.3925532    0.1788184 -29.48  0.001661893    2.121    0.529
        93  -8.3642    186.5929    128.1932   1.0346270646e+02   2.0342238197e+01    0.1983025     0.125115 -20.54 0.0009431013    1.632    0.387
        94  -8.5594    212.8105    123.2100   9.7391934169e+01   1.6130978187e+01    0.2416323    0.1421572   8.61  0.001069204    2.169    0.539
        95  -8.4599    232.2914    120.9952   9.3628739423e+01   1.2875961753e+01    0.1896184     0.144189 -15.24 0.0005075466    1.116    0.104
        96  -9.0904    192.0488    118.3572   1.0006007415e+02   2.0847160384e+01    0.2503066    0.1952922 -33.02 0.0006205072    1.292    0.226
        97  -8.6327    153.4845    114.5106   1.0730250983e+02   2.9216091805e+01     0.260475    0.1347226 -50.01  0.001025985    2.323    0.570
        98  -8.6301    209.4633    114.0273   9.5792593329e+01   1.8094395155e+01    0.2108329    0.1249199 -29.69 0.0004709608    1.553    0.356
        99  -8.5360    242.8428    113.1151   9.0196432063e+01   1.2016747711e+01    0.2244311    0.1760996 -82.57  0.001181855    2.544    0.607
       100  -8.6814     25.8343    111.3931   1.4288280641e+02   4.8846977455e+01    0.1632933    0.1194483  -5.30 0.0009556627    1.842    0.457
       101  -8.7803    237.1249    107.3184   8.9682950100e+01   1.3783607197e+01    0.2181214    0.1482411  20.92  0.001179601    1.509    0.338
       102  -8.4338    197.1692    107.1784   9.6315396559e+01   2.1564150610e+01     0.184235    0.1648316 -37.72 0.0006185255    1.274    0.215
       103  -9.0495    228.7548    104.1940   9.0202834645e+01   1.5756147183e+01    0.2058205    0.1888707  52.57 0.0007082256    1.409    0.290
       104  -8.2534    214.4375    104.5291   9.2595367107e+01   1.8488409728e+01    0.1448817    0.1184031  -1.00 4.189842e-05    1.096    0.087
       105  -8.3763    182.1342    104.1747   9.8446320525e+01   2.5145157428e+01    0.1902471    0.1781553 -54.84 0.0009876339    1.315    0.240
       106  -9.8110    246.9939    102.4477   8.7106071975e+01   1.2610257255e+01    0.2530732    0.1663718 -21.99 0.0004544969    1.267    0.210
       107  -7.9186    108.7209    106.6534   1.1686532048e+02   3.9347036516e+01    0.1488887     0.111545 -17.61 0.0005824168    1.636    0.389
       108  -8.8239    205.6257     98.4764   9.2562393062e+01   2.1143573804e+01    0.3439932    0.2151863  -8.63  0.001578988    1.765    0.433
       109  -8.0021    188.3862    100.7028   9.6305104082e+01   2.4395328776e+01    0.1420815    0.1177352 -72.62 0.0007016258    1.776    0.437
       110  -8.9068    234.0358     95.4926   8.7272064360e+01   1.5895239103e+01    0.2295875    0.1611906 -21.19  0.001005423    1.216    0.178
       111  -8.4647    171.6893     96.3336   9.8498907086e+01   2.8677350766e+01    0.1463762     0.119466 -65.99 0.0007043605    1.677    0.404
       112  -9.2758    150.8663     92.7018   1.0213705402e+02   3.3821737576e+01    0.2534673    0.2018371 -19.01 0.0005243943    1.256    0.204
       113  -8.2909    250.4919     88.4133   8.3285645516e+01   1.3692786875e+01    0.1323122    0.1078393 -10.03 0.0008040288    1.027    0.027
       114  -8.6481    235.5956     86.5023   8.4809422413e+01   1.6751912458e+01    0.1379158    0.1135441 -14.57 9.630893e-05    1.021    0.020
       115  -8.5729    172.0402     84.5043   9.5095419613e+01   3.0591114645e+01    0.1973469    0.1396963  84.33  0.000808416    2.456    0.593
       116  -9.2846    186.6741     82.6438   9.1687545117e+01   2.7610973679e+01    0.2932192    0.2121892 -64.39  0.001327175    2.045    0.511
       117  -8.9367    244.7956     80.6092   8.2107448801e+01   1.5708406270e+01     0.242716     0.183927 -52.82 0.0008861889    1.660    0.398
       118  -9.8249    240.7663     76.3402   8.1555424294e+01   1.7011898166e+01     0.325314    0.2317357  34.50  0.001814766    1.520    0.342
       119  -8.6860    189.8568     76.7578   8.9421018108e+01   2.7793852405e+01    0.3010668    0.1725374 -49.65  0.001097658    2.189    0.543
       120  -9.2755    140.7412     75.6313   9.9493402987e+01   3.9201832735e+01    0.4635787     0.278296 -65.25  0.001581665    3.324    0.699
       121 -10.3549    234.5319     68.0751   8.0233494559e+01   1.9277184288e+01    0.4397395    0.2068371 -17.81   0.00186878    2.114    0.527
       122  -8.3538    215.2897     70.3559   8.3478793874e+01   2.3046519582e+01    0.1489592     0.101731  10.46 0.0007026704    1.681    0.405
       123  -9.2547    239.2805     68.2452   7.9680968141e+01   1.8293488110e+01    0.2517866    0.1836728 -24.66 0.0006938269    1.163    0.140
       124  -8.3468    219.8246     68.8286   8.2408651955e+01   2.2267816634e+01    0.1838232      0.15217 -42.20  0.000235295    1.271    0.214
       125  -8.5654    188.0148     69.3361   8.7581536455e+01   2.9317607202e+01    0.2001008    0.1942112  14.15 0.0005936594    1.108    0.098
       126  -9.6527     44.0019     67.4450   1.2891382654e+02   5.7920502136e+01    0.2398669    0.2327157  87.08  0.001521024    1.155    0.134
       127 -10.0031    245.1173     65.3838   7.8249115092e+01   1.7471537061e+01    0.3930016    0.2376315 -52.98  0.001808763    2.098    0.523
       128  -9.2794    250.5362     64.9902   7.7528327952e+01   1.6458345787e+01    0.2077209    0.1105698 -23.50 0.0006394951    1.573    0.364
       129  -8.8627    214.4557     62.0829   8.1309035737e+01   2.4311812207e+01    0.2198169      0.12748 -24.46 0.0007508906    1.549    0.354
       130  -8.5103    174.2929     59.4258   8.7032540688e+01   3.4017086648e+01    0.1906777    0.1513233  70.83 0.0009305165    1.503    0.335
       131  -8.4647    232.2943     58.6429   7.8032335001e+01   2.0885880189e+01      0.14284   0.09219221 -48.06 0.0007031582    1.694    0.410
       132  -8.3602    209.3041     55.6760   8.0220445275e+01   2.6289713265e+01    0.1466005    0.1024073 -52.19 0.0007032042    1.640    0.390
       133  -8.7367    233.3300     53.6667   7.6586962303e+01   2.1256604495e+01    0.1424478   0.09257992 -50.71 0.0007052057    1.724    0.420
       134  -8.5013    149.2177     52.3828   8.9754554179e+01   4.1176196883e+01    0.2023522    0.1510489  67.05 0.0006475885    1.576    0.366
       135  -8.5752    195.3434     49.8120   8.0515023653e+01   3.0293240506e+01    0.2122937     0.130046 -13.15 0.0005235444    1.709    0.415
       136  -8.9861    221.0033     44.6986   7.5594892281e+01   2.4981995981e+01    0.1870683    0.1798541  27.59 0.0008406981    1.132    0.117
       137  -8.9470    163.7396     43.0368   8.3581198487e+01   3.8945013998e+01    0.2199453    0.1857515 -18.25 0.0004670666    1.133    0.118
       138  -8.8021     92.9888     40.2329   1.0043026153e+02   5.6135259704e+01    0.1929976    0.1241972  44.70 0.0008786345    1.631    0.387
       139 -11.1560    248.6675     37.7837   7.0861254792e+01   1.9833428715e+01    0.4771006    0.3108655  -2.34  0.001682733    1.672    0.402
       140 -10.2695    248.5234     31.4810   6.9274134436e+01   2.0511994378e+01    0.2323746    0.1649042 -31.70 0.0007163443    1.184    0.156
       141 -10.6993    241.9973     38.0379   7.1551956504e+01   2.1179524899e+01    0.3226877    0.2269992  18.36  0.001192756    1.676    0.403
       142  -9.7268    229.4606     37.0212   7.2536206315e+01   2.3970453734e+01    0.2834753    0.2217278 -18.93 0.0007228504    1.153    0.133
       143  -9.0878    104.8255     34.3364   9.4125683323e+01   5.4574841053e+01    0.2598731    0.1970947 -36.32 0.0007180298    1.311    0.237
       144  -9.3937    218.3343     34.0570   7.2904807353e+01   2.6783719065e+01    0.2036337    0.1596607 -27.32  0.001041262    1.141    0.123
       145  -8.4965    162.6947     29.3485   7.8975793314e+01   4.0966098756e+01    0.2383207     0.168835 -42.90  0.001029581    1.461    0.316
       146  -8.6033    164.4499     32.5178   7.9799091905e+01   4.0132489427e+01    0.2616688    0.1209467 -35.66 0.0005687764    2.055    0.513
       147  -9.5801    218.9019    247.3705   1.1847363374e+02   3.5343092443e-01    0.2855876    0.1380839 -29.22  0.001908154    2.383    0.580
       148  -8.8251    191.1198    247.5277   1.2299181163e+02   3.7214027559e+00    0.2230365    0.1348488 -49.76  0.001456727    3.007    0.667
       149  -9.2324     62.2088    249.5884   1.4528172481e+02   1.8684309474e+01    0.1347258   0.07749006  28.20 0.0009553093    1.696    0.410
       150 -10.6083    249.2499     22.8039   6.7019818370e+01   2.1221836757e+01    0.3294133    0.2016552 -13.63  0.001660236    1.580    0.367
       151 -10.3957    220.7510     23.3354   6.9627022037e+01   2.7355700826e+01     0.283216     0.182859 -23.74  0.001298486    1.395    0.283
       152  -9.9173    206.5772     20.4832   7.0225949932e+01   3.0959509753e+01    0.2618295    0.2154145 -60.85 0.0006207786    1.276    0.216
       153  -9.2304    140.9822     21.2825   7.9844125949e+01   4.7507759162e+01    0.2059209    0.1950238  27.52 0.0006026978    1.028    0.027
       154  -8.9081     89.7573     19.0059   9.1761989354e+01   6.0250355535e+01    0.1899567    0.1161382 -26.57 0.0002492408    1.553    0.356
       155  -8.7491    174.8696     17.8384   7.3129174832e+01   3.9113039771e+01    0.1955428      0.16222 -57.86 0.0004093762    1.290    0.225
       156  -9.2566    143.1707     17.6162   7.7983379811e+01   4.7353879155e+01    0.2958892    0.1008321 -24.85  0.001004474    2.753    0.637
       157  -8.1091    113.3449     16.3220   8.3744522124e+01   5.5078974535e+01    0.1624875    0.1028623  25.83  0.000611001    1.733    0.423
       158  -8.8091    175.5900    245.7253   1.2537544699e+02   5.8464642815e+00    0.1615812   0.09715531 -31.21  0.001133173    2.066    0.516
       159  -8.9312    201.8104    242.3622   1.2058344007e+02   2.9143271308e+00    0.2575122    0.1283046 -43.04  0.001570439    3.092    0.677
       160  -8.8654    131.2202     13.7695   7.8672031779e+01   5.0857577474e+01    0.2133283    0.1617263  25.62 0.0009579418    1.336    0.252
       161  -9.5267    146.2589    242.9360   1.3011999397e+02   9.8600460765e+00    0.2051671    0.1492744 -50.69  0.001564578    1.893    0.472
       162  -8.6949    214.1028    240.8974   1.1838814955e+02   1.5370647489e+00    0.1495237    0.1149691  19.67  0.001018891    1.226    0.184
       163  -9.0723    184.4672    241.4843   1.2336594347e+02   5.1844048330e+00    0.1558346    0.1340281  76.47  0.001158447    2.309    0.567
       164  -9.6899    159.8409    239.1643   1.2732918268e+02   8.5898431697e+00    0.2369967    0.1316703 -63.24  0.001250842    4.241    0.764
       165  -8.8522    195.1125    238.9112   1.2125125899e+02   4.1069821744e+00    0.1742721    0.1301698  -8.47  0.001356198    1.385    0.278
       166  -9.6322    204.3343    235.3369   1.1924434110e+02   3.3059961528e+00    0.2810443    0.2433447 -54.24  0.002151845    2.241    0.554
       167  -8.8322    189.5191    237.0670   1.2195700966e+02   5.0147926268e+00    0.1329302   0.09895647 -20.79 0.0007001504    1.535    0.348
