#   1 NUMBER                 Running object number                                     
#   2 MAG_AUTO               Kron-like elliptical aperture magnitude                    [mag]
#   3 X_IMAGE                Object position along x                                    [pixel]
#   4 Y_IMAGE                Object position along y                                    [pixel]
#   5 X_WORLD                Barycenter position along world x axis                     [deg]
#   6 Y_WORLD                Barycenter position along world y axis                     [deg]
#   7 A_WORLD                Profile RMS along major axis (world units)                 [deg]
#   8 B_WORLD                Profile RMS along minor axis (world units)                 [deg]
#   9 THETA_WORLD            Position angle (CCW/world-x)                               [deg]
#  10 FWHM_WORLD             FWHM assuming a gaussian core                              [deg]
#  11 ELONGATION             A_IMAGE/B_IMAGE                                           
#  12 ELLIPTICITY            1 - B_IMAGE/A_IMAGE                                       
         1 -14.8149    247.7119     85.9186   2.7079072227e+01   1.1803558887e+01     1.661196    0.5275309 -32.38   0.00576533    3.039    0.671
         2 -13.6820    249.4354     57.7269   2.0260021868e+01   1.5611802787e+01    0.9022223    0.3381468 -39.68  0.003697497    2.292    0.564
         3 -13.6811    241.8647      9.4752   1.0011140217e+01   2.3402673063e+01    0.6102301    0.3894025 -31.64  0.003457339    1.628    0.386
         4 -13.3777    248.7876     11.2572   9.8343561078e+00   2.1658054721e+01    0.5073503    0.4159016 -43.60  0.003309057    1.218    0.179
         5 -12.3696    116.1391     13.1710   2.8988242163e+01   5.3816273899e+01    0.4582769    0.1892751  51.71  0.001334745    2.047    0.511
         6 -13.3207    123.1103      7.1869   2.5202622476e+01   5.2773138262e+01    0.6398647    0.3846138  31.56  0.002376248    1.693    0.409
         7 -10.0340    204.3868     13.5414   1.4627861214e+01   3.1880369069e+01    0.1320817    0.1193239 -85.84 6.331534e-05    1.023    0.023
         8 -11.3618    162.0825     11.3478   1.9595593634e+01   4.2797758970e+01    0.2276874    0.1926991   9.48 0.0009752267    1.353    0.261
         9 -11.0172     45.0869     11.9871   5.1441565668e+01   6.7156376757e+01    0.1914432    0.1461593  -5.11  0.000867323    1.040    0.038
        10 -11.8129     34.4354     12.4717   5.6358876172e+01   6.8418516306e+01    0.2680458    0.2419411 -75.99  0.001808753    2.197    0.545
        11 -12.4038    104.4138     10.0915   3.0644741682e+01   5.6741041996e+01    0.3202945     0.271111 -48.65  0.001367846    1.510    0.338
        12 -12.3489     98.7059      8.3816   3.1433511128e+01   5.8135599935e+01    0.3260187    0.2785996 -72.50  0.001461994    1.679    0.404
        13 -12.3809     71.1658     10.1371   4.0549331714e+01   6.3323617333e+01    0.4102849    0.2066664  51.08  0.001231587    2.208    0.547
        14 -12.6285     55.9083      9.0960   4.5670146258e+01   6.5964996466e+01    0.3856722    0.2523841  27.27  0.001999726    1.390    0.280
        15 -11.2982     27.0980     10.6614   5.8948423328e+01   6.9483745169e+01    0.1922455    0.1346224 -35.31 0.0006248485    1.373    0.271
        16 -11.3382    115.3184      8.9449   2.7567487342e+01   5.4416805610e+01    0.1866745       0.1641  15.07 0.0007004871    1.114    0.102
        17 -10.5132      3.5528      8.3456   6.9795214729e+01   7.1817114186e+01    0.1881116   0.08772607 -49.55 0.0008100479    1.910    0.477
        18 -13.1097    176.4439      5.1977   1.5723858839e+01   3.9743152123e+01     0.638239    0.3856698 -73.97  0.003026537    1.990    0.497
        19 -12.5538     85.6554      7.5428   3.4749883406e+01   6.0891116613e+01    0.3338768    0.2342413  22.08 0.0002279891    1.293    0.227
        20 -11.9656     88.5261      3.0125   3.1953047838e+01   6.0752426609e+01    0.2921724    0.2515832 -11.34  0.001901334    1.238    0.192
        21 -11.7076     78.0499      8.0388   3.7319901293e+01   6.2301195229e+01    0.1982527     0.167038  15.02 0.0005835874    1.045    0.043
        22  -9.8863      7.9825      5.7821   6.6348810772e+01   7.1910345874e+01    0.1265153    0.0781239  11.71 0.0004900419    1.640    0.390
        23 -10.2362    203.6567      4.6601   1.2418308311e+01   3.2973605150e+01    0.1375443   0.09149446  41.75 0.0007048628    1.777    0.437
        24 -11.7105    134.5252      4.0524   2.1835061650e+01   5.0321797510e+01    0.2651189    0.1919227 -49.12 0.0008104136    1.667    0.400
        25 -12.0402    131.4805      3.5269   2.2216137971e+01   5.1102425379e+01    0.2549126    0.2306944  74.04 0.0008902061    1.169    0.144
        26 -11.1966     60.7778      4.3430   4.1566712184e+01   6.5733091410e+01     0.166054    0.1358726  -1.62 0.0005385373    1.112    0.101
        27 -12.4197    114.1592      2.0270   2.5172815620e+01   5.5297365973e+01    0.4769752    0.2003939  60.02  0.001612699    2.123    0.529
        28 -11.6624     38.7256      2.4914   4.9633303793e+01   6.9207741872e+01    0.2534843    0.1909192  30.44   0.00148631    1.463    0.317
        29 -11.3157    230.2164      1.6217   9.2122202745e+00   2.6902791414e+01    0.3138371    0.1459847  62.90  0.001470568    2.021    0.505
        30 -10.5466    143.4913      1.5418   1.9413507978e+01   4.8339441682e+01    0.1374865    0.1155169  51.11 0.0001628643    1.052    0.049
        31 -10.8396     79.7494      1.3875   3.3806744287e+01   6.2634446825e+01    0.1874967   0.09540072  41.41 0.0009586749    1.679    0.405
        32 -11.9339     77.3660    182.4874   8.4058789577e+01   2.7394425874e+01    0.2170941    0.1150149 -66.14  0.001074248    1.848    0.459
        33 -15.5106     10.7000    177.4399   9.7629291531e+01   3.6054363894e+01     1.950018     1.075724  31.06   0.01216364    2.166    0.538
        34 -15.2356      4.9404    202.9982   1.0031802080e+02   3.1391332912e+01     1.215055    0.5108425 -80.84  0.007174837    1.946    0.486
        35 -15.5247     20.4187    215.1114   9.8311824581e+01   2.7582803818e+01      1.17114    0.5666607  56.53  0.007343904    1.684    0.406
        36 -15.0962     20.9934    248.4714   1.0004796392e+02   2.1513371885e+01     0.747899    0.4170272  48.94  0.005465618    1.470    0.320
        37 -17.6770      7.6606    234.2678   1.0144760078e+02   2.5323006068e+01     4.022291     3.424546  46.94   0.02839552    1.566    0.361
        38 -12.0313     74.9451    159.4974   8.1454482102e+01   3.2835921006e+01    0.2043802    0.1663736 -73.40 0.0004004101    1.137    0.121
        39 -11.9530     41.7106    158.0948   8.9153731176e+01   3.7281517573e+01    0.3879115    0.1946344 -83.88  0.001889167    2.060    0.514
        40 -11.1118     63.3507    163.0146   8.4708566050e+01   3.3605447337e+01    0.1836822     0.145725 -77.39 0.0003266939    1.132    0.117
        41 -11.9874     49.3425    160.0150   8.7605243995e+01   3.5997286691e+01    0.1799604    0.1453853 -82.21 0.0005218727    1.062    0.058
        42 -12.3169     63.2250    155.2367   8.3669620197e+01   3.5389242227e+01    0.2633312    0.2203781  47.44 0.0006914012    1.259    0.205
        43 -13.1247     12.4522    162.0804   9.6083899696e+01   3.9177195900e+01    0.3983136     0.191646  42.26  0.002274749    2.095    0.523
        44  -9.7075    105.3316    154.2977   7.3166746304e+01   2.9265603136e+01    0.1384159    0.1141024 -13.11 0.0003170822    1.643    0.391
        45 -12.6290     55.7052    159.4370   8.6038913973e+01   3.5374133116e+01    0.4615097    0.1428388 -71.76  0.001589177    3.793    0.736
        46 -12.4971     52.7681    155.5420   8.6231332806e+01   3.6611113536e+01    0.2718349    0.1686845  28.62  0.001463847    1.950    0.487
        47 -14.3995    247.7973    143.2114   4.0207357117e+01   2.7101175004e+00     1.218208    0.3986315 -42.93  0.004249229    3.322    0.699
        48 -13.9701    248.6568    128.7070   3.6833783273e+01   4.8395467777e+00    0.8340262    0.4180275 -36.25  0.003754831    1.811    0.448
        49 -11.3146     12.3532    151.2074   9.5163864047e+01   4.1558707842e+01    0.1477567    0.1265575 -89.25 0.0004646493    1.130    0.115
        50 -12.1649      6.8381    147.3088   9.6059004907e+01   4.2837375428e+01    0.3049134    0.1581179  73.21 0.0004724813    1.960    0.490
        51 -12.2804     23.8546    146.3632   9.2030323626e+01   4.1673802277e+01    0.2875328    0.1507861 -84.16   0.00106406    1.750    0.429
        52 -13.3847     20.8965    142.7858   9.2349989274e+01   4.2733711386e+01    0.5884268    0.1940558 -54.81  0.002616723    2.774    0.640
        53 -13.9276     15.6887    136.5270   9.2936339556e+01   4.4563558017e+01    0.5076109     0.347843  57.67  0.003283823    1.529    0.346
        54 -16.9749     33.3671    240.9069   9.7673083897e+01   2.1473164735e+01     2.957766     1.715845  38.04   0.02003558    1.843    0.458
        55 -11.4398     42.5962    142.7695   8.7036197750e+01   4.0676969975e+01    0.1830804    0.1059186 -80.84 0.0009469368    1.665    0.399
        56 -12.3647     11.0872    132.8650   9.3673520520e+01   4.5730714650e+01     0.231001    0.1601553 -88.37 0.0007991348    1.224    0.183
        57 -12.8721      4.4467    139.7644   9.5934503024e+01   4.4667171641e+01    0.3890836    0.2507556 -60.26  0.002563046    1.424    0.298
        58 -10.5200     35.4106    137.7539   8.8181798934e+01   4.2560136938e+01    0.1777589   0.09590428 -60.64 0.0006952368    1.582    0.368
        59 -10.8467     46.9791    135.0000   8.4828597280e+01   4.2000820808e+01     0.193011   0.07376772  30.30 0.0008105103    2.999    0.667
        60 -10.9827    108.3871    132.4513   6.8055691021e+01   3.3696215994e+01      0.38308    0.2600598 -54.18  0.001826006    1.444    0.307
        61 -10.7573     26.3000    133.3373   8.9928743019e+01   4.4411834538e+01     0.123762    0.0784855 -48.02 0.0002717181    1.661    0.398
        62  -9.5789    136.7160    132.3163   6.0762975482e+01   2.8231937633e+01     0.151632    0.1212784  89.33 0.0002181914    1.582    0.368
        63 -10.9205     81.3549    132.1109   7.5191752972e+01   3.8237815354e+01    0.2113534    0.1980317  13.75  0.000450148    1.239    0.193
        64 -10.7617     58.4931    129.4906   8.0896079774e+01   4.1953561815e+01    0.1331802    0.1169792 -67.60 0.0008103144    1.036    0.035
        65 -12.2753     17.1385    124.0149   9.1139734832e+01   4.7277724035e+01    0.2749904    0.1778464 -67.01  0.000465549    1.235    0.190
        66 -10.9779     50.4682    124.0465   8.2171814631e+01   4.4163870641e+01    0.2101724    0.1125894 -62.86   0.00103557    1.608    0.378
        67 -11.4231      8.6976    123.6691   9.3280266360e+01   4.7958299559e+01    0.1491655    0.1242042  17.49 0.0006044668    1.588    0.370
        68 -12.2083      5.8230    121.5664   9.3785378193e+01   4.8617624811e+01    0.2709742     0.122072 -72.02 0.0008522093    1.702    0.412
        69 -11.6842    120.2922    249.5617   8.3307599932e+01   8.2883621896e+00     0.236035   0.08750236  45.09  0.001047191    2.082    0.520
        70 -14.6068    248.4990    114.4371   3.3607228104e+01   7.1453902745e+00     1.140291     0.495665 -37.29   0.00475592    2.060    0.515
        71 -10.0267     53.4967    117.4820   8.0180285490e+01   4.5349479938e+01    0.1327057    0.1154386 -64.79 1.426891e-05    1.010    0.010
        72 -11.3256     21.1190    116.5565   8.9111085825e+01   4.8668390571e+01    0.2675982    0.1108624 -55.95  0.001320164    1.960    0.490
        73 -10.6656     91.7224    116.0867   6.8979711901e+01   4.0329549469e+01    0.2027198     0.172405 -49.80 0.0003993447    1.116    0.104
        74 -10.0177     69.5186    118.5896   7.5825387801e+01   4.3082123491e+01    0.1353315    0.1238702 -62.12 0.0008033781    1.022    0.022
        75 -11.7309      2.4188    111.9807   9.3604700416e+01   5.0961844468e+01    0.2660464    0.1547129 -62.42  0.001360008    1.346    0.257
        76 -10.0865     79.5549    111.2189   7.1373372806e+01   4.3361256319e+01    0.2048552    0.1201046 -44.80 0.0009398926    1.655    0.396
        77 -10.1107     18.1528    108.6762   8.8834571498e+01   5.0681583826e+01    0.1417071    0.1110865  -6.69 0.0005056084    1.679    0.404
        78  -9.8597    103.5056     96.9993   6.0847934430e+01   4.2553979926e+01    0.2087748    0.1306724 -70.63 0.0008101034    2.504    0.601
        79 -11.0955     51.0000     97.0182   7.6888184093e+01   5.0348503926e+01    0.2266314   0.06616246 -58.88 0.0008052532    2.962    0.662
        80 -10.3503     63.4276     95.7474   7.2703430496e+01   4.9141125343e+01     0.269961    0.1245093 -59.59  0.001141436    2.101    0.524
        81 -11.7847      5.3145     95.9613   9.0752538303e+01   5.4355765868e+01    0.4574476    0.1968305  16.94  0.002400712    3.040    0.671
        82 -10.8846    132.1063     92.6515   5.1701950265e+01   3.7670975955e+01    0.2637388     0.221535 -27.80 0.0005233023    1.219    0.179
        83 -10.8103     37.5249     92.5309   8.0211411204e+01   5.2744337935e+01    0.1274372    0.1076566 -59.36 -1.788193e-05    1.036    0.034
        84 -10.5604    107.9416     89.2991   5.7420501085e+01   4.3360535500e+01    0.2086393    0.1895333  27.75  0.001124655    1.126    0.112
        85  -9.4087     78.3500     88.3044   6.6126480476e+01   4.8697278039e+01    0.1455551    0.1047621 -17.10 0.0007041112    1.701    0.412
        86 -11.5004     53.7553     77.9205   7.1452807618e+01   5.4267086520e+01    0.3781168      0.26804  54.80  0.001948398    1.908    0.476
        87 -11.2675     41.5203     79.0001   7.5906775781e+01   5.5359125504e+01    0.2071834    0.1082471 -55.95  0.001039381    1.612    0.380
        88 -10.0408    216.0409     78.4490   2.9984522533e+01   2.0149647708e+01    0.2024887    0.1445575  59.12 5.651745e-05    1.446    0.308
        89 -10.1939    196.0278     78.4991   3.3431126319e+01   2.4993875743e+01    0.2350439    0.1481152  55.31  0.001031136    1.588    0.370
        90  -9.4818    152.3522     76.3246   4.1848891581e+01   3.6137743282e+01    0.1648538     0.119893  16.80 0.0007047764    1.759    0.431
        91 -10.6881     91.5071     75.0619   5.8165509642e+01   4.9327521751e+01    0.2018035    0.1891266  10.46 -0.0001884444    1.081    0.075
        92  -9.6724    104.3405     72.2804   5.3364290056e+01   4.7499722373e+01    0.1495976    0.1118657   4.25 0.0005473696    1.626    0.385
        93 -10.0062     76.5319     71.4470   6.1904730407e+01   5.2531320831e+01    0.1397764     0.123671 -23.77 0.0001249709    1.032    0.031
        94 -10.9794     36.6124     67.7993   7.4843419647e+01   5.8228411129e+01    0.1796367    0.1084879 -64.76 0.0009489043    1.733    0.423
        95 -10.5756      7.8208     68.1200   8.5287608397e+01   6.0272143507e+01    0.1723071    0.1316307 -68.47 0.0007203953    1.202    0.168
        96 -13.0482    249.2701     45.6856   1.7499125582e+01   1.7309087098e+01    0.6346465    0.2951214 -34.14  0.002896705    1.987    0.497
        97 -12.5827    115.4217    248.4254   8.4066968992e+01   9.2126796434e+00    0.2908102    0.1825038  71.86  0.001719997    1.859    0.462
        98  -9.7539    192.0105     65.7828   3.0654575469e+01   2.8066194301e+01    0.1861135    0.1206775  59.22 0.0008281293    1.531    0.347
        99  -9.8541    141.7228     65.2559   4.0973401872e+01   4.0631036264e+01    0.1415209    0.1200326 -80.71 0.0006843184    1.464    0.317
       100  -9.6981    126.3133     64.7253   4.4718419584e+01   4.4284147317e+01    0.1433034    0.1208247 -84.17 0.0004819173    1.559    0.359
       101 -10.5730      4.2776     64.2741   8.5790472851e+01   6.1267036066e+01    0.1897367    0.1026997 -49.51 0.0007140607    1.400    0.286
       102 -12.7944    237.9449     61.2262   2.2503170659e+01   1.7677080228e+01    0.4808615    0.2790948  89.15  0.002055275    2.469    0.595
       103 -10.5519     98.9713     61.1323   5.1360733757e+01   5.0632582282e+01    0.2663104    0.1917179 -66.70  0.001222467    2.134    0.531
       104 -10.1795     43.5106     62.5568   7.0885526325e+01   5.8629218347e+01    0.1265261    0.1081645 -38.76 0.0001554225    1.051    0.049
       105 -10.2445     34.7802     61.3618   7.3801668398e+01   5.9734380474e+01    0.1591999    0.1101532  -1.27 0.0002484123    1.670    0.401
       106 -10.9759    118.0534     61.5542   4.5919788395e+01   4.6658686864e+01    0.3618594    0.2009922  47.08   0.00155288    1.788    0.441
       107  -9.9796     56.9364     60.2200   6.5254765151e+01   5.7539584176e+01     0.153884     0.105751  29.14 0.0003446449    1.590    0.371
       108 -11.3322      3.6802     59.6948   8.5075955054e+01   6.2250417284e+01    0.2457349    0.1864553 -36.98  0.001764638    1.210    0.174
       109 -11.2037     96.4583     55.6269   5.0259344681e+01   5.2096141606e+01    0.2325887     0.210906 -13.49 0.0002959835    1.037    0.036
       110 -10.3317     78.0007     55.7550   5.6333325743e+01   5.5336892941e+01    0.1853433    0.1679798   7.93   0.00041822    1.098    0.090
       111 -10.0109     82.9797     54.0133   5.4048981099e+01   5.4821092593e+01    0.1614729    0.1431009 -12.41 0.0009455623    1.008    0.008
       112 -11.5615     94.0433     48.7960   4.8601442463e+01   5.3722670916e+01    0.2299366    0.1853271 -20.24  0.000220397    1.182    0.154
       113 -10.5660      6.8270     46.1658   8.0711153050e+01   6.4828231806e+01    0.1655345     0.096227 -42.46  0.000399667    1.320    0.243
       114 -10.3466     39.2502     43.6313   6.6625308635e+01   6.2761604480e+01    0.1675123    0.1341106 -35.58 0.0007132829    1.095    0.087
       115 -10.0702     20.5574     44.5508   7.4599884014e+01   6.4262336679e+01    0.1199075   0.09156115 -37.43 9.884102e-05    1.014    0.014
       116 -10.4107    119.3320     42.4637   3.9001897226e+01   4.9454898017e+01    0.2313357    0.1710381 -51.94 0.0008301206    1.670    0.401
       117  -9.8647     69.6164     39.2708   5.3308692482e+01   5.9540198784e+01    0.1184882    0.1072039  78.09 0.0006993341    1.703    0.413
       118  -9.9482    204.5122     65.5771   2.8473341032e+01   2.4986679608e+01      0.14721    0.1390029 -75.83 0.0001487973    1.047    0.045
       119 -10.0083    112.9648     38.7708   3.9378400701e+01   5.1399745593e+01    0.1857174    0.1116886  48.33 0.0004763224    1.589    0.371
       120 -10.4151     82.0958     36.1526   4.7750008184e+01   5.7936579990e+01    0.1670699    0.1583325 -32.69 0.0003536286    1.291    0.226
       121 -10.5016     40.1624     36.1192   6.3591089931e+01   6.4014571655e+01    0.1934622    0.1399867 -20.64 0.0006803754    1.197    0.165
       122  -9.8209    138.7105     33.7090   3.1268320174e+01   4.6117938911e+01    0.1468397    0.1034054  27.48 0.0002694509    1.544    0.352
       123 -10.3516    154.2531     31.9878   2.7501275979e+01   4.2484996044e+01    0.1911917    0.1834068  29.46 0.0002900563    1.061    0.058
       124 -10.3233     48.4811     32.0313   5.8608624816e+01   6.3724619976e+01    0.1871844      0.10644 -37.40 0.0005559926    1.548    0.354
       125 -10.5023     17.6897     31.7084   7.1738510705e+01   6.6873022865e+01     0.135086    0.1201058 -40.76 0.0003940744    1.291    0.225
       126  -9.7612      3.5424     31.4764   7.8033832001e+01   6.7816936539e+01    0.1132686   0.08293909 -40.07 0.0001412788    1.007    0.007
       127 -10.5558    160.5110     26.9859   2.4749579259e+01   4.1509687671e+01     0.199662    0.1432694 -25.35 0.0005074043    1.513    0.339
       128 -10.1716    131.3243     26.3388   3.0344405248e+01   4.8813903145e+01    0.1531206   0.09854322  27.42 0.0007051181    1.723    0.420
       129 -10.6391    111.0377     24.8315   3.4692952916e+01   5.3667654362e+01    0.2003398    0.1839201  71.38  0.001188106    1.305    0.234
       130 -12.1826     87.2040     23.3532   4.0956907875e+01   5.8782813776e+01    0.4290619    0.2514008 -41.49  0.002122044    2.032    0.508
       131 -12.4472     96.5598     22.1173   3.7622436194e+01   5.7079869057e+01    0.3154808    0.2576552  49.69 0.0003873725    1.292    0.226
       132 -10.4354     38.1751     22.6350   5.9138781335e+01   6.6470769979e+01    0.1705572    0.1327224  -0.20 0.0004205311    1.150    0.130
       133 -10.9136     35.2450     19.6807   5.9182746536e+01   6.7259669531e+01    0.1809688    0.1500969 -20.89 0.0006403862    1.176    0.150
       134 -10.1138     72.5578     22.4850   4.5473562608e+01   6.1558547638e+01    0.1302402    0.1089035   3.07 0.0001555745    1.009    0.009
       135 -12.5001    131.5835    246.2762   8.0888271438e+01   7.0428243722e+00    0.2738629    0.1785095  71.39  0.001591122    1.918    0.479
       136 -12.1878    105.8268    235.9535   8.4512997949e+01   1.2736620599e+01    0.2300334    0.1478144  55.34 0.0008011702    1.301    0.231
       137 -10.0112    147.3031     18.3366   2.4343056961e+01   4.5804956448e+01    0.1486403   0.09683126  32.13  0.000703799    1.666    0.400
       138 -11.3725     19.8085     17.2741   6.5325505008e+01   6.9166205472e+01    0.2257378    0.1483713 -29.83  0.001090935    1.170    0.146
       139 -11.4798     66.0226     16.6423   4.5286608838e+01   6.3419681660e+01    0.2241393    0.1599465 -10.74 0.0004142763    1.273    0.214
       140 -11.2801    183.7066     14.9228   1.7546651291e+01   3.6936579340e+01    0.2539449    0.1661438  58.93 0.0007091169    1.391    0.281
       141 -10.5426    189.3668    241.9268   6.9627708438e+01  -1.6940798478e+00    0.1590881    0.1366752  20.16 0.0004318171    1.122    0.109
       142 -12.1881    103.1040    229.8554   8.4368987668e+01   1.4214157481e+01    0.2596593    0.1582386  87.45  0.001407704    2.118    0.528
       143 -11.0705     49.5648     14.0219   5.0503546549e+01   6.6270942397e+01    0.2298323      0.14647  14.18  0.001153739    1.530    0.346
       144 -12.1596    110.0398    227.6027   8.2791438229e+01   1.3543379110e+01    0.2275738     0.160146  86.92  0.001055284    1.635    0.389
       145 -11.4395      6.1632    169.8434   9.7993590479e+01   3.8030189890e+01     0.170657     0.114603  75.91  0.000495775    1.234    0.190
       146 -11.6623    105.5589    221.1764   8.2917728859e+01   1.5400126500e+01    0.2127281    0.1656326  -0.20  0.001157412    2.230    0.552
       147 -12.6193     81.7994    218.4135   8.7242126868e+01   1.9463108874e+01    0.3020902    0.2428641  70.46  0.002047365    1.046    0.044
       148 -10.2645    192.3118     11.6699   1.5545312241e+01   3.5097464218e+01    0.1437806   0.09370771 -65.67 0.0007043048    1.671    0.402
       149 -11.2238     78.3584    213.8751   8.7445540220e+01   2.0820863842e+01    0.3335631    0.1199537 -75.08  0.001258743    4.129    0.758
       150 -11.8713    108.0982    215.4579   8.1730892014e+01   1.6060257800e+01    0.3254937    0.1735508 -80.84  0.001459404    2.895    0.655
       151 -10.7586    113.5130    214.9940   8.0586877172e+01   1.5280441942e+01    0.1692028    0.1244166 -64.12 0.0004517205    1.514    0.339
       152 -11.9070     90.3243    214.9282   8.5205366852e+01   1.8889027562e+01     0.222755    0.1401252  52.91 0.0006606337    1.356    0.263
       153 -10.8577    243.5877    180.2387   4.8749345925e+01  -2.1575537566e+00    0.1834794     0.113893 -19.67 0.0009470917    1.603    0.376
       154 -11.4778     74.5536    188.9230   8.5461863228e+01   2.6416821457e+01    0.2084349    0.1703843  34.52 0.0006753819    1.421    0.296
       155 -11.8680     72.7482    209.4606   8.8095861196e+01   2.2463962694e+01    0.4349993    0.1560537  56.81  0.001760691    3.161    0.684
       156 -11.5533     94.4988    208.5291   8.3635989102e+01   1.9499996782e+01    0.2094965    0.1085476 -51.01  0.001035304    2.309    0.567
       157 -11.8399     44.8105    167.0154   8.9458477436e+01   3.4946147461e+01    0.2710836     0.138555 -63.19  0.000829417    1.756    0.431
       158 -12.9021    108.2053    202.0889   7.9995810473e+01   1.8612338299e+01    0.4361153    0.2686375 -73.98  0.002249985    1.915    0.478
       159 -10.9277     98.6583    203.6801   8.2191249216e+01   1.9814673340e+01    0.1188627    0.1027815  -7.10 0.0003347719    1.719    0.418
       160 -13.3172     58.3081    174.9154   8.7347212630e+01   3.1597071518e+01    0.4884685     0.308572  40.89   0.00177627    1.610    0.379
       161 -12.1001     51.1204    193.1474   9.0811506780e+01   2.8577235681e+01    0.4234366    0.1236457 -66.66  0.001783761    3.075    0.675
       162 -14.9027     26.0342    160.5557   9.2983379405e+01   3.8311182735e+01     1.096627    0.5986351  59.24  0.003336092    1.836    0.455
       163 -13.2804     82.0215    193.7754   8.4454597547e+01   2.4335041970e+01    0.5569905      0.29423  43.06  0.002858761    1.743    0.426
       164 -13.6173     85.8067    185.6730   8.2616473606e+01   2.5482077798e+01    0.4180431    0.3373118  43.19  0.002518622    1.265    0.210
       165 -12.7293     55.6598    169.8118   8.7337263422e+01   3.3052179286e+01    0.3228946    0.2659425  23.25 0.0006793589    1.582    0.368
       166 -12.9309     52.9801    182.8662   8.9388682128e+01   3.0527470864e+01      0.74507    0.2732728 -73.20  0.003208461    2.758    0.637
       167 -10.8009    128.7852    185.1857   7.3041098593e+01   1.8482342187e+01    0.1878274    0.1662099  13.80  0.001075315    1.341    0.254
       168 -10.4137    122.5086    190.8606   7.5321750996e+01   1.8446562620e+01    0.1880296    0.1343408 -58.37 0.0007252486    1.512    0.339
