#   1 NUMBER                 Running object number                                     
#   2 MAG_AUTO               Kron-like elliptical aperture magnitude                    [mag]
#   3 X_IMAGE                Object position along x                                    [pixel]
#   4 Y_IMAGE                Object position along y                                    [pixel]
#   5 X_WORLD                Barycenter position along world x axis                     [deg]
#   6 Y_WORLD                Barycenter position along world y axis                     [deg]
#   7 A_WORLD                Profile RMS along major axis (world units)                 [deg]
#   8 B_WORLD                Profile RMS along minor axis (world units)                 [deg]
#   9 THETA_WORLD            Position angle (CCW/world-x)                               [deg]
#  10 FWHM_WORLD             FWHM assuming a gaussian core                              [deg]
#  11 ELONGATION             A_IMAGE/B_IMAGE                                           
#  12 ELLIPTICITY            1 - B_IMAGE/A_IMAGE                                       
         1 -14.7299     91.0323    172.1334   6.1237208778e+01   2.7075619900e+01     10.75706     4.920483 -81.72   0.01642073   17.161    0.942
         2 -15.0519     53.8424    146.2710   6.8010751975e+01   3.9036400089e+01     3.948611     1.232169 -58.80  0.001525351    2.796    0.642
         3 -13.9637    239.9287     41.5600   1.4870061104e+00   2.1718027634e+01    0.9105496    0.8396654 -72.35  0.002857411    1.234    0.189
         4 -14.1418    218.3767     55.3798   6.4293215930e+00   2.4170991577e+01     1.452114     1.072446  39.31  0.008426909    1.888    0.470
         5 -12.7067      3.4427     24.2225   5.9663085798e+01   7.2475174567e+01    0.5777951    0.3260876 -60.06  0.003155361    2.171    0.539
         6 -13.4205      4.4720      9.0069   5.1586832742e+01   7.4948300962e+01    0.9634239    0.5784715 -24.82  0.005989447    1.428    0.300
         7  -9.8567    158.2684      8.9910   1.5570480267e+00   4.3260514775e+01    0.1724695    0.1517194 -78.54 0.0004026174    1.082    0.076
         8 -10.5380     38.5311     14.5234   3.3760989342e+01   6.9713772598e+01    0.1257618    0.1035306  14.41 4.322036e-05    1.038    0.037
         9 -12.0038     71.0488    241.4194   7.5081423340e+01   1.4424185411e+01    0.5923103    0.3176377  85.77  0.002778026    2.743    0.635
        10 -11.8982     62.6476    226.3761   7.5585457969e+01   1.8567048898e+01    0.3576703    0.2296403  37.08 0.0005578312    1.353    0.261
        11 -12.3968     50.6579    241.4224   7.9571964398e+01   1.6925782643e+01     1.028678    0.4816947  69.57  0.003009015    2.718    0.632
        12 -12.6180     61.7662    234.4579   7.6530867487e+01   1.6993149877e+01    0.7975931    0.2926242 -54.39  0.002899671    3.140    0.682
        13 -12.3692     56.7662    234.7398   7.7682034189e+01   1.7549993758e+01    0.9512444    0.3109591 -67.53  0.003971321    3.270    0.694
        14 -11.5739     54.1280    229.8857   7.7865158730e+01   1.8877110264e+01    0.3607669    0.2534477  79.14  0.001895382    1.477    0.323
        15 -11.3744     33.8017    249.2652   8.3681085212e+01   1.7281004965e+01    0.3463469     0.212577  37.63  0.001628038    1.369    0.269
        16 -10.9786     27.6427    250.0792   8.4989323780e+01   1.7779289555e+01    0.3426067    0.2022257  23.95  0.001932529    1.844    0.458
        17 -14.0921     17.7227    183.9502   8.2914997932e+01   3.3284161975e+01     1.339092    0.7459486 -17.91  0.001366589    3.275    0.695
        18 -16.6325     28.4689    176.7642   7.9430491693e+01   3.4038951071e+01      7.53735     3.464509  83.87   0.03017169    2.708    0.631
        19 -13.0915    108.6387    228.6859   6.5099653056e+01   1.1801935422e+01    0.9561811    0.2710504  34.76  0.003465065    2.890    0.654
        20 -10.5545     77.0134    230.7233   7.2682251517e+01   1.5799564102e+01    0.2402897    0.1869497 -72.34 0.0005568998    1.441    0.306
        21  -9.9056    167.4907    224.4778   5.1282005939e+01   3.8663399964e+00    0.1332918    0.1115769  10.33 0.0002691508    1.002    0.002
        22 -15.2141      9.8429    206.8188   8.6388962365e+01   2.8622262654e+01     1.626946     1.095205  13.85  0.006781689    1.876    0.467
        23  -9.9426    141.7893    213.5036   5.5209949062e+01   9.7615657494e+00    0.2300562    0.1857099 -45.94 0.0007532249    1.377    0.274
        24 -10.2738    191.7496    193.0607   4.0730226697e+01   5.6761986290e+00    0.4916437    0.2331946 -59.77  0.001143938    9.854    0.899
        25 -11.3615    106.4592    195.1410   6.0869047410e+01   1.9212968708e+01    0.3357954    0.1744667  38.44  0.001444754    1.762    0.433
        26 -10.8331     42.1861    233.5503   8.0840642182e+01   1.9508420573e+01     0.323301    0.1985427 -66.98 0.0009604075    1.759    0.432
        27  -9.4276     72.6291    190.2240   6.9013814113e+01   2.5427294954e+01    0.1979037     0.126569 -54.92 0.0007033045    1.629    0.386
        28 -10.3014    159.3169    180.6019   4.5319982346e+01   1.3405338394e+01    0.2946692     0.229863 -58.27  0.001103459    1.553    0.356
        29 -10.6979     99.0093    181.1138   6.0559112725e+01   2.3639196356e+01     0.304832    0.2750306  -3.02 0.0007029708    1.204    0.170
        30 -11.1536    172.0739    174.0781   4.1168635372e+01   1.2474680280e+01    0.5167955    0.3237149 -33.73   0.00189221    1.592    0.372
        31 -10.4551    136.4854    248.4416   6.1439034171e+01   4.2247063744e+00     0.128255    0.1040864  26.08 -0.0001384952    1.030    0.029
        32 -14.6018      7.9278    242.8682   8.8610686342e+01   2.1149133073e+01    0.8143643    0.6650676  57.33 0.0006146579    1.096    0.087
        33 -12.2200     50.1895    162.8160   7.1613013336e+01   3.5198244226e+01    0.4796078    0.3270216 -22.03  0.001561246    2.006    0.501
        34 -12.0282     56.2350    158.6690   6.9208392357e+01   3.5513529960e+01    0.3748347    0.3039369 -25.35 0.0006368837    1.456    0.313
        35 -10.4989    178.1168    164.2221   3.7840682115e+01   1.3333623521e+01      0.25695    0.2056641  57.29 0.0007453106    1.580    0.367
        36  -9.8225    110.5494    167.1597   5.4942440496e+01   2.5018804203e+01    0.2409121    0.1982179  46.26 0.0003875978    1.219    0.180
        37 -12.0381    234.7698    158.8669   2.6268361313e+01   4.8575444265e+00    0.3404141    0.2076944  24.36  0.001807403    2.005    0.501
        38 -13.4463     68.1170    150.9443   6.4320572413e+01   3.5897348489e+01     1.154113    0.6316856 -66.20 0.0006504986    1.887    0.470
        39 -10.6775    243.8815    154.1752   2.3944495667e+01   4.2567190282e+00    0.1886674    0.1497166 -41.34  0.000537005    1.245    0.197
        40  -9.7941    134.4083    148.7661   4.4757922308e+01   2.4886259169e+01      0.29401     0.151105 -53.07   0.00101535    2.103    0.524
        41 -11.8676     40.2849    146.7258   7.2392063892e+01   4.0514091601e+01    0.3670073    0.2294459 -62.15  0.001435675    1.473    0.321
        42 -11.7817     36.6796    142.0080   7.2868709708e+01   4.2132189451e+01    0.4578871    0.2591622  78.76  0.001903673    2.323    0.569
        43 -10.6713    118.7772    240.0176   6.4236321093e+01   8.1951671485e+00    0.1724263     0.158387  26.65 0.0003942504    1.098    0.089
        44 -11.4544     73.9854    135.7049   5.9578392176e+01   3.8948886082e+01    0.4406253    0.3132024 -62.72  0.001449524    1.418    0.295
        45 -12.6069     79.6198    132.7523   5.7138195335e+01   3.8809065682e+01    0.6564766    0.4040866  52.48 0.0005297163    1.892    0.471
        46 -10.8344     94.7202    134.1978   5.2697881836e+01   3.5867783684e+01    0.5787356    0.3762988  -8.54  0.002172857    2.557    0.609
        47 -16.2993      6.6908    217.5754   8.7681999792e+01   2.6517244085e+01     6.581727     2.387085  16.46   0.01460182    4.287    0.767
        48  -8.8265    206.5764    135.5349   2.6123177973e+01   1.3536356690e+01    0.1387828    0.1225518 -32.80 0.0001334463    1.023    0.023
        49 -10.8472    105.8344    128.2506   4.7941778988e+01   3.5256453848e+01    0.5915004    0.3353148 -41.48  0.001911085    1.839    0.456
        50 -11.1415     40.0284    122.5255   6.8590899948e+01   4.6869267249e+01    0.4342146    0.2296966  69.44  0.001553604    3.241    0.691
        51 -10.0264     93.4323    121.5668   5.0131974996e+01   3.9202362715e+01    0.2871976    0.2481435  -9.65 0.0007487701    1.279    0.218
        52 -14.5831     12.9790    244.2514   8.7659520232e+01   2.0396165929e+01     1.576453    0.8520282 -73.03  0.009505219    1.923    0.480
        53  -9.9096    103.9320    116.4552   4.5574776000e+01   3.8425652580e+01    0.2208702    0.2076835 -36.52 0.0002994672    1.058    0.055
        54 -10.4066    205.1109    110.5545   2.0785093653e+01   1.8234532432e+01    0.2721754    0.2484649  21.04 0.0008516524    1.245    0.197
        55 -11.9045     23.5749    107.9102   7.2069689390e+01   5.2228152045e+01     0.543814    0.3652643 -69.55  0.002166403    1.386    0.279
        56 -11.8036    148.3334    229.3117   5.6184345945e+01   5.8384438126e+00    0.3730346    0.2488903 -42.33  0.002056254    1.655    0.396
        57 -10.6631     83.8142     98.4127   4.7225775778e+01   4.6470932672e+01    0.6462181    0.4058577  89.02   0.00202266    4.168    0.760
        58 -10.8795     42.6501     88.9796   6.0332885396e+01   5.5015122523e+01    0.2594323    0.1976444  54.55  0.001125068    1.633    0.387
        59 -13.9342     69.5612    145.1425   6.2827665178e+01   3.7185266162e+01     1.526576    0.9742398  72.16  0.006283854    2.204    0.546
        60 -10.4175     96.1879    168.0403   5.9078793786e+01   2.7241605165e+01    0.3159717    0.2078211  27.22  0.001419043    1.572    0.364
        61  -9.5790     20.9549     70.7628   6.5221614138e+01   6.1514328902e+01    0.2141115    0.1434019  52.71  0.001078064    2.071    0.517
        62 -13.4675    129.8927    229.4432   6.0324649777e+01   8.5389757148e+00     1.226443    0.3351692  34.93  0.004359681    3.046    0.672
        63  -9.2721     45.3144     69.6913   5.3637982262e+01   5.9090378420e+01    0.1324328    0.1120853  68.11 0.0003484089    1.629    0.386
        64 -11.4551    211.9629    245.8191   4.5837337193e+01  -5.3159951193e+00    0.3328468    0.1600815 -38.97   0.00149033    2.195    0.544
        65 -10.2742     90.2646    247.3379   7.1406351233e+01   1.0776115269e+01    0.2256262    0.1714002 -88.21  0.001173303    1.626    0.385
        66 -12.3178    230.6824     47.6318   3.5346785923e+00   2.2730067416e+01    0.3806389    0.3234474  50.30  0.001131981    1.532    0.347
        67 -11.4571     13.2253     61.1035   6.6441288373e+01   6.4301494470e+01    0.4469704    0.2038245 -53.28  0.001468002    1.812    0.448
        68 -12.0743      7.5825     59.4622   6.8900741984e+01   6.5043641755e+01    0.3222501    0.2754043  38.83  0.001741426    1.454    0.312
        69 -11.3188     13.4401     44.1637   6.1117876499e+01   6.7882304508e+01    0.2535179    0.2409838 -76.14 0.0008984961    1.415    0.294
        70 -10.6220     13.2573     40.4089   5.9889402754e+01   6.8645559308e+01    0.2020525    0.1406217  33.69 0.0009156562    1.712    0.416
        71 -10.8428     30.7914     30.6757   4.5880114824e+01   6.8514145157e+01    0.3093504    0.1736723  43.97  0.001094997    2.290    0.563
        72 -10.3059    101.6126    242.2077   6.8334776226e+01   1.0196445311e+01    0.1633506    0.1180302 -43.95 0.0009462755    1.656    0.396
        73 -10.1889     60.2768     21.5883   2.7697177153e+01   6.4910489505e+01    0.2493155    0.1768636 -28.90  0.001107418    1.527    0.345
        74  -9.8199     79.1226     21.6986   2.1173986309e+01   6.0977981815e+01    0.2056805    0.1619912  73.15 0.0007997403    1.525    0.344
        75 -10.8069     37.5215    241.2843   8.2396105016e+01   1.8450821753e+01     0.296672    0.2086699 -26.93  0.001695675    2.323    0.570
        76 -10.3237     42.4274    239.1046   8.1190038129e+01   1.8342305388e+01    0.2728726    0.1951731 -61.62 0.0008189185    1.622    0.383
        77  -9.7570    189.2263     15.2229   5.0035306523e-02   3.5403593725e+01     0.178551    0.1210685 -66.27 0.0005402471    1.330    0.248
