#   1 NUMBER                 Running object number                                     
#   2 MAG_AUTO               Kron-like elliptical aperture magnitude                    [mag]
#   3 X_IMAGE                Object position along x                                    [pixel]
#   4 Y_IMAGE                Object position along y                                    [pixel]
#   5 X_WORLD                Barycenter position along world x axis                     [deg]
#   6 Y_WORLD                Barycenter position along world y axis                     [deg]
#   7 A_WORLD                Profile RMS along major axis (world units)                 [deg]
#   8 B_WORLD                Profile RMS along minor axis (world units)                 [deg]
#   9 THETA_WORLD            Position angle (CCW/world-x)                               [deg]
#  10 FWHM_WORLD             FWHM assuming a gaussian core                              [deg]
#  11 ELONGATION             A_IMAGE/B_IMAGE                                           
#  12 ELLIPTICITY            1 - B_IMAGE/A_IMAGE                                       
         1 -14.7797      8.5627    153.1548   2.9269627269e+02   5.9540721844e+00    0.3813531    0.1592365 -73.49   0.02701791    3.609    0.723
         2 -12.3834      2.6672     38.5666   2.9205768683e+02   7.2981731547e+00   0.06408541   0.01365242 -64.23  0.003409724    5.940    0.832
         3 -12.8723      2.4035     18.8620   2.9193897885e+02   7.5245648003e+00    0.1198745   0.04211207 -42.94  0.008409894    3.501    0.714
         4 -12.0934      2.5085      6.3444   2.9186039340e+02   7.6667030475e+00   0.04278982   0.03197514 -42.76  0.004760507    1.361    0.265
         5 -13.4391    206.3590      7.0943   2.8952856226e+02   6.4321380032e+00   0.06993218   0.04967704 -36.75  0.007498696    1.517    0.341
         6 -13.6406    191.5868     24.3615   2.8980469619e+02   6.3246405004e+00   0.07469927   0.06462312 -55.17  0.007234664    1.140    0.123
         7 -10.2810     99.3136    248.9979   2.9224737410e+02   4.3150695204e+00   0.01317655  0.009004641  53.39  0.001360521    1.643    0.391
         8 -10.4200    248.8312    249.3970   2.9054313307e+02   3.4117854051e+00   0.01414073    0.0113455  27.31  0.001623202    1.254    0.203
         9 -10.9927    174.4888    249.4390   2.9139153094e+02   3.8585895146e+00   0.01978534   0.01236992  52.84  0.001300168    1.846    0.458
        10 -11.5748    144.7067    244.7842   2.9170293212e+02   4.0907329417e+00   0.03506438   0.01924037  75.14  0.002614149    3.605    0.723
        11 -12.6757    128.7602    247.6910   2.9190294850e+02   4.1532933971e+00   0.04752893   0.02779413   8.23  0.004312579    2.274    0.560
        12 -12.1183    140.4395    248.2542   2.9177301746e+02   4.0767240370e+00   0.03361668   0.02275386  80.53  0.003308446    2.000    0.500
        13 -10.2812     29.2668    249.1590   2.9304884057e+02   4.7327819528e+00   0.02485318   0.01323312  42.83  0.002316438    1.943    0.485
        14  -9.6704      2.2799    249.3964   2.9335875181e+02   4.8913658337e+00   0.01432565   0.01170701 -70.16  0.001234013    1.260    0.206
        15  -9.4451      1.5850    240.3015   2.9331099234e+02   4.9994938938e+00   0.01313489  0.006608449 -68.10  0.001148336    2.192    0.544
        16 -12.7181     52.7626    218.1225   2.9258977159e+02   4.9469566177e+00   0.05875635   0.05088259 -17.34  0.005782361    1.241    0.194
        17  -8.2998    221.5508    213.5201   2.9063293726e+02   3.9855501046e+00  0.006518559  0.006365455  73.43 0.0002867258    1.050    0.048
        18 -11.3039     64.6029    201.6387   2.9235304994e+02   5.0644461460e+00    0.0148392   0.01121708 -38.78 0.0005930925    1.380    0.275
        19 -13.7607     45.2224    229.6290   2.9274664425e+02   4.8605697172e+00   0.05006883   0.03992608  44.07  0.003304584    1.283    0.220
        20  -9.8228    193.1189    195.3922   2.9084562169e+02   4.3637344627e+00   0.04184315   0.01968355 -89.42  0.001931468    9.330    0.893
        21 -11.6543     70.5602    193.0244   2.9223192505e+02   5.1272012727e+00   0.01491118   0.01168599 -38.74 0.0005022613    1.321    0.243
        22 -12.6049     39.3817    236.7821   2.9285731592e+02   4.8137562407e+00   0.02049607   0.01496977 -40.09 0.0007411361    1.426    0.299
        23 -13.1054     67.2850    177.9038   2.9217634498e+02   5.3196545979e+00   0.02809087   0.01393534 -39.71  0.002046244    2.361    0.576
        24  -8.4388     52.3041    181.3544   2.9236899469e+02   5.3699879686e+00   0.00709165  0.004835259 -30.00 0.0007040299    1.711    0.416
        25 -10.6374     80.2461    179.7411   2.9203936501e+02   5.2209376633e+00   0.01135615   0.01104981 -41.31 0.0003215486    1.019    0.018
        26  -8.3252    209.3669    179.7634   2.9056358380e+02   4.4443277341e+00   0.00680051  0.004750963  53.71 0.0002480376    1.601    0.375
        27 -11.5143     87.3502    170.3022   2.9189995411e+02   5.2861870344e+00   0.03146671    0.0247985 -21.45  0.003535384    1.431    0.301
        28  -8.8072     32.2409    228.2489   2.9288660115e+02   4.9540292365e+00  0.009180766  0.007511244  64.29 0.0008220676    1.361    0.265
        29  -9.7665     99.2866    153.8334   2.9166187180e+02   5.4027207859e+00   0.01323204    0.0109973 -43.61  0.000660373    1.208    0.172
        30 -11.8249     88.0932    153.0972   2.9178542144e+02   5.4783289698e+00   0.01426726   0.01164051 -30.87 0.0005964547    1.305    0.234
        31  -9.6228    134.4640    147.4575   2.9122009354e+02   5.2641697873e+00   0.02511847  0.007467162 -67.30  0.001507923    4.705    0.787
        32  -8.9635    102.1396    149.2531   2.9160097732e+02   5.4379199216e+00  0.009744004  0.008554145 -24.77 0.0005179088    1.198    0.165
        33 -12.2298     67.2032    143.7074   2.9196665488e+02   5.7109445495e+00    0.0328049   0.02271999  57.37  0.002586574    1.678    0.404
        34 -10.0600     95.2417    240.9483   2.9224443348e+02   4.4314792224e+00   0.01260926  0.008481294 -43.78  0.000845987    1.523    0.343
        35  -9.5449    110.2578    138.1514   2.9143958389e+02   5.5159824085e+00   0.01905875   0.01100275 -28.81  0.001571996    2.331    0.571
        36  -9.1191     86.7867    136.7326   2.9169946153e+02   5.6731472443e+00    0.0091187   0.00730426  57.03  0.000613167    1.361    0.265
        37 -10.3181     97.8994    135.5539   2.9156498989e+02   5.6198923847e+00   0.01190544  0.009754959 -43.63 0.0004314714    1.226    0.185
        38 -10.0568      3.8721    227.5308   2.9320658692e+02   5.1318361285e+00   0.01639952   0.01287311  28.19   0.00186726    1.280    0.219
        39  -8.3325    174.2747    137.6325   2.9070417479e+02   5.1367679929e+00  0.006841983   0.00502241  70.79  0.000700496    1.674    0.403
        40  -9.0494    107.3186    124.6560   2.9138991328e+02   5.6877991214e+00  0.008425475  0.007110172 -23.92 0.0004293376    1.274    0.215
        41  -8.2938    192.2318    143.9837   2.9053820543e+02   4.9560678540e+00  0.008390441  0.005448471 -61.91 0.0003980061    1.535    0.348
        42 -10.0948    167.9109    112.9098   2.9062407142e+02   5.4573581984e+00   0.01573312   0.01210499  68.03 0.0009185392    1.526    0.345
        43  -8.8334    203.4827    111.4976   2.9020868496e+02   5.2590428341e+00  0.006589537  0.006329606 -29.85 3.650657e-05    1.044    0.042
        44 -12.9974     10.3672    206.5595   2.9300368082e+02   5.3327865368e+00   0.08081646   0.04702416  39.83  0.007969054    1.724    0.420
        45  -8.9155    156.3076     75.3527   2.9052439196e+02   5.9559252137e+00   0.00709551  0.004847669 -29.48 0.0007042847    1.716    0.417
        46 -10.3607      1.9546     61.5150   2.9220752238e+02   7.0404927081e+00   0.01089558  0.008753835 -60.70  0.001031256    1.234    0.190
        47 -10.4183     28.3127     60.5153   2.9189903538e+02   6.8942192219e+00    0.0131976   0.01097092  49.20 0.0006188254    1.254    0.202
        48  -8.9406     19.7533     57.5485   2.9197888300e+02   6.9793217932e+00  0.009317934   0.00588356  40.99  0.000773047    1.604    0.377
        49  -9.8716     81.8482    249.0879   2.9244748563e+02   4.4187622380e+00   0.01055021  0.008962858  64.36  0.000835426    1.286    0.222
        50 -10.2073     19.4196    247.5595   2.9315159059e+02   4.8099472134e+00   0.02422163   0.01546701  21.03  0.002462149    1.664    0.399
        51 -11.5449    185.6366    238.9984   2.9119996323e+02   3.9107904713e+00   0.02513139   0.01553782  74.47   0.00224878    2.449    0.592
        52 -14.1945    110.8866    229.8989   2.9199771372e+02   4.4638822713e+00     0.377724          nan  32.43    0.0146351   10.964    0.909
