#   1 NUMBER                 Running object number                                     
#   2 MAG_AUTO               Kron-like elliptical aperture magnitude                    [mag]
#   3 X_IMAGE                Object position along x                                    [pixel]
#   4 Y_IMAGE                Object position along y                                    [pixel]
#   5 X_WORLD                Barycenter position along world x axis                     [deg]
#   6 Y_WORLD                Barycenter position along world y axis                     [deg]
#   7 A_WORLD                Profile RMS along major axis (world units)                 [deg]
#   8 B_WORLD                Profile RMS along minor axis (world units)                 [deg]
#   9 THETA_WORLD            Position angle (CCW/world-x)                               [deg]
#  10 FWHM_WORLD             FWHM assuming a gaussian core                              [deg]
#  11 ELONGATION             A_IMAGE/B_IMAGE                                           
#  12 ELLIPTICITY            1 - B_IMAGE/A_IMAGE                                       
         1  -9.9628     10.2091     18.9312   1.0863355141e+02   7.2739987167e+01    0.9371414    0.3015028 -31.65  0.003089247    5.100    0.804
         2 -10.8900     32.0342     63.9096   1.1041776908e+02   6.0503286203e+01     2.459858     1.166621 -23.84  0.008825693    4.307    0.768
         3 -10.6528     37.3208      9.6966   8.6981854482e+01   7.1802326291e+01    0.9404526    0.3176112 -46.82  0.002744167    2.888    0.654
         4 -11.0054     22.2251      7.9413   9.5387468166e+01   7.4010534453e+01     1.356633    0.9032952  60.16   0.00683679    2.851    0.649
         5 -11.1165     23.5997     32.7005   1.0566144616e+02   6.8619234562e+01     1.505368    0.4291981 -47.60   0.00445716    2.818    0.645
         6 -10.9184      6.2259     29.2295   1.1442047325e+02   7.0635746600e+01      0.72473    0.4542542 -77.23  0.003169753    1.500    0.333
         7 -10.8302    134.1234     30.8292   6.3257462963e+01   4.8012093918e+01    0.4382073    0.2949625  -2.55  0.001916322    1.772    0.436
         8 -10.2768     73.3460     16.6188   7.4001601925e+01   6.4376728477e+01     1.491331    0.2743442 -34.08  0.004017906    4.920    0.797
         9  -9.4862     78.0000      4.2520   6.5374460263e+01   6.5070882987e+01    0.5804826    0.3686081 -15.91  0.001819423    1.543    0.352
        10 -10.5106     69.6431     39.9320   8.6659216377e+01   6.0918359016e+01     1.712303    0.4082978 -42.88  0.005067277    3.875    0.742
        11  -9.8869     60.6780     31.7931   8.6840573840e+01   6.4064145094e+01     1.030231    0.3769204 -37.82  0.003140745    2.744    0.636
        12  -9.7636     63.2256     20.9905   8.0437071260e+01   6.5616222036e+01    0.7441216    0.3969184 -54.86  0.001568984    2.793    0.642
        13 -10.3033     64.5165     13.1320   7.5591503145e+01   6.6661205775e+01    0.5988861    0.4408782 -55.39  0.001611754    1.782    0.439
        14  -8.9425     46.5066     20.4572   8.8006244091e+01   6.8485605780e+01    0.4905766    0.2047585 -34.01  0.001935222    2.577    0.612
        15  -9.9625     51.4151     14.2294   8.2157601301e+01   6.8836772366e+01    0.6234172    0.4026221  12.23  0.002896687    2.023    0.506
        16  -9.7750    152.4902     28.4114   5.8740609154e+01   4.3538608547e+01    0.4284185    0.2057265 -13.23  0.001537704    2.554    0.608
        17  -8.4499    104.0241     15.7355   6.3782590932e+01   5.7585143910e+01    0.4410681    0.2155611  12.77  0.001288171    4.487    0.777
        18  -8.9613    128.6995     24.5338   6.1854005113e+01   5.0249940621e+01    0.6033976    0.2890149 -16.57   0.00169277    2.420    0.587
        19  -9.4558    118.9932     20.9061   6.2469620009e+01   5.3199688442e+01    0.6298963    0.3193635 -14.00  0.002401955    2.334    0.571
        20  -8.8509    125.1056     13.2710   5.7771818039e+01   5.2539612472e+01    0.3876723    0.2123396  49.56  0.001112435    1.758    0.431
        21  -8.8779    112.3266     15.6392   6.1654213564e+01   5.5540833134e+01    0.3786157    0.2151369 -40.15 0.0008945426    1.827    0.453
        22  -9.1097    114.1503     10.0726   5.8631906377e+01   5.5721500635e+01    0.3956996    0.2057647  41.96 0.0002838103    1.958    0.489
        23  -9.1743     96.3769     14.7060   6.5373101973e+01   5.9554575446e+01    0.7246418    0.3021366 -16.16  0.002455907    3.128    0.680
        24  -9.0084     96.8165      4.6758   6.0092061591e+01   6.0633763875e+01    0.4755194    0.3025636 -45.78  0.001882845    1.812    0.448
        25  -9.7140      2.0617     13.9699   1.1231179531e+02   7.4310713772e+01    0.7423001    0.2391716 -70.87  0.002966969    3.116    0.679
        26  -9.9307      6.3972      5.3306   1.0545538881e+02   7.5923370598e+01    0.3997446     0.231687 -10.69 0.0008838018    2.058    0.514
        27  -9.9673      3.1708      2.9091   1.0679959302e+02   7.6636198099e+01    0.5067061    0.2644823   0.41  0.002729248    2.394    0.582
        28  -9.6694     85.2308     12.1707   6.7436192992e+01   6.2460102406e+01    0.7121178    0.3382156 -32.69   0.00179344    1.987    0.497
        29  -8.5314    141.7596     12.5652   5.4412626788e+01   4.8211708641e+01    0.2781136    0.2013208 -17.47 0.0007031657    1.388    0.280
        30  -9.1298    133.1866     11.2063   5.5336139487e+01   5.0635448479e+01     0.542992    0.1721944 -32.55  0.001716398    2.833    0.647
        31  -8.5896    136.7218      1.6090   5.0680127426e+01   5.0605067068e+01     0.317798    0.1969973  87.88  0.001143906    1.870    0.465
        32  -9.3551    134.4614      4.5099   5.2266705768e+01   5.0952371760e+01    0.3020526    0.2359695  11.11 0.0009189302    1.349    0.259
        33  -8.0275     80.5100     12.4652   6.9159974208e+01   6.3466876637e+01    0.2836394    0.1747452 -43.61 0.0008855039    1.789    0.441
        34  -9.0268    102.5131      8.7697   6.0742564097e+01   5.8789324156e+01    0.4457282    0.2344293 -55.48  0.001668521    2.905    0.656
        35  -8.5489    137.7830      9.5919   5.3857275868e+01   4.9577293305e+01    0.2052393    0.1423572  85.76 0.0005306542    1.648    0.393
        36  -8.2941    126.7610      9.0308   5.5579652965e+01   5.2557795504e+01    0.2043139     0.191941  17.37  0.000512047    1.034    0.033
        37  -9.3610    125.8796      5.0085   5.3957628976e+01   5.3186620610e+01    0.4428502    0.2355249  36.52   0.00173811    2.036    0.509
        38  -8.2109    120.9851      5.7737   5.5220036950e+01   5.4399081371e+01    0.2297539     0.196595 -59.91 0.0006476729    1.307    0.235
        39  -9.9403     79.0894     24.3141   7.5834217245e+01   6.1978923605e+01    0.7169784    0.3586839  28.02   0.00261242    3.072    0.675
        40  -9.0474    143.3275      6.0703   5.1526000646e+01   4.8431078028e+01    0.4598402    0.1944813 -30.34  0.001126955    2.214    0.548
        41  -9.2126    110.0757      5.5246   5.7356637883e+01   5.7240231108e+01    0.6245105    0.2636772 -23.69  0.002428231    2.274    0.560
        42  -8.7906    115.3024      4.1809   5.5604696545e+01   5.6031857832e+01    0.2921349    0.2300185 -32.73 0.0004406169    1.297    0.229
        43  -9.7221     63.8588      3.0438   6.9807619694e+01   6.8222381041e+01    0.4112113    0.2682488 -49.95  0.001661069    2.014    0.503
        44  -8.7215     89.1578      2.8497   6.1169037274e+01   6.2667767623e+01    0.2916335    0.1738173 -33.71 0.0008352681    1.684    0.406
        45  -8.5154    172.0209      2.9184   4.6675456415e+01   4.1006791351e+01    0.2038359    0.1969512 -40.37 0.0002963043    1.020    0.019
        46  -8.4583    104.4880      2.2364   5.6972310699e+01   5.8980895690e+01     0.308008    0.2038501  40.93  0.001219224    1.462    0.316
        47  -7.8134    180.1641      2.7897   4.5791966925e+01   3.8864764043e+01    0.1930459    0.1597875  24.27 0.0004768609    1.316    0.240
        48  -7.8365    151.1673      1.6002   4.8647054433e+01   4.6715094623e+01     0.205457    0.1245306  57.56 0.0004816627    1.573    0.364
        49 -10.6485     70.1113    126.3603   1.0931183794e+02   4.1161980103e+01     0.667128    0.5652176 -35.09  0.001600849    1.442    0.306
        50  -9.2393    239.2687    249.9863   9.3681499111e+01  -2.1501386464e+00    0.1983301    0.1101502  30.84 0.0004178884    1.338    0.253
        51 -11.3367    200.4177    248.7020   9.9394885700e+01   2.6673533077e+00    0.7424176    0.2572675  41.79  0.004071466    2.486    0.598
        52 -11.3143    184.8887    246.1229   1.0155755362e+02   4.8853279814e+00    0.4773939    0.3279444  39.43   0.00370417    1.331    0.248
        53 -10.1921     58.2578    124.6434   1.1237304648e+02   4.3077719535e+01    0.6540691    0.3382401  72.76  0.002662358    2.701    0.630
        54  -9.7838     98.5969    128.6262   1.0200074366e+02   3.6412360114e+01    0.5899196    0.3418992  70.89  0.002336783    2.836    0.647
        55  -8.5131    112.2407    133.7803   9.9482856575e+01   3.3050200628e+01    0.2769738    0.2033742  72.56 0.0009153055    1.682    0.405
        56  -7.7822    160.7853    128.7894   8.7127846399e+01   2.4984157616e+01    0.1894777    0.1725968 -89.45  0.001074545    1.378    0.274
        57  -9.9553     27.6511    123.2537   1.2089094174e+02   4.6617682936e+01    0.6269012    0.2610765  63.04  0.002307871    2.722    0.633
        58  -9.8258     14.4589    111.6373   1.2364814510e+02   5.0380336981e+01    0.5034104    0.2222024  75.32  0.002117827    2.383    0.580
        59  -8.3606     14.2181    104.8625   1.2310578844e+02   5.1993312745e+01    0.1930927    0.1706098 -58.42 0.0007286068    1.269    0.212
        60  -9.7429     41.5161    122.0973   1.1680764618e+02   4.5556330078e+01    0.5384065    0.2222354 -86.12  0.001910785    3.024    0.669
        61  -8.2707    158.3275    122.2583   8.6176109703e+01   2.6626849418e+01    0.3088207    0.2174456  81.86  0.001324032    2.567    0.610
        62 -10.6917    108.9980    101.0253   9.3199246836e+01   4.0578301632e+01     1.023049     0.755087 -83.98  0.004820316    1.831    0.454
        63  -8.7311    152.1865    121.3266   8.7316970722e+01   2.8025118842e+01    0.2268895    0.1723323  25.56 0.0006465623    1.392    0.282
        64 -10.0320    140.6940    118.4756   8.9295773778e+01   3.0848464140e+01    0.4479073    0.3297102 -78.24  0.001163781    2.028    0.507
        65  -8.4259    140.7676    112.7296   8.7914396589e+01   3.1941771775e+01    0.3278034    0.2095064 -49.52  0.001514819    1.663    0.399
        66  -8.1798     98.9510    120.0490   1.0024252872e+02   3.8214195370e+01    0.2773411    0.1692016 -15.21 0.0009538461    4.090    0.756
        67  -8.2767      1.4452    116.5034   1.2779225206e+02   5.0111702225e+01    0.3145768   0.09509687 -87.21  0.001311804    2.929    0.659
        68 -10.0958     91.7293    112.9389   1.0078186498e+02   4.0980544869e+01    0.5510777    0.4144359 -78.53  0.001653952    1.479    0.324
        69  -8.8306     92.1831    103.9622   9.8698077658e+01   4.2924245123e+01    0.6880991     0.368952  20.59   0.00250878    3.306    0.698
        70  -9.0300    153.1140    115.5686   8.5749392930e+01   2.8894402670e+01    0.2401411    0.1707072 -31.97 0.0006584448    1.454    0.312
        71 -10.2007     78.1556    112.9101   1.0467784748e+02   4.3099708348e+01    0.5080222    0.3064173 -87.75    0.0016509    2.334    0.572
        72  -9.9318     59.1815    108.9958   1.0964205750e+02   4.6614013549e+01    0.7456639    0.4673786 -44.12  0.002353802    1.814    0.449
        73 -10.4843     63.0334     95.8053   1.0593655152e+02   4.9246552401e+01    0.6658601     0.384473 -83.73  0.001626442    2.272    0.560
        74  -8.9761     64.8658     86.2043   1.0321202209e+02   5.1280212790e+01    0.6980188    0.4564079 -40.23  0.002824437    1.676    0.403
        75 -10.0476     65.6410    111.0066   1.0803368529e+02   4.5303279984e+01    0.6344204    0.4861183 -89.09  0.001664735    1.324    0.245
        76  -9.1515     69.0015    102.5883   1.0541356115e+02   4.6821479347e+01    0.4579224    0.3363007 -13.70  0.002286355    2.027    0.507
        77  -7.3449    167.2880    113.7112   8.2218352416e+01   2.6299165613e+01    0.1348144    0.1162436 -79.31 0.0001830848    1.537    0.349
        78  -8.5579    158.6544    111.8589   8.3615226723e+01   2.8424493192e+01    0.2351679    0.2224972 -40.42 0.0004296315    1.123    0.109
        79  -9.7821     33.7320    109.5970   1.1757313271e+02   4.9266090587e+01    0.4889026    0.2999955  47.32  0.002715816    1.633    0.388
        80 -10.2800    191.3181    249.1711   1.0088404951e+02   3.7678705640e+00    0.3239486    0.2196152  43.15  0.002486858    1.542    0.352
        81 -10.8232     21.2362    101.7091   1.2055809946e+02   5.2224770836e+01     1.016916    0.3963061  72.35  0.002760093    3.736    0.732
        82 -10.9895     24.1810     80.8050   1.1674356979e+02   5.7058810178e+01     1.378874    0.6230136 -58.42  0.003900269    1.856    0.461
        83 -10.5568    174.0276    245.1014   1.0320557146e+02   6.3897220153e+00    0.3299623    0.1488913  36.07  0.002072334    1.607    0.378
        84 -10.5173      4.2830     89.4627   1.2490814621e+02   5.6284844113e+01     1.231068     0.325442 -84.08  0.003898507    3.597    0.722
        85  -9.8645     16.0417     70.5677   1.1825699228e+02   6.0155183605e+01    0.7042587    0.2632712 -54.56  0.001203964    2.242    0.554
        86  -9.8668     17.1818     61.1746   1.1616262839e+02   6.2366441379e+01    0.6730922    0.3162165 -62.93  0.002689229    1.671    0.401
        87 -10.8983     21.8558     53.6196   1.1250252445e+02   6.3854908943e+01    0.9022896    0.4533616  80.60   0.00301895    3.350    0.701
        88  -9.8315    164.7702    248.9833   1.0514820720e+02   7.1695871477e+00    0.3025776    0.1353843  27.17  0.001762064    2.118    0.528
        89  -9.8495    173.6042    249.1127   1.0372060565e+02   6.0258792980e+00    0.2955856    0.1368931  31.97  0.001705973    1.624    0.384
        90 -10.6911    163.2011    243.9344   1.0486429901e+02   7.9207134299e+00     0.457646    0.1418236  44.88  0.002189909    3.021    0.669
        91 -10.0479     13.1038     45.5677   1.1481227694e+02   6.6395765200e+01    0.7209423    0.3569209 -23.12  0.002876516    2.783    0.641
        92  -9.9622     34.4119     90.6646   1.1464835126e+02   5.3763079090e+01    0.5971331    0.2636366 -87.69  0.001949454    3.003    0.667
        93 -10.1163     37.1362     81.0473   1.1198553292e+02   5.5843582726e+01    0.6772426    0.3563803 -26.50  0.002769904    3.284    0.696
        94 -10.2860      4.9519     42.0669   1.1815170173e+02   6.7679349135e+01    0.6882917    0.3002565 -73.58  0.002329993    1.891    0.471
        95  -7.5409     96.9438    241.9833   1.1601045273e+02   1.6567776932e+01    0.1184481   0.09273499  48.79 0.0005076321    1.087    0.080
        96  -8.8938    149.6585    109.9549   8.5157641967e+01   3.0646097146e+01    0.2554593    0.2022372  14.30 0.0008147719    1.441    0.306
        97 -10.1018    139.7814    103.6747   8.5886086778e+01   3.3898885632e+01     0.877193    0.4185446 -41.24  0.001225216    2.101    0.524
        98  -9.7249    138.8995     91.8052   8.2907762546e+01   3.6385709700e+01    0.7437938    0.3496771 -42.78  0.001652308    2.106    0.525
        99  -9.1347    140.3774     82.3891   7.9825122242e+01   3.7853551563e+01    0.6641658    0.3856951 -48.32  0.001883878    1.838    0.456
       100  -8.9601    139.9454     75.1035   7.7704431022e+01   3.9308528394e+01     0.603775    0.2621185 -36.26  0.001382209    2.266    0.559
       101 -10.8599     44.8880    102.5061   1.1305100664e+02   4.9835823853e+01    0.8357662    0.3782812  67.41  0.003044057    3.674    0.728
       102  -8.7465    161.3380    106.1593   8.1595581857e+01   2.8877702925e+01    0.2389724    0.1909922  30.34 0.0003899313    1.266    0.210
       103  -9.6930    149.5322    103.2009   8.3465935023e+01   3.1934050796e+01    0.4409849    0.3104081 -42.95 0.0009487403    1.436    0.304
       104  -8.3179    149.7797     96.8378   8.1717236350e+01   3.3065785719e+01    0.3697347    0.1925423  25.02  0.001199214    3.515    0.716
       105  -8.1141     77.6837    105.6636   1.0337656504e+02   4.4842827465e+01    0.3097105    0.2182193 -27.86  0.001505578    1.938    0.484
       106  -9.5720     81.5103     99.7392   1.0093722619e+02   4.5626140649e+01    0.6878583    0.2919684 -55.77  0.001102608    2.230    0.552
       107  -9.5014      6.2074    103.4263   1.2547388971e+02   5.2857727813e+01    0.3862511    0.1892297  64.47  0.001370078    1.992    0.498
       108  -8.2617     73.8163    102.7975   1.0396363048e+02   4.6083000620e+01    0.1893746    0.1538942  81.62 0.0002575497    1.305    0.234
       109  -8.8052    159.0368    101.4611   8.0876044770e+01   3.0210935342e+01    0.2839297      0.21819 -61.98 0.0005349983    1.645    0.392
       110  -9.6730    217.7951    100.7960   6.9711511968e+01   1.7782610348e+01    0.2469853    0.2126768  20.16 0.0004365225    1.135    0.119
       111  -9.3855     94.3036     97.2033   9.6476343504e+01   4.4082659739e+01    0.3200275    0.2468546 -72.94 0.0006007866    1.429    0.300
       112  -8.7881     95.8356     91.2310   9.4505718841e+01   4.5148283883e+01    0.4797415    0.3083628 -13.85   0.00184177    2.962    0.662
       113  -8.2984    222.5190     96.8002   6.7986533352e+01   1.7366790999e+01    0.2287309    0.1883545  39.75 0.0007020833    1.284    0.221
       114  -8.3741    164.3828     94.2743   7.7791833371e+01   3.0305976727e+01    0.3248798    0.2370763 -57.31 0.0008951679    1.691    0.409
       115  -8.3624    157.1560     91.2591   7.8517289642e+01   3.2452127144e+01    0.2759202    0.1889588 -61.24 0.0008926468    1.975    0.494
       116  -9.5183    110.5515     90.1055   8.9902891804e+01   4.2624368066e+01    0.7461591    0.3625937  30.08  0.002623567    3.008    0.668
       117  -8.3101    165.9737    104.1611   8.0089205437e+01   2.8235956166e+01    0.2481483    0.2040903 -35.89 0.0005788467    1.213    0.176
       118 -10.0821     85.3274     86.5729   9.6540511427e+01   4.8030352273e+01    0.4219464    0.3093929 -87.00 0.0008236623    1.770    0.435
       119  -9.5282     87.5559     78.7566   9.3674494211e+01   4.9413444414e+01    0.6057345    0.3872253  16.10    0.0018567    2.445    0.591
       120 -10.2351     47.9725     84.4493   1.0872714139e+02   5.3856476606e+01    0.5401083    0.3271824  79.81  0.001614429    2.204    0.546
       121  -9.2272     48.7465     77.2139   1.0687244155e+02   5.5516258260e+01    0.4832578    0.2425581 -41.61  0.002098667    2.257    0.557
       122  -9.0464    150.5786     89.5903   7.9522244126e+01   3.4226540825e+01    0.2804146    0.2536502 -54.71 0.0006792652    1.193    0.162
       123 -10.3725    103.9996     82.7733   8.9731762681e+01   4.5476091938e+01    0.5438322    0.3284467 -57.35 0.0009381964    1.818    0.450
       124  -9.5852    105.0253     72.0777   8.6171739403e+01   4.7539133950e+01    0.8041741    0.4363298 -36.24  0.002610617    1.932    0.482
       125  -9.2879    109.6625     63.7300   8.2026300611e+01   4.8267453121e+01    0.4026403    0.3192291 -59.57 0.0008912999    1.405    0.288
       126  -8.9162    110.8699     57.8581   7.9608211255e+01   4.9147295383e+01    0.3543895    0.2958328   4.48  0.000889719    1.367    0.268
       127  -8.0444    163.3863     87.2405   7.6037512872e+01   3.1749524924e+01    0.2108887    0.1352025 -43.57  0.000450286    1.597    0.374
       128  -9.0094    244.1984     83.8600   6.1759594582e+01   1.4700401533e+01    0.1885909    0.1419384   6.47 0.0006328198    1.334    0.251
       129  -7.6073    170.5719     83.7796   7.3566528918e+01   3.0687033897e+01    0.2087859    0.1343353 -43.83 0.0009262423    1.606    0.378
       130  -8.8494    157.7673     83.7053   7.6222406884e+01   3.3651186377e+01    0.2995933    0.1949484 -44.80 0.0006312651    1.585    0.369
       131  -8.2828    149.9629     80.5910   7.7037513774e+01   3.6000752924e+01    0.2856936     0.197307 -49.60 0.0006170383    1.567    0.362
       132  -9.2555    115.4073     72.1687   8.3178297210e+01   4.5351780814e+01    0.5828863    0.2777388 -39.49  0.001594733    2.058    0.514
       133  -8.8803    119.0289     80.4882   8.4760856169e+01   4.2899458966e+01    0.3380361    0.2491789 -65.92 0.0006458988    1.676    0.403
       134  -8.1727    119.8051     76.3631   8.3283424346e+01   4.3566200653e+01    0.3168586    0.2513463  26.34 0.0007021041    1.413    0.292
       135  -9.0854     74.1504     80.1602   9.8527181305e+01   5.1325344207e+01    0.4080512    0.2362303 -70.20  0.001139045    2.135    0.532
       136  -7.8850     75.0320     74.4722   9.6652941084e+01   5.2498389487e+01    0.2605928    0.1580036 -20.39 0.0009927887    2.956    0.662
       137  -7.9643    166.5339     78.7143   7.2905858639e+01   3.2468412498e+01    0.2074631    0.1373176 -43.61 0.0009268892    1.547    0.353
       138  -8.4858    157.1856     76.8637   7.4311815478e+01   3.4976626372e+01    0.4181331    0.2286805 -54.10  0.001564804    2.463    0.594
       139  -7.8608    184.2095     78.0209   6.9305946969e+01   2.8445676222e+01    0.2286467    0.1892328   3.86 0.0007120617    1.260    0.206
       140  -9.1534    129.9825     57.3249   7.4248701673e+01   4.4856397452e+01    0.7056257    0.2694425 -41.85   0.00156791    2.585    0.613
       141  -9.9938    127.9064     73.4199   8.0190604715e+01   4.2363449839e+01     1.055471    0.5663626 -21.74  0.002645877    2.817    0.645
       142  -8.2567    130.4859     64.0614   7.6452125596e+01   4.3529046573e+01    0.3962333    0.1498939 -35.63 0.0009452599    2.605    0.616
       143  -9.2406     39.9742    106.7392   1.1524887059e+02   4.9336892529e+01    0.2583491    0.1677975 -84.62 0.0005435282    1.448    0.310
       144 -10.4562     90.2279     38.0510   7.8268380301e+01   5.7292468511e+01      1.14319    0.4953499  31.57   0.00351665    4.056    0.753
       145 -10.1633     73.5053     57.0269   9.1701654256e+01   5.6664612047e+01     1.164215    0.4164715 -42.41  0.002620961    2.770    0.639
       146  -8.7947     87.7640     58.5286   8.7138758288e+01   5.3777142769e+01    0.4476847    0.2396301 -50.83  0.001333196    1.875    0.467
       147 -10.5169     85.1819     48.0936   8.4145129840e+01   5.6407209369e+01    0.7246035    0.4893325 -79.86 0.0009527598    2.802    0.643
       148  -9.1707     80.1126     46.4163   8.5302221475e+01   5.7712393046e+01    0.4311386    0.2011811 -40.91 0.0005249471    2.006    0.502
       149 -10.7102     54.8398     70.8020   1.0300196106e+02   5.6297436230e+01    0.7194791    0.4625548  62.87  0.001120365    2.064    0.516
       150 -10.5962     60.5433     61.4187   9.8114076627e+01   5.7711504069e+01     1.265144    0.4911245  27.57  0.002446736    3.646    0.726
       151  -8.4496    162.5914     73.1083   7.2025487043e+01   3.4333387039e+01    0.2754557    0.2266905 -64.54 0.0007547737    1.453    0.312
       152  -9.8050     81.5294     72.2854   9.3773581221e+01   5.1914400631e+01    0.4382991    0.2988862 -69.78  0.001032727    1.775    0.437
       153  -9.1351     83.9418     64.4170   9.0463798649e+01   5.3229129937e+01    0.5583445    0.3640428 -15.63  0.002304217    2.431    0.589
       154  -7.3460    175.4828     72.5270   6.9306031904e+01   3.1353962898e+01    0.1504183    0.1424114 -31.06 0.0008089413    1.066    0.062
       155  -7.8449    169.4990     71.0650   7.0012913202e+01   3.3015497086e+01    0.2336629    0.1438046 -32.60 0.0009461965    1.551    0.355
       156  -9.3400    147.0147     69.3193   7.4213792429e+01   3.8692122361e+01    0.4179562    0.2731173 -58.39 0.0009612264    1.976    0.494
       157  -8.5987    156.7225     69.3515   7.2087124552e+01   3.6365408551e+01    0.4227284     0.189288 -23.46  0.001411083    2.839    0.648
       158  -9.6705     94.8265     68.2992   8.8119299307e+01   5.0358103402e+01    0.4727781    0.2638067 -51.84 0.0008061274    1.809    0.447
       159  -9.4885     97.3580     58.3752   8.3915302340e+01   5.1916085859e+01    0.8409289    0.5330645 -29.89  0.003714319    1.712    0.416
       160  -9.3135    137.9515     66.5077   7.5423388054e+01   4.1336337953e+01    0.3503723    0.2510903 -41.42 0.0006888901    1.374    0.272
       161 -10.0117    120.8114     64.2901   7.9069659350e+01   4.5704428927e+01    0.6096577    0.4070578 -35.72  0.001424161    1.460    0.315
       162  -8.0033     75.5953     66.2348   9.3982530574e+01   5.4275987589e+01    0.2057569    0.1260387 -42.36 0.0009161881    1.574    0.364
       163  -7.9240    170.7439     64.9213   6.7876822977e+01   3.3683357944e+01     0.218678    0.1888584 -31.66 0.0005255122    1.114    0.102
       164  -7.8020    157.5176     62.9584   6.9873789381e+01   3.7228427591e+01    0.2332707    0.1445806 -35.12 0.0008971188    1.546    0.353
       165  -8.4043    164.4739     60.3005   6.7614531960e+01   3.5939820960e+01    0.2730765     0.149355 -25.26 0.0009649444    1.867    0.464
       166  -8.1590      9.8481     60.1360   1.1914954090e+02   6.3076024352e+01    0.3215246    0.1383251  86.90  0.001331556    2.859    0.650
       167  -8.9371    146.3630     59.0025   7.0956477722e+01   4.0611062746e+01    0.3016709    0.2667091  -7.60 0.0007391144    1.153    0.133
       168  -8.4315    147.5132     54.0258   6.8997616088e+01   4.1140545348e+01    0.4446729    0.1469489 -31.80  0.001404067    2.917    0.657
       169  -9.3128    139.0459     57.0263   7.1946656662e+01   4.2728335968e+01    0.3518354     0.239069 -49.86 0.0004749291    1.605    0.377
       170  -9.4554    118.4467     54.7568   7.6346973048e+01   4.8017099718e+01    0.5891502    0.3308452 -34.51  0.001394528    1.737    0.424
       171  -8.9734    121.1527     46.9967   7.2715941408e+01   4.8747936906e+01    0.3385232    0.2337538 -42.09 0.0004272916    1.441    0.306
       172  -7.4910    157.5640     55.7775   6.7495620408e+01   3.8359584102e+01    0.2186343    0.1359513 -41.38 0.0005304595    1.599    0.375
       173  -9.0711     43.9195     53.5102   1.0255245641e+02   6.1728181501e+01    0.3424682    0.2249476 -49.63 0.0007079551    1.325    0.246
       174  -9.3482     54.2456     36.6266   9.1826163883e+01   6.4102207473e+01    0.6044677    0.2209748 -41.60  0.002264006    2.588    0.614
       175 -10.2070     49.7896     53.5628   1.0003368999e+02   6.0989691468e+01     0.720811    0.3845318 -69.46   0.00247464    2.338    0.572
       176  -9.5273     56.6741     43.0613   9.3346138142e+01   6.2375364726e+01    0.6949843    0.3975573 -14.31   0.00253243    3.586    0.721
       177  -8.9616    215.8702     52.4448   5.7080861539e+01   2.4596810271e+01    0.3849921    0.2530199 -14.69  0.001879087    1.505    0.335
       178  -8.9201    162.5192     54.0482   6.5943127273e+01   3.7385133423e+01    0.2689562    0.2209058 -84.27 0.0007718899    1.483    0.326
       179  -8.9940    105.4235     51.8864   7.9014662232e+01   5.1476385813e+01    0.5769217    0.2609005 -36.73  0.001699311    2.148    0.534
       180  -9.6485    130.4164     46.5778   7.0222503166e+01   4.6575396755e+01    0.9359172    0.3752612 -22.11  0.001156042    3.612    0.723
       181  -8.7997    132.9513     36.0046   6.5564921561e+01   4.7577504273e+01    0.2867137    0.2120017 -37.47 0.0004058087    1.333    0.250
       182 -10.1410    132.7549    235.5538   1.0918941672e+02   1.2905987554e+01    0.1817208    0.1546092  34.25 0.0002881425    1.146    0.127
       183  -7.2184    172.2868     50.6093   6.3018093075e+01   3.5432037471e+01    0.1634527     0.108878 -55.09 0.0001781292    1.760    0.432
       184  -8.6693    157.4497     48.7913   6.5144439659e+01   3.9452036540e+01    0.2929187    0.1357932 -34.95  0.000857058    2.022    0.506
       185  -8.8042    141.9683     48.6138   6.8298331525e+01   4.3384569728e+01    0.3584054    0.2019423 -37.57  0.000470908    1.712    0.416
       186  -8.5165    149.9020     47.8672   6.6335422347e+01   4.1503754951e+01     0.273575    0.2116428 -45.62 0.0004163262    1.330    0.248
       187  -8.3934    112.0307     47.1221   7.5251886991e+01   5.0862713891e+01    0.2569058    0.2108116 -49.77 0.0004097673    1.280    0.219
       188  -7.8506    162.5095     46.0432   6.3242483994e+01   3.8564299003e+01     0.225215    0.1100441 -48.80  0.000807961    2.423    0.587
       189  -9.9821    155.7740    249.3766   1.0667057776e+02   8.2775705452e+00     0.272809    0.1570283  39.36  0.001953468    1.287    0.223
       190 -10.0127    188.3483    233.5895   9.9480568626e+01   5.7198729603e+00    0.2178824    0.1715473  15.50  0.001055421    1.143    0.125
       191  -7.8516      4.6029    222.1648   1.3114037050e+02   2.9137677069e+01     0.112578   0.07635901 -81.10 0.0005250986    1.616    0.381
       192  -7.8018    134.9984    221.0530   1.0726400600e+02   1.4521202459e+01    0.1613227    0.1086716  54.55 0.0002938407    1.547    0.354
       193  -9.8346     76.2428     32.0363   8.0593185638e+01   6.1209532974e+01    0.4448234    0.3485896  72.99  0.001018618    1.798    0.444
       194  -8.4968    242.6247    208.0726   8.7206863573e+01   1.0000937537e+00    0.1624606    0.1183701  25.24 0.0004595427    1.240    0.194
       195  -9.9857     10.5674    207.2869   1.2965782946e+02   3.1109923506e+01    0.4184711    0.2008864  27.64  0.002687827    2.221    0.550
       196  -8.8483     84.8259     21.8386   7.2575664313e+01   6.1163080986e+01    0.2596067    0.2414898 -27.32 0.0006354144    1.099    0.090
       197  -9.9700     37.8168     42.0055   1.0160904558e+02   6.5079753843e+01    0.4116995    0.2967662  84.58  0.001410908    1.978    0.494
       198 -10.6059     35.9102     37.9875   1.0111754250e+02   6.6199434465e+01    0.6340604    0.3560867 -25.52 0.0003476936    2.375    0.579
       199 -10.0014    152.8835     40.9099   6.3256403414e+01   4.1764956332e+01    0.4602319    0.3791641  -2.32  0.001594063    1.286    0.222
       200  -8.4345    113.5336     42.3274   7.2936230998e+01   5.1341709778e+01    0.3301031     0.201844  22.38  0.001283346    2.365    0.577
       201  -9.2279    104.9993     41.2623   7.4947867456e+01   5.3494000832e+01    0.4222521    0.2699346 -57.45  0.001252684    2.048    0.512
       202  -8.7695    105.9251     36.4746   7.2675989416e+01   5.4092320861e+01     0.335593    0.2498364  23.11 0.0008951143    1.530    0.347
       203  -8.4512    122.8591     40.9899   6.9938631754e+01   4.9327622467e+01    0.4842254    0.2686224  18.38   0.00157916    3.434    0.709
       204  -8.8875    139.2618     39.5227   6.5530571268e+01   4.5457090213e+01    0.4715069    0.2391788 -31.86  0.001870797    1.880    0.468
       205  -7.9516    160.0000     39.0301   6.1260736836e+01   4.0187647369e+01    0.2547516   0.08448261 -26.79 0.0007997244    2.924    0.658
       206  -7.5321    190.9673     37.4905   5.5892143802e+01   3.2444057963e+01    0.2175116    0.1475161  67.94  0.001029454    1.586    0.369
       207  -8.9826    144.1948     36.5182   6.3361312679e+01   4.4625670792e+01    0.3129212    0.2175032 -44.02 0.0007141746    1.480    0.324
       208  -8.8552    118.9287     34.7150   6.8398634772e+01   5.1270804724e+01    0.3191604    0.2105933 -30.67  0.000587364    1.464    0.317
       209  -9.0652    110.2709     33.0873   7.0002591122e+01   5.3615401011e+01    0.3756773    0.2399974 -46.76 0.0009952224    1.700    0.412
       210  -7.6254    163.4501     33.5513   5.8727791245e+01   4.0012160018e+01    0.1492112    0.1441625  -3.37 7.460141e-05    1.020    0.020
       211  -9.2554    101.2064     31.8907   7.2078090393e+01   5.5925701556e+01    0.4078143    0.2331193 -42.10 0.0009840431    1.769    0.435
       212  -8.0860    123.9795    205.9791   1.0762483679e+02   1.8228059415e+01    0.1605051    0.1289326  43.17  0.001137081    1.035    0.034
       213  -9.1803    191.6474    193.7205   9.3284809365e+01   9.8291563464e+00    0.5383092    0.3060467 -58.11  0.002310041    4.761    0.790
       214 -10.0790     46.3006     29.7725   9.2602782468e+01   6.6670858530e+01    0.5115706     0.324991 -62.17  0.001527515    1.895    0.472
       215  -8.5497     42.3005     28.2793   9.3938119260e+01   6.7522436463e+01    0.2393504    0.1691554 -32.26 0.0001614984    1.331    0.248
       216  -9.5342    240.6534    189.8684   8.4534458589e+01   3.0317637368e+00    0.2510283    0.2342822 -37.03  0.001472375    1.852    0.460
       217  -9.0612     91.3087     26.0181   7.2459491437e+01   5.9092513771e+01    0.3882653    0.2323354 -46.92  0.001706382    1.864    0.464
       218  -8.4167     91.8027     21.3751   7.0061095027e+01   5.9689386917e+01    0.3605197     0.219591  14.80 0.0006478915    2.334    0.572
       219  -9.4278    144.4064     25.7854   5.9205547063e+01   4.5995134695e+01    0.2856725     0.226754 -61.69 0.0006921996    1.425    0.298
       220  -7.3003    153.6761    187.2897   9.9357750288e+01   1.6620889476e+01    0.1170274   0.08851972  59.60 0.0007012017    1.609    0.379
       221  -8.0933    102.7874     25.3560   6.8662975545e+01   5.6563565216e+01    0.4227068    0.1704741  44.42  0.001521611    2.586    0.613
       222  -9.1336    103.1640     21.3249   6.6680516409e+01   5.7050591055e+01    0.3895568    0.2538078 -35.48 0.0007047376    1.505    0.336
       223  -8.9819    228.7236    184.9476   8.5564935822e+01   5.2656463538e+00    0.2424816    0.1372022  32.37   0.00080809    1.502    0.334
       224  -9.3398    229.7245    180.0719   8.4552059947e+01   5.6516495301e+00    0.2163342    0.1506508  23.93 0.0003765881    1.186    0.157
       225  -7.5855     10.5984    180.2363   1.2868456522e+02   3.6006762300e+01    0.1327824   0.08473998 -76.75 0.0003458858    1.564    0.360
       226  -8.3469    111.5327     20.7304   6.4194476224e+01   5.5092490635e+01    0.4393268    0.2078129 -18.61  0.001646646    2.371    0.578
       227  -9.1683    230.0598    175.1299   8.3614273542e+01   6.1512862440e+00    0.1946232    0.1504025  12.41 0.0002906326    1.022    0.021
       228 -10.1429    100.9985    175.9930   1.0871381866e+02   2.6546805598e+01    0.1732184    0.1491939  51.25            0    1.002    0.002
       229  -8.4730     40.9590     20.9216   9.1137107336e+01   6.9188533207e+01    0.2032341    0.1678661 -31.35 0.0004338073    1.039    0.037
       230  -7.9484    110.4306     26.2270   6.6958883599e+01   5.4604950077e+01    0.3350295    0.2048646  31.14  0.001117126    1.912    0.477
       231  -8.1443    139.6613     17.8324   5.6916303121e+01   4.8196570079e+01    0.2163044    0.1257479 -33.81 0.0005349418    1.672    0.402
       232  -8.9228    132.8676     17.3211   5.7977794008e+01   5.0048386944e+01    0.2613854    0.2326744 -30.74 0.0005012358    1.125    0.111
       233  -7.6897    239.7464    175.0522   8.2073416470e+01   4.7057177796e+00    0.1390661   0.08742195 -21.21 0.0004721246    1.496    0.331
       234  -8.1435    150.7966    174.2019   9.7898714000e+01   1.9108599861e+01    0.1732982      0.15183  40.21 0.0003410403    1.094    0.086
       235  -9.1711     83.9027    173.9134   1.1224176656e+02   2.9316760110e+01    0.1818729    0.1577369  57.62  0.000275221    1.022    0.022
       236 -10.1929    197.8582    172.2986   8.8562895286e+01   1.1597794981e+01    0.2210211    0.1827345  25.69 0.0003265768    1.104    0.094
       237  -8.6599    230.4476    168.2063   8.2279636128e+01   6.8775644572e+00    0.2808772    0.1033481 -33.07  0.001299608    2.731    0.634
       238  -8.6699     83.5477    158.5048   1.1045016524e+02   3.2398691682e+01    0.2017509    0.1910702  34.73 0.0001113269    1.196    0.164
       239  -8.8919    218.0276    155.3379   8.1846370934e+01   1.0440847127e+01    0.1978461    0.1612315 -14.40 0.0002898377    1.183    0.155
       240  -8.0539    203.3690    154.0268   8.4123493340e+01   1.3121541130e+01    0.2297465    0.1537325 -43.11  0.001256423    1.836    0.455
       241  -7.5737    146.3781    151.4946   9.4887548589e+01   2.3675123182e+01    0.1293586     0.121631  29.10 0.0001137539    1.038    0.037
       242  -8.7544    133.6935    146.2305   9.6721356798e+01   2.6871201568e+01    0.5833107    0.1742617 -53.55  0.001851224    4.515    0.779
       243  -7.0337    150.6951    147.2879   9.3154696284e+01   2.3640187845e+01    0.1282162    0.1056884  73.25 0.0002540105    1.567    0.362
       244  -9.2689     66.7612    144.3132   1.1275618732e+02   3.7616815366e+01    0.4473966    0.2719136  63.06  0.002363832    1.714    0.417
       245  -9.2412    239.4954    144.4631   7.6197945246e+01   8.1940026339e+00     0.259611    0.1085764 -26.96  0.001220847    2.201    0.546
       246  -8.2692    245.4505    143.4556   7.5092171672e+01   7.3393060578e+00    0.1243219   0.09910746   0.27 2.440366e-05    1.022    0.022
       247  -8.9146    238.5003    134.3388   7.4227315988e+01   9.5693593075e+00    0.2001885    0.1125698  44.47 0.0006465372    1.862    0.463
       248  -9.5767    133.9160    131.8094   9.3829861431e+01   2.9573088704e+01    0.5004627     0.441209  24.47  0.002387755    1.147    0.128
       249  -9.8989    116.9672    125.3576   9.6621762741e+01   3.3959810395e+01    0.6512833    0.4361211  84.35  0.002147496    2.461    0.594
       250 -10.0249    108.6012    114.4683   9.6463958206e+01   3.7753929155e+01     0.656769    0.4111965 -81.74  0.001484311    2.725    0.633
       251 -10.6610    131.6927    119.3373   9.1652331429e+01   3.2439122735e+01    0.9729558    0.6301382  80.71  0.002469471    3.079    0.675
       252 -11.0119    120.7850    108.7350   9.1919571492e+01   3.6699943411e+01     1.540833    0.5759119 -46.38  0.004874676    2.680    0.627
       253 -10.3345    127.3801    102.1632   8.8579877925e+01   3.6748442676e+01     1.111709    0.6267499 -20.97  0.003222385    3.272    0.694
       254 -10.5229    123.4026     91.3563   8.6727604785e+01   3.9766943910e+01    0.9900874    0.5874026 -28.96  0.002178341    2.070    0.517
       255  -7.3283     86.9546    134.0000   1.0600241978e+02   3.7065104522e+01     0.305021   0.07305745  35.91 0.0009556273    4.105    0.756
       256  -8.2337     82.6860    131.2770   1.0668175207e+02   3.8292727502e+01    0.3709253    0.1900096 -84.08  0.001382082    3.407    0.706
       257 -10.6998    133.7848    109.2991   8.8765784240e+01   3.4022246577e+01     0.846489    0.4000344 -48.78  0.002271972    2.230    0.552
