#   1 NUMBER                 Running object number                                     
#   2 MAG_AUTO               Kron-like elliptical aperture magnitude                    [mag]
#   3 X_IMAGE                Object position along x                                    [pixel]
#   4 Y_IMAGE                Object position along y                                    [pixel]
#   5 X_WORLD                Barycenter position along world x axis                     [deg]
#   6 Y_WORLD                Barycenter position along world y axis                     [deg]
#   7 A_WORLD                Profile RMS along major axis (world units)                 [deg]
#   8 B_WORLD                Profile RMS along minor axis (world units)                 [deg]
#   9 THETA_WORLD            Position angle (CCW/world-x)                               [deg]
#  10 FWHM_WORLD             FWHM assuming a gaussian core                              [deg]
#  11 ELONGATION             A_IMAGE/B_IMAGE                                           
#  12 ELLIPTICITY            1 - B_IMAGE/A_IMAGE                                       
         1  -8.4654     55.8542     10.0004   5.3155457453e+01   6.8507632264e+01    0.1928625    0.1666866 -38.45 0.0005239388    1.297    0.229
         2  -7.7064     47.6124      9.7997   5.6702057815e+01   6.9957494760e+01    0.1844632    0.1077817 -40.41 0.0005788492    1.674    0.402
         3  -8.3192     90.6313      8.7924   4.0545060656e+01   6.1458487966e+01    0.2012869    0.1179328 -32.78 0.0004653925    1.677    0.404
         4  -7.8297     28.3006      9.6529   6.6690348900e+01   7.2796257848e+01    0.1152082   0.09569958 -62.91 0.0007037944    1.685    0.407
         5  -8.9914      6.2463      8.2912   7.9969328374e+01   7.5278455325e+01    0.2047832    0.1290551  47.73  0.001165851    2.508    0.601
         6 -10.6541    245.7434      4.9694   1.8784882039e+01   2.2397527564e+01      0.56995     0.378687  63.92   0.00322133    1.691    0.409
         7  -8.5924     33.9125      5.4044   6.0859707517e+01   7.2736422447e+01    0.2315638    0.1476317 -62.64  0.001021203    3.464    0.711
         8  -8.2722     79.2117      4.0036   4.1208345450e+01   6.4552120985e+01    0.2217436    0.1345999 -43.56  0.001054794    1.926    0.481
         9 -10.0921    237.3814      2.3012   1.8597134912e+01   2.4534146374e+01     0.339451    0.1978169  53.24  0.001729768    2.001    0.500
        10  -7.9975     15.6766      3.2884   7.0587021200e+01   7.5350165669e+01    0.1035026   0.09349953 -68.62  0.000325203    1.606    0.377
        11  -7.8463     62.5082      1.4122   4.5227536716e+01   6.8336922039e+01     0.130273     0.116058  -2.41 0.0001468828    1.073    0.068
        12  -8.8731     21.9050    248.0447   1.0723782494e+02   2.3345157075e+01    0.1448662   0.09711292  59.66 0.0004595766    1.025    0.024
        13 -10.2095    248.5959    242.2483   6.9896811060e+01  -5.0089883911e+00    0.3724336    0.1639568 -27.58  0.002313339    2.502    0.600
        14  -8.9721     65.9281    249.2575   1.0021680819e+02   1.8419714404e+01    0.2404232   0.09316456  52.99  0.001199218    1.943    0.485
        15  -8.9478    232.6440    247.1103   7.2916956164e+01  -3.4050851777e+00    0.1315759    0.1135027   5.00 0.0006496718    1.432    0.302
        16  -9.9798    223.9293    243.9874   7.3808997785e+01  -2.0032931678e+00    0.3399988    0.1843363 -38.56  0.002254813    2.624    0.619
        17  -9.2718    210.9339    246.4385   7.6129199374e+01  -5.0903530192e-01    0.1504718    0.1428892 -19.41 0.0008218235    1.624    0.384
        18  -9.4498    146.5905    245.9555   8.6472849608e+01   8.4024990478e+00    0.1995094    0.1722035 -33.18  0.001390514    1.546    0.353
        19  -7.8455     76.6723    247.2976   9.8318021957e+01   1.7424938688e+01    0.1079332   0.05549797  58.57 0.0004594085    1.634    0.388
        20  -9.0658    120.0909    245.3023   9.0861127275e+01   1.2117867060e+01    0.2436833    0.1494969  69.02  0.001580617    2.090    0.522
        21  -8.6276     26.3236    250.5750   1.0663723490e+02   2.2526348886e+01    0.1878161   0.05834483  41.82  0.001145129    2.150    0.535
        22  -8.6331    139.4293    244.2144   8.7492216595e+01   9.6119331914e+00    0.1269341   0.09936614 -86.61 0.0009482048    1.816    0.449
        23  -8.5172     78.0213    243.1956   9.7812564968e+01   1.7859440161e+01    0.2411946    0.0957621  62.33  0.001237334    2.955    0.662
        24  -8.9825     46.2707    244.4138   1.0317365181e+02   2.1366229355e+01    0.1432382   0.06296376  47.83 0.0006653965    1.572    0.364
        25  -8.4141     34.7809    243.9858   1.0502527999e+02   2.2659227041e+01    0.1704037    0.0708211  64.77  0.001078175    2.012    0.503
        26 -10.3303    199.3155    241.9850   7.7378319745e+01   1.5029325349e+00    0.2689705    0.1452471  40.55  0.000353613    1.505    0.335
        27  -9.1522    194.2475    239.9794   7.7931422888e+01   2.4124229918e+00     0.237721    0.1661609 -54.17   0.00148126    2.488    0.598
        28  -8.6470    168.9138    243.1142   8.2450748273e+01   5.6201208448e+00    0.1610032    0.1194357  48.77  0.000692344    1.354    0.262
        29  -9.0977    183.0635    240.1097   7.9763024096e+01   3.9663096153e+00    0.3048427    0.1975629  60.55    0.0018724    2.478    0.596
        30  -7.9261     88.2037    242.2359   9.6016720292e+01   1.6729738934e+01    0.1366574   0.07530295 -85.83 0.0007542204    2.419    0.587
        31  -9.1764     30.4570    241.6297   1.0562568583e+02   2.3469757183e+01    0.1737202    0.1164467  59.85 0.0005400124    1.010    0.010
        32  -9.3135    241.4670    238.5737   7.0423069917e+01  -3.8024969347e+00    0.3940808    0.1801584  -3.07  0.002030849    3.387    0.705
        33  -9.2237    159.9290    239.8908   8.3572373828e+01   7.2676713761e+00     0.228548    0.1823408 -83.77  0.001130637    2.004    0.501
        34  -8.3650     37.5822    240.7970   1.0442483179e+02   2.2857085691e+01    0.1318072   0.07111958  76.38 0.0007091853    1.659    0.397
        35  -9.4918      3.5351    240.5567   1.0988529268e+02   2.6227705293e+01    0.1857982    0.1018583  61.68 0.0005409829    1.210    0.173
        36  -8.3487    146.3673    239.2308   8.5790270230e+01   9.2718320158e+00    0.1216348    0.1020051 -79.63 0.0004002611    1.658    0.397
        37  -9.0837    135.5560    238.4889   8.7557977330e+01   1.0891930094e+01    0.1748137    0.1170522  74.50 0.0009844094    2.185    0.542
        38  -8.6675    127.1726    239.0354   8.9053712853e+01   1.1989255940e+01    0.2829065    0.1172701  32.38  0.001435651    2.502    0.600
        39  -8.3614     52.8456    238.9249   1.0179012482e+02   2.1477978073e+01    0.2173345   0.07828487  54.57  0.001243865    2.136    0.532
        40  -9.2840     19.5639    238.2710   1.0726092916e+02   2.5084931796e+01    0.1804579    0.1202918  59.83 0.0003392264    1.023    0.023
        41  -7.7212    209.2987    238.6207   7.5353661912e+01   4.6816767009e-01   0.09244619   0.07905086  54.27 0.0007023652    1.762    0.432
        42  -8.0801     84.4860    238.5347   9.6372611860e+01   1.7745648570e+01    0.1068845   0.07805663  53.52 0.0001183894    1.007    0.007
        43  -9.1325    230.8278    236.7817   7.1766038492e+01  -2.2598892027e+00    0.2099638    0.1762917 -46.58  0.001172224    2.188    0.543
        44  -8.4421    217.3137    235.6744   7.3693456111e+01  -3.3993742212e-01    0.1775912    0.1187447  37.72 0.0008146346    1.348    0.258
        45  -9.3394    213.6778    231.6161   7.3699073515e+01   5.6217173725e-01    0.2617698    0.2160808  70.44  0.001332046    2.395    0.582
        46  -9.7082    175.7487    233.0541   8.0088559633e+01   5.8127096695e+00    0.3486072    0.1962644 -54.42  0.002056918    2.925    0.658
        47  -9.1476    247.5930    234.2881   6.8900987000e+01  -4.2193390686e+00    0.1793276    0.1249524   3.71 0.0008175742    1.195    0.163
        48  -9.5640    246.4128    229.0426   6.8300801127e+01  -3.6132185427e+00    0.2947532    0.1628249 -28.51  0.001502939    2.035    0.509
        49  -8.7398    203.0246    234.5182   7.5798840251e+01   1.7548884693e+00    0.1610124    0.1506259 -40.86 0.0008005408    1.635    0.388
        50  -7.6738     44.6571    236.2656   1.0302458288e+02   2.2805365252e+01    0.1083292   0.05106412  57.73 0.0002278927    1.602    0.376
        51  -9.2770    108.7595    234.2922   9.1795726225e+01   1.5184932182e+01    0.3019105    0.1602665  57.16  0.001237596    1.812    0.448
        52  -8.3831     92.2339    231.2421   9.4437720836e+01   1.7848378160e+01    0.2371368     0.112529  64.58  0.001045973    2.570    0.611
        53  -8.4916     78.7481    234.2586   9.7045951035e+01   1.9114997059e+01    0.2235288    0.1202871  82.89  0.001357981    2.334    0.572
        54  -7.9898    122.9816    233.9671   8.9273038941e+01   1.3269691704e+01    0.1728018    0.1082411  62.44  0.000821406    1.751    0.429
        55  -8.1729     99.8435    234.0547   9.3338154166e+01   1.6419341508e+01    0.1759029   0.09994661  69.13  0.001065561    2.089    0.521
        56  -8.7792     68.3339    231.9714   9.8699651241e+01   2.0753705082e+01    0.3459897    0.1338136  64.44  0.001680244    3.192    0.687
        57  -8.1055    194.4072    232.3201   7.6899494843e+01   3.2096109481e+00    0.1166302    0.1047155 -35.09 0.0005618013    1.542    0.351
        58  -9.4047    186.4027    230.2159   7.7939325873e+01   4.5971479399e+00    0.2457871    0.1922076 -79.41  0.001553321    2.603    0.616
        59  -8.2180    132.6599    232.3514   8.7411410744e+01   1.2127659659e+01    0.1660298    0.1070826  60.27  0.000752478    1.681    0.405
        60  -9.1576    236.0499    230.5743   7.0081079841e+01  -2.3869894259e+00    0.1959607    0.1546405 -19.72 0.0009549707    1.527    0.345
        61  -8.0963    157.6863    231.6954   8.2990617176e+01   8.6029342669e+00    0.1079708   0.07500983  17.78 0.0003239068    1.619    0.382
        62  -8.2181      1.5924    230.7422   1.0992953252e+02   2.7964551460e+01    0.1329227   0.06272705  75.08 0.0003581978    1.645    0.392
        63  -8.9039    151.4833    228.9725   8.3739315667e+01   9.8600873285e+00    0.2450996    0.1680922  69.15  0.001232147    2.126    0.530
        64  -9.6405    148.7858    224.2993   8.3652194321e+01   1.0881889782e+01    0.2944478    0.2692333  77.46  0.001774845    1.349    0.259
        65  -8.9522    140.1028    229.6665   8.5811280780e+01   1.1425392033e+01    0.2099044    0.1484787  65.97 0.0009609627    1.715    0.417
        66  -8.9524     33.0261    230.0094   1.0468296406e+02   2.5054643829e+01    0.1937356    0.1094464  43.29 0.0006447022    1.447    0.309
        67  -8.1386    229.6038    228.7579   7.0800052103e+01  -1.3506843117e+00    0.1243699   0.09495967 -26.66 0.0008605779    1.634    0.388
        68  -8.8059    162.0038    227.7008   8.1757198598e+01   8.4774843328e+00     0.197543    0.1673384  61.59 0.0009292046    1.425    0.298
        69  -8.8643    128.0058    226.9815   8.7656189797e+01   1.3546493140e+01    0.2318937    0.1621037  74.41  0.001242549    1.843    0.457
        70  -8.2278     63.0835    228.3656   9.9375901772e+01   2.1960201751e+01    0.1489004   0.09981943  52.95 0.0004208026    1.111    0.100
        71  -9.4017     48.6187    227.2140   1.0184535092e+02   2.3823829077e+01    0.2280328     0.182444  81.40  0.001439026    1.245    0.196
        72  -7.8765    223.3593    227.1332   7.1531908194e+01  -3.3646525801e-01    0.1260288   0.09558349 -31.65 0.0004052778    1.718    0.418
        73  -8.4958    119.5839    227.6451   8.9230307122e+01   1.4651528345e+01    0.2020831   0.08366571  40.60  0.001025066    1.888    0.470
        74  -8.6797      6.4483    226.0781   1.0899763710e+02   2.8294969930e+01    0.2154384   0.08328309  59.78  0.001086303    1.810    0.447
        75  -9.0571    205.9538    225.7030   7.4100641227e+01   2.2695709834e+00    0.1740601    0.1469749 -50.70 0.0007545879    1.892    0.471
        76  -8.8116    216.3673    222.9809   7.2027778255e+01   1.0658711364e+00    0.1810471    0.1636724 -36.31 0.0008162566    1.663    0.399
        77  -8.6973    180.5591    224.0229   7.8092207988e+01   6.1817901477e+00    0.1819123    0.1290009  43.33 0.0005859853    1.285    0.222
        78  -8.6947    104.8794    223.6111   9.1478018714e+01   1.7315625471e+01    0.2091397    0.1333097  82.26  0.001299403    2.027    0.507
        79  -8.6026     93.8849    223.7980   9.3493925550e+01   1.8784137901e+01    0.2047219    0.1167919  71.95 0.0009630512    2.098    0.523
        80 -10.7746     41.3623    220.8587   1.0276228951e+02   2.5688476990e+01    0.4821225    0.3185656  40.91  0.003548597    1.425    0.298
        81 -10.7814     34.0592    212.4476   1.0361319250e+02   2.7926575381e+01    0.6259588    0.2020311  61.44  0.003055492    2.910    0.656
        82  -8.5174    173.0562    223.0246   7.9243963295e+01   7.4238802079e+00    0.1630971    0.1284375  64.51 0.0008160377    1.728    0.421
        83  -9.2929    239.1619    220.6817   6.8123012407e+01  -1.8852982849e+00    0.3225089    0.1673961 -12.30  0.001950909    2.124    0.529
        84  -9.4079    225.1305    221.4196   7.0406165386e+01  -1.5092380315e-02    0.1769064     0.144307 -15.61 0.0005063185    1.396    0.284
        85  -8.9808    159.0050    220.0997   8.1316303986e+01   9.9171173531e+00    0.2186556    0.1511918  62.38  0.001070175    1.870    0.465
        86  -7.7966    140.4916    222.4862   8.4913054075e+01   1.2362388317e+01    0.1156138   0.08968213  48.02 4.337899e-05    1.116    0.104
        87  -8.5637     55.1961    221.2119   1.0030717164e+02   2.4068484315e+01    0.1497882    0.1190049  55.63 0.0006483207    1.149    0.130
        88  -8.1272     19.2595    221.1409   1.0665153462e+02   2.7920623189e+01    0.1702739   0.07276451  66.30  0.001059631    1.873    0.466
        89  -7.9830    200.1234    226.1131   7.5110346506e+01   3.0665236981e+00     0.137033    0.1176074  37.18 0.0004470048    1.325    0.245
        90  -9.3096    133.1776    216.7689   8.5562307557e+01   1.4276499784e+01    0.4870646    0.2929229 -86.03  0.002412352    3.453    0.710
        91  -9.1370    120.3805    219.0509   8.8173167805e+01   1.5817744538e+01    0.3329581    0.1742208  61.65   0.00174224    2.413    0.586
        92  -8.4548     82.6527    220.3058   9.5240832580e+01   2.0829894110e+01    0.1838618   0.09908201  62.57  0.001095624    1.794    0.443
        93  -9.1157    192.2752    221.0208   7.5693791128e+01   4.7946280785e+00    0.2045876    0.1866449 -79.47 0.0007478272    1.763    0.433
        94  -8.1162    210.3499    219.1084   7.2424392879e+01   2.3446761909e+00    0.1298992     0.100779 -36.96 0.0004460989    1.710    0.415
        95  -7.8821      1.5126    219.4906   1.0962254209e+02   2.9841305605e+01    0.1005081   0.06733396  65.10 0.0001279529    1.001    0.001
        96  -8.9159    248.4146    217.6226   6.6252228175e+01  -2.8491972992e+00    0.2439192    0.1689179  55.30  0.001509435    2.771    0.639
        97  -8.7404    143.1408    216.7031   8.3733615824e+01   1.2788794017e+01     0.235034    0.1734644  85.90    0.0013448    2.012    0.503
        98  -9.1178     51.2977    217.1780   1.0075128197e+02   2.5204048290e+01    0.2574066    0.1284965  75.00  0.001064798    2.028    0.507
        99  -8.4386     61.8225    217.0020   9.8811825281e+01   2.3995717358e+01    0.1864825   0.09300287  69.08  0.001074939    2.039    0.510
       100  -8.6036    168.9919    215.7196   7.8965535338e+01   8.9764778212e+00    0.1933315    0.1552131 -76.40  0.001206375    1.973    0.493
       101  -8.8479    232.4823    214.8012   6.8237429338e+01  -3.8604987209e-01    0.1825126    0.1668174  33.55  0.001108744    1.574    0.365
       102  -8.0979    154.5722    214.8433   8.1423466848e+01   1.1310101938e+01    0.1380852    0.1121747 -72.17 0.0009376345    1.714    0.417
       103  -7.8419     87.5310    215.5064   9.3915725750e+01   2.0977031348e+01    0.1157064    0.0863563  58.19 9.375587e-05    1.079    0.073
       104  -8.0275     13.0798    215.5531   1.0750313745e+02   2.9469571838e+01     0.142412   0.07772929  43.10 0.0005419801    1.532    0.347
       105  -8.3961    162.9715    222.4770   8.0925218964e+01   9.0059642037e+00    0.1694708   0.08913805  46.58 0.0009695446    1.673    0.402
       106  -8.8905     93.2172    213.9093   9.2699596001e+01   2.0472972055e+01    0.2898193    0.1265802  57.17  0.001451838    2.374    0.579
       107  -9.6336     72.5908    211.8071   9.6402436226e+01   2.3553165358e+01    0.6244208    0.1953942  52.11  0.002844084    2.840    0.648
       108  -9.4121    213.8901    211.9645   7.0760259469e+01   2.6070329469e+00    0.2840385    0.2000549  50.12  0.001724681    1.787    0.440
       109  -8.7856    160.8221    211.9215   7.9903224819e+01   1.0750694764e+01    0.3244188    0.1412778  49.99  0.001559769    2.381    0.580
       110  -8.8482    204.3392    210.6162   7.2130267480e+01   4.1933256971e+00    0.1858885    0.1698566 -26.14 0.0007688768    1.430    0.301
       111  -9.3133    175.3579    209.6522   7.6981988263e+01   8.7897199925e+00    0.2799081    0.2100367  78.82  0.001279472    2.391    0.582
       112  -8.9839    147.6175    210.2821   8.2091869780e+01   1.3033907829e+01     0.229456     0.204453 -82.37  0.000869773    1.417    0.294
       113  -8.8927    116.3646    210.2334   8.7937556884e+01   1.7781519970e+01    0.2471936    0.1491512  66.58 0.0007254863    2.016    0.504
       114  -8.6394    100.1015    210.8011   9.1088129701e+01   2.0032982375e+01    0.2550584    0.1314399  53.35 0.0009376799    1.719    0.418
       115  -9.2838     99.3101    205.9471   9.0733478304e+01   2.0959823373e+01    0.3133923    0.1784034  75.90  0.001076095    2.419    0.587
       116  -8.4062    192.0764    210.0458   7.4121685018e+01   6.1386507471e+00    0.1631728    0.1398411  68.35 0.0008239519    1.743    0.426
       117  -9.2729    236.5476    208.1486   6.6542337274e+01  -2.9099137324e-01    0.2177815    0.2102561 -60.39  0.001096936    1.877    0.467
       118  -8.0992     85.3882    209.1568   9.3734851521e+01   2.2335822965e+01    0.1550738    0.0965763  89.22 0.0009407843    1.854    0.461
       119  -8.1635     46.3622    209.1933   1.0114599308e+02   2.7161571754e+01    0.1510181   0.08282229  84.04  0.000941441    1.768    0.434
       120  -9.7888    246.3812    207.0723   6.4859824915e+01  -1.5702118014e+00    0.2473778    0.1692724 -12.20 0.0007091491    1.353    0.261
       121  -9.4802    250.0867    202.0381   6.3463210386e+01  -1.5939878489e+00    0.2943408    0.1564163 -20.15  0.001251079    1.811    0.448
       122  -8.8661    138.3507    208.2016   8.3543644713e+01   1.4777806372e+01    0.2763234    0.1488571  35.77  0.001018212    1.652    0.395
       123  -8.7268    126.6549    208.1517   8.5741885609e+01   1.6574821750e+01    0.1734408    0.1380386  79.46  0.001162162    1.467    0.318
       124  -9.0607     25.8568    207.4455   1.0485374241e+02   2.9662326470e+01      0.28397    0.1250334  85.74  0.001395805    2.164    0.538
       125  -7.8801    156.3431    207.6658   8.0132587324e+01   1.2050154275e+01    0.1180624   0.08547787  64.55 0.0007050449    1.760    0.432
       126  -8.7182     80.1149    206.0990   9.4465544035e+01   2.3569662523e+01    0.1817709    0.1335569  58.41 0.0009192732    1.096    0.088
       127  -9.1436     56.4245    204.9847   9.8943685837e+01   2.6750066083e+01    0.2532326    0.1318379  70.64  0.001203794    1.894    0.472
       128  -9.1582     13.0512    204.0763   1.0704846791e+02   3.1509577463e+01    0.2186272    0.1445863 -79.56  0.001345596    1.508    0.337
       129  -9.3394    194.9233    203.3447   7.2598735587e+01   6.5266615065e+00    0.2429651    0.2261194 -35.91   0.00109763    1.417    0.295
       130  -9.2294    192.6283    197.2843   7.2030670658e+01   7.6663423479e+00    0.3171646    0.2613176 -81.56  0.001803127    2.162    0.537
       131  -8.9590    183.6543    203.7448   7.4631093664e+01   8.2590787146e+00    0.2474503    0.1847237  55.09    0.0011251    1.612    0.380
       132  -9.5034    163.8900    202.9210   7.8071258397e+01   1.1530711189e+01    0.3992303    0.2124824  55.06 0.0009903234    2.319    0.569
       133  -8.5894    131.2730    204.0783   8.4353773723e+01   1.6511717086e+01    0.2340121    0.1319568  59.51  0.001224383    2.091    0.522
       134  -9.1008     48.8019    202.6445   1.0024052693e+02   2.8066392277e+01     0.227232    0.1066969  72.38  0.001232147    2.212    0.548
       135  -9.3372    243.0631    200.7148   6.4305115565e+01  -4.6615085621e-01    0.2537136    0.1456512 -26.91  0.001016028    1.778    0.438
       136  -8.2588    211.0134    201.9471   6.9641847409e+01   4.1849696754e+00     0.158142    0.1458765  74.31 0.0009500263    1.745    0.427
       137  -8.7141    140.3597    200.8377   8.2188419970e+01   1.5599629900e+01    0.2648562     0.183092  78.78  0.001117955    2.196    0.545
       138  -7.9358    221.6339    200.8697   6.7715492381e+01   2.6829576234e+00    0.1435702     0.102505 -34.93 0.0009053452    1.705    0.414
       139  -8.4605     79.7194    200.7657   9.4042743795e+01   2.4568861391e+01    0.2228744    0.1192244  79.27  0.001153877    2.409    0.585
       140 -10.3358     61.4228    197.4471   9.7371320272e+01   2.7524897211e+01    0.5502782    0.2751937 -84.29  0.002332322    2.202    0.546
       141  -9.2220    149.6252    198.5039   8.0096426803e+01   1.4479600570e+01    0.3316656    0.2293823  85.29  0.001340963    2.550    0.608
       142  -8.7920    123.8924    199.0181   8.5132097389e+01   1.8473460706e+01    0.2242009    0.1599694  85.37 0.0008479186    1.849    0.459
       143  -9.2544    112.8967    198.5956   8.7240546227e+01   2.0224058898e+01    0.3888552    0.2133577  63.89  0.001963514    2.284    0.562
       144  -9.1811    237.0771    198.4325   6.4844397737e+01   6.4096032484e-01    0.2192899    0.1423989 -31.60 0.0009045129    1.747    0.427
       145  -9.1953     88.5304    198.0818   9.2025297241e+01   2.3850513268e+01    0.3646088    0.1904488  76.03  0.001747357    2.787    0.641
       146  -8.1818    202.3213    197.6543   7.0409354867e+01   6.0665352115e+00    0.1566998     0.139192  70.32 0.0007277085    1.719    0.418
       147  -8.2255    176.8375    198.6042   7.5057312669e+01   1.0047171766e+01    0.1668894   0.09945952  47.47 0.0004603855    1.613    0.380
       148 -10.1628     53.6938    197.0045   9.8868902065e+01   2.8540037963e+01    0.2487184    0.1939857  69.37  0.001809367    1.035    0.034
       149 -10.0589    245.9603    193.7119   6.2660436296e+01  -1.6356436076e-01    0.3553379    0.2360929 -50.29  0.001958254    3.138    0.681
       150  -8.9168    185.1992    194.7404   7.2936524091e+01   9.2123708888e+00    0.1918791    0.1783269  69.65 0.0006835908    1.443    0.307
       151  -7.7451    133.2615    195.6591   8.2853546181e+01   1.7556187111e+01    0.1176121   0.08801851  71.53 0.0003171899    1.590    0.371
       152  -8.0643    231.0032    194.0309   6.5048350087e+01   2.0258576666e+00    0.1424662    0.1117616   9.24 0.0004397585    1.038    0.037
       153  -8.7876    224.4353    193.5497   6.6022460043e+01   3.0856465084e+00    0.2393978      0.10402 -36.64  0.001209153    2.595    0.615
       154  -8.7397    161.0397    194.1539   7.7290458517e+01   1.3276895734e+01    0.2258508    0.1542217  55.99  0.001076219    1.626    0.385
       155  -8.6528     77.1048    193.8363   9.3893079090e+01   2.6184207732e+01    0.2050272    0.1549402  63.20 0.0006125646    1.104    0.095
       156  -9.2104     43.7531    193.1990   1.0056145130e+02   3.0402887751e+01    0.3702248    0.1443898  63.06  0.001796343    2.599    0.615
       157  -8.6218      6.4902    194.0429   1.0785617534e+02   3.3955183798e+01    0.1563544    0.1095854  58.93  0.000514052    1.138    0.121
       158  -7.7609    155.3124    193.3187   7.8249823412e+01   1.4348376542e+01    0.1220074   0.09051526  11.02 0.0004798896    1.646    0.393
       159  -8.3737    198.8801    191.6073   6.9996864546e+01   7.3897128524e+00    0.1723553    0.1421234 -30.59 0.0004412568    1.390    0.281
       160  -8.2868    172.5006    191.5763   7.4742430663e+01   1.1756412443e+01    0.1827823    0.1192589 -55.00 0.0005795831    2.121    0.529
       161  -8.0364    118.1279    192.1218   8.5382356081e+01   2.0537244923e+01    0.1742055    0.1267213  60.37 0.0005810123    1.335    0.251
       162 -10.4673     92.3110    188.8316   9.0244385247e+01   2.5005370012e+01    0.7939718    0.2429205  50.32  0.003106314    3.247    0.692
       163  -8.6917    215.8580    195.4872   6.7762685059e+01   4.1934269694e+00    0.2014484    0.1508073 -46.19 0.0007877807    1.935    0.483
       164  -7.8462    205.4408    191.5113   6.8845443019e+01   6.3360667409e+00    0.1207438    0.1001906  19.37 7.337466e-05    1.031    0.030
       165  -8.0279    179.1865    191.2570   7.3459116717e+01   1.0688407368e+01    0.1555032    0.1402721  59.44 0.0006093802    1.359    0.264
       166  -9.0124    139.5094    190.3415   8.0874172033e+01   1.7420622117e+01    0.2860037    0.2044106  73.74  0.001166778    1.874    0.466
       167  -7.7851     17.5554    191.5283   1.0562408050e+02   3.3424757950e+01    0.1112109   0.07734574  68.44 0.0001068344    1.056    0.053
       168  -9.3174    156.0282    187.4053   7.7200116579e+01   1.5149391041e+01     0.283046    0.2046507 -60.70 0.0008281752    1.806    0.446
       169  -8.1753    148.4774    189.0456   7.8921367749e+01   1.6151867562e+01    0.1627859    0.1252825 -52.41 0.0007651668    1.528    0.345
       170  -8.8431    129.2463    188.5117   8.2654970980e+01   1.9396373825e+01    0.2524427    0.1789712  72.62 0.0008831549    1.757    0.431
       171  -9.5539    120.8032    186.2227   8.4046459623e+01   2.1149116704e+01    0.4291974    0.2483278 -80.04  0.001983543    2.936    0.659
       172  -8.2910    237.4462    188.1478   6.2997120991e+01   1.6993253882e+00    0.1635126     0.102539 -20.79 0.0006721751    1.535    0.348
       173  -8.7512    216.6002    187.7684   6.6306711124e+01   5.0024569257e+00    0.1905452    0.1815963 -71.46 0.0007444402    1.651    0.394
       174  -8.7919    191.4739    187.1709   7.0551472305e+01   9.2047684323e+00    0.2474975    0.2019275 -70.18  0.001248448    2.001    0.500
       175  -9.3412     54.7104    186.8245   9.7837353567e+01   3.0362280961e+01    0.3525229    0.1645531  67.08  0.001518006    2.271    0.560
       176  -8.5740     50.1547    188.1986   9.8888631341e+01   3.0633441545e+01    0.1676365    0.1039176  61.64 0.0004453623    1.343    0.256
       177  -8.5183     34.3731    187.8935   1.0207900350e+02   3.2445402068e+01    0.2443196    0.1116119  71.33  0.001314772    2.111    0.526
       178  -9.4989    249.2237    185.5102   6.0709529240e+01   2.1831327426e-01    0.2592614     0.176806  -1.49  0.001066386    1.264    0.209
       179  -8.2082    230.7676    186.9808   6.3848196664e+01   2.8573178507e+00    0.1650285    0.1361752 -49.38  0.001072658    1.925    0.481
       180  -8.4320    165.0197    186.9377   7.5400133567e+01   1.3703570616e+01    0.1839224     0.147929  72.19  0.000660309    1.666    0.400
       181  -9.2013    109.7121    186.0993   8.6310366849e+01   2.2911325976e+01    0.3423478    0.2029287  70.09  0.001172733    2.230    0.552
       182  -8.2265     29.0035    186.9908   1.0310440465e+02   3.3178039548e+01    0.1823054   0.09426778  61.92 0.0005342488    1.587    0.370
       183  -8.9256    202.8146    184.5426   6.8091058667e+01   7.6639355355e+00     0.208266    0.1612536 -51.28 0.0007975212    1.839    0.456
       184  -8.5058    183.2138    184.8254   7.1647019512e+01   1.0925659597e+01    0.2085452    0.1867643  75.92 0.0009834238    1.532    0.347
       185  -9.1217     66.7148    184.4395   9.5116398275e+01   2.9337359133e+01    0.3190079    0.1530159  63.33 0.0009710892    2.212    0.548
       186  -8.9208    210.0885    183.9604   6.6732368105e+01   6.5351932619e+00    0.1985964    0.1595357 -15.25 0.0005674901    1.245    0.197
       187  -9.0751    174.3134    183.5726   7.3085912363e+01   1.2627665034e+01    0.2325938    0.1964011  78.33 0.0007588327    1.662    0.398
       188  -8.5587    224.1448    182.8484   6.4178765500e+01   4.3875777771e+00    0.1963401      0.14887 -29.48 0.0008078009    1.456    0.313
       189  -9.0779     44.4576    182.1947   9.9591330720e+01   3.2466746239e+01    0.3134137     0.142338  66.91 0.0009596074    2.230    0.552
       190  -7.8220      1.9851    183.4796   1.0830040248e+02   3.6358184443e+01    0.1580285   0.04571398  52.20 0.0008093138    2.463    0.594
       191  -7.9382    235.3107    181.3100   6.2098414869e+01   2.7990664834e+00    0.1249645   0.07718217  11.03 0.0002914774    1.624    0.384
       192  -9.0372    147.5878    180.3005   7.7730952494e+01   1.7734483690e+01     0.293945    0.2112823  80.99   0.00104854    2.121    0.528
       193  -8.1896     60.7377    181.6279   9.6109164843e+01   3.0647150271e+01    0.1671154   0.08895089  48.47 0.0005888008    1.597    0.374
       194  -9.6473     25.7730    178.9867   1.0326349635e+02   3.5086267572e+01    0.5394277    0.1768499  73.89   0.00208631    4.194    0.762
       195  -8.6112    137.7850    179.1491   7.9530019122e+01   1.9598045644e+01    0.2538109    0.1776998  73.91  0.001238035    1.951    0.487
       196  -9.4026    191.5475    178.2663   6.8976705298e+01   1.0431113883e+01    0.2557739    0.2259544  61.87 0.0008771449    1.466    0.318
       197  -9.1355     35.9729    176.5403   1.0094835401e+02   3.4533512495e+01    0.4981015    0.1683361  78.42  0.001643143    5.604    0.822
       198  -8.7836    250.5720    172.6495   5.8122963131e+01   1.4086698328e+00    0.2039957    0.1297038 -25.31 0.0006089826    1.494    0.331
       199  -9.5885    248.8375    177.1228   5.9227581686e+01   1.1807218289e+00    0.2963105    0.2116554 -28.75  0.001029274    1.510    0.338
       200  -8.8723    204.9247    177.3556   6.6429929341e+01   8.2624102261e+00    0.1953865    0.1695309 -31.23  0.000685077    1.341    0.255
       201  -8.1116    169.3879    178.2215   7.3106695906e+01   1.4294411352e+01    0.1627944    0.1216093 -55.55 0.0005590299    1.707    0.414
       202  -8.6315    129.3018    177.2726   8.0988022522e+01   2.1355450818e+01    0.2488106    0.1690966  74.82 0.0008027319    2.008    0.502
       203  -8.5950    231.1826    176.7297   6.1909293078e+01   3.9892952352e+00    0.2031906    0.1460359 -30.21 0.0007949403    1.496    0.331
       204  -8.5584    217.6811    177.1153   6.4200290304e+01   6.1488980905e+00    0.1760934    0.1524047 -35.79 0.0007985086    1.455    0.313
       205  -9.0990    183.1066    175.7500   7.0075260247e+01   1.2265733618e+01    0.2776003    0.2040691 -51.15 0.0008867194    1.739    0.425
       206  -8.1875     97.7597    177.3530   8.7689016454e+01   2.6376232041e+01    0.1732295       0.1105  32.60 0.0006739382    1.688    0.408
       207  -8.8144     89.1045    176.7074   8.9476292798e+01   2.7785538112e+01    0.2587599    0.1627705  74.26 0.0007837442    1.805    0.446
       208  -9.9753     57.5897    173.2479   9.5982961880e+01   3.2727001609e+01    0.7673942    0.3106658  76.53   0.00265028    4.863    0.794
       209  -8.0976    211.5253    176.4436   6.5119905109e+01   7.2651282215e+00    0.1258395    0.1044344  15.08 6.105893e-05    1.006    0.006
       210  -9.1888    158.8058    174.8946   7.4597100534e+01   1.6682294651e+01     0.290693    0.2121291  78.40  0.001020689    2.138    0.532
       211  -8.4373     12.7631    176.1786   1.0579690561e+02   3.6874081107e+01    0.2063918    0.0662062  62.25 0.0009570598    2.828    0.646
       212  -9.3065    103.8419    174.1937   8.5950637743e+01   2.6053019547e+01    0.3853689    0.2119195  66.27  0.001646586    2.404    0.584
       213 -10.7925     75.8939    170.1015   9.1582245209e+01   3.0983987466e+01     1.060401    0.4018504 -78.51   0.00364405    4.688    0.787
       214 -10.1081     81.8968    155.6286   8.8329010711e+01   3.3160367807e+01    0.5749933    0.4565419  77.05  0.003194087    1.185    0.156
       215  -8.3808    224.3483    174.1756   6.2541444968e+01   5.4132128171e+00    0.1615608    0.1061592 -35.09 0.0004759021    1.676    0.403
       216  -9.4132    175.7846    171.9467   7.0768792334e+01   1.4138930816e+01    0.3238361    0.2015308 -43.79  0.001057326    1.811    0.448
       217  -8.3609    143.1193    172.4731   7.7356482973e+01   1.9844687589e+01     0.219871     0.154054 -79.61 0.0007200541    2.166    0.538
       218  -8.7020    134.6584    171.5085   7.8956395033e+01   2.1482912881e+01    0.2292752    0.1675527 -57.98 0.0008034128    1.544    0.353
       219  -8.9732     45.1899    170.8661   9.8491107649e+01   3.4685625443e+01    0.3472941    0.1552294  76.71  0.001596055    2.685    0.628
       220  -9.4528    121.3502    170.2644   8.1586637237e+01   2.3972619100e+01    0.3135847    0.2233081  86.12 0.0009199979    1.838    0.456
       221  -8.5676    237.2392    169.3237   5.9537616807e+01   3.8936697587e+00    0.2021362    0.1549533 -17.26 0.0007532195    1.229    0.186
       222  -9.0111    230.5566    169.8405   6.0702796269e+01   4.9233294894e+00    0.2140632     0.189592  20.70 0.0007400051    1.224    0.183
       223  -8.6752    205.8579    169.6561   6.4825132609e+01   9.1455653809e+00    0.2316511    0.1611994 -47.00 0.0008005771    1.871    0.465
       224  -8.5209    198.6649    170.0924   6.6183723495e+01   1.0346517419e+01    0.1840205    0.1605793 -50.64 0.0008839435    1.500    0.334
       225  -8.3275    111.9742    170.5410   8.3658690669e+01   2.5464203343e+01     0.254939    0.1630923  30.39 0.0008294915    1.759    0.431
       226  -8.8828    111.6427    167.1248   8.3216203481e+01   2.6179711715e+01    0.2780927    0.1763995  71.89  0.001363521    2.047    0.512
       227  -9.0178     39.2120    170.2063   9.9751170789e+01   3.5486576009e+01    0.3448587    0.0790431  44.99  0.001421381    3.252    0.693
       228  -8.1979    240.3908    179.7951   6.1021542830e+01   2.1805080863e+00    0.1626247   0.09780046 -12.86 0.0005974967    1.609    0.379
       229  -9.1617    244.3912    169.2427   5.8409481362e+01   2.7573627236e+00    0.1714524     0.155028  56.06 0.0006167769    1.687    0.407
       230  -9.1051    167.0513    168.4339   7.1822674951e+01   1.6266545667e+01    0.2638525    0.2052366  67.92 0.0006033561    1.670    0.401
       231  -8.3502    149.8477    169.1949   7.5414929447e+01   1.9229328894e+01    0.1970626     0.168823  69.70 0.0007296209    1.325    0.245
       232  -8.3439    218.8686    168.1947   6.2309655751e+01   7.0931083448e+00     0.175133    0.1640777   6.78 0.0005426307    1.248    0.199
       233  -8.2888    211.5504    167.8073   6.3480150566e+01   8.4054030191e+00    0.1686772    0.1160551 -40.92 0.0009463753    1.708    0.415
       234  -8.0999     88.4205    168.2680   8.8547855644e+01   2.9569624074e+01    0.1702394    0.1142963 -82.87 0.0007127202    1.616    0.381
       235  -9.0041    191.8854    166.3817   6.6707113269e+01   1.2091310828e+01     0.274544    0.1808215 -41.18 0.0008052574    1.694    0.410
       236  -9.0086    185.1103    166.5881   6.8005057081e+01   1.3284434321e+01     0.209104    0.1761577 -43.82 0.0006325101    1.382    0.277
       237  -9.9281    136.9866    164.3165   7.7254646127e+01   2.2385857399e+01     0.613692    0.2762873  57.78  0.002250025    3.356    0.702
       238  -9.4292     99.7159    156.0757   8.4207794990e+01   3.0335872518e+01    0.5171447    0.2046521  52.66  0.001996933    2.855    0.650
       239  -9.1982     19.7155    165.3326   1.0368022038e+02   3.8468345266e+01    0.4600998    0.1263231  57.32  0.001890959    3.517    0.716
       240  -8.2965    234.0139    164.9813   5.9202350171e+01   4.9470724780e+00    0.1689507    0.1489588 -45.00 0.0004919738    1.606    0.377
       241  -8.8496     63.8333    164.4022   9.3651575150e+01   3.3779432355e+01     0.226473    0.1591745  89.75 0.0005496022    1.341    0.254
       242  -8.8079     60.3415    160.1149   9.3974808578e+01   3.5137595552e+01     0.293859    0.1581955  69.88  0.001454249    2.045    0.511
       243  -8.8951    239.8229    163.5384   5.8002264207e+01   4.1642341595e+00     0.224743    0.1868362 -55.64  0.001390059    1.961    0.490
       244  -8.8542    212.9204    163.4886   6.2399975926e+01   8.7496039523e+00    0.2287842    0.1749864 -31.49 0.0004941038    1.381    0.276
       245  -8.6604    159.4056    164.0466   7.2543377175e+01   1.8387623306e+01    0.2280833    0.1814956  67.98 0.0007957526    1.542    0.352
       246  -9.3662     33.5556    163.1326   1.0043313382e+02   3.7574315152e+01    0.4521274    0.1378902  53.13  0.001933981    3.037    0.671
       247  -9.3627    246.1087    162.7571   5.6879631604e+01   3.2360634350e+00    0.1947818    0.1500949 -24.36  0.000583186    1.320    0.242
       248  -8.4197    204.9966    162.5230   6.3590001458e+01   1.0290865859e+01    0.1912144    0.1624817 -16.89 0.0003959137    1.168    0.144
       249  -9.0305    177.3618    160.4736   6.8304793901e+01   1.5661748887e+01    0.2491231    0.2236632 -73.40 0.0007619247    1.449    0.310
       250  -8.7947    151.7986    160.9011   7.3522294886e+01   2.0327995359e+01    0.2341622     0.186883 -76.01 0.0007990808    1.640    0.390
       251  -8.4158    242.3011    159.6911   5.6852062471e+01   4.2192253470e+00    0.1331018    0.1025429   5.42 0.0002772273    1.094    0.086
       252 -10.2022    242.8444    154.8208   5.5782677014e+01   4.7180220169e+00    0.2181504    0.2090758 -66.78 0.0005106743    1.611    0.379
       253  -9.8109    250.2339    157.6145   5.5231572539e+01   3.1721163708e+00    0.3072058    0.1640394 -28.05 0.0009116328    1.718    0.418
       254  -9.2352    246.6610    155.2376   5.5286853688e+01   4.0350045774e+00    0.2069403    0.1296525   9.56 0.0005467819    1.643    0.391
       255  -8.7600    236.9752    158.9410   5.7530543424e+01   5.1958704962e+00    0.1748172    0.1532785 -49.66 0.0006661298    1.663    0.399
       256  -8.6192    227.4463    158.8180   5.9032092337e+01   6.8338824044e+00     0.223537    0.1600508 -43.28  0.001276247    1.766    0.434
       257  -9.7529    167.5021    157.9026   6.9745423109e+01   1.7926962363e+01    0.3448769     0.278978 -51.68  0.001974489    1.423    0.297
       258 -10.2703     94.9866    162.3212   8.6239195038e+01   2.9791148573e+01    0.7909207    0.4325458  83.05  0.003119069    3.204    0.688
       259  -9.6943    106.0464    157.9410   8.3040494834e+01   2.8926643779e+01     0.478153    0.2730997  66.47  0.001445369    2.338    0.572
       260  -8.6255    196.4670    157.7161   6.4161347878e+01   1.2540935487e+01    0.2296006    0.1242911 -40.26  0.000824147    1.986    0.496
       261  -8.6913    217.9880    156.4492   6.0120793724e+01   8.8071046085e+00    0.2392022     0.167425 -42.42 0.0008072089    1.706    0.414
       262  -8.3499    188.3270    157.2558   6.5575592404e+01   1.4123675825e+01    0.1823034     0.119462 -43.37  0.000628058    1.704    0.413
       263  -8.4703     42.3358    157.4063   9.7904379254e+01   3.7862083895e+01    0.1628538   0.09586055  49.66 0.0007407992    1.535    0.348
       264  -8.5629    157.7074    155.8871   7.1346615509e+01   2.0114521903e+01    0.2408669    0.1866413 -65.41 0.0008508876    1.640    0.390
       265  -9.1365    119.3591    154.7875   7.9475844259e+01   2.7313076143e+01    0.3452107    0.2269994 -85.44  0.001161553    2.227    0.551
       266  -9.4090     49.7783    155.0034   9.5902669148e+01   3.7534960231e+01    0.4156836    0.1846972  64.63  0.001685587    2.627    0.619
       267  -9.1518      3.3203    162.1679   1.0707932928e+02   4.0540939633e+01    0.3737374    0.1263972  60.20  0.001856108    2.518    0.603
       268  -8.9798    144.8394    154.5429   7.3799765945e+01   2.2763693522e+01    0.2526124     0.181921 -70.33 0.0008206826    1.842    0.457
       269  -9.9503     67.9938    153.7102   9.1389254760e+01   3.5523718300e+01    0.3992326    0.2405572  71.74  0.001409928    1.795    0.443
       270  -9.6956    132.8542    152.7976   7.6087957040e+01   2.5299827541e+01    0.4090421    0.2801866  72.96  0.001136582    1.996    0.499
       271  -9.2188    133.4992    147.9977   7.5036110160e+01   2.6113877243e+01    0.3563865    0.1956736 -42.05  0.001616716    2.006    0.501
       272  -8.1384    151.4649    152.2511   7.1944269679e+01   2.1942075230e+01    0.1846062    0.1321912 -59.95 0.0009390044    1.684    0.406
       273  -8.7742    113.0535    152.5360   8.0529642776e+01   2.8855014502e+01    0.2039673    0.1250668  43.87 0.0004860974    1.539    0.350
       274  -9.7800     29.8121    150.7832   1.0026352350e+02   4.0627803287e+01    0.4463004    0.1695571  63.55  0.001917648    2.961    0.662
       275  -9.6488    248.9420    149.2741   5.3718785036e+01   4.3722628394e+00    0.3201399    0.1587991 -27.57 0.0007373594    1.815    0.449
       276  -7.8628    182.4022    151.2197   6.5471541896e+01   1.6198830900e+01    0.1788121    0.1271164 -47.47 0.0005429122    1.618    0.382
       277  -9.1345     98.2716    150.5024   8.3657429207e+01   3.1735696910e+01    0.3000953    0.2104374  89.63 0.0009085572    1.667    0.400
       278  -8.8687    189.3756    149.7598   6.3839618271e+01   1.5093847227e+01    0.2512558    0.2139061 -71.71 0.0007735656    1.651    0.394
       279  -8.1159    162.4859    150.0181   6.9194877935e+01   2.0236710408e+01    0.1994157    0.1359478 -44.03 0.0006873393    1.559    0.359
       280  -9.0021     54.3245    149.6870   9.4209216811e+01   3.8160952729e+01    0.3113939    0.1732336  63.42  0.001284023    1.821    0.451
       281 -10.4853     55.1191    144.7155   9.3411245923e+01   3.9173960551e+01    0.7755001    0.3529477  73.08  0.002930821    3.350    0.701
       282  -7.9401    212.8871    149.5959   5.9567962528e+01   1.0682724447e+01    0.1669348    0.1242551  53.48 0.0004165335    1.603    0.376
       283  -8.3352    198.6847    148.5298   6.1857511996e+01   1.3504457922e+01     0.204752    0.1617235 -54.58 0.0005849183    1.664    0.399
       284 -10.3943     89.2775    146.4691   8.5176263884e+01   3.4023411339e+01    0.6387862    0.3819852  89.29  0.002895331    2.299    0.565
       285  -9.8889     39.6679    147.5906   9.7572498969e+01   4.0314304128e+01    0.4979753    0.2170976  67.56  0.001763856    2.722    0.633
       286  -7.9015      2.6559    149.3429   1.0655809799e+02   4.3313066618e+01    0.1267168   0.06005478  64.27 0.0007046859    1.787    0.440
       287  -9.7496    233.3233    147.2741   5.5697825099e+01   7.3014339370e+00    0.2694365    0.1576622 -22.86 0.0008978745    1.600    0.375
       288  -8.3386    223.4806    146.8708   5.7203749286e+01   9.1184443882e+00    0.1886282     0.119225 -26.45   0.00043637    1.498    0.332
       289 -10.2239    149.0018    144.7678   7.0971782558e+01   2.3793986195e+01    0.5006289    0.3459717 -83.32  0.001523306    2.456    0.593
       290 -10.5267    106.5301    144.1014   8.0585147769e+01   3.1722695431e+01    0.6621331    0.3973695  82.92   0.00240599    2.846    0.649
       291  -9.4711     78.2392    146.8124   8.7940652602e+01   3.5604812991e+01    0.2591308    0.1768397  77.90 0.0007207344    1.571    0.364
       292  -8.6881     20.2834    152.6306   1.0266836289e+02   4.1129999924e+01    0.1277486   0.06709652  69.01 0.0007016712    1.698    0.411
       293  -7.7941    206.7079    146.2990   5.9944284917e+01   1.2313653078e+01    0.1210986    0.1085372 -69.74 0.0006312832    1.564    0.361
       294  -8.1434    175.5783    145.8507   6.5681457173e+01   1.8407481944e+01    0.1838538    0.1297944 -50.81 0.0004899192    1.656    0.396
       295  -9.9722    139.1125    144.8070   7.3153409979e+01   2.5681775936e+01    0.3826507     0.240656 -63.91  0.001241911    2.058    0.514
       296  -8.6168     32.8559    145.1092   9.9004484339e+01   4.1583153421e+01    0.3641968    0.1351475  65.20  0.001414598    3.521    0.716
       297  -9.2236     13.2805    145.8900   1.0384044056e+02   4.3219915600e+01    0.2566444     0.149507  67.10  0.001561993    1.468    0.319
       298 -11.1921    241.7273    142.5776   5.3392742306e+01   6.4278847431e+00    0.6311784    0.3261882 -15.44  0.003004691    2.055    0.513
       299  -8.7077    165.6756    144.0208   6.7293794015e+01   2.0670016710e+01    0.2240942    0.1913253  60.84 0.0006804283    1.303    0.232
       300  -9.6119    125.1301    142.5487   7.5890016094e+01   2.8745401568e+01    0.4428432    0.2969658  88.11  0.001546411    2.329    0.571
       301  -7.4648    194.2958    143.6636   6.1620744675e+01   1.5098022564e+01    0.1294829     0.110677 -72.40 0.0004064355    1.650    0.394
       302 -10.3400     63.1920    135.8277   9.0144084245e+01   4.0163046725e+01    0.3672293    0.3042183 -82.27  0.001412557    1.078    0.073
       303 -10.2484     73.3124    129.4171   8.6458617641e+01   4.0240010297e+01    0.5255141    0.2936375  88.53  0.002012145    2.549    0.608
       304 -11.1131     69.4587    140.7066   8.9241006922e+01   3.8207938519e+01    0.7654418    0.3724755 -75.12  0.003399753    2.261    0.558
       305 -10.5346     74.5243    134.0612   8.6906126148e+01   3.9000900179e+01      0.57641    0.1726615  46.21  0.002052738    3.352    0.702
       306  -9.2062    247.0652    143.5348   5.2793260997e+01   5.3872504239e+00     0.239584    0.1624051 -21.89 0.0003635202    1.303    0.233
       307  -8.2890    182.2809    141.6270   6.3457335290e+01   1.7789857094e+01    0.1979325    0.1648078 -87.32 0.0005881253    1.725    0.420
       308  -9.2053      2.9467    141.8494   1.0605905430e+02   4.4924594006e+01    0.2335649     0.101603  70.41  0.001029282    2.056    0.514
       309  -7.8674    134.3279    139.8143   7.3221343669e+01   2.7571462150e+01    0.1981398    0.1276305 -39.23 0.0006685678    1.704    0.413
       310  -8.5403     46.9357    140.5023   9.4969330783e+01   4.1101629714e+01    0.1730027    0.1181334  40.63 0.0004506021    1.515    0.340
       311  -9.6939     23.3443    137.9122   1.0071729189e+02   4.4124411562e+01    0.4574367    0.1927367  63.92  0.002126643    2.504    0.601
       312  -8.8343     19.5314    139.4724   1.0181478810e+02   4.4113720364e+01    0.2067701    0.1019989  36.71 0.0008425632    2.049    0.512
       313  -8.4195    115.7443    138.8148   7.7379998764e+01   3.1224751753e+01    0.1941487    0.1577752  77.36 0.0005760145    1.342    0.255
       314  -8.2182    207.4837    137.5269   5.7888913710e+01   1.3463247129e+01    0.2236596    0.1195313 -42.69 0.0007661486    2.066    0.516
       315  -8.5425    172.2986    138.0325   6.4646029639e+01   2.0396976641e+01    0.2376333    0.1978434  80.24 0.0007324888    1.591    0.372
       316  -8.3014     94.0070    137.9618   8.2569739045e+01   3.5134408804e+01    0.2239581    0.1543456  74.68 0.0006046619    1.697    0.411
       317  -8.6527    150.5191    136.2119   6.8832574753e+01   2.5108221321e+01    0.3431845    0.2139315  10.96  0.001293939    3.105    0.678
       318 -10.7456     83.2384    133.0178   8.4455526841e+01   3.7940075203e+01    0.5836638    0.3411175 -65.40  0.001550512    1.681    0.405
       319  -8.8410    246.9820    130.0844   4.9884776815e+01   7.0836579335e+00    0.2243476    0.1604651 -21.16   0.00056595    1.215    0.177
       320  -9.3242    248.3796    135.1164   5.0787998089e+01   6.2041969257e+00    0.2769469     0.189251 -28.98 0.0007806347    1.359    0.264
       321  -9.4690    250.6081    128.8811   4.9094735057e+01   6.5923034847e+00    0.4790881    0.1074887 -29.65  0.001598383    3.843    0.740
       322  -7.9443    163.1256    136.4097   6.6174940855e+01   2.2537193021e+01    0.1948056    0.1322418  57.73 0.0007920512    1.671    0.402
       323  -9.4214     39.0192    135.7812   9.6462132030e+01   4.3059919640e+01    0.2613995    0.1680784  78.44 0.0008905128    1.459    0.315
       324  -7.8757    188.2417    135.6300   6.0980249664e+01   1.7581401727e+01    0.1344941    0.1084208 -60.81 0.0006930951    1.615    0.381
       325  -8.4342    250.4791    140.8823   5.1725129228e+01   5.1307627645e+00     0.185954    0.1409683 -11.00 0.0006662848    1.109    0.099
       326  -7.7314    231.4722    133.9952   5.3105951603e+01   9.3939075302e+00    0.1717002    0.1038595 -48.55 0.0004500759    2.266    0.559
       327  -8.5993    179.5834    133.8685   6.2257482587e+01   1.9633208457e+01    0.2442785    0.2170813 -64.52 0.0009220872    1.368    0.269
       328  -8.2484    237.4169    133.2388   5.2014404785e+01   8.4011992117e+00    0.1803556    0.1102409 -35.97 0.0004924083    1.630    0.387
       329 -10.2132    132.6516    131.4416   7.1842172776e+01   2.9577573961e+01    0.4833688    0.3443817  85.21  0.001571349    2.052    0.513
       330  -8.9666    112.5613    132.7444   7.6951429364e+01   3.3085896356e+01      0.27214    0.2185615 -85.50  0.000719614    1.383    0.277
       331 -10.4828     98.0254    129.9051   8.0051403687e+01   3.6251037398e+01    0.6607857    0.2947292 -57.15  0.001731901    2.230    0.552
       332  -8.5425    197.6556    137.2957   5.9598752613e+01   1.5431431837e+01    0.2204647    0.2046753 -54.06 0.0006259175    1.309    0.236
       333  -7.7510    192.7502    130.0150   5.8845105667e+01   1.7575679191e+01    0.1755523     0.116477 -32.83 0.0003471559    1.480    0.324
       334  -9.1401    168.3441    129.2968   6.3475812504e+01   2.2747692853e+01    0.2823194    0.2323616 -83.24 0.0005886861    1.640    0.390
       335  -9.5664    152.9260    128.3992   6.6554993264e+01   2.6105218135e+01    0.5290395    0.2318653 -46.74  0.001192953    2.392    0.582
       336  -8.7816     31.1107    130.5020   9.7958895460e+01   4.5089405449e+01    0.1644789    0.1173008  39.71 0.0005934233    1.514    0.339
       337  -9.9012     12.9876    128.9279   1.0261299375e+02   4.7060159987e+01    0.4645715    0.1970339  65.48  0.002033182    2.412    0.585
       338  -8.0785    211.4941    128.9902   5.5252722914e+01   1.3945603073e+01    0.1889803    0.1105261 -51.62 0.0008089811    2.421    0.587
       339 -10.9347     45.0456    123.5557   9.3293844833e+01   4.5247862123e+01     1.110529    0.4996584  76.73  0.004055295    3.705    0.730
       340 -10.5680     60.2039    124.9638   8.9293171656e+01   4.3074267144e+01    0.7420267    0.3901761  75.78  0.002662305    2.759    0.638
       341  -9.4364     37.4050    115.1196   9.4298042366e+01   4.8078405125e+01    0.3014173    0.1674359  59.79  0.001000252    1.932    0.482
       342  -9.9728    117.9149    125.1904   7.4035697484e+01   3.3714210151e+01    0.4966682    0.3441011  86.12  0.001479042    2.085    0.520
       343  -8.7778    179.3003    124.5860   6.0149175415e+01   2.1279543956e+01    0.2762905    0.2282903 -76.13 0.0007385074    1.634    0.388
       344 -10.2635     28.7953    122.3109   9.7671584945e+01   4.7225864342e+01    0.7048959    0.2886796  71.67  0.002711463    3.503    0.715
       345  -8.1932    243.9921    124.0008   4.8954329858e+01   8.4046281150e+00     0.162721    0.1320045 -12.36 0.0004498039    1.047    0.045
       346  -7.9663    188.6036    123.8235   5.8164778596e+01   1.9448265964e+01    0.1966805    0.1294963 -44.27 0.0004412234    1.614    0.380
       347  -9.7855    130.9073    118.3366   6.9275271789e+01   3.2615105991e+01    0.5026069    0.3247923  86.35  0.001901214    2.936    0.659
       348  -8.7521     77.2877    124.3835   8.4504226835e+01   4.0818688110e+01    0.1957289    0.1195052  49.70 0.0009546338    1.662    0.398
       349  -7.8692      5.7789    124.3661   1.0415695036e+02   4.8650238748e+01    0.1290114    0.1152897  10.64 0.0005745846    1.564    0.361
       350  -9.5914    158.9373    121.6716   6.3658361868e+01   2.6120533443e+01    0.3719556    0.2630828 -76.73  0.001243674    2.240    0.554
       351  -8.5622    171.9865    121.4876   6.0872153017e+01   2.3374914361e+01    0.2183213    0.1908053 -34.11 0.0003990917    1.139    0.122
       352  -8.5364     92.5137    121.9030   7.9907926900e+01   3.8975943878e+01     0.210583    0.1329625 -57.96 0.0006995139    1.523    0.344
       353  -9.8780     71.1473    119.6249   8.5334074981e+01   4.2828509631e+01    0.3633912    0.2258113 -81.64  0.001224316    1.795    0.443
       354  -9.1427    246.9156    120.3642   4.7703674290e+01   8.3379570416e+00     0.231342    0.1307432  60.10  0.001099994    2.480    0.597
       355  -9.7845    141.5382    118.2317   6.6726180955e+01   3.0451621445e+01    0.4499138    0.2848644 -62.89  0.001085233    2.064    0.516
       356  -8.9388    143.0821    131.5270   6.9458487810e+01   2.7498761710e+01    0.2816349    0.2154695 -75.59 0.0007847191    1.690    0.408
       357  -9.0950     21.5796    118.6730   9.9290152728e+01   4.8734078275e+01    0.2036872     0.175265 -87.27  0.000478764    1.107    0.097
       358  -7.6863    121.3341    118.3025   7.1625126785e+01   3.4527958547e+01    0.1455085    0.1178772  -2.18 0.0007036387    1.659    0.397
       359  -9.4774      2.5792    116.7203   1.0443585319e+02   5.0631895880e+01    0.4339488    0.1734333  71.99  0.002004276    2.588    0.614
       360  -7.7865    231.5124    117.4499   4.9300401372e+01   1.1645786369e+01    0.1363142    0.1196826 -12.12  0.000807986    1.046    0.044
       361  -8.8019    104.9452    118.0000   7.5769913151e+01   3.7687238309e+01    0.2351917   0.08155883  41.52 0.0008029606    2.946    0.661
       362  -8.3191    185.9525    115.9672   5.6749400702e+01   2.1325777111e+01    0.2245565    0.1778974 -66.54 0.0008282997    1.671    0.402
       363 -10.1191    109.5382    114.0752   7.3665709842e+01   3.7708418375e+01    0.5883331    0.3394066 -70.19  0.001379209    2.456    0.593
       364 -10.2158    113.0053    106.8490   7.1000894904e+01   3.8631717816e+01    0.7017776    0.2099917  45.51  0.002206679    3.440    0.709
       365  -9.2845    250.2150    114.6463   4.5925898667e+01   8.4642904455e+00    0.1949562    0.1730257 -22.70  0.001237598    1.170    0.145
       366 -10.5660    249.0495    107.7070   4.4465420015e+01   9.5727827077e+00    0.3994248    0.3053231 -10.81  0.002339756    1.157    0.136
       367 -10.9937    249.2766    102.4850   4.3195904848e+01   1.0203634293e+01     0.464758    0.3514246  -2.79  0.002674713    1.270    0.213
       368  -9.1334     84.9543    122.5043   8.2066301698e+01   4.0069950429e+01    0.4026939    0.2460454  11.75  0.001545406    3.467    0.712
       369  -9.9645     79.0687    112.3509   8.1671142244e+01   4.3349339632e+01    0.4907694    0.3073557  86.80  0.001559367    2.234    0.552
       370  -7.8202    167.4984    114.4515   6.0055261862e+01   2.5610516323e+01    0.1473117    0.1414454   2.20 5.857272e-05    1.012    0.012
       371  -8.4806    135.6712    113.3416   6.6909158577e+01   3.2664550513e+01    0.2295159    0.1428282 -50.01 0.0007334162    1.635    0.388
       372  -9.8574    133.4364    108.8043   6.6301951241e+01   3.4063590602e+01    0.5367343    0.2847857 -47.19   0.00136243    1.874    0.466
       373 -10.1139     92.7840    112.3310   7.7798359552e+01   4.1113327405e+01     0.487359    0.3239516 -74.96  0.001404484    1.752    0.429
       374  -8.6476    174.7654    112.1746   5.7987234189e+01   2.4423709899e+01     0.353942     0.176293 -49.18  0.001160896    2.369    0.578
       375 -10.0244    121.8412    112.3233   7.0067811254e+01   3.5703467597e+01    0.3470194    0.2777196 -79.54 0.0005747375    1.464    0.317
       376  -9.1946     51.7120    112.9426   8.9759666582e+01   4.6991848737e+01    0.2273281    0.1839806  59.96 0.0004574649    1.253    0.202
       377  -9.6157     14.2746    111.2226   1.0059861189e+02   5.1087423726e+01    0.3934995    0.1537165  59.59  0.001711018    2.937    0.660
       378  -9.3211      9.0536    110.0558   1.0201019939e+02   5.1746996995e+01    0.3038144    0.1309411  64.75  0.001422868    2.515    0.602
       379  -8.2817    159.2102    111.2840   6.1010203748e+01   2.8012034128e+01    0.1999106    0.1734985 -71.71 0.0004941896    1.347    0.257
       380 -10.3809     66.4550    110.2966   8.4925475164e+01   4.5697948924e+01    0.4033004    0.2653941 -89.85  0.001432481    1.762    0.432
       381  -8.2695    189.2263    107.7320   5.4039700144e+01   2.1986944463e+01    0.2619514    0.1670966 -36.11 0.0007142152    1.507    0.336
       382 -10.6097     23.0560    102.6289   9.6919039383e+01   5.2430344250e+01     0.698875    0.3263592  68.84  0.002395932    2.701    0.630
       383  -9.5623    139.9265    103.7861   6.3423315994e+01   3.3695923463e+01     0.504791    0.2878825 -48.55   0.00153297    1.787    0.440
       384 -10.3312     80.7451    101.8709   7.8882681013e+01   4.5538314291e+01    0.5557082    0.3283677 -40.76  0.001237511    1.923    0.480
       385  -9.3435     64.6339    114.9337   8.6331646811e+01   4.4849336438e+01    0.3357047    0.1574011  54.41   0.00138725    2.544    0.607
       386 -10.6293     45.6476    102.0034   8.9719969387e+01   5.0337322042e+01    0.7717461    0.3932402  72.86   0.00308323    3.044    0.672
       387  -8.4901    166.7979    104.0958   5.7508759100e+01   2.7650263569e+01     0.229584    0.1988123 -57.42 0.0005071028    1.265    0.209
       388  -9.3890    150.5436    102.7910   6.0690938680e+01   3.1550797609e+01    0.4109061    0.2615137 -62.10  0.001177558    2.128    0.530
       389  -8.0121    193.3201    115.1906   5.5172676271e+01   1.9864813424e+01    0.2079148    0.1228817 -41.42 0.0003970041    1.712    0.416
       390 -10.1546    128.5319    101.8449   6.5689107735e+01   3.6539834194e+01     0.406416    0.3026215 -67.31 0.0009729505    1.588    0.370
       391  -9.8813    115.9520    102.4942   6.9105586069e+01   3.8996144105e+01    0.3249317    0.1979704  39.87  0.001424853    1.755    0.430
       392 -10.3042    108.7359     98.4388   6.9981246961e+01   4.1311683800e+01    0.5813988    0.4522108 -82.06  0.001257937    1.556    0.357
       393  -9.0620    107.6406     92.5935   6.8692352825e+01   4.2809942012e+01     0.719259    0.3748572  22.67   0.00209802    4.771    0.790
       394  -9.4105      6.7650    102.6974   1.0196829601e+02   5.3642579442e+01    0.2979411    0.1381898  86.15  0.001042071    2.028    0.507
       395  -7.5646    175.3696    101.7338   5.5127291270e+01   2.6126507084e+01    0.1489498    0.1198519 -81.64 0.0006989795    1.661    0.398
       396  -8.2379    159.8385    100.8075   5.8096729513e+01   2.9832761523e+01    0.2058732    0.1766162 -63.67 0.0004390209    1.311    0.237
       397 -10.5027     64.1024     96.2904   8.2729830329e+01   4.9368873528e+01     0.627371    0.3377906 -77.73   0.00203347    2.422    0.587
       398  -9.1195     95.0057     96.7779   7.3426008866e+01   4.4273519119e+01    0.2876121    0.2211309 -71.70  0.000595315    1.393    0.282
       399 -10.8023    248.0624     88.1403   3.9871053195e+01   1.2295425772e+01    0.3994748    0.2517456 -16.82  0.002044043    1.483    0.326
       400  -8.0750    165.1528     94.1750   5.5126351204e+01   2.9826916575e+01    0.2108058    0.1772801 -60.55 0.0004260099    1.331    0.248
       401  -7.7705    188.6913     93.3173   5.0292982879e+01   2.4492730483e+01    0.1511231    0.1159885 -63.69 0.0007031519    1.635    0.388
       402  -8.2040    176.4952     93.0049   5.2507016412e+01   2.7384865707e+01    0.2347635    0.1426706 -37.83  0.000733947    1.576    0.366
       403  -9.2069    139.2076     92.1137   6.0349470262e+01   3.6186373717e+01    0.3623655    0.2519494 -65.95 0.0009310467    1.868    0.465
       404  -9.6369    124.5126     90.6823   6.3600825750e+01   3.9721228624e+01    0.4096043    0.3090657 -70.63 0.0009127994    1.623    0.384
       405  -9.1630    120.6708     92.6770   6.5177804374e+01   4.0123929491e+01    0.3009605    0.2309506  22.98  0.001418542    1.612    0.380
       406  -8.7796     30.2620     92.0804   9.2992824716e+01   5.4338536491e+01    0.2428216    0.1527425 -87.19 0.0007012332    1.546    0.353
       407  -9.6341     34.8327     89.5119   9.0992505119e+01   5.4520574718e+01    0.5345371    0.2485736 -85.23  0.001933477    2.819    0.645
       408  -9.3879      5.2955     91.7136   1.0125966421e+02   5.6349479514e+01    0.2690455    0.1536149  68.59  0.001012855    1.786    0.440
       409  -9.3102     22.9954     89.7239   9.5062118882e+01   5.5551463046e+01    0.2723457    0.2393019 -15.75  0.001215393    1.477    0.323
       410  -9.2136     46.3591     92.1950   8.7628040744e+01   5.2628358360e+01     0.382413    0.2190719   6.57  0.001616088    3.265    0.694
       411  -8.5606    151.0105     88.9916   5.6696796149e+01   3.4082706426e+01     0.245046    0.1874623 -69.86 0.0004780653    1.651    0.394
       412 -10.2056     86.4281     85.9111   7.3075876383e+01   4.8276141544e+01    0.6161005    0.3782876 -63.48  0.002049412    1.767    0.434
       413  -8.9029     64.4958     87.8266   8.0622264584e+01   5.1329147655e+01    0.2664599    0.1759012 -21.51  0.001185377    2.405    0.584
       414 -10.2481     48.6788     83.7780   8.5027267551e+01   5.4384652782e+01    0.6180243    0.3572566 -84.72  0.002365891    2.240    0.553
       415  -8.3235     16.1182     86.1097   9.6869497361e+01   5.6965346587e+01    0.1866347    0.1431011 -60.75 0.0004694875    1.192    0.161
       416  -8.9287     70.4822     86.0000   7.8191268651e+01   5.0874341105e+01    0.4372488   0.08248457  36.70  0.001151768    5.889    0.830
       417  -8.2030    157.8719     83.8133   5.3653443100e+01   3.3420884179e+01    0.2097513    0.1777407 -60.36 0.0003942169    1.293    0.226
       418  -9.7507    104.8326     82.7611   6.6637464928e+01   4.5507939700e+01    0.5299335    0.3109214 -57.82  0.002191108    1.891    0.471
       419  -9.0501    140.9856     82.6046   5.7094276700e+01   3.7635083945e+01    0.2984774    0.2057695 -55.25 0.0006646832    1.613    0.380
       420  -9.5205     10.0436     81.1349   9.8279593022e+01   5.8584875769e+01    0.3821826    0.1753715  69.88  0.001497341    2.858    0.650
       421  -9.3064     57.4213     94.8543   8.4554275233e+01   5.0620056627e+01    0.2846976    0.1989321  58.06 0.0007616393    1.597    0.374
       422  -8.3929     64.1880     82.2653   7.9315963337e+01   5.2688521219e+01    0.1941841    0.1540424 -84.04 0.0005504566    1.364    0.267
       423  -8.4050     35.3520     82.3175   8.9413031073e+01   5.6211213577e+01     0.136949   0.08812289 -39.86  0.000704712    1.739    0.425
       424  -9.5893     24.6460     80.4245   9.2899219885e+01   5.7663197740e+01     0.434048     0.225751  87.21  0.001448813    2.383    0.580
       425  -8.5393    150.4106     80.6798   5.4334868436e+01   3.5774697002e+01    0.2990464    0.1412254 -40.91 0.0009405816    2.034    0.508
       426  -8.7569     74.8199     80.4879   7.5270165550e+01   5.1475679698e+01    0.2904547    0.1792056 -69.49 0.0009313953    1.912    0.477
       427  -8.5517    119.2010     79.9745   6.1775977446e+01   4.3082485090e+01    0.2416008    0.2005693 -68.21 0.0007813941    1.345    0.257
       428  -8.1594    166.6543     79.2916   5.0466043566e+01   3.2104182219e+01    0.2111763    0.1424997 -24.98 0.0004740292    1.530    0.346
       429  -8.2455    184.3586     77.8025   4.6661843297e+01   2.8046538915e+01    0.2170247    0.1403805 -20.67 0.0007747363    1.632    0.387
       430  -8.0970    157.3395     75.8260   5.1323344174e+01   3.4978467756e+01    0.2222232     0.143069 -23.46 0.0003811097    1.691    0.409
       431  -9.2184    127.9982     75.0550   5.7906099605e+01   4.2099895873e+01    0.3737916    0.2420743 -56.12 0.0007636431    1.770    0.435
       432  -8.4582    140.4355     75.2587   5.4922441626e+01   3.9157463780e+01    0.2199468    0.1411197 -47.45 0.0005611694    1.584    0.369
       433  -9.9501     63.2981     73.4245   7.7197232938e+01   5.4883930288e+01    0.4699963    0.2693872 -66.75  0.001189104    1.922    0.480
       434  -9.6909     82.5232     72.5251   7.0346937283e+01   5.1974532399e+01     0.416415    0.2763723 -72.65  0.001085602    2.030    0.507
       435  -8.7486    163.4523     72.8413   4.9126701397e+01   3.3995816155e+01    0.3030761    0.1408539 -37.74  0.001125257    2.025    0.506
       436  -8.6590    115.6666     72.7725   6.0421616531e+01   4.5318290531e+01    0.2690718    0.1878313 -50.83   0.00055296    1.443    0.307
       437  -7.8852    175.5005     72.5184   4.6692958275e+01   3.1071165006e+01     0.154094    0.1466019 -29.67 -1.070388e-05    1.013    0.013
       438  -9.3081    105.9660     71.5546   6.2760229865e+01   4.7645004055e+01    0.2867651    0.2002682 -57.34 0.0005975434    1.548    0.354
       439  -9.2557     95.3369     71.1213   6.5805002303e+01   4.9889559973e+01     0.361031    0.2449205 -61.46 0.0008824956    1.674    0.403
       440  -9.5758     51.4737     69.3249   8.0341606836e+01   5.7467572305e+01    0.4759654    0.2369009 -73.12  0.001830055    2.851    0.649
       441  -8.9355     28.5427     70.5882   8.9449295648e+01   5.9688685699e+01    0.2755528    0.1334323 -43.33  0.001280393    2.147    0.534
       442  -8.8396     16.6639     69.8385   9.3927714678e+01   6.0843486717e+01    0.2457527    0.1595473  81.04 0.0009390395    1.695    0.410
       443  -7.5142    157.2814     69.6824   4.9390233436e+01   3.6062754690e+01    0.1578785    0.1186743 -62.79  0.000266441    1.580    0.367
       444  -8.5810    147.2278     68.1116   5.1041968847e+01   3.8817095737e+01    0.2875573    0.1964461 -50.47 0.0006927102    1.555    0.357
       445  -8.5156    138.7872     66.0728   5.2287379185e+01   4.1240413366e+01    0.2446822    0.2006266 -54.68 0.0006672203    1.287    0.223
       446  -8.8229    121.5764     65.3795   5.6328511680e+01   4.5440193543e+01    0.4234614    0.2213225 -44.06  0.001675315    1.862    0.463
       447  -8.8814     37.3587     63.8433   8.4310220512e+01   6.0417463744e+01     0.310636    0.1972432 -89.97  0.001205929    2.129    0.530
       448  -8.8005    110.0922     63.4652   5.8799022891e+01   4.8389524665e+01    0.2867854     0.200396 -54.48 0.0006330454    1.543    0.352
       449  -9.5446     97.2715     61.1106   6.1755915760e+01   5.1577529580e+01    0.5077055    0.3156478 -31.26  0.001819064    1.698    0.411
       450  -7.8900     86.3324     63.3290   6.6035825354e+01   5.3269817372e+01    0.1511956     0.114393 -10.31 0.0007051848    1.719    0.418
       451  -8.7665     64.9893     62.6427   7.3255092594e+01   5.7080263952e+01    0.3465744    0.2155106  -6.61  0.001331537    3.279    0.695
       452  -8.0660    158.4382     61.5336   4.6493323943e+01   3.7140410984e+01     0.156325    0.1468918 -45.75    0.0001731    1.060    0.057
       453  -9.6598     73.4795     59.2142   6.8997928958e+01   5.6449903269e+01    0.4357622    0.2520901 -60.01   0.00111874    1.989    0.497
       454  -8.7972    146.5941     57.3533   4.7538936224e+01   4.0818981248e+01    0.4312328    0.1448291 -33.07  0.001360808    2.828    0.646
       455  -8.0754     88.9842     59.2427   6.3709341383e+01   5.3611631895e+01    0.2143838    0.1554931 -62.26 0.0005513758    1.604    0.376
       456 -10.0344     23.5241     56.3118   8.8085242560e+01   6.3512333736e+01    0.4438354    0.2592702  83.39   0.00205912    2.541    0.606
       457  -9.5858      7.6182     57.1044   9.5162135683e+01   6.4468822681e+01    0.3187848    0.1814997  74.94  0.001143112    2.225    0.550
       458  -7.8655    130.5556     57.4895   5.1262951532e+01   4.4763103824e+01    0.1552563    0.1471219 -42.08   8.2762e-05    1.045    0.043
       459  -8.0130    139.9931     55.9737   4.8510058660e+01   4.2702725698e+01    0.1947844    0.1692922 -31.21 0.0004234689    1.110    0.099
       460  -9.0264     44.0184     55.4493   7.9111872545e+01   6.1595765698e+01    0.2539625    0.1730103 -68.70 0.0007485086    1.531    0.347
       461  -8.9706     62.9118     54.4605   7.1210306889e+01   5.9194837031e+01    0.3040226    0.1876552 -57.53 0.0005895079    1.635    0.388
       462  -8.8991     54.1435     53.7897   7.4415395776e+01   6.0639244793e+01    0.3237028     0.182913 -65.55  0.001359921    2.157    0.536
       463  -8.4759    105.7212     53.0951   5.6236931975e+01   5.1329779711e+01    0.2467072    0.1759576 -52.79 0.0005636605    1.513    0.339
       464  -9.4046     92.5204     50.5353   5.9264403004e+01   5.4627115731e+01     0.407382    0.2422644 -53.62   0.00109052    1.927    0.481
       465  -7.2656    219.6915     49.6719   3.3205146564e+01   2.3523762580e+01    0.1459842    0.1070576  19.20 0.0006085303    1.659    0.397
       466  -8.0221    129.7974     48.9486   4.8304464558e+01   4.6402242537e+01    0.2104815    0.1196968 -31.09 0.0004872334    1.710    0.415
       467  -9.0354    119.0768     55.5434   5.3461796535e+01   4.7843290574e+01    0.2936459    0.1993313 -51.61 0.0007446888    1.595    0.373
       468  -8.2396    120.9503     47.2809   4.9842778349e+01   4.8835790427e+01    0.2043049    0.1990828  28.02 0.0004267215    1.056    0.053
       469  -8.4179    112.1953     46.8583   5.1981863222e+01   5.0978044084e+01    0.2285851    0.1986003 -56.44 0.0005812566    1.245    0.197
       470  -8.9722     82.2944     46.4172   6.1004813438e+01   5.7452377252e+01    0.2870468    0.2278545 -62.05 0.0007885305    1.480    0.324
       471  -8.5547     45.0348     44.5042   7.4858622552e+01   6.3885095306e+01    0.2492513    0.1737669 -64.48 0.0007685914    1.553    0.356
       472  -9.1662     16.8141     44.5330   8.7924451475e+01   6.6773909097e+01    0.2396391    0.1447487 -79.44 0.0006707224    1.828    0.453
       473  -8.2320    132.6664     42.8815   4.5331731505e+01   4.6654261993e+01     0.227243    0.1289788 -39.63 0.0005624046    1.715    0.417
       474  -9.2657     58.2895     42.3065   6.8354387287e+01   6.2457108784e+01    0.3573418    0.2147014 -63.23  0.001321264    2.263    0.558
       475  -9.7125      5.3174     41.6662   9.2763481769e+01   6.8189344395e+01    0.3491724    0.1890365 -89.66  0.001585199    2.305    0.566
       476  -8.7816    105.9486     40.9675   5.1324004351e+01   5.3416903650e+01    0.3382515    0.1941303 -46.14 0.0008486965    1.838    0.456
       477  -9.2761     69.5968     41.3579   6.3486426712e+01   6.0770212407e+01    0.3251843    0.2507201 -65.49  0.001203427    1.641    0.391
       478  -8.5585     36.9646     40.5246   7.6993690794e+01   6.5730494870e+01    0.2368767    0.1698804 -66.26 0.0006494392    1.503    0.335
       479  -8.3999     95.6645     38.1250   5.3140838580e+01   5.6193808564e+01    0.2342693    0.1693534 -47.35 0.0006164102    1.450    0.311
       480  -8.0614     80.8040     36.8104   5.7414391003e+01   5.9515135018e+01    0.1941143    0.1622819 -54.14 0.0004553094    1.334    0.250
       481  -8.0107    133.5160     35.9883   4.2463757596e+01   4.7463755032e+01    0.2198018    0.1124293 -49.76 0.0006638943    2.339    0.573
       482  -9.3665     26.2133     35.2517   8.0196087629e+01   6.8018241316e+01    0.2848643     0.196337 -71.73 0.0008412458    1.663    0.399
       483  -8.2165    125.9207     35.3031   4.3881924514e+01   4.9489104887e+01    0.2050264    0.1949412  29.94 0.0003931698    1.057    0.054
       484  -8.7540    111.8093     34.3274   4.6933261669e+01   5.3099637582e+01    0.3534191    0.1668283 -43.33 0.0007474811    2.225    0.551
       485  -8.7704     48.7237     33.3401   6.8601328986e+01   6.5679471716e+01    0.2368821    0.1928705 -63.94 0.0007196299    1.470    0.320
       486  -8.1766      5.6376     34.6722   9.0704254010e+01   6.9754157859e+01    0.1337839   0.06762839 -41.03 0.0007040245    1.796    0.443
       487  -8.3542    119.0611     33.0485   4.4571645570e+01   5.1525502071e+01    0.2408343    0.1756305 -59.89 0.0005513066    1.673    0.402
       488  -7.9850    196.5268     32.5172   3.0917379434e+01   3.1389808653e+01     0.145511     0.138397 -33.47 0.0003090592    1.028    0.027
       489  -8.5338     60.8035     32.1429   6.2845279267e+01   6.4020678834e+01    0.2038301    0.1775098 -48.65 0.0005431164    1.225    0.184
       490  -8.4759    179.1554     30.6690   3.2583074140e+01   3.6140104692e+01    0.2343536    0.1839194 -73.50 0.0006976967    1.396    0.284
       491  -9.1777     12.9841     29.8975   8.5179805053e+01   7.0319975156e+01    0.3230143    0.1638623 -69.72  0.001245763    2.079    0.519
       492  -8.9922     72.1823     30.7708   5.7734493538e+01   6.2235253078e+01     0.249217    0.1759708 -45.54 0.0007956154    1.438    0.305
       493  -7.9808    101.5278     29.4463   4.7572997922e+01   5.6251576226e+01    0.1459114    0.1377164 -34.11  0.000738299    1.098    0.089
       494  -8.9218     81.6186     27.1903   5.2657397411e+01   6.0960925340e+01    0.3136653    0.2168815 -53.95 0.0009875607    1.798    0.444
       495  -9.0448      3.7282     27.1525   8.9434888149e+01   7.1528311046e+01    0.2477983    0.1411248 -73.84   0.00108065    1.741    0.426
       496  -8.7742     91.8628     26.2227   4.8904492112e+01   5.8917014248e+01    0.3123279    0.1791527 -43.33 0.0007625117    1.836    0.455
       497  -8.9119    205.1424     24.8062   2.7569192922e+01   3.0079785551e+01    0.3085871    0.1552329 -75.27  0.001154995    2.824    0.646
       498  -8.3290     34.6664     23.3088   7.0653545898e+01   6.9516377406e+01      0.18219    0.1522642 -81.03  0.001003844    1.750    0.429
       499  -8.8149     48.4206     21.3686   6.2899262503e+01   6.7949469100e+01    0.2474192    0.1785379 -49.67 0.0008077603    1.500    0.333
       500  -8.9241     63.5800     20.7325   5.6018350519e+01   6.5495836385e+01    0.2770099    0.1966628 -55.51 0.0009390179    1.854    0.461
       501  -8.5129     19.4438     21.2354   7.7994936555e+01   7.1593192036e+01    0.1709071    0.1059508 -60.80 0.0009326675    1.636    0.389
       502  -8.9358     73.9921     19.2421   5.1298892896e+01   6.3723686927e+01    0.2955796    0.1747464 -44.11 0.0007832698    1.836    0.455
       503  -8.1102    161.0020     18.7157   3.0972206515e+01   4.2358320500e+01    0.1974215    0.1925642  83.20 0.0004150483    1.029    0.029
       504  -8.0629     38.5283     18.4581   6.6161010550e+01   6.9908330713e+01    0.1302396    0.1086015 -28.00 0.0001114853    1.022    0.022
       505  -8.1795     87.8781     17.3836   4.5774393014e+01   6.1040019528e+01     0.197822    0.1648123 -30.14  0.000489908    1.182    0.154
       506  -7.4044    112.7024     16.7037   3.8909706512e+01   5.5252628916e+01     0.151391    0.1048713  26.21 0.0001959993    1.569    0.363
       507  -8.0549     30.4759     16.0135   6.9109563672e+01   7.1399714483e+01    0.1664322    0.1053746 -63.71 0.0008075997    2.440    0.590
       508  -8.1417      7.3366     14.6820   8.2372754746e+01   7.3928983426e+01    0.1086567   0.09005535  85.27 0.0007048889    1.702    0.412
       509  -8.1826    113.3412    248.5772   9.2288365069e+01   1.2582832872e+01    0.1590355   0.08912639 -83.51 0.0009383526    3.058    0.673
       510  -8.4230     93.8429    249.2211   9.5596649222e+01   1.5021356916e+01    0.1787181   0.07645947  61.65 0.0008114945    2.836    0.647
       511  -8.8542     53.0524    249.5115   1.0233036393e+02   1.9853366529e+01    0.1479135    0.0717921  42.85 0.0003855678    1.532    0.347
       512  -9.1699    243.2641    246.3265   7.1242234724e+01  -4.6784336755e+00    0.3034823    0.1376105 -18.07  0.001919958    2.499    0.600
       513  -8.5449    218.7377    247.3243   7.5044101816e+01  -1.6239593247e+00    0.1971818    0.1151625 -34.32  0.001170553    2.219    0.549
       514  -8.9363    175.6610    247.4621   8.1854807259e+01   4.1939878245e+00    0.2360733    0.1541645  60.84  0.001247296    2.330    0.571
       515  -8.7656    156.0932    247.7666   8.5089757787e+01   6.8688423701e+00     0.151568    0.1342952  63.65 0.0006147702    1.406    0.289
       516  -8.8388    131.9912    247.4698   8.9065215652e+01   1.0221162521e+01    0.1682151    0.1296406  69.42 0.0005502065    1.518    0.341
       517  -9.1166    103.8059    246.6474   9.3725328292e+01   1.4096967462e+01    0.2941678     0.157114 -83.81  0.001735852    3.052    0.672
       518  -8.3067     34.8267    247.8583   1.0518490803e+02   2.2065914062e+01    0.1404099   0.07609786  60.46 0.0004808281    1.323    0.244
