#   1 NUMBER                 Running object number                                     
#   2 MAG_AUTO               Kron-like elliptical aperture magnitude                    [mag]
#   3 X_IMAGE                Object position along x                                    [pixel]
#   4 Y_IMAGE                Object position along y                                    [pixel]
#   5 X_WORLD                Barycenter position along world x axis                     [deg]
#   6 Y_WORLD                Barycenter position along world y axis                     [deg]
#   7 A_WORLD                Profile RMS along major axis (world units)                 [deg]
#   8 B_WORLD                Profile RMS along minor axis (world units)                 [deg]
#   9 THETA_WORLD            Position angle (CCW/world-x)                               [deg]
#  10 FWHM_WORLD             FWHM assuming a gaussian core                              [deg]
#  11 ELONGATION             A_IMAGE/B_IMAGE                                           
#  12 ELLIPTICITY            1 - B_IMAGE/A_IMAGE                                       
         1 -15.4360     94.4348     75.6537   1.0258616341e+02   4.9063509403e+01     2.187531      1.63124  29.37  0.008211184    1.397    0.284
         2 -16.7431    146.7050    129.6339   1.0343014349e+02   2.7019910019e+01     3.960971     2.645366 -57.25   0.01707911    1.602    0.376
         3 -14.5490     67.5746      8.2181   8.6483845443e+01   6.3388477649e+01     1.454776    0.8172724  49.66  0.007138928    1.812    0.448
         4 -14.5086     82.5176     29.0537   9.0152142220e+01   5.8520792355e+01     1.302065    0.5087759 -32.47  0.005808531    2.573    0.611
         5 -14.9256     69.3798     31.0273   9.5094121022e+01   6.0517850689e+01     1.572184     1.004928 -26.45   0.00789642    1.496    0.331
         6 -12.1422      2.2024     26.1550   1.1995077645e+02   6.8793668318e+01    0.5307575    0.1519028 -49.03  0.002614211    2.718    0.632
         7 -12.1384     19.6281     12.1911   1.0660048955e+02   6.9408618622e+01    0.3587181    0.2459265 -39.40  0.001964869    1.673    0.402
         8 -12.9205     16.4066      4.7829   1.0475339880e+02   7.0643354081e+01    0.4892772    0.3620264  25.00  0.002808841    1.569    0.363
         9 -11.7079     18.2869    224.7797   1.4709545216e+02   2.5766584843e+01    0.2093577    0.1705697  25.37  0.001501202    1.961    0.490
        10 -13.2742    232.0988    245.4073   1.0914663379e+02  -1.1265207790e+01    0.4718094    0.3881642  10.72  0.002873923    1.035    0.034
        11 -12.1981    209.8722    249.3017   1.1384699309e+02  -8.3309962196e+00    0.4480288    0.2616864  30.90  0.002486637    1.500    0.333
        12 -13.2902    219.7291    248.5386   1.1191123385e+02  -9.7827931319e+00    0.6918989    0.3794159  17.66  0.003461222    2.211    0.548
        13 -19.4007     33.9835    135.5361   1.3442178465e+02   4.4088846430e+01     19.28976     3.482735 -66.08   0.05516593    5.106    0.804
        14 -11.9385    140.9704    197.2274   1.1896719081e+02   1.3172347040e+01    0.5529581    0.3287597  60.64   0.00219796    1.967    0.492
        15 -11.4485    195.9932    194.8188   1.0684996408e+02   2.9418278070e+00    0.4246587     0.284804  27.58  0.002058223    1.597    0.374
        16 -11.2008     80.8459    194.3326   1.3175849923e+02   2.4282886388e+01    0.2950497    0.2109393 -52.38  0.001607495    1.559    0.358
        17 -15.1312    115.5184     89.2186   1.0062725150e+02   4.2347707179e+01      1.98156     1.377198  40.84  0.008326282    1.471    0.320
        18 -12.5791    144.7821    232.0776   1.2374794948e+02   5.6061039529e+00     0.318437    0.1805083 -65.55  0.001499491    2.365    0.577
        19 -16.4122    212.3277    158.0113   9.5862457417e+01   6.6622436935e+00     3.946408     3.094903  68.75    0.0196853    1.602    0.376
        20 -16.0455    162.8469    174.2457   1.0974476839e+02   1.3707188445e+01     4.132494     1.886902  55.90   0.01425227    2.836    0.647
        21 -15.8738    120.1510    122.8964   1.0845509372e+02   3.4154839302e+01     2.487587     2.084023 -62.13    0.0100341    1.208    0.172
        22 -14.7363     98.2430    106.6881   1.1031382781e+02   4.1979140520e+01      1.68907     1.146739  59.62  0.007761779    1.863    0.463
        23 -15.2254    147.2843    154.4989   1.0909842179e+02   2.1306328262e+01     2.550601     1.022543  42.25  0.008789627    2.544    0.607
        24 -10.4153     87.9944    177.7671   1.2770684357e+02   2.6984347809e+01     0.328716    0.1821005 -36.60  0.001289401    3.005    0.667
        25 -10.2001     90.7707    173.0415   1.2628826711e+02   2.7646906139e+01    0.2905929    0.1834904 -35.77 0.0005363062    2.292    0.564
        26  -9.9078     96.6134    163.5126   1.2322632164e+02   2.8934652912e+01     0.144592    0.1309635 -74.61 0.0001835782    1.043    0.041
        27 -12.4804    248.4449    157.5528   8.9224097527e+01  -3.0679523616e-01     0.508449    0.3071841 -52.22  0.002399304    1.910    0.476
        28 -12.4569     85.8603    158.5417   1.2498710211e+02   3.1887603954e+01    0.3680962    0.2558186 -36.56  0.001565579    1.822    0.451
        29 -10.8059     87.0171    224.5037   1.3428062834e+02   1.6807906281e+01    0.1916224    0.1139974  44.64 0.0007814093    1.559    0.359
        30 -12.7053     98.4509    141.3027   1.1841094177e+02   3.3923481123e+01    0.6317055    0.5110009 -31.83  0.001094286    1.438    0.305
        31 -14.4976    247.3965    134.5569   8.4409160113e+01   3.9387778647e+00     2.541719     0.865615 -51.10  0.007625304    4.291    0.767
        32 -10.2089     91.1720    189.6257   1.2880291910e+02   2.3729873270e+01    0.1855407      0.13152  32.19 0.0009464237    1.679    0.405
        33 -15.2516    143.2274     93.8923   9.4826351894e+01   3.5381112743e+01     1.786323     1.453122 -67.99  0.006509791    1.408    0.290
        34 -10.3828     80.5001    220.0342   1.3505419148e+02   1.8729721207e+01    0.1817705    0.1167041 -71.71   0.00044886    1.520    0.342
        35 -13.5434    217.3704    126.6278   8.7727175049e+01   1.1635255959e+01    0.4946291    0.3211848 -37.95   0.00227734    1.470    0.320
        36 -11.3667     62.9885    216.7932   1.3815561347e+02   2.1947955393e+01    0.2461988    0.1746445  69.46  0.001104645    1.206    0.171
        37 -12.9005    185.5992    124.8321   9.3471116463e+01   1.9183449403e+01    0.7999117    0.4749307 -54.97  0.003231978    1.879    0.468
        38 -11.7066     96.3632    125.4515   1.1546388479e+02   3.8033429416e+01     0.550064    0.2842669  43.16  0.002294745    2.050    0.512
        39 -14.0028    166.9752    116.8159   9.5467107266e+01   2.5177376307e+01      1.27492    0.9994765  85.10  0.005364094    1.575    0.365
        40 -12.9365    175.2209    116.2165   9.3505171502e+01   2.3370961719e+01    0.7279625    0.4371415  48.85  0.003039702    1.689    0.408
        41 -12.7586    196.5837    119.4628   8.9923917710e+01   1.7723409929e+01    0.6760187    0.5985733  69.08  0.003457241    1.185    0.156
        42 -15.0937    222.4289    111.9469   8.3373864516e+01   1.3281468787e+01     1.600599    0.8425107 -48.38  0.006694703    1.851    0.460
        43 -13.9877    240.6821    129.9014   8.4464272839e+01   6.1061995736e+00    0.9374687    0.7020561 -84.55  0.004599761    1.853    0.460
        44 -15.8970    176.3125    150.5260   1.0159476395e+02   1.5899176398e+01     3.791955     1.859764 -61.90   0.01166806    3.626    0.724
        45 -13.5420      3.4970     79.6570   1.3364175946e+02   5.8842254194e+01     1.051256    0.3658194 -67.52  0.004755109    2.695    0.629
        46 -12.3796    201.9594     78.1205   7.8531826309e+01   2.4131328614e+01    0.6419041    0.2300611  64.13  0.002045619    3.416    0.707
        47 -11.1975     65.6007    213.8567   1.3732616892e+02   2.2209647925e+01    0.2376231    0.1541304  58.48 0.0006238907    1.370    0.270
        48 -11.8124    246.7587     59.3307   6.7811121668e+01   1.6769821549e+01    0.2522253    0.2148955  65.47  0.001538203    1.304    0.233
        49 -11.9268     97.4435     53.6621   9.4546184678e+01   5.2307704562e+01    0.3685059    0.2788349 -31.98  0.001352129    1.314    0.239
        50 -10.9719     13.1918    231.5845   1.4840674075e+02   2.4951576769e+01    0.2279308    0.1540899  26.31  0.001228087    2.398    0.583
        51 -13.7010     83.9306     45.0932   9.5628408721e+01   5.6099482463e+01    0.6437443    0.5816742  76.41  0.003158591    1.570    0.363
        52 -11.4305     17.8435    229.2160   1.4747288678e+02   2.4924790375e+01    0.1625811    0.1503381  78.50 0.0008036451    1.499    0.333
        53 -12.6838    166.8638     44.9444   7.5678721593e+01   3.7919760961e+01    0.4127625    0.2859523  71.48  0.001261803    1.436    0.304
        54 -11.7142      7.6784    227.9364   1.4909489557e+02   2.6240302954e+01    0.1554006    0.1483415  32.25  0.001105183    1.757    0.431
        55 -15.3856     65.3795    129.2185   1.2483788093e+02   4.1930408258e+01     2.377411     1.639529  77.24    0.0110255    1.898    0.473
        56 -11.9860     70.3981    206.2493   1.3549142838e+02   2.3176188295e+01    0.4250804    0.2441489 -45.90  0.001540821    2.431    0.589
        57 -13.4271    180.9716     30.8327   6.9504469865e+01   3.6268190285e+01    0.6170665    0.5118893  44.57  0.003133873    1.314    0.239
        58 -12.9344    184.9643     24.3217   6.7228404506e+01   3.6061685011e+01    0.5011687    0.3936912  57.05  0.001605015    1.243    0.195
        59 -12.0875     95.9463    226.2147   1.3271715027e+02   1.5054846200e+01    0.2241459    0.1767552 -81.13   0.00077403    1.246    0.197
        60 -12.0836     11.1597    206.8201   1.4708280732e+02   3.0203623615e+01    0.3080873    0.2596447  62.08  0.002162169    1.338    0.253
