#   1 NUMBER                 Running object number                                     
#   2 MAG_AUTO               Kron-like elliptical aperture magnitude                    [mag]
#   3 X_IMAGE                Object position along x                                    [pixel]
#   4 Y_IMAGE                Object position along y                                    [pixel]
#   5 X_WORLD                Barycenter position along world x axis                     [deg]
#   6 Y_WORLD                Barycenter position along world y axis                     [deg]
#   7 A_WORLD                Profile RMS along major axis (world units)                 [deg]
#   8 B_WORLD                Profile RMS along minor axis (world units)                 [deg]
#   9 THETA_WORLD            Position angle (CCW/world-x)                               [deg]
#  10 FWHM_WORLD             FWHM assuming a gaussian core                              [deg]
#  11 ELONGATION             A_IMAGE/B_IMAGE                                           
#  12 ELLIPTICITY            1 - B_IMAGE/A_IMAGE                                       
         1 -14.9747      9.5074    154.4914   1.4428485866e+02   4.1668683430e+01     10.11408     4.359006  72.64   0.04544744    3.121    0.680
         2 -13.3416    195.7425     29.2507   6.8971285774e+01   3.2831587698e+01      1.37805     1.176168  69.11  0.006808743    1.101    0.092
         3 -13.5087    210.2929     10.1868   6.2539063569e+01   3.1499193477e+01     1.304311    0.9286219  43.72  0.007392125    1.739    0.425
         4 -12.2541      3.0473      7.7738   1.1541577107e+02   7.1158338053e+01    0.9304784     0.224625 -42.14  0.004519939    3.036    0.671
         5 -10.8503      2.6943     38.0884   1.2614161291e+02   6.6417007340e+01    0.2313219    0.1319499 -53.86  0.001520969    1.500    0.333
         6 -11.8051    244.9782    248.4696   1.0935722532e+02  -1.3449225340e+01    0.3655448    0.2913993   8.94     0.002587    1.054    0.052
         7 -10.6034    126.7554    249.8712   1.3132264716e+02   5.8632070942e+00    0.3196364    0.1390627  53.07  0.001501708    2.072    0.517
         8 -10.2424    121.9814    250.1683   1.3223637215e+02   6.6036171552e+00     0.248778    0.1351398  53.56  0.001192495    1.556    0.357
         9  -9.4396    111.7060    250.6313   1.3416521510e+02   8.1995925672e+00    0.1762373   0.09107281  51.51 0.0005749451    1.577    0.366
        10  -9.9499     32.9774    249.1811   1.4753355763e+02   1.9611635805e+01    0.2302067    0.1973021  87.83  0.001849538    1.420    0.296
        11  -9.8849     29.2762    249.0082   1.4810830704e+02   2.0080516313e+01    0.3226485    0.1736644 -62.95  0.002032663    2.159    0.537
        12 -10.9235     35.1649    243.9511   1.4683407396e+02   2.0317166781e+01    0.4422047    0.3104261  82.77  0.003242052    1.104    0.094
        13 -10.3259      2.8289    248.0766   1.5209684397e+02   2.3138107319e+01     0.299119     0.160463 -77.05  0.002128104    1.635    0.389
        14 -10.3834    198.4960    245.9909   1.1736362510e+02  -5.7743791958e+00    0.1683679    0.1237328 -36.51 0.0005045409    1.596    0.373
        15  -9.8231     20.7222    243.7767   1.4913362688e+02   2.2021518033e+01    0.3407809    0.1170705  64.80  0.001627057    2.752    0.637
        16  -9.4183      5.8126    240.9283   1.5128446551e+02   2.4139741197e+01    0.1470375    0.1086457  87.63 0.0004051826    1.220    0.180
        17 -10.0916     12.6057    240.3290   1.5020311566e+02   2.3544699532e+01    0.1848197      0.11466  47.78  0.001288378    1.600    0.375
        18  -9.3082    156.7403    249.9482   1.2575471529e+02   7.6508573574e-01    0.1401003    0.1109757 -50.27 0.0008847392    1.541    0.351
        19 -10.2856    172.9374    222.4980   1.1853081060e+02   2.4399470971e+00    0.3218548     0.117881  37.74  0.001212231    2.687    0.628
        20 -13.9671     40.0464    224.6474   1.4457787425e+02   2.3461205625e+01     1.047702    0.8569024 -47.12  0.005043842    1.942    0.485
        21  -9.4125      1.4843    215.9011   1.5057308036e+02   2.9358163299e+01    0.1628988   0.07999705 -83.56  0.001020996    1.564    0.361
        22 -11.1360    139.8119    250.0901   1.2893080144e+02   3.6317459244e+00     0.512458    0.1331401  40.42  0.001822949    3.509    0.715
        23 -12.6074     34.4946    232.2125   1.4611746295e+02   2.2635681625e+01    0.2825589    0.2237253 -79.44 0.0007720989    1.355    0.262
        24  -8.6464    152.4799    212.8867   1.2110731107e+02   7.9937208447e+00    0.1775738    0.1379254 -54.76 0.0003171192    1.431    0.301
        25 -12.6457      9.5378    206.8810   1.4862687931e+02   3.0404406150e+01    0.6876575    0.4513832  42.98  0.003101194    1.702    0.412
        26 -11.4455     61.1356    198.3639   1.3806260155e+02   2.6264667450e+01    0.2768238    0.2215327 -57.90  0.000519418    1.465    0.317
        27 -11.1630     16.7935    197.9334   1.4666537171e+02   3.1549032822e+01    0.2605295    0.1691446  64.70 0.0004386241    1.340    0.254
        28  -9.5950    192.1615    193.6442   1.0949302873e+02   3.9412230952e+00    0.6113606    0.3157085 -67.03  0.001510543    7.771    0.871
        29 -11.3602    232.7698    235.3724   1.0931210212e+02  -9.9198931206e+00    0.6946034    0.3980341 -61.50  0.002242142    7.582    0.868
        30 -11.1827      2.8093    192.9544   1.4886285415e+02   3.3906539211e+01    0.3699599    0.1971756 -75.96  0.002352489    1.459    0.315
        31 -11.6210      6.4354    188.6599   1.4788189070e+02   3.4487848719e+01    0.3289249    0.3194736  84.17  0.002703933    1.505    0.335
        32 -11.7841     67.3299    190.1517   1.3580490182e+02   2.7227358132e+01    0.2961647    0.2257822 -62.95 0.0004961714    1.340    0.254
        33 -10.2449     54.2829    229.2110   1.4242876930e+02   2.0748128707e+01    0.2974879    0.1614207  69.35  0.001169944    1.674    0.403
        34 -10.6080     77.4396    177.3885   1.3188116659e+02   2.8664461198e+01    0.2378428    0.2118622 -81.82  0.000389257    1.101    0.091
        35 -13.1245     64.1997    175.4340   1.3458703144e+02   3.0998094553e+01    0.4991246    0.2775519 -46.80  0.001482247    2.214    0.548
        36 -10.1171     97.9727    174.5788   1.2675036822e+02   2.6060712518e+01    0.2963051    0.1945344 -67.41  0.000303479    1.493    0.330
        37 -11.7115     85.0600    168.0776   1.2870697506e+02   2.9661786844e+01     0.655671    0.6051845 -86.24  0.003977031    1.091    0.083
        38  -8.9785     60.1856    227.0601   1.4116914374e+02   2.0386356559e+01    0.2128092     0.108939  76.79  0.001083243    2.083    0.520
        39  -9.8246     97.7500    152.3101   1.2287531893e+02   3.1300910811e+01    0.2731772    0.2583275  30.82 0.0008112252    1.228    0.186
        40 -11.9471     86.2334    151.3706   1.2557307561e+02   3.3411206949e+01    0.3031848      0.24439 -49.47 0.0006109596    1.286    0.222
        41 -12.3278     67.3547    143.8577   1.2900797328e+02   3.7968930258e+01    0.7162701    0.4947338  75.72  0.003692135    1.684    0.406
        42  -8.8287    100.5357    148.0260   1.2134942768e+02   3.1833295655e+01    0.2161174    0.1362775 -54.99 0.0003596148    1.506    0.336
        43  -8.3501    192.2355    143.6958   9.8838191393e+01   1.3703858175e+01    0.1471211    0.1186747 -71.96 0.0002786753    1.483    0.325
        44  -9.4611    109.4666    137.1317   1.1681026294e+02   3.2794783668e+01    0.4056073    0.2602323 -24.99    0.0016194    2.497    0.600
        45 -10.3145     96.5817    134.4681   1.1959368893e+02   3.5710379748e+01    0.2640483    0.2264899 -31.84  0.000429639    1.324    0.245
        46 -11.0833     56.9216    131.5184   1.2955762378e+02   4.2229094484e+01    0.5912795    0.2200608 -69.73   0.00207211    3.328    0.700
        47 -10.6300     32.6231    132.3108   1.3604861665e+02   4.4689354494e+01    0.2656273    0.1759788  74.65  0.001424801    1.732    0.422
        48  -9.0862     79.4737    131.6308   1.2355017345e+02   3.9125393416e+01    0.2368475    0.1564885  60.96 0.0007507742    1.819    0.450
        49  -9.4908     89.5406    130.2409   1.2056499432e+02   3.7877260236e+01    0.2475792    0.1979205  75.17 0.0008141157    1.417    0.295
        50 -11.2236     22.3260    126.4301   1.3784215299e+02   4.6953155602e+01    0.3129686    0.1893036  47.34   0.00138798    1.932    0.483
        51  -8.8779    106.6079    123.8983   1.1457057992e+02   3.6395397090e+01    0.2007635    0.1710338 -55.82 0.0003853849    1.117    0.104
        52  -8.7864      7.3283    226.3024   1.5023079528e+02   2.6755223051e+01   0.09323215   0.07368811 -66.64 0.0006212975    1.646    0.392
        53 -10.0389    167.6700    112.7500   9.6562449637e+01   2.5766546013e+01    0.3493015    0.2741491 -83.20 0.0007605135    1.580    0.367
        54  -9.3105    203.4509    111.4821   8.8826036618e+01   1.7528699053e+01    0.1521894    0.1474953 -52.49 8.381285e-05    1.024    0.024
        55 -10.0953     56.0219    223.0250   1.4155979753e+02   2.1756474985e+01    0.2751032     0.187995 -56.62  0.001063531    1.813    0.448
        56  -9.0234     38.4124     94.8433   1.2768426491e+02   5.2592913396e+01    0.1796114    0.1688148  61.61 0.0005685461    1.283    0.221
        57 -11.0941    242.5039     84.2535   7.5814831792e+01   1.3429654614e+01    0.3849337    0.1351526 -35.31  0.001364921    2.844    0.648
        58  -8.8584    184.4736     77.4622   8.3644603189e+01   2.8437219781e+01    0.1500778    0.1459592  65.21 0.0008081071    1.062    0.058
        59 -10.0405     43.1998     67.6061   1.1939903731e+02   5.7755827114e+01    0.2653871    0.1944794  54.95  0.001081963    2.031    0.508
        60 -10.6337      2.2833     64.1504   1.3287415484e+02   6.1603696538e+01    0.2650414   0.08357798 -63.74  0.001205022    2.740    0.635
        61  -8.9364     36.7057     64.3273   1.2075414633e+02   5.9045106142e+01    0.1915197    0.1138326  31.49 0.0006813161    1.957    0.489
        62  -9.6451     32.7040     62.3547   1.2162640414e+02   5.9799136291e+01    0.2277382    0.1901871  45.01  0.001051518    1.613    0.380
        63 -10.4544     15.0776     55.3616   1.2614440785e+02   6.2528199840e+01    0.1900566    0.1804713 -50.51 0.0007001288    1.321    0.243
        64 -10.7222      2.6519     48.6820   1.2906872063e+02   6.4524167550e+01    0.2415294    0.1208512 -62.24  0.001411269    1.903    0.475
        65 -11.2963     99.4080    247.2663   1.3603227165e+02   1.0751968668e+01    0.3952354     0.322052  13.60  0.002435837    2.087    0.521
        66  -9.6861     46.8835    249.3301   1.4529891774e+02   1.7868321509e+01     0.181909    0.1001714  61.38 0.0004271186    1.415    0.293
        67 -10.0993    106.9775    247.9807   1.3473455528e+02   9.4252407037e+00    0.2067727    0.1228808  68.14  0.001135559    1.714    0.416
