#   1 NUMBER                 Running object number                                     
#   2 MAG_AUTO               Kron-like elliptical aperture magnitude                    [mag]
#   3 X_IMAGE                Object position along x                                    [pixel]
#   4 Y_IMAGE                Object position along y                                    [pixel]
#   5 X_WORLD                Barycenter position along world x axis                     [deg]
#   6 Y_WORLD                Barycenter position along world y axis                     [deg]
#   7 A_WORLD                Profile RMS along major axis (world units)                 [deg]
#   8 B_WORLD                Profile RMS along minor axis (world units)                 [deg]
#   9 THETA_WORLD            Position angle (CCW/world-x)                               [deg]
#  10 FWHM_WORLD             FWHM assuming a gaussian core                              [deg]
#  11 ELONGATION             A_IMAGE/B_IMAGE                                           
#  12 ELLIPTICITY            1 - B_IMAGE/A_IMAGE                                       
         1 -15.1076     68.5615    144.1926   1.0462242378e+02   3.7370012975e+01     5.901069     2.583795  64.26  0.003787435    3.877    0.742
         2 -14.4406    199.6054     38.0688   4.6284705720e+01   3.0572991966e+01     1.938972     1.386322  22.19  0.006374423    1.875    0.467
         3 -13.1633      2.5109     21.4357   1.0863231482e+02   7.3924201420e+01     1.199772    0.3478986 -68.17  0.004840218    2.901    0.655
         4 -13.3598      2.8298      6.1943   1.0246862272e+02   7.7226081706e+01     1.088156     0.684798 -59.81  0.006558273    1.417    0.294
         5 -10.6855     60.1899      7.8017   6.4730280022e+01   6.9023981730e+01    0.1898891    0.1873188  -2.60 0.0005636588    1.176    0.149
         6 -10.8986     43.7230      5.4541   7.1411544596e+01   7.2474071469e+01    0.3540831    0.1097573 -31.02  0.001228218    3.621    0.724
         7 -14.5503    210.7931     26.5729   4.1891630532e+01   2.9303094498e+01     1.603535     1.093391   7.63  0.003435421    2.053    0.513
         8 -12.8871    235.4852      3.1943   3.4032675087e+01   2.6206286520e+01    0.7527706    0.3765795  79.57  0.003928427    2.116    0.527
         9  -9.6864     67.9311     52.1597   8.3108993081e+01   5.9628198943e+01    0.2169245    0.1947877  74.75 0.0006742291    1.304    0.233
        10 -11.7801    139.4085    247.7315   1.0094822783e+02   8.3201389449e+00    0.4087527    0.2403469 -62.39  0.002577299    2.683    0.627
        11 -12.9903     13.7880    191.2057   1.2254440809e+02   3.2837427542e+01    0.5824395    0.2534999 -62.76  0.002269021    2.628    0.620
        12 -13.6655     49.4775    220.6228   1.1638969273e+02   2.3657631313e+01     2.153154     1.469378  34.64    0.0146992    1.324    0.244
        13 -14.0598     87.0359    224.2081   1.0891844445e+02   1.8598524274e+01     1.812576    0.9707831  50.56 0.0004786349    1.613    0.380
        14 -14.1908     44.0300    202.1904   1.1641723853e+02   2.7704007781e+01     1.832409    0.7770388  68.37  0.002737222    2.609    0.617
        15 -14.1192     53.9628    190.7470   1.1335573636e+02   2.8884804079e+01     1.701726     1.019387  73.68  0.009669914    1.690    0.408
        16 -13.9564     68.4170    243.1088   1.1401469508e+02   1.7735798103e+01     0.671876    0.4443077  53.02  0.001828231    1.212    0.175
        17  -9.2467     82.4733    194.4969   1.0711308056e+02   2.4590403406e+01    0.1254516    0.1052529  49.94 0.0008100583    1.010    0.010
        18 -13.3754     24.1448    225.2759   1.2171117644e+02   2.5409589171e+01    0.5289027    0.4039129  32.75  0.002949143    1.370    0.270
        19  -9.0354     71.1283    185.3635   1.0883299698e+02   2.7901196301e+01    0.1739126   0.09533837  44.06   0.00021281    1.533    0.348
        20 -16.7600      8.4745    242.5443   1.2518307791e+02   2.3889182820e+01     7.135464     2.131412  23.08   0.02384217    4.830    0.793
        21 -15.7159     45.3037    249.7330   1.1871740599e+02   1.9203934736e+01      9.55177     2.437448  24.74   0.02055652   16.401    0.939
        22 -11.1193    145.3161    180.6823   9.1084778926e+01   1.7768112452e+01    0.2900908    0.2258253  35.43 0.0009777283    1.134    0.118
        23 -10.8231     99.1303    180.7746   1.0163216820e+02   2.4975614300e+01    0.3037581    0.2136438  23.38  0.001431598    1.542    0.352
        24 -12.1269     68.6780    175.8695   1.0845168998e+02   3.0206525841e+01    0.3819394    0.2682737 -38.02  0.002095797    1.971    0.493
        25 -12.1623     73.0915    171.0214   1.0681401925e+02   3.0673560249e+01    0.3429182    0.2546303 -51.54 0.0007552915    1.567    0.362
        26 -16.5518      7.0080    202.5229   1.2439988536e+02   3.1168445930e+01     8.093295     1.299862 -78.76   0.02266164    5.414    0.815
        27  -9.7486    204.5117    176.4538   7.8591551324e+01   8.8752120510e+00    0.2460164    0.1152975 -36.41  0.001209912    2.174    0.540
        28  -9.8037    197.2628    176.7443   7.9961070194e+01   9.9713777590e+00    0.2216567    0.1424959  35.82  0.001258328    1.447    0.309
        29  -9.5192     39.3236    176.9508   1.1578999261e+02   3.3398162359e+01    0.2069001     0.132524  48.72 0.0005482899    1.310    0.237
        30  -9.6724    188.5217    175.0064   8.1285837444e+01   1.1627883860e+01    0.1833469    0.1211733 -35.02 0.0006180016    1.575    0.365
        31  -9.2419     82.3130    175.6628   1.0506056681e+02   2.8430247304e+01    0.1397357   0.08757953  62.95 0.0007046225    1.691    0.409
        32 -12.5673     55.2679    146.5939   1.0871050065e+02   3.8504760773e+01     2.649463     0.791458 -50.74  0.008849203    4.160    0.760
        33 -13.7901     70.1970    156.9598   1.0587186656e+02   3.4185707317e+01    0.5991465    0.5465744   5.20  0.001910887    1.345    0.256
        34 -13.8717     58.3671    242.3599   1.1589132142e+02   1.8981474788e+01     0.464701    0.2430893  50.80  0.002021609    1.461    0.315
        35 -10.5465    158.3808    161.0361   8.4831298274e+01   1.9042216271e+01    0.3327671    0.2672498  65.68  0.001243744    1.616    0.381
        36 -13.1008     81.8792    161.7178   1.0340502665e+02   3.1500677503e+01     1.220581    0.4235395  51.64 0.0004304521    3.480    0.713
        37 -12.3964     88.7602    154.6702   1.0059789549e+02   3.2058336648e+01    0.5839317    0.4458317 -21.72  0.003041649    1.832    0.454
        38  -9.6996    187.6780    152.3165   7.7115299249e+01   1.5328392150e+01    0.1242137    0.1097829 -89.36 0.0003376734    1.663    0.399
        39  -9.2938    112.5865    150.7678   9.3744052311e+01   2.9087950646e+01     0.182175    0.1364452 -72.13  0.000361377    1.546    0.353
        40 -11.2650    133.5792    143.9476   8.7213581143e+01   2.6796444703e+01    0.9996433    0.2839696 -54.87  0.002729426    5.284    0.811
        41 -10.6591    174.3486    148.7929   7.9055582126e+01   1.8322723631e+01    0.2698624    0.2473727  78.01  0.001009895    1.411    0.291
        42 -11.1801     38.5680    146.1157   1.1339622779e+02   4.0490458260e+01    0.3407066    0.2207636  50.69 0.0007238922    1.404    0.288
        43  -9.9691     83.5327    143.0317   1.0022113289e+02   3.5499979424e+01    0.2459623    0.1749362  53.23 0.0003458062    1.364    0.267
        44 -11.0304    102.7249    139.8531   9.4374097912e+01   3.3156994507e+01     0.546396     0.361015 -21.59  0.002334847    2.464    0.594
        45 -12.3795     89.8817    139.8830   9.7921566201e+01   3.5250739053e+01    0.2730495    0.2594618 -42.70  0.000398362    1.172    0.146
        46 -11.1055    135.7180    127.7090   8.3255183084e+01   2.9736041509e+01    0.4968034     0.169757 -49.96  0.001635168    3.179    0.685
        47 -12.5333     44.1216    129.6216   1.0994082083e+02   4.3907417780e+01     0.483743    0.3577123  81.94  0.001838947    1.285    0.222
        48 -10.5250    105.9625    130.7946   9.1741628835e+01   3.4645439452e+01    0.3432376     0.303389 -88.43  0.001262588    1.198    0.165
        49 -10.4253    111.7045    130.4181   9.0091112173e+01   3.3702571373e+01    0.3268925       0.2558  11.98 0.0009587976    1.600    0.375
        50 -10.3156    160.8077    127.9419   7.7426683105e+01   2.4692497267e+01    0.2713753    0.2105786 -61.56   0.00136093    1.583    0.368
        51 -11.1076     98.8360    126.4667   9.2873960592e+01   3.6884462717e+01    0.3006082    0.2546954   4.41  0.001152407    1.451    0.311
        52 -10.3309    117.4795    124.5155   8.7267516490e+01   3.3945062931e+01    0.2514897    0.1886367 -24.25 0.0006973395    1.680    0.405
        53 -11.4702    120.7817    121.6166   8.5731305741e+01   3.3951665721e+01    0.4595947    0.2676483 -32.84  0.001861087    2.222    0.550
        54 -10.8471    134.9116    118.7282   8.1384142232e+01   3.1768775462e+01    0.5007794    0.1501964 -44.69  0.001548699    3.394    0.705
        55  -9.9926    107.9475    119.1004   8.8702073504e+01   3.6947968806e+01    0.2111133    0.2053402  56.10 0.0002826561    1.021    0.021
        56 -11.4586    139.3633    171.6937   9.0925411776e+01   2.0370218841e+01    0.3434613     0.276274  38.78   0.00111754    1.127    0.113
        57  -9.4584     25.6796    194.5595   1.2004970284e+02   3.1080388699e+01     0.286013   0.04927931  45.50 0.0007801951    3.319    0.699
        58  -9.7975    168.1724    112.9839   7.2270806964e+01   2.5962344617e+01    0.3046068     0.220194 -82.06  0.001324027    2.287    0.563
        59 -10.3261    134.7054    105.3496   7.8106093591e+01   3.4606860303e+01    0.5773031    0.1331269 -43.60  0.001532062    4.370    0.771
        60 -10.1217    205.4396    110.2024   6.4538821325e+01   1.8746061788e+01    0.2777962    0.2223117  38.81 0.0009325581    1.311    0.237
        61 -11.3167    117.3123    109.7115   8.3856627176e+01   3.7260004721e+01    0.5109659    0.3165976  48.95  0.002238014    1.644    0.392
        62 -10.9788     34.2818    166.1400   1.1625259953e+02   3.6294369339e+01    0.4501954    0.1971323  48.25  0.002210551    1.940    0.484
        63 -10.0597     33.9494    100.1849   1.0934103606e+02   5.2376997921e+01    0.2705549    0.1765231  82.25  0.001026102    1.597    0.374
        64  -9.9338     32.0647     96.1668   1.0942833535e+02   5.3580818390e+01     0.200951    0.1698548 -52.39 0.0003640895    1.206    0.171
        65  -9.9606    241.3078     99.3005   5.6654314613e+01   1.3507674398e+01    0.1275019   0.09170882   5.04 0.0002037899    1.598    0.374
        66 -12.0927    203.1753    198.9938   8.2690741516e+01   6.0213804407e+00    0.3958418    0.2315119  21.92  0.002294756    1.577    0.366
        67 -10.3124     41.8792     91.9716   1.0497079264e+02   5.3668299975e+01    0.2095037    0.1921868 -84.17 0.0006285652    1.029    0.028
        68 -10.4485     52.8499     90.6704   1.0051084119e+02   5.2706965196e+01    0.2894432    0.1623932 -44.87  0.001280488    1.882    0.469
        69 -11.3000    111.8758    197.5546   1.0084055995e+02   1.9909588736e+01    0.2721974    0.2334364   7.33  0.001671701    1.346    0.257
        70 -10.0140    158.4639     81.8848   6.5981222937e+01   3.3832855209e+01    0.2332502     0.146597 -36.78 0.0006182853    1.552    0.356
        71  -9.0103    184.3793     77.2830   5.9666370781e+01   2.8550509034e+01    0.1517282    0.1109734  21.96 0.0007011621    1.721    0.419
        72  -9.1182     56.5313     66.4955   9.2842965149e+01   5.8177849259e+01    0.1427792    0.1335765 -63.84 0.0001736695    1.047    0.045
        73 -10.6473     13.3976     59.8140   1.1129122309e+02   6.4220563654e+01    0.2524292    0.2064252 -77.72 0.0004235676    1.110    0.099
        74 -13.3000    190.0051     45.1970   4.9562202434e+01   3.1964992479e+01    0.8923519    0.6329153  39.82  0.001894053    1.650    0.394
        75 -10.9168     34.0770    227.3470   1.1984198170e+02   2.4074222247e+01    0.1715236    0.1500285  62.99 0.0001777599    1.230    0.187
        76 -10.9662     11.5009     52.2892   1.1079166280e+02   6.6189094417e+01    0.2559136    0.1357153  34.98  0.001145406    2.125    0.529
        77 -11.4143    143.9257     48.7699   5.8527352033e+01   4.3059370296e+01    0.4979351    0.3271429 -78.95  0.002041952    2.173    0.540
        78 -10.0338    146.5077     43.0053   5.5988939741e+01   4.3278447612e+01    0.2199858    0.2017785  68.84 0.0003772176    1.089    0.081
        79  -9.2963     72.9362    226.8784   1.1201126198e+02   1.9875940409e+01    0.1590633    0.1351829  30.49 0.0005698657    1.268    0.211
        80 -11.7040    164.8289    217.0553   9.2494847349e+01   9.0672152469e+00    0.3274679    0.1473342  29.54   0.00165378    1.979    0.495
        81  -9.2107     33.0934    204.3421   1.1892622817e+02   2.8420857061e+01    0.1614517    0.1164043  53.18 0.0009078207    1.072    0.067
        82  -9.6158    189.6679     15.0131   4.0612276615e+01   3.5665318793e+01    0.1986863    0.1669606 -37.77 0.0007651848    1.138    0.121
        83  -9.6612    151.5113    196.4694   9.2210666839e+01   1.4131580347e+01    0.1263461    0.1066568  30.47 5.331416e-05    1.038    0.036
        84 -10.3655    106.9464    210.4946   1.0341580661e+02   1.8316294619e+01    0.1920086    0.1002503  35.81 0.0007139573    1.568    0.362
        85 -10.5470    113.8014    207.9088   1.0166447138e+02   1.7804795771e+01    0.2135927    0.1615723  72.16  0.001215157    1.600    0.375
        86 -12.0228    193.9960    196.2470   8.3898472385e+01   7.7228341979e+00    0.9395865    0.5672551 -63.58   0.00353129    5.995    0.833
