#   1 NUMBER                 Running object number                                     
#   2 MAG_AUTO               Kron-like elliptical aperture magnitude                    [mag]
#   3 X_IMAGE                Object position along x                                    [pixel]
#   4 Y_IMAGE                Object position along y                                    [pixel]
#   5 X_WORLD                Barycenter position along world x axis                     [deg]
#   6 Y_WORLD                Barycenter position along world y axis                     [deg]
#   7 A_WORLD                Profile RMS along major axis (world units)                 [deg]
#   8 B_WORLD                Profile RMS along minor axis (world units)                 [deg]
#   9 THETA_WORLD            Position angle (CCW/world-x)                               [deg]
#  10 FWHM_WORLD             FWHM assuming a gaussian core                              [deg]
#  11 ELONGATION             A_IMAGE/B_IMAGE                                           
#  12 ELLIPTICITY            1 - B_IMAGE/A_IMAGE                                       
         1 -13.9923    161.2737     52.7582   7.9328353223e+01   3.8287083808e+01     1.728269     1.258286  12.96  0.006004554    1.934    0.483
         2 -13.6891    173.5142     36.7643   7.2618568569e+01   3.7481617707e+01    0.8666585    0.8160695 -60.03  0.003060652    1.126    0.112
         3 -11.5538    189.8837     14.7041   6.4476381999e+01   3.6065820672e+01    0.2640084    0.2243568 -42.20 0.0008930163    1.309    0.236
         4 -13.5404    191.3231      4.8853   6.1884296957e+01   3.6726467549e+01    0.9190246    0.5978078  71.01  0.004173875    1.300    0.231
         5  -9.8085     18.1456    231.3834   1.4766740591e+02   2.4494461084e+01    0.1007548   0.05977421 -71.23 0.0006428311    1.600    0.375
         6 -18.4861     64.4545    245.2094   1.4069869504e+02   1.6042317498e+01     6.597971     5.551942  75.27   0.03912527    1.184    0.155
         7 -18.9896     47.9512     97.1013   1.2346724753e+02   5.1437758985e+01     18.27695     1.225187 -57.22   0.03100971   14.085    0.929
         8 -11.6293     11.3392    206.1887   1.4713747602e+02   3.0341456558e+01    0.2637336    0.2089015  41.00  0.001643409    1.599    0.374
         9 -10.8444    163.5294    204.1394   1.1545815706e+02   7.4533736534e+00    0.2814304    0.2754747   8.55 0.0004904775    1.096    0.088
        10 -10.8662    158.7863    204.8839   1.1659276682e+02   8.2169107607e+00    0.3420279     0.220706  69.51  0.001505043    2.179    0.541
        11 -11.7239    207.0056    179.8185   1.0174612690e+02   3.5954311735e+00    0.7407171    0.4290991  28.26  0.003169204    2.089    0.521
        12 -13.1773    139.2182    200.3994   1.2002453357e+02   1.2858141799e+01    0.5465833    0.3807602 -51.58  0.002156636    1.536    0.349
        13 -11.8861    155.1643    196.9882   1.1596855110e+02   1.0503362439e+01    0.3954549    0.2745706  83.12  0.001771141    2.117    0.528
        14 -11.8388     34.8960    184.2334   1.4059864657e+02   3.2679113386e+01    0.2102608     0.200464 -73.38 0.0004345799    1.363    0.266
        15 -10.9048    208.6897    197.0602   1.0487430340e+02   1.3496311798e-01    0.2298337    0.1875789  48.50 0.0005118168    1.300    0.231
        16 -11.9453    196.0338    171.6491   1.0225459709e+02   7.3728052027e+00    0.6786329    0.3851546 -48.93  0.001982965    1.867    0.464
        17 -10.6277    194.0083    165.7862   1.0141752817e+02   8.9568437858e+00    0.3167499    0.2907379 -39.44 0.0009762137    1.089    0.082
        18  -9.8260      3.7348    176.1605   1.4628608768e+02   3.7502695226e+01   0.09748535   0.06531462  65.96 0.0006301152    1.387    0.279
        19 -10.1568    230.6408    166.3250   9.4385568658e+01   1.4755691898e+00    0.1404252    0.1131892 -79.40  0.000704349    1.779    0.438
        20 -10.6637    122.2595    165.5698   1.1758594915e+02   2.3831919240e+01    0.2889512    0.2173876  77.14 0.0003573854    1.529    0.346
        21  -9.9730    223.6663    163.5980   9.5093300373e+01   3.3271885255e+00    0.2393873    0.1651019 -55.77 0.0009594329    1.713    0.416
        22 -10.3117    237.5033    159.4707   9.1686222764e+01   1.3949740810e+00    0.1398457    0.1286977 -26.43 0.0008098184    1.025    0.025
        23  -9.9311    198.8784    222.5216   1.1151232282e+02  -2.4231212648e+00    0.1975665     0.118724  39.07  0.000379866    1.499    0.333
        24 -10.5099    139.5247    156.0658   1.1149431368e+02   2.2589855601e+01    0.2381287     0.199999  50.26 0.0004726735    1.180    0.153
        25 -12.9431    134.0578    145.5699   1.1052547043e+02   2.6128290241e+01     1.373994    0.3388795 -54.42  0.003181558    5.674    0.824
        26 -10.4839    174.8093    148.9407   1.0177046398e+02   1.6586409655e+01    0.2877565    0.2189608 -65.97 0.0007059511    1.518    0.341
        27 -12.1632    145.2829    146.1925   1.0793872434e+02   2.3630781951e+01    0.5240875    0.3747032  78.86  0.002237574    1.885    0.470
        28 -12.5721     94.2632    136.9884   1.1887200841e+02   3.5688108161e+01    0.5563354    0.3130115 -51.52  0.002448239    1.667    0.400
        29 -12.1338    103.3236    138.6150   1.1682245522e+02   3.3719634375e+01    0.3004323    0.2911892 -39.93 0.0005218903    1.119    0.107
        30 -12.9737    112.3540    139.4890   1.1465738302e+02   3.1848630826e+01    0.8619581     0.593571   3.87  0.003430834    2.646    0.622
        31 -11.9453    106.0825    130.8232   1.1436440804e+02   3.5056739996e+01    0.4101208    0.3519435 -78.11  0.001214187    1.210    0.174
        32 -11.1049    107.3707    125.5982   1.1280744349e+02   3.6037448590e+01     0.304454    0.2478028 -31.24 0.0006091302    1.365    0.267
        33 -12.2559    135.5675    122.2660   1.0462317085e+02   3.1117849765e+01    0.6213722    0.2645158 -52.52  0.002119146    2.537    0.606
        34 -11.9621    118.8905    129.4322   1.1065856783e+02   3.2934257010e+01    0.4151054    0.3694136 -45.34  0.001105941    1.122    0.108
        35 -11.5119    143.0303    127.8877   1.0416301216e+02   2.8244703474e+01     0.394287    0.2935234  83.51  0.001095406    1.780    0.438
        36 -10.8629    160.7459    127.5801   9.9865983483e+01   2.4355053076e+01     0.326743    0.2627269 -65.12  0.001463276    1.346    0.257
        37 -13.2107    124.1097    125.4957   1.0835406929e+02   3.2789887697e+01    0.8071097    0.5009936 -63.07  0.003337544    1.887    0.470
        38 -11.3446     92.8846    123.7838   1.1634267193e+02   3.9039102220e+01    0.2874634     0.203348  60.71  0.001366351    1.680    0.405
        39 -10.8927    113.2124    118.6953   1.0956153867e+02   3.6511017525e+01    0.2740614    0.2574975  64.79 0.0003652352    1.102    0.093
        40 -10.6595    168.4264    113.3043   9.4518513226e+01   2.5603852193e+01    0.4009751    0.2873698 -81.52  0.001191187    1.935    0.483
        41 -12.4491     90.5228    109.0549   1.1348527374e+02   4.2819127738e+01    0.5008803    0.3256365 -29.43  0.001633792    1.875    0.467
        42 -10.2029    163.0670    110.2283   9.4922770294e+01   2.7498712061e+01       0.2619    0.2245672 -64.33 0.0003052045    1.215    0.177
        43 -10.2989    205.3730    110.2475   8.6232921477e+01   1.7508504923e+01    0.3175739    0.2145366  48.97 0.0009839698    1.546    0.353
        44 -12.5805    193.3613    192.4126   1.0703981470e+02   3.9078981428e+00    0.8452518    0.4999403 -51.93  0.002917389    1.951    0.487
        45  -9.5776    180.1681    192.3917   1.0977031652e+02   6.5029069120e+00    0.2063968      0.12973  53.25 0.0005433041    1.689    0.408
        46 -10.8052    163.1335    210.3645   1.1662767325e+02   6.3242381392e+00    0.2586502    0.2096298 -61.30  0.001033881    1.397    0.284
        47  -9.4015    148.2925     79.6746   8.9920327010e+01   3.6971372954e+01     0.153355     0.118719 -76.15 0.0003239695    1.618    0.382
        48 -11.3604     88.7236     78.1816   1.0553427019e+02   4.9636578621e+01    0.3109775    0.2288909  45.94 0.0007987317    1.489    0.329
        49  -9.1840    117.3381     78.3103   9.7296422038e+01   4.4142118765e+01    0.1516765    0.1143084   7.68 0.0007044559    1.687    0.407
        50  99.0000     14.4949    248.1178   1.4927603990e+02   2.1677236086e+01    0.3337292   0.07849157  49.99  0.001614113    2.978    0.664
        51 -12.7423    177.7754     29.1738   6.9883885181e+01   3.7377526188e+01    0.4818058     0.443666   8.79  0.001367578    1.329    0.248
        52  -9.7419     13.3891     59.8155   1.2619074063e+02   6.2159528159e+01     0.164381    0.1196954 -59.27 0.0004129408    1.342    0.255
        53 -11.0207    167.6603    189.9897   1.1196944823e+02   9.4659118109e+00    0.4114899    0.2894185 -28.43  0.001751351    1.756    0.430
        54  -9.6708    125.7106     26.5851   7.8583342752e+01   5.0105917783e+01    0.1856946    0.1220913  68.41  0.000934697    1.648    0.393
        55 -10.7549    168.9644    234.6457   1.1940606623e+02   8.7238484288e-01    0.2142538    0.1960617 -45.10 0.0001782058    1.264    0.209
