#   1 NUMBER                 Running object number                                     
#   2 MAG_AUTO               Kron-like elliptical aperture magnitude                    [mag]
#   3 X_IMAGE                Object position along x                                    [pixel]
#   4 Y_IMAGE                Object position along y                                    [pixel]
#   5 X_WORLD                Barycenter position along world x axis                     [deg]
#   6 Y_WORLD                Barycenter position along world y axis                     [deg]
#   7 A_WORLD                Profile RMS along major axis (world units)                 [deg]
#   8 B_WORLD                Profile RMS along minor axis (world units)                 [deg]
#   9 THETA_WORLD            Position angle (CCW/world-x)                               [deg]
#  10 FWHM_WORLD             FWHM assuming a gaussian core                              [deg]
#  11 ELONGATION             A_IMAGE/B_IMAGE                                           
#  12 ELLIPTICITY            1 - B_IMAGE/A_IMAGE                                       
         1 -11.6534     80.1398     23.4406   7.8756678658e+01   6.0557115948e+01    0.6758413    0.2853231  35.15  0.002808275    2.676    0.626
         2  -9.7132     64.4654     13.7091   7.9874994035e+01   6.4559832900e+01    0.4985715    0.2706277 -12.94  0.002401506    2.149    0.535
         3 -10.6301     77.3746     13.1517   7.5081386409e+01   6.2448366197e+01    0.7491541    0.2587263  42.43  0.002519134    2.842    0.648
         4  -9.3420     71.4257      8.8881   7.5096541483e+01   6.4028258656e+01    0.2955547    0.2213673  30.24  0.001267482    1.280    0.219
         5  -9.9277    133.7965     13.6198   6.0327980946e+01   5.0245615817e+01    0.3525325    0.2426338  47.75 0.0003372943    1.336    0.251
         6  -8.5322    108.5193     10.9848   6.5037178495e+01   5.6437324635e+01    0.2129203     0.169304 -40.79 0.0008696734    1.453    0.312
         7  -8.7175     96.8979     12.2165   6.8667921910e+01   5.8787753499e+01    0.3439181    0.1944022  32.02  0.001210537    1.801    0.445
         8  -9.4554     31.3528     10.9367   9.2304231626e+01   6.9364596417e+01    0.4627608    0.3173576   2.77 0.0005956379    1.483    0.326
         9  -9.3480     32.0664      6.1484   8.9673613828e+01   7.0010891792e+01    0.2575699    0.1930526  14.15 0.0003218415    1.361    0.265
        10  -8.6937    125.2352     10.2548   6.0826093313e+01   5.2668005962e+01    0.2755674    0.2034337  26.38 0.0003447619    1.338    0.253
        11  -8.1702    142.9340      9.5773   5.7024487024e+01   4.8390342106e+01    0.2179917   0.08680915  43.49 0.0004427748    2.493    0.599
        12  -7.9939    156.0728      7.6200   5.4046656731e+01   4.5223659375e+01    0.2000694    0.1743253  46.84 0.0004943308    1.075    0.070
        13  -9.3204    119.2377      6.9864   6.0827095190e+01   5.4411772168e+01    0.2537021    0.2057869  23.55 0.0002283531    1.158    0.136
        14 -10.0153      7.8798      5.3991   1.0127663297e+02   7.2314563141e+01    0.4681965    0.2220362  -4.01   0.00166969    2.958    0.662
        15  -8.6587    100.4113      6.6437   6.5253334354e+01   5.8658813964e+01    0.2495068    0.2067765  63.24  0.000739962    1.409    0.290
        16  -8.9822     76.6431      2.9020   7.0458930072e+01   6.3785198664e+01    0.3354649    0.1604227 -12.65  0.001419745    2.318    0.569
        17  -9.5401     46.6519      6.1528   8.3221317922e+01   6.8210201718e+01    0.2455119    0.1978061  -8.37 0.0003835238    1.050    0.047
        18  -8.9544     41.3252      5.6437   8.5247899388e+01   6.8979943390e+01    0.3008397    0.1955918 -16.19  0.001063606    1.333    0.250
        19  -9.6171     92.5653      5.3151   6.6796865859e+01   6.0435059434e+01    0.4460123     0.184413  48.11  0.001972115    2.192    0.544
        20  -9.8259     84.8291      5.4908   6.9137742050e+01   6.1957496284e+01    0.2602036    0.2242447  -4.62  0.001655004    1.103    0.094
        21  -8.4821    133.1408      4.0114   5.6768038466e+01   5.1358833515e+01    0.4578537    0.1838174  36.88  0.001661462    2.824    0.646
        22  -8.1591    125.7366      3.8015   5.8152629344e+01   5.3175970842e+01    0.2056284      0.16565  31.49 0.0005083542    1.150    0.131
        23  -8.2000    111.6869      4.5681   6.1547414741e+01   5.6383720501e+01    0.2569615    0.1131749  53.19  0.001114725    2.015    0.504
        24  -8.7133     57.7543      3.2099   7.7265411523e+01   6.6967148698e+01    0.2634731    0.1686071  20.59   0.00114545    1.530    0.346
        25  -8.3105    152.9473      3.5949   5.3139100888e+01   4.6406172895e+01    0.2989682   0.09790009  57.12   0.00109631    2.481    0.597
        26  -8.6838    105.0861      1.8532   6.1959381091e+01   5.8114932277e+01    0.3047102    0.1792012  34.27  0.001526691    1.609    0.379
        27  -8.6088    109.9662      1.5464   6.0662970117e+01   5.7055117843e+01    0.2538926    0.1324772  64.89 0.0008890116    2.094    0.522
        28  -7.8544    143.1419      2.2013   5.4266869560e+01   4.9029727670e+01    0.2023867    0.1689751  40.39 0.0002899797    1.113    0.101
        29  -7.8079      2.8050      1.3722   1.0215945613e+02   7.3311050223e+01    0.1386068   0.08392071  -7.08 0.0006687566    1.708    0.415
        30  -7.6524    119.9368    118.5456   9.7376552069e+01   3.4660139337e+01    0.2032482    0.1321055  18.14 0.0008085503    2.564    0.610
        31  -9.6461    210.8196    249.6911   1.0222651296e+02  -4.2203555368e+00    0.2630493    0.1555584  41.38  0.001277764    1.310    0.237
        32  -8.8409    169.6525    250.3092   1.0908747732e+02   2.1867746869e+00    0.1706049   0.08350971  39.02 0.0009713944    1.633    0.388
        33  -8.1449    133.7014    107.5285   9.1247868170e+01   3.4255740690e+01    0.4695102    0.1856631 -44.09  0.001646503    2.496    0.599
        34  -7.6243    124.0319    107.0000   9.3544888138e+01   3.6360386553e+01    0.2390251   0.08544438  44.71  0.000793112    2.878    0.653
        35  -7.4420    109.0420    106.4948   9.7315469509e+01   3.9364753285e+01    0.2025042    0.1320427  15.23 0.0008095118    2.626    0.619
        36  -9.0201     14.7386    105.1583   1.2295001841e+02   5.1560831354e+01    0.3250371    0.1524718 -41.12  0.001650034    2.724    0.633
        37  -7.7408     93.6172    103.7625   1.0081713607e+02   4.2679665158e+01     0.292217    0.1804053   1.45 0.0009712825    4.437    0.775
        38  -7.5220    139.9849     99.5180   8.7579697550e+01   3.4575006758e+01    0.2157352    0.1328733  24.33 0.0008092442    2.452    0.592
        39  -8.8127    243.2178     97.2322   6.6533543899e+01   1.0736924749e+01     0.217579    0.1244814  69.88 0.0008127339    2.489    0.598
        40 -10.2507     12.3271     94.3195   1.2215674176e+02   5.4125732123e+01    0.4943638     0.281783 -25.61  0.002295572    2.648    0.622
        41  -8.6533    222.0936     94.2011   6.9147080458e+01   1.6044746609e+01     0.238716    0.2036852 -25.30 0.0003090602    1.128    0.114
        42  -8.3878     43.3794     92.4799   1.1280516243e+02   5.1954261287e+01    0.2393313    0.1767066 -23.17  0.001413471    1.759    0.431
        43  -8.1836     96.2884     90.5319   9.6744157398e+01   4.5152940650e+01    0.4498619    0.2892493  -8.98  0.001740243    3.094    0.677
        44  -7.5333     83.1933     93.5978   1.0129552792e+02   4.6622728815e+01    0.1858943     0.136127  20.95 0.0009492085    1.742    0.426
        45  -7.9206    110.4826     90.5079   9.2767846564e+01   4.2567410859e+01    0.2602621    0.1416536  31.59  0.001030291    2.365    0.577
        46  -7.7131     61.6797     89.6903   1.0672335370e+02   5.0508954281e+01    0.1337395   0.09362524 -32.57 0.0004089395    1.644    0.392
        47  -9.8317     37.1721     81.2808   1.1243904112e+02   5.5060463807e+01    0.6651548    0.3327156 -29.65   0.00295239    3.114    0.679
        48  -8.2462     66.3129     84.2518   1.0401449318e+02   5.1122018613e+01    0.2049104    0.1959731  56.33 0.0008223931    1.193    0.162
        49  -8.6449     88.0295     78.9623   9.5973814704e+01   4.9042819202e+01    0.4881516    0.2762044  15.65  0.001799008    3.511    0.715
        50  -9.7025      8.4316     77.2614   1.2073712249e+02   5.8108424492e+01    0.4506679    0.1786316 -41.93  0.001982553    2.667    0.625
        51  -7.8518    184.4185     77.7783   7.1472446908e+01   2.8068113771e+01    0.2138638    0.1514269 -19.61  0.000406289    1.579    0.367
        52  -8.5804     49.1903     77.0519   1.0764857596e+02   5.4778809585e+01    0.4080474    0.2315891 -10.53  0.001709067    3.580    0.721
        53  -7.8717    248.3108     77.3236   6.0812689657e+01   1.2585504983e+01    0.1441526    0.1081884  13.97 0.0007038584    1.654    0.395
        54  -7.1895    119.5128     76.4889   8.6206882468e+01   4.3658950093e+01    0.1515081    0.1406117 -12.84 0.0001723163    1.095    0.087
        55  -8.1424     23.4799     69.4586   1.1440261189e+02   5.8800807189e+01    0.2232333     0.159964 -61.56 0.0009479966    1.102    0.093
        56  -8.6985     23.6262     74.1547   1.1532132750e+02   5.7769593206e+01    0.3617129    0.1504167 -53.60  0.001845541    1.824    0.452
        57  -9.4100     27.3471     70.2288   1.1327169809e+02   5.8333625095e+01    0.4402773    0.2074493 -27.44   0.00193989    3.392    0.705
        58  -8.0947     74.9902     74.0952   9.8603919746e+01   5.2115013779e+01    0.2075222    0.1823602 -37.48 0.0003943136    1.061    0.057
        59  -7.6869    106.5801     67.2687   8.6916376295e+01   4.8092230128e+01    0.3675357    0.1217753  39.95  0.001183898    3.487    0.713
        60  -8.3990     83.9373     64.1860   9.2779360067e+01   5.2776453149e+01    0.3231981     0.214091   3.91  0.001456843    2.324    0.570
        61  -8.1725     15.8596     64.3961   1.1592874137e+02   6.0425214526e+01    0.1464085    0.1023614 -17.07  0.000944886    1.775    0.437
        62  -9.5901     62.1250     61.4815   9.9111902367e+01   5.6546395065e+01     0.662327    0.2681462  25.02  0.002484664    3.868    0.741
        63  -9.3246     37.4163     59.3555   1.0714236829e+02   5.9776447649e+01    0.4744348     0.195804 -32.60  0.001866535    3.561    0.719
        64  -8.6252     19.2627     61.5691   1.1413585832e+02   6.0797256054e+01    0.1428892    0.1050819 -17.95 0.0009410881    1.617    0.382
        65  -9.2736    123.3181     59.5923   7.9722141473e+01   4.6052555577e+01    0.2648422    0.2468361 -31.37 0.0003749357    1.056    0.053
        66  -8.7356     27.0461     59.8162   1.1096583590e+02   6.0585566383e+01    0.1767309    0.1263014  63.26 0.0008644965    1.988    0.497
        67  -8.1247     11.1784     60.6265   1.1677210697e+02   6.1519836555e+01    0.1390856    0.1011781 -17.78 0.0003733389    1.659    0.397
        68  -8.1355    111.0984     58.6509   8.2756588639e+01   4.8821351268e+01    0.2939126    0.1801999  29.23  0.001272098    1.983    0.496
        69  -8.5503     97.7416     57.9302   8.6423975528e+01   5.1573973446e+01    0.4541112    0.2585215  -7.18  0.001454981    4.285    0.767
        70  -7.7436     48.7778     58.5835   1.0288289637e+02   5.8764997391e+01    0.1575672    0.1197267  44.01 0.0009463733    1.639    0.390
        71 -10.0161     74.7534     50.5019   9.1210173753e+01   5.6909282610e+01    0.5196927    0.3038853 -29.98 0.0004581035    1.745    0.427
        72  -8.5561    118.5190     51.0384   7.8043668197e+01   4.8599662293e+01    0.2709653    0.2131589  46.43 0.0005751434    1.304    0.233
        73  -9.1105     45.2531     48.8366   1.0118352158e+02   6.1127357448e+01    0.3228146    0.1993647 -28.25  0.001438551    1.683    0.406
        74  -8.3601    106.8615     48.6434   8.0442334986e+01   5.1466655785e+01    0.3716215    0.2364487  11.00  0.001558747    2.344    0.573
        75  -9.2892     56.7010     42.8928   9.4902614058e+01   6.0909086637e+01     0.775308    0.3251526 -26.14  0.002411856    5.181    0.807
        76  -9.1773     13.5577     45.5489   1.1239344887e+02   6.4503757386e+01    0.3937501    0.1748849 -45.09 0.0006707408    1.760    0.432
        77  -8.5044    218.9414     45.7268   5.6501716472e+01   2.4197804973e+01    0.3715659    0.2150566 -24.80  0.001220474    1.798    0.444
        78  -8.8762      2.3845     43.7806   1.1632360620e+02   6.5486763300e+01    0.4187682    0.2410615 -83.80  0.002422262    2.191    0.544
        79  -8.2528      4.0000     40.0283   1.1477232622e+02   6.6161641296e+01    0.2529812   0.09929237 -64.74  0.001173388    2.103    0.525
        80  -7.3420    142.5017     44.4691   6.9740009614e+01   4.4091786719e+01    0.1516884    0.1419546  18.75 0.0002447455    1.044    0.043
        81 -10.9739     83.0894     40.1774   8.4613839360e+01   5.7399460227e+01    0.3933282     0.251947 -20.58            0    1.659    0.397
        82  -8.8826     87.6079     38.1395   8.2351469549e+01   5.6941955330e+01    0.2713426    0.2222151   1.39 0.0007213657    1.211    0.174
        83  -7.6523    113.5806     42.1606   7.6158706663e+01   5.1132981114e+01    0.2048685    0.1332472 -17.65 0.0009343856    1.694    0.410
        84  -8.0209    123.9466     39.8075   7.2538906021e+01   4.9197966578e+01    0.2302511    0.1860745  18.86 0.0004029273    1.287    0.223
        85  -9.1965     68.4821     37.5149   8.8599734680e+01   6.0226776833e+01    0.4634766    0.1977278 -44.82  0.002017381    2.231    0.552
        86  -9.1031     72.4115     34.8034   8.6141561834e+01   6.0080595066e+01    0.4359392     0.247134  16.42  0.001809108    2.577    0.612
        87  -8.6139     35.5106     37.9973   1.0136865668e+02   6.4239732868e+01    0.3127333    0.1632038 -50.13  0.001057632    1.589    0.371
        88  -8.8869     38.8950     35.5004   9.9128911037e+01   6.4367772429e+01    0.3194898    0.1671951  12.97  0.001345336    2.687    0.628
        89  -7.4379    192.9996     38.0289   5.8053596178e+01   3.1968884297e+01    0.1776494    0.1703518  77.00 0.0003398924    1.023    0.022
        90  -8.6507     10.6012     47.2113   1.1395892740e+02   6.4346216846e+01    0.2421334    0.1397603 -49.29 0.0005779256    1.301    0.231
        91  -8.7985     55.1711     36.3602   9.3063562427e+01   6.2304163918e+01     0.392216     0.209121 -14.25  0.001454741    3.235    0.691
        92  -8.5685     92.0214     37.0008   8.0505338913e+01   5.6313559290e+01    0.2109238    0.1895009 -13.23 0.0004284165    1.033    0.032
        93  -8.8619     23.8194     35.9649   1.0546436901e+02   6.5668041088e+01    0.2407961    0.1912617 -62.45  0.001168978    1.372    0.271
        94  -9.4474     22.0159     32.0399   1.0492419324e+02   6.6559596576e+01    0.2465295    0.1717301 -20.90 0.0003012263    1.423    0.297
        95  -8.0256    106.0131     36.3266   7.6057088238e+01   5.3647167929e+01    0.2031928    0.1764685  27.79  0.001145124    1.127    0.113
        96  -9.9636      4.6703     32.6237   1.1251854791e+02   6.7588030557e+01    0.4724373    0.3552189  66.50  0.002996713    2.062    0.515
        97  -7.5208    165.9920     28.0396   5.9343324287e+01   4.0378648941e+01    0.1724688    0.1664253 -14.22 0.0003046826    1.071    0.066
        98  -8.7559     41.9919     28.0048   9.5026376559e+01   6.5383397920e+01    0.1903366    0.1477547 -26.58 0.0004248785    1.045    0.043
        99  -8.8794     61.9001     26.8667   8.6701169753e+01   6.2990962035e+01     0.281709     0.187324 -27.97   0.00102964    1.313    0.239
       100  -9.1406     63.4779     23.4396   8.4642268187e+01   6.3296840306e+01    0.2580826    0.1962706  27.65  0.001580875    1.368    0.269
       101  -7.2653    110.3024     26.3222   7.0909931368e+01   5.4177468877e+01    0.1474417    0.1011772  16.71 0.0007028569    1.632    0.387
       102  -7.6521    101.8334     25.7249   7.3013790780e+01   5.6057925489e+01    0.2253719    0.1590114  25.99 0.0007443808    1.447    0.309
       103  -9.9408    200.1048    249.6179   1.0396953148e+02  -2.5435798696e+00    0.2340488     0.201524  66.49  0.001762565    1.589    0.370
       104  -8.5783     25.5884     25.2502   1.0094954642e+02   6.7514669744e+01    0.3286905    0.1118222 -37.00  0.001365751    2.723    0.633
       105  -8.3795     28.8144     21.2292   9.7943770016e+01   6.7928738915e+01    0.2263059    0.1432037 -23.13 0.0008142497    1.460    0.315
       106  -6.9650      3.2624     25.3218   1.1097131042e+02   6.9061911146e+01    0.1156145   0.05765071 -40.19   0.00035873    1.554    0.357
       107  -8.9086    144.6241     23.3570   6.1744605827e+01   4.6448338611e+01    0.2543646    0.2243311  32.49 0.0002600286    1.092    0.084
       108  -8.7954     46.1255     21.0633   9.0429012020e+01   6.6061151481e+01    0.3135336    0.1518141 -41.40   0.00145921    1.803    0.445
       109  -7.7926    129.0256     22.5018   6.4768530429e+01   5.0383226186e+01    0.2159988    0.1337501  53.49 0.0006900904    1.537    0.349
       110  -9.2121     92.4658     20.4503   7.3547214954e+01   5.8662501213e+01    0.2608443    0.2134385   7.18 0.0005780616    1.129    0.114
       111  -8.1577    140.2138     20.0954   6.1445577893e+01   4.7938030196e+01    0.2144769    0.1788704  32.88 0.0004543508    1.157    0.136
       112  -8.8612     10.0151     19.5322   1.0590738102e+02   6.9733031025e+01    0.4026591    0.1804006 -13.99  0.001937171    3.401    0.706
       113  -7.8568      5.3587     18.7910   1.0783959852e+02   7.0155187562e+01    0.1726446   0.08374473 -53.27 0.0002826098    1.574    0.365
       114  -7.7932    118.3250     19.3273   6.6042594307e+01   5.3274982943e+01    0.1519939   0.09843199  23.66 0.0007049627    1.696    0.410
       115  -7.5878    111.9101     19.1879   6.7591157139e+01   5.4740284719e+01    0.1940479    0.1475194  18.80 0.0003452787    1.311    0.237
       116  -8.1035    127.7823     16.8448   6.2860035803e+01   5.1347477505e+01    0.2135748    0.1728603  27.76 0.0003978866    1.188    0.158
       117 -10.1781    186.0681    248.0582   1.0608417583e+02  -1.4824669220e-01    0.2561284    0.2027362 -13.76  0.001864604    1.638    0.390
       118  -9.0179      2.2217    110.2091   1.2677537697e+02   5.1280677708e+01    0.3567749    0.1234702 -48.51  0.001676575    3.208    0.688
       119  -9.3096    245.9294    244.2891   9.5798372697e+01  -8.9801626529e+00    0.1827563    0.1439389  14.19  0.000283147    1.144    0.126
       120  -7.8938     68.4747    245.5230   1.2516043592e+02   1.7794306262e+01    0.1047145   0.07630432  64.36 0.0008090399    1.057    0.054
       121  -8.2083    105.5296     13.9858   6.7081477989e+01   5.6756667222e+01    0.2495393    0.1236541  23.61 0.0009214779    2.802    0.643
       122  -8.4802    227.6675    244.6737   9.8780322650e+01  -6.2902557802e+00    0.1176351   0.06863887  19.37 0.0007051287    1.712    0.416
       123  -7.5777      4.2492    249.0131   1.3481472967e+02   2.4440576157e+01    0.1117989   0.05837464 -89.85 0.0003860543    1.544    0.353
       124  -8.3827     88.0914     13.1656   7.1670403343e+01   6.0443027646e+01    0.2065109    0.1554859  18.41 0.0004471819    1.251    0.200
       125 -10.0578    187.5607    234.3114   1.0399933738e+02   1.2842475857e+00    0.2470956    0.2300158 -12.23  0.001237761    1.316    0.240
       126 -10.0571    139.8407    230.7334   1.1184136860e+02   9.6556658717e+00    0.1913607    0.1745123  63.86 0.0003885576    1.180    0.153
       127  -7.7893    141.9189    216.3135   1.0967823470e+02   1.1542819831e+01    0.1718788    0.1285913  49.50 0.0002205641    1.092    0.084
       128  -8.6931     12.5516    206.6981   1.3175111593e+02   3.0786872032e+01    0.2427134   0.08662477  34.76  0.001334267    3.194    0.687
       129  -7.7647    177.4934    205.4471   1.0152813689e+02   7.0089259554e+00    0.1290676    0.1073371  37.67 0.0008079794    1.037    0.036
       130  -8.5724    248.9863    201.6710   8.8248028100e+01  -4.9917742547e+00    0.1888641    0.1483687   1.30 0.0007729101    1.137    0.120
       131  -8.7206    247.5639    184.0378   8.5185574545e+01  -2.6226234247e+00    0.2081984    0.1691068  49.20 0.0006261647    1.515    0.340
       132  -8.8972    234.7662    178.6002   8.6307534221e+01   3.5726689910e-01    0.2365588    0.1943374  36.44 0.0006333874    1.203    0.169
       133  -8.6338    236.0781    168.9339   8.4141058328e+01   1.4466105798e+00    0.2200656    0.1693796  33.13 0.0003371701    1.199    0.166
       134  -8.0975    156.9237    169.0777   9.9366677399e+01   1.7006751126e+01    0.2034476     0.184832  50.02 0.0003259521    1.007    0.007
       135 -10.0493    203.7005    166.3165   8.9496137402e+01   8.1270216799e+00    0.2749691    0.2250051  40.99 0.0003286277    1.149    0.130
       136  -8.9655    223.4908    149.1606   8.2175729927e+01   6.8325060202e+00    0.2431878     0.215706  21.90  0.000256012    1.050    0.048
       137  -7.9987    209.3707    147.7579   8.4477413543e+01   9.9845152065e+00    0.1949574    0.1331054 -23.56 0.0005569514    1.568    0.362
       138  -7.6375    133.3842    147.8238   1.0041890644e+02   2.5790119898e+01    0.1994376    0.1324327 -40.19 0.0006696222    1.711    0.416
       139  -9.0174     67.3435    144.6463   1.1523690781e+02   3.7328544926e+01    0.3871701    0.2195075  63.52  0.001778472    1.965    0.491
       140  -7.5534    108.3494    137.3114   1.0420779021e+02   3.2665768749e+01    0.1371272    0.1133668 -12.90 0.0007045536    1.717    0.418
       141  -7.4099     69.3718    133.3066   1.1301926135e+02   3.9600356273e+01    0.1274556    0.0985461 -32.48 0.0007032854    1.763    0.433
       142  -7.4964    144.3468    126.3552   9.3287919611e+01   2.8052547673e+01    0.1559369    0.1207396   0.74 0.0007035425    1.832    0.454
       143  -8.1321     11.7600    121.9710   1.2565384354e+02   4.8068880649e+01    0.1623783   0.07468443 -73.69 0.0008943465    1.653    0.395
       144  -7.1350    180.6739    120.6405   8.3838740606e+01   2.1136847303e+01    0.1618147    0.1200481   8.49 0.0007043037    1.783    0.439
       145  -8.0324    100.1675    118.7054   1.0244897827e+02   3.8221723858e+01    0.3127623    0.1788584  20.77  0.001133248    3.230    0.690
