#   1 NUMBER                 Running object number                                     
#   2 MAG_AUTO               Kron-like elliptical aperture magnitude                    [mag]
#   3 X_IMAGE                Object position along x                                    [pixel]
#   4 Y_IMAGE                Object position along y                                    [pixel]
#   5 X_WORLD                Barycenter position along world x axis                     [deg]
#   6 Y_WORLD                Barycenter position along world y axis                     [deg]
#   7 A_WORLD                Profile RMS along major axis (world units)                 [deg]
#   8 B_WORLD                Profile RMS along minor axis (world units)                 [deg]
#   9 THETA_WORLD            Position angle (CCW/world-x)                               [deg]
#  10 FWHM_WORLD             FWHM assuming a gaussian core                              [deg]
#  11 ELONGATION             A_IMAGE/B_IMAGE                                           
#  12 ELLIPTICITY            1 - B_IMAGE/A_IMAGE                                       
         1 -15.6214    175.2802     56.8000   2.9014876569e+02   6.0701393379e+00    0.1047557   0.08518679  -2.81  0.006800618    1.370    0.270
         2 -15.8172    192.5033     35.2264   2.8981604510e+02   6.2143232257e+00    0.1321844   0.08257691 -62.60   0.01132369    1.606    0.377
         3 -16.4070    189.3154     83.8254   2.9015398691e+02   5.6749652057e+00    0.1545273   0.06503186 -65.38   0.01248275    2.564    0.610
         4 -15.8979    213.1024     48.3080   2.8965923550e+02   5.9398882973e+00   0.09381113   0.04001986 -54.47  0.007999211    2.207    0.547
         5 -16.4298    242.5545     64.7129   2.8942103526e+02   5.5738093385e+00    0.2074703   0.08549318 -77.70   0.01211944    5.444    0.816
         6 -18.8537    221.8405     83.9581   2.8977929996e+02   5.4775462986e+00     0.415287    0.3271402 -21.51    0.0464292    1.428    0.300
         7 -15.5570    215.2150     60.6592   2.8971141090e+02   5.7852416288e+00   0.09857015   0.04999899 -12.93  0.006150136    5.095    0.804
         8 -12.4506    147.4792     36.5552   2.9034475157e+02   6.4700884651e+00   0.03289929    0.0175691 -43.78  0.003024305    1.974    0.493
         9 -11.1362    247.8663     15.7547   2.8905602445e+02   6.1039168725e+00   0.01857632    0.0132113 -73.89  0.001534777    1.541    0.351
        10 -11.8435    203.1718     14.5284   2.8956440321e+02   6.3877268810e+00   0.01796789   0.01714958 -34.82  0.001050444    1.046    0.044
        11 -10.4195     94.7957     11.8363   2.9080134975e+02   7.0706111366e+00   0.01285154  0.008142123 -48.96 0.0004462077    1.560    0.359
        12 -12.0056    238.5043     10.4577   2.8913116668e+02   6.2212448953e+00   0.01849286   0.01485833  -0.73  0.001263235    1.393    0.282
        13 -10.9995    142.9839      8.6240   2.9022363090e+02   6.8180298424e+00    0.0152153   0.01361582 -83.00  0.001131499    1.182    0.154
        14 -10.2119    141.5290      3.7052   2.9020996379e+02   6.8832741595e+00   0.01244581  0.009356151  26.35  0.000650303    1.339    0.253
        15  -9.1615     19.6365      9.2878   2.9165654635e+02   7.5498295978e+00  0.007037504  0.004886477  58.45 0.0007023512    1.694    0.410
        16  -9.6957    117.0312      7.7307   2.9051845241e+02   6.9842921124e+00  0.008813252  0.008480773  11.89 0.0003117559    1.045    0.043
        17  -9.7783    232.2593      6.9488   2.8918146112e+02   6.2992217069e+00  0.009317447   0.00851625  75.96 0.0003747911    1.169    0.144
        18 -10.6052    201.3046      6.8203   2.8953813942e+02   6.4874813433e+00   0.01127442   0.01024973  12.85 0.0004204533    1.124    0.111
        19  -9.6295    158.7242      7.0453   2.9003175758e+02   6.7414494992e+00  0.008880255  0.008431299 -45.52 0.0002907264    1.044    0.042
        20  -9.9722    131.9781      6.5078   2.9033786410e+02   6.9085182325e+00   0.01045923  0.006428508  29.73  0.001037003    1.613    0.380
        21 -10.4601    213.3200      4.8104   2.8938686708e+02   6.4380744717e+00   0.01108547  0.009221128  16.65  0.000462026    1.245    0.197
        22 -10.1759    151.8104      2.2177   2.9008178593e+02   6.8384997520e+00   0.01158409   0.01100724 -86.56 0.0006423044    1.090    0.083
        23  -9.5703    165.9872      1.7812   2.8991510336e+02   6.7581685126e+00  0.009259696  0.008739515  11.69  0.001137042    1.072    0.067
        24  -9.6563    180.0602      1.4965   2.8975061943e+02   6.6766641143e+00  0.009637102  0.006536756  26.18 0.0004036372    1.490    0.329
        25  -9.6363     69.0252    230.6519   2.9244907389e+02   4.7064107496e+00  0.009083373  0.008592905  18.82 0.0005618409    1.064    0.061
        26 -10.9844    228.9913    250.5004   2.9072591475e+02   3.5190068954e+00   0.01223529  0.008640494  18.35  0.001289894    1.504    0.335
        27  -9.6340    222.4766    250.4594   2.9080071748e+02   3.5586012557e+00  0.006539461  0.006439161  62.91 0.0001243603    1.038    0.036
        28  -9.7513    205.0378    249.7321   2.9099719212e+02   3.6716732943e+00  0.009315213  0.008687881  22.84  0.000498066    1.078    0.072
        29  -9.7121    182.5018    250.0040   2.9125864825e+02   3.8037949985e+00   0.01012478  0.006530401 -63.11  0.000865055    1.559    0.359
        30 -10.3546    165.7194    249.7037   2.9145031538e+02   3.9079235605e+00   0.01749421   0.01000746  48.26  0.001639845    1.941    0.485
        31 -10.1716    162.0028    246.4459   2.9147312940e+02   3.9677134874e+00  0.009281976  0.008702638  26.74 -1.167035e-05    1.071    0.066
        32  -9.6674    124.8967    250.2918   2.9192482916e+02   4.1458374605e+00  0.009244394  0.008610949  23.01 0.0006888988    1.079    0.074
        33  -9.5888    113.9863    231.0000   2.9193213207e+02   4.4333392548e+00   0.01074931  0.003765943  27.42 0.0004730137    2.870    0.652
        34 -13.4163    238.9257    224.3485   2.9045019896e+02   3.7601406288e+00   0.01951556   0.01597453  49.99 0.0007189965    1.281    0.220
        35 -10.2248    219.7445    227.1060   2.9068823897e+02   3.8436809638e+00   0.01300456  0.008477235 -15.48  0.001228607    2.070    0.517
        36 -10.1759    127.1678    226.4791   2.9175217903e+02   4.4064296161e+00   0.01105651  0.009311735  75.36  0.001269141    1.334    0.250
        37 -10.8457    181.1171    223.5296   2.9111155099e+02   4.1168071335e+00   0.02172961   0.01189385  18.12  0.001455008    2.091    0.522
        38  -9.7914    165.3592    223.8830   2.9129549672e+02   4.2073076803e+00   0.01212734  0.008815516  39.66   0.00131091    1.384    0.277
        39 -10.6637     93.6695    222.3317   2.9211338649e+02   4.6548179361e+00   0.01261106   0.01161324  54.85 0.0003045296    1.126    0.112
        40  -9.7372      2.1142    222.6336   2.9317271162e+02   5.1982484928e+00    0.0111291  0.009004467 -81.98 0.0007511886    1.357    0.263
        41 -11.3416     60.2248    215.5130   2.9245773477e+02   4.9334153787e+00   0.02133242   0.01789732  46.79   0.00249223    1.229    0.186
        42 -10.6903    178.9938    216.1891   2.9109080507e+02   4.2140405477e+00   0.01737539  0.009247865 -58.68  0.001356656    1.823    0.451
        43 -10.8745    124.2113    215.8825   2.9172109925e+02   4.5461688782e+00   0.01381197   0.01233284 -19.25 0.0007984173    1.175    0.149
        44  -9.4121    235.0099    214.9640   2.9043741197e+02   3.8916265760e+00  0.008139116  0.007428414  25.05 0.0003833811    1.101    0.092
        45  -9.9586    187.5128    215.2219   2.9098658122e+02   4.1740264929e+00   0.01447492  0.008244378  10.56  0.001282988    2.267    0.559
        46 -11.2654     89.9575    211.0171   2.9208668649e+02   4.8073558981e+00   0.01420058   0.01185317 -40.67 0.0003553834    1.213    0.176
        47 -11.5685     86.9404    208.0630   2.9210336700e+02   4.8594399646e+00   0.01158984   0.01089265 -64.42            0    1.067    0.063
        48  -9.3227     15.3330    212.3410   2.9295689097e+02   5.2380223727e+00  0.007197229  0.004888566 -27.71 0.0007051282    1.751    0.429
        49  -9.8809    237.6400    207.0859   2.9035848167e+02   3.9664364314e+00   0.01181087  0.008705314  40.31 0.0006976406    1.369    0.270
        50  -9.3030    127.4380    206.5093   2.9162614835e+02   4.6347642080e+00  0.006568236  0.006389582  72.93 0.0001850118    1.058    0.055
        51 -10.5517    191.8436    202.3091   2.9085700518e+02   4.2966279808e+00     0.019669   0.01147141  69.65  0.001648567    2.733    0.634
        52  -9.5260     39.2834    204.0815   2.9262946444e+02   5.1902332469e+00  0.009003046  0.008400995 -65.39 0.0004330232    1.076    0.071
        53 -10.3621    244.4669    202.3072   2.9025031250e+02   3.9803503665e+00   0.01104943    0.0106351 -45.31 0.0001616726    1.029    0.028
        54  -9.5798    111.2004    202.2039   2.9178713459e+02   4.7816510495e+00  0.009328129  0.007648286  67.34  0.000653418    1.373    0.272
        55 -10.6011     68.1318    198.3287   2.9226078881e+02   5.0840935226e+00   0.02004739   0.01060097 -55.92  0.001384443    1.814    0.449
        56 -11.3846    214.5252    197.3834   2.9056503713e+02   4.2170183860e+00   0.02209115    0.0136614  56.04  0.002110423    1.967    0.492
        57 -11.3028    149.4399    196.1495   2.9130832967e+02   4.6220993428e+00   0.01425108   0.01096394  83.59  0.001099539    1.555    0.357
        58 -10.0560    100.0991    196.8380   2.9188232167e+02   4.9099457221e+00  0.009722753  0.008761586  64.93            0    1.182    0.154
        59 -10.6326    165.8696    195.8167   2.9111664523e+02   4.5273283415e+00     0.012675   0.01092666  42.80  0.001062655    1.179    0.152
        60 -12.1545    155.6226    194.3882   2.9122610693e+02   4.6052771797e+00   0.02593849    0.0174191  45.44  0.002696698    1.558    0.358
        61 -11.5594    143.8218    189.3210   2.9133110198e+02   4.7344221053e+00   0.01626969   0.01111746 -84.61  0.001631952    1.807    0.447
        62 -10.9645    143.6433    195.2279   2.9136956659e+02   4.6674852939e+00   0.01235169  0.009538321 -66.92 0.0004935842    1.324    0.245
        63 -10.7360    141.2429    193.0048   2.9138358019e+02   4.7074800889e+00   0.01019192   0.01013183 -71.50 0.0008051842    1.018    0.018
        64 -10.2959    117.7954    195.0134   2.9166670274e+02   4.8249396722e+00   0.01469398  0.009124108 -46.30 0.0009273487    1.623    0.384
        65 -11.3703    117.4035    189.2324   2.9163562504e+02   4.8938590699e+00   0.03087967   0.01444355 -71.01  0.001598027    2.620    0.618
        66  -9.6719    249.4879    194.7883   2.9014602757e+02   4.0366278064e+00   0.01266807  0.008873085  26.36  0.001312601    1.441    0.306
        67 -10.5007    106.8628    194.3007   2.9178858015e+02   4.8986536684e+00   0.01549859  0.009042838 -66.30 0.0006723657    1.791    0.442
        68  -9.9940    106.5193    190.5209   2.9176927611e+02   4.9442415796e+00   0.01138335  0.006516328  27.28  0.001086557    1.756    0.431
        69 -11.9137    214.8661    185.9853   2.9049074491e+02   4.3461108665e+00   0.02234118   0.01769186 -34.84  0.002421812    1.329    0.248
        70 -10.8885    217.6913    193.9221   2.9050716644e+02   4.2378102821e+00   0.01220092   0.01032892  56.11 0.0003658416    1.261    0.207
        71 -11.9817    196.3369    187.5937   2.9071438270e+02   4.4389793848e+00   0.02890693   0.01634152   7.27  0.002509227    2.452    0.592
        72 -11.4313    202.3350    192.9475   2.9067823767e+02   4.3413256957e+00   0.02480922   0.01845087 -67.53 0.0009696692    1.385    0.278
        73 -11.4539    207.9714    190.8511   2.9060029345e+02   4.3315726205e+00    0.0225683   0.01380713 -48.13  0.001018688    1.624    0.384
        74 -10.4953    231.3660    192.8675   2.9034300893e+02   4.1677207154e+00   0.01217649   0.00892512  39.17  0.001322345    1.370    0.270
        75 -10.1747    129.9720    192.5198   2.9151072873e+02   4.7806592759e+00    0.0112027  0.009040261 -89.32 6.710815e-05    1.407    0.289
        76 -10.1144     48.4954    192.2673   2.9245043501e+02   5.2713060423e+00   0.01076978   0.01050155   8.83  0.001349517    1.030    0.029
        77 -10.4862    226.0577    189.1399   2.9038118373e+02   4.2425235575e+00   0.01259316  0.008499675  77.45  0.001032915    2.014    0.503
        78  -9.1858    124.6712    190.3146   2.9155835656e+02   4.8378333203e+00   0.00698964  0.004984801  62.28 0.0007044523    1.675    0.403
        79 -10.8933    230.7585    187.0216   2.9031391095e+02   4.2386214566e+00   0.01801676   0.01092019  48.79  0.001430809    1.821    0.451
        80  -9.9379     81.8293    187.8289   2.9203794365e+02   5.1230874199e+00  0.009176108  0.007634311  57.09 0.0004432598    1.295    0.228
        81  -9.0751     74.3066    188.6883   2.9213015509e+02   5.1582043365e+00  0.006994956  0.006489232 -27.94 0.0002495014    1.096    0.088
        82 -10.2255     76.3097    186.3109   2.9209238277e+02   5.1736036930e+00   0.01031261  0.008697011  26.83  0.000761035    1.191    0.160
        83 -10.7477    110.6869    184.3513   2.9168314149e+02   4.9903203649e+00   0.01377956   0.01332756  80.08 0.0008833058    1.068    0.064
        84 -10.2662    193.1717    247.4305   2.9111979106e+02   3.7693821138e+00  0.009929623  0.005740555  40.87 0.0009467694    1.750    0.429
        85 -10.7576    132.2956    247.0186   2.9181934007e+02   4.1391997218e+00   0.01212024  0.009627611  28.41 0.0003034129    1.260    0.207
        86  -9.9305     69.4891    247.4936   2.9254710103e+02   4.5096384751e+00  0.006651477   0.00634969 -28.57 0.0002581472    1.052    0.050
        87 -11.4644    215.3183    244.1293   2.9084419239e+02   3.6744121831e+00   0.01921577   0.01268652  48.44 0.0003341988    1.635    0.388
        88  -9.8851     66.0208    242.4922   2.9255644861e+02   4.5879811293e+00  0.009930674  0.008827765 -60.73 0.0003479041    1.119    0.107
        89  -9.4641      2.2517    243.6115   2.9329961090e+02   4.9557197610e+00  0.008922776  0.006382647  10.42 0.0003173046    1.573    0.364
        90 -11.1344    138.9225    155.1811   2.9117714257e+02   5.1568596421e+00   0.01275214  0.009309961  28.09 0.0004852022    1.372    0.271
        91 -10.8186     77.0547    154.5681   2.9188835404e+02   5.5347385159e+00   0.01349164  0.009849506 -68.16  0.001455267    1.419    0.295
        92 -10.9944    141.0977    172.2869   2.9125753748e+02   4.9468801458e+00   0.01368236   0.01129002  44.88 0.0008526734    1.242    0.195
        93 -11.4730    128.7675    150.0137   2.9126258032e+02   5.2772814503e+00   0.01908333  0.008716626  37.75  0.001657967    2.138    0.532
        94 -11.0400    124.3110    149.2949   2.9130963943e+02   5.3122906634e+00   0.01280527  0.009265832 -30.28 0.0007088709    1.553    0.356
        95 -12.1844    120.3249    149.6523   2.9135790508e+02   5.3320843886e+00   0.01950015   0.01272181  68.77  0.001857943    2.076    0.518
        96  -9.0558     62.4583    173.4359   2.9217325207e+02   5.4047608232e+00  0.006480867   0.00645003 -13.97 0.0001118664    1.009    0.009
        97  -9.5760     43.1790    158.6464   2.9230515640e+02   5.6903643164e+00  0.009385161  0.006313333  13.18 0.0006362021    1.677    0.404
        98  -9.9006     11.0181    146.3456   2.9260149013e+02   6.0240698502e+00   0.01293908  0.009208877  59.52 0.0009753348    1.643    0.391
        99 -10.2069    235.4698    177.3777   2.9020002943e+02   4.3212142045e+00     0.013902   0.01004613  48.45  0.001320018    1.469    0.319
       100 -12.3857    148.0514    177.1015   2.9120693012e+02   4.8497242074e+00   0.02547736   0.01311562  42.52  0.002316776    2.007    0.502
       101 -10.0940     36.4414    147.1960   2.9231262300e+02   5.8625053281e+00  0.009121262  0.006468627 -80.59 0.0007456997    1.638    0.389
       102 -11.2304    123.6551    176.5132   2.9148505083e+02   5.0028442614e+00   0.01881695   0.01042384  69.05  0.001469731    3.151    0.683
       103  -9.8640    236.9843    243.0000   2.9058760032e+02   3.5572688233e+00   0.01108013  0.003765526  27.52 0.0008047996    2.959    0.662
       104  -9.5863     83.2041    182.2335   2.9198762359e+02   5.1793062897e+00  0.009154359  0.007702111  65.99 0.0006643988    1.314    0.239
       105 -10.5838     32.5729    135.6457   2.9228628232e+02   6.0186401732e+00   0.01443108   0.01117243 -47.58 0.0007451383    1.282    0.220
       106 -11.7769    129.2945    179.6449   2.9143921650e+02   4.9329673444e+00   0.01395097   0.01179776  53.55 0.0008914956    1.250    0.200
       107 -10.4258     96.0354    128.0275   2.9150527650e+02   5.7266622275e+00   0.01141163  0.007838251  62.06  0.001144719    1.779    0.438
       108 -10.5613     73.3105    127.9586   2.9176766264e+02   5.8635636375e+00   0.00952781  0.008369978 -56.09  0.000375802    1.125    0.111
       109 -10.6519     41.8938    126.3332   2.9212109294e+02   6.0701925872e+00   0.01050645  0.009104155 -82.35 0.0002680338    1.234    0.189
       110  -9.9084    102.4723    166.9114   2.9167061185e+02   5.2403754981e+00   0.01017661  0.006391287 -59.15 0.0009778069    1.561    0.359
       111  -9.5242     57.5380    124.5461   2.9192908029e+02   5.9972344026e+00  0.006515145  0.006443076  65.58 3.334836e-05    1.032    0.031
       112 -12.4936    122.7640    118.3558   2.9113654731e+02   5.6777125272e+00   0.02582635   0.01546275 -52.30   0.00195946    1.623    0.384
       113 -11.4213    117.1526    119.1296   2.9120619797e+02   5.7024734637e+00   0.01280876   0.00935796  28.04 0.0004410362    1.371    0.271
       114 -12.5309     98.7182    117.6783   2.9141039166e+02   5.8297204400e+00   0.04409069   0.01137961  28.02  0.002893969    3.808    0.737
       115 -10.7492     51.4515    112.6349   2.9192608197e+02   6.1707777854e+00   0.01533278   0.01004361  67.77  0.001466316    2.041    0.510
       116 -10.1982     38.5872    110.8943   2.9206423078e+02   6.2677214407e+00   0.01190599   0.00923677   1.07 0.0005795439    1.462    0.316
       117 -11.6626    113.8291    108.1381   2.9117674582e+02   5.8489144468e+00   0.01579406   0.01092448 -12.11  0.001579992    1.845    0.458
       118 -10.6360     29.4616    107.4085   2.9214837582e+02   6.3623748756e+00   0.01418077   0.01098466  56.09 0.0007806799    1.420    0.296
       119 -11.3926     99.5789    106.5011   2.9133143658e+02   5.9532130690e+00   0.02157206   0.01283933  20.22  0.001834762    1.816    0.449
       120 -11.0081     69.8023    166.9362   2.9204835694e+02   5.4356964550e+00   0.01099928  0.008882359 -26.86 0.0007746452    1.344    0.256
       121  -9.8748     63.9966     97.4634   2.9168732659e+02   6.2703751152e+00   0.01005115    0.0064725  28.17 0.0005105349    1.553    0.356
       122 -10.5383     56.1725    165.1780   2.9219510476e+02   5.5374660157e+00    0.0185033    0.0100195 -76.92  0.001590663    2.416    0.586
       123  -9.7926     85.8183     94.1249   2.9141420126e+02   6.1781236925e+00  0.009806308  0.008666574  62.12 0.0004658567    1.210    0.174
       124 -10.8419    107.5094     89.5988   2.9113529957e+02   6.1001644052e+00    0.0132265   0.01059189 -54.76  0.001364176    1.228    0.185
       125  -9.5892     20.8450     91.1579   2.9214797991e+02   6.6009087645e+00  0.008844825  0.007514873 -19.22 0.0002426542    1.269    0.212
       126  -9.1163     60.6744     89.3041   2.9167542329e+02   6.3841669529e+00  0.006922442  0.004982462  61.65 0.0003723994    1.643    0.392
       127  -9.8513    241.7843    165.6721   2.9005490267e+02   4.4178517136e+00   0.01130251  0.009753201 -71.68 0.0008451369    1.195    0.163
       128 -10.5134    236.7330    164.7906   2.9010768432e+02   4.4583909104e+00   0.01461598  0.008899448 -54.28  0.001179779    1.591    0.372
       129 -11.0650    117.8304     85.8072   2.9099248624e+02   6.0818624353e+00    0.0150953   0.01008773  54.62   0.00131047    1.721    0.419
       130 -10.5041    114.4894     84.0311   2.9102014940e+02   6.1223470288e+00   0.01037613  0.009140225 -13.74 0.0006970432    1.207    0.171
       131 -10.8897    104.7427     85.6441   2.9114286557e+02   6.1622631352e+00   0.01225696  0.009009026 -59.94 0.0006540611    1.346    0.257
       132  -9.7821     75.5189     84.5301   2.9147413493e+02   6.3502373362e+00  0.006510442  0.006477514  68.64  4.74088e-05    1.023    0.022
       133 -10.2632     58.8771     83.6059   2.9166105648e+02   6.4605003761e+00   0.01232003  0.009652539 -74.34 0.0007003119    1.362    0.266
       134 -10.1687    109.0995     81.9182   2.9106943566e+02   6.1789948954e+00   0.00985793  0.009687753  15.48 0.0007029927    1.021    0.021
       135  -9.5662     53.6386     82.3129   2.9171372030e+02   6.5067215377e+00   0.00714416  0.004911818  60.52 0.0003283415    1.752    0.429
       136 -11.0947     99.4660     79.6001   2.9116656029e+02   6.2634469487e+00   0.01527142  0.009030443  15.72  0.001436621    1.953    0.488
       137  -8.8829     33.3037    177.3123   2.9253412264e+02   5.5343371107e+00  0.006918346  0.004937123 -27.90 0.0002678622    1.614    0.380
       138 -12.4307    122.7330     76.4162   2.9087771543e+02   6.1604663653e+00   0.02401928   0.01374759  45.55  0.002183192    1.865    0.464
       139 -10.3316     95.0917     78.0906   2.9120784558e+02   6.3070435159e+00   0.01025219  0.008844268 -28.79 0.0004423761    1.212    0.175
       140 -11.4230    104.8840     73.1946   2.9106427650e+02   6.3046419466e+00   0.01665228   0.01294484  75.59  0.001006842    1.531    0.347
       141 -12.4344    130.7208     72.3745   2.9076033062e+02   6.1589883918e+00   0.02882814   0.01843687  49.73  0.002059058    1.724    0.420
       142  -9.8337     49.1260     73.1870   2.9170963466e+02   6.6387295972e+00  0.009828519   0.00874855 -26.00 0.0003112484    1.166    0.142
       143 -11.4505    120.0432     69.8356   2.9086812827e+02   6.2523065565e+00   0.01498881   0.01204496  63.65  0.000456405    1.400    0.286
       144  -9.5240     55.8318     70.3572   2.9161451370e+02   6.6311738094e+00  0.009448469  0.006317375  12.53 0.0004343881    1.702    0.413
       145 -12.5794    134.6544     67.1807   2.9068270386e+02   6.1950918201e+00   0.03475621    0.0200772 -87.71  0.002944844    2.667    0.625
       146 -11.7593    136.3956     62.7782   2.9063532169e+02   6.2352567715e+00   0.01295712   0.01141855  13.66 0.0009952657    1.168    0.144
       147 -11.4915    157.5937    161.8282   2.9100251893e+02   4.9682598587e+00   0.01539376   0.01129108  76.72  0.001135183    1.703    0.413
       148  -9.4930      9.6912     67.6795   2.9213240171e+02   6.9376923354e+00  0.006983611  0.004922226 -28.01 0.0002451271    1.642    0.391
       149 -11.8010    109.6014     64.1938   2.9095403428e+02   6.3798702977e+00   0.02228264   0.01351969 -32.52  0.001449998    1.991    0.498
       150 -10.9604    111.9532     59.7792   2.9089951391e+02   6.4165268739e+00    0.0208488   0.01335983  66.71  0.001486074    2.117    0.528
       151 -10.3005     12.6578     64.1393   2.9207619489e+02   6.9607235455e+00   0.01136396  0.008597174  38.28 0.0003970366    1.326    0.246
       152 -11.1369    154.2869    160.6592   2.9103349048e+02   5.0015708854e+00    0.0116668  0.009540965 -80.49 0.0008711784    1.330    0.248
       153 -10.5461    140.0013    165.5420   2.9122860062e+02   5.0311107366e+00   0.01009692  0.008991363 -60.84 0.0004331388    1.118    0.106
       154 -11.2763    125.6138     61.2872   2.9075080185e+02   6.3171705457e+00   0.02022997  0.005584681 -59.57  0.001391745    3.349    0.701
       155 -12.4836    142.3536     54.6519   2.9051611343e+02   6.2928872368e+00   0.02594653    0.0190234 -84.09   0.00275767    1.603    0.376
       156 -13.0414    129.6620     54.0737   2.9065932860e+02   6.3758009105e+00    0.0435345   0.02152301  11.07  0.003414606    2.983    0.665
       157 -11.3599    134.9717     49.3141   2.9056844333e+02   6.3986206329e+00   0.01552635   0.01326346 -88.26  0.001376858    1.284    0.221
       158 -11.5961    131.4738     49.0384   2.9060719831e+02   6.4228076313e+00   0.01804658   0.01216902 -63.60   0.00101721    1.496    0.332
       159 -10.9360     83.4379     60.4954   2.9123396647e+02   6.5793107412e+00   0.02091775   0.01035421  15.17   0.00143277    2.607    0.616
       160  -9.4063      1.4998     58.4366   2.9217030312e+02   7.0929066652e+00  0.006506902  0.006433363 -12.70 6.497457e-05    1.008    0.008
       161 -10.6168    137.5096     52.5454   2.9055909509e+02   6.3462195814e+00   0.01143464   0.01048168  19.63  9.09727e-05    1.102    0.092
       162 -10.1775     95.9474    166.0188   2.9174051491e+02   5.2897440062e+00  0.009682696  0.009595055 -36.89 0.0003578183    1.004    0.004
       163 -10.2946    106.5997     51.5361   2.9091046563e+02   6.5434483237e+00   0.01174255   0.01011284  10.40  0.001378592    1.213    0.176
       164 -10.1317     20.0767     52.0333   2.9191552992e+02   7.0557090425e+00  0.009849382  0.009524939  76.56 0.0003766793    1.070    0.065
       165  -9.0780     94.3171     51.3256   2.9105132485e+02   6.6195511500e+00  0.007047529  0.004924976 -27.59 0.0004691534    1.673    0.402
       166  -9.6822     29.3718     49.8474   2.9179433417e+02   7.0253330255e+00  0.009996595  0.005637238 -50.31 0.0009470849    1.733    0.423
       167 -12.4258    138.5113     44.4905   2.9049763129e+02   6.4327984906e+00   0.03463706   0.01471132  48.96    0.0026443    2.996    0.666
       168 -11.7699    140.2160     41.1746   2.9045737553e+02   6.4606664975e+00   0.02659304   0.01286093  32.68  0.001426679    2.001    0.500
       169 -11.3662    126.3777     46.6475   2.9065135114e+02   6.4809097484e+00   0.01696928  0.008594573 -41.67  0.001483661    2.188    0.543
       170 -10.4716    100.9569     54.4552   2.9099383091e+02   6.5437367971e+00   0.01094413  0.008420804 -60.44 0.0007577533    1.290    0.225
       171 -10.1061     33.3893     44.5817   2.9171526174e+02   7.0618899140e+00   0.01147398   0.01018586 -75.42 0.0006508091    1.170    0.145
       172  -9.8927     18.4960    166.0316   2.9263601080e+02   5.7526863175e+00   0.01239831  0.009069473   4.07  0.000631951    1.586    0.369
       173 -11.2867    119.1531     42.2021   2.9070742157e+02   6.5754074414e+00   0.01601228   0.00830634 -46.12  0.001453762    1.969    0.492
       174 -12.0161    126.5859     40.6061   2.9061153573e+02   6.5491097355e+00   0.02335658    0.0140011   3.89  0.001293851    2.290    0.563
       175 -10.5223    230.6217    164.7987   2.9017819342e+02   4.4950741576e+00   0.01716142  0.009641411  19.48 0.0005236756    1.977    0.494
       176  -9.3532     14.5046     40.5016   2.9190890434e+02   7.2216142833e+00  0.006536151  0.006455038  67.59 0.0008104235    1.035    0.034
       177  -9.3780      6.0376     40.4933   2.9200698882e+02   7.2722407562e+00   0.00968583  0.006456695  29.12 0.0003706596    1.494    0.331
       178  -9.4264      1.8119     40.2219   2.9205429457e+02   7.3005702196e+00  0.009271519   0.00751385 -31.11 0.0005059102    1.310    0.237
       179 -10.8506    226.0965    241.6374   2.9070463558e+02   3.6383478267e+00   0.01253404  0.009667423 -54.45 0.0006175544    1.272    0.214
       180 -10.9792    140.8833     36.5240   2.9042084923e+02   6.5101067117e+00   0.01414706   0.01026327  45.90  0.001191623    1.436    0.303
       181 -11.7620    120.1147    163.4624   2.9144550170e+02   5.1743423358e+00   0.01776765    0.0111848 -19.40  0.001643003    2.179    0.541
       182 -11.0953    123.5001     35.5736   2.9061607696e+02   6.6254940850e+00   0.01255376   0.01124419 -61.82  0.001510823    1.115    0.103
       183 -11.8302    134.9478    161.7283   2.9126344823e+02   5.1053376746e+00   0.02096036   0.01038722 -64.33  0.001859577    2.082    0.520
       184 -11.8935    132.6453     31.3143   2.9048387824e+02   6.6194983924e+00    0.0208546    0.0141307 -38.34  0.002158995    1.583    0.368
       185 -10.5701    126.6516     31.9692   2.9055728579e+02   6.6479883728e+00   0.01512479  0.006240057 -62.38  0.001225048    2.441    0.590
       186 -10.8640    138.2965     27.6645   2.9039588408e+02   6.6274718682e+00   0.02311584  0.007670063  47.43  0.001466215    4.251    0.765
       187 -10.8297    145.3287     31.1132   2.9033590617e+02   6.5455585553e+00   0.01206255   0.01105979  69.20 0.0004701661    1.159    0.137
       188 -10.3309    141.3336     29.9977   2.9037520707e+02   6.5824002082e+00   0.01207606  0.009773497  14.93 0.0003901693    1.296    0.228
       189  -9.6923    111.7489     31.9912   2.9072989001e+02   6.7372409004e+00  0.009600815  0.008487705 -57.48 0.0005565227    1.121    0.108
       190 -10.9818     70.3528     30.8896   2.9120239595e+02   6.9981618767e+00   0.01191222   0.01045266  32.99 0.0003484238    1.141    0.124
       191 -11.2372    152.5743     24.8337   2.9021318313e+02   6.5741304346e+00   0.01187766   0.01123443 -74.39 0.0003016595    1.079    0.073
       192 -10.6069     99.2537     25.7293   2.9083576634e+02   6.8842093176e+00   0.01186695   0.01060921 -30.59 0.0002233556    1.147    0.128
       193  -9.6855     43.3966     23.1800   2.9146702348e+02   7.2481436040e+00  0.008921993  0.006419987 -76.72 0.0006718831    1.554    0.356
       194  -9.1515     90.2715    163.3290   2.9178954216e+02   5.3547155996e+00  0.006875798  0.004871284 -31.64 0.0002559989    1.584    0.369
       195  -9.7037     74.6267     22.2024   2.9109913633e+02   7.0724161112e+00   0.01146915  0.008129898  -7.16 0.0008103628    1.754    0.430
       196  -9.7185     40.9865     19.7300   2.9147362084e+02   7.3022155775e+00  0.008717418  0.008597978 -22.55 0.0003283812    1.006    0.006
       197  -9.7627    153.0171     18.7076   2.9017008538e+02   6.6418448942e+00  0.009049738  0.008562404   9.62 0.0002260268    1.070    0.066
       198  -9.2767    131.4625    242.4298   2.9180073425e+02   4.1970280357e+00  0.006558323  0.006368135 -22.41 0.0002328173    1.031    0.030
       199 -10.7055     40.5855    175.6357   2.9243963290e+02   5.5101600581e+00   0.01574491  0.007742369  36.77  0.001256376    1.984    0.496
       200  -9.1621      8.4526    162.5278   2.9273063269e+02   5.8529656130e+00  0.006596271  0.006363723 -31.49 1.610739e-05    1.034    0.033
       201  -9.8567     93.0173    241.4843   2.9223861145e+02   4.4381298120e+00  0.009436492  0.008750661 -56.01 7.126272e-05    1.069    0.064
       202  -9.8600    243.9716    161.2585   2.9000240571e+02   4.4554443771e+00   0.01021703  0.008570923  49.05 0.0009809523    1.240    0.194
       203  -9.3915    243.3117     16.2625   2.8911172730e+02   6.1255945765e+00   0.00663662  0.005001757 -21.85 0.0002606991    1.535    0.349
       204 -11.4077    220.8342    177.3409   2.9036854073e+02   4.4096756240e+00   0.01893588    0.0162736 -67.23  0.002237938    1.181    0.153
       205 -10.2246    122.6893     15.5482   2.9050140410e+02   6.8604904884e+00   0.01627266  0.009489221  70.71  0.001352156    2.778    0.640
       206  -9.9436    101.4111     16.1576   2.9075151020e+02   6.9812627525e+00  0.009164413  0.006431742 -79.26 0.0005984469    1.650    0.394
       207 -10.1499     57.5805     15.8978   2.9125761067e+02   7.2469741080e+00   0.01909018  0.007441524  38.17  0.001538378    2.488    0.598
       208 -15.5005    222.4041    123.5908   2.9001815397e+02   5.0184850386e+00   0.09752688   0.06858256  -6.41  0.009615477    1.785    0.440
       209  -9.4192    130.2811     13.0123   2.9039782444e+02   6.8440012183e+00  0.009074963  0.008449225 -59.12   0.00034807    1.069    0.065
       210  -9.9335     32.5074    242.5150   2.9294353117e+02   4.7878994839e+00  0.006571788  0.006425444 -29.99 0.0008103973    1.017    0.017
       211 -10.0307    236.3140    237.6953   2.9056261331e+02   3.6223123945e+00   0.01023757  0.008341531 -88.97 0.0002709432    1.385    0.278
       212 -11.7354    128.4766    157.5208   2.9131225203e+02   5.1926005505e+00    0.0116985  0.009762827 -25.67  0.001033283    1.285    0.222
       213 -10.5642    237.0056    233.9735   2.9053169329e+02   3.6609671722e+00   0.01864449   0.01403456  -0.05  0.001842182    1.545    0.353
       214 -11.8410    187.8562    236.5089   2.9111380245e+02   3.9269739267e+00   0.01191689    0.0104527 -63.63 0.0003043356    1.143    0.125
       215 -10.0052    127.2276    238.4089   2.9182487334e+02   4.2687009622e+00   0.01248726  0.006633092  20.88 0.0006816616    2.067    0.516
       216 -12.4734    233.5120    171.0975   2.9018379533e+02   4.4052311019e+00   0.01336365   0.01294444  33.37 0.0003027137    1.040    0.039
       217  -9.4045    211.3199    234.3034   2.9082971316e+02   3.8114753593e+00  0.006934521   0.00496692 -25.84 0.0003970308    1.630    0.386
       218 -10.1966    220.1304    233.1800   2.9072124420e+02   3.7714813728e+00   0.01054885  0.008887217 -29.01 0.0009953798    1.253    0.202
       219 -12.6817    154.0935    231.3744   2.9147159746e+02   4.1886467777e+00   0.01494586   0.01448143  70.97 0.0004550333    1.065    0.061
       220 -10.3423    149.9860    226.9762   2.9149191286e+02   4.2639149126e+00   0.01404422   0.01112606 -40.68 0.0007931606    1.289    0.224
       221  -9.6803     32.0088    233.4864   2.9289393668e+02   4.8948926361e+00   0.01031169  0.006496476  27.77 0.0007212009    1.590    0.371
       222 -10.1785    175.5831    231.8609   2.9122670487e+02   4.0541280570e+00   0.01213008  0.007638994  32.54  0.001223753    1.565    0.361
       223 -10.0026     16.0917    156.3330   2.9260420396e+02   5.8787564903e+00    0.0123669  0.008803783 -48.24  0.001205479    1.392    0.282
       224  -9.6768    167.9164    232.4718   2.9131889507e+02   4.0930972798e+00  0.009982672  0.006469963  28.66  0.000461579    1.539    0.350
       225 -11.4661    134.8127    154.8764   2.9122273955e+02   5.1850305561e+00   0.01645908   0.01034797 -74.89  0.001601147    1.839    0.456
       226 -10.2401    144.9900    231.3693   2.9157660088e+02   4.2432944435e+00   0.01148099  0.009138145  87.82 0.0003136265    1.452    0.311
