#   1 NUMBER                 Running object number                                     
#   2 MAG_AUTO               Kron-like elliptical aperture magnitude                    [mag]
#   3 X_IMAGE                Object position along x                                    [pixel]
#   4 Y_IMAGE                Object position along y                                    [pixel]
#   5 X_WORLD                Barycenter position along world x axis                     [deg]
#   6 Y_WORLD                Barycenter position along world y axis                     [deg]
#   7 A_WORLD                Profile RMS along major axis (world units)                 [deg]
#   8 B_WORLD                Profile RMS along minor axis (world units)                 [deg]
#   9 THETA_WORLD            Position angle (CCW/world-x)                               [deg]
#  10 FWHM_WORLD             FWHM assuming a gaussian core                              [deg]
#  11 ELONGATION             A_IMAGE/B_IMAGE                                           
#  12 ELLIPTICITY            1 - B_IMAGE/A_IMAGE                                       
         1 -14.0704    170.2247     44.4275   6.8479570676e+01   3.7045616662e+01        1.237     1.099073  14.34  0.004091793    1.387    0.279
         2 -14.2942    190.5187     11.3962   5.6803406635e+01   3.5891421198e+01     2.273105     1.074486  68.65  0.007788705    1.833    0.455
         3 -10.9588    146.2716    243.5533   1.1846678336e+02   3.8538517161e+00    0.2823755    0.2071374 -34.50  0.001684898    1.706    0.414
         4  -9.7017    176.0836    249.3624   1.1329505253e+02  -1.7650533540e+00    0.1919049    0.1534658 -19.96 0.0009644058    1.420    0.296
         5 -19.8414     61.5366    169.3778   1.2799215201e+02   3.2902525894e+01     19.44225     5.334867 -68.00   0.06176041    3.847    0.740
         6 -10.5189     13.7984    239.6678   1.4449115312e+02   2.2990501275e+01   0.09424877   0.07177778 -74.58 0.0006093005    1.500    0.333
         7 -11.8933    153.7597    185.0597   1.0750910881e+02   1.3467946290e+01    0.4736036    0.3114567 -66.70  0.002099903    2.086    0.521
         8  -9.6491     10.7144    189.3972   1.4225979133e+02   3.3823041888e+01    0.1146036   0.08783587 -80.75 0.0007541445    1.198    0.165
         9  -9.8178    164.7089    187.2193   1.0543407161e+02   1.0942076592e+01    0.2401915    0.1854326  47.78 0.0005386048    1.290    0.225
        10  -9.9804    238.3164    185.6692   9.0421130857e+01  -1.8929676846e+00    0.1174931    0.1043533 -65.75 0.0007046546    1.684    0.406
        11 -12.1917     27.8671    183.9119   1.3795670804e+02   3.3419669376e+01    0.2109091    0.1968844  32.55 0.0005409273    1.365    0.267
        12  -9.6653    185.5231    169.0454   9.7246940427e+01   1.0471078475e+01     0.444976    0.2236478 -51.16 0.0009347912    2.343    0.573
        13 -11.0699    189.2759    178.6099   9.8420697754e+01   7.9196295592e+00    0.4246109    0.3774097  87.63  0.001289061    1.492    0.330
        14 -10.3111    188.3820    174.1731   9.7705429607e+01   8.9283269019e+00    0.3154848    0.2575514 -66.51  0.001282118    1.594    0.373
        15 -10.6181    148.9795    179.6783   1.0760062499e+02   1.5511589348e+01    0.2640492    0.2227546 -65.46 0.0006296404    1.342    0.255
        16  -9.5712     28.1541    237.2667   1.4170638446e+02   2.1912846458e+01   0.09154054   0.06964488 -78.72            0    1.396    0.284
        17 -10.7068     21.8512    235.7362   1.4280475367e+02   2.2906632556e+01   0.09091525   0.06702363 -79.45 0.0006201766    1.398    0.284
        18 -10.5779      8.6905    175.4631   1.4175223476e+02   3.7172704311e+01     0.173901    0.1152025  32.65  0.001015982    1.696    0.410
        19  -9.1051    203.6628    174.3225   9.4612152140e+01   5.9991407621e+00     0.135942    0.1157061 -89.15 0.0005738197    1.714    0.417
        20  -9.8285    195.3106    172.3962   9.5901031435e+01   7.9304517794e+00    0.2666244    0.2325713 -36.42 0.0007663883    1.171    0.146
        21  -9.4682    207.5736    171.0908   9.3175083724e+01   5.8521193918e+00    0.3559126    0.1873215 -55.50  0.001374143    2.909    0.656
        22 -10.6707    240.0091    169.0297   8.6822905887e+01   4.6894099049e-01     0.162369    0.1394098 -14.51 0.0004438504    1.002    0.002
        23  -9.7201     23.5652    165.9829   1.3737277200e+02   3.8075660901e+01    0.2353558    0.1580124  -5.73  0.001234034    2.464    0.594
        24 -10.5286    131.0581    158.5065   1.0777347158e+02   2.3729025364e+01    0.2312654     0.211325 -59.06 0.0007108998    1.126    0.112
        25 -10.0920     15.0070    156.9840   1.3870289719e+02   4.0994320999e+01    0.1856315    0.1567954 -85.64 0.0004946623    1.064    0.060
        26 -12.7014    134.0419    146.3685   1.0440105268e+02   2.5916773359e+01     1.514183    0.3883696 -54.74  0.003445402    5.945    0.832
        27 -10.8029    188.8418    154.4334   9.3401107500e+01   1.2657189342e+01    0.5184487    0.3405357  42.81  0.002407403    1.528    0.345
        28 -10.9376    151.2294    150.4285   1.0100758204e+02   2.1399703959e+01    0.3093289    0.2372352  76.39  0.001159785    1.691    0.409
        29 -10.0490    163.2977    151.0788   9.8289673222e+01   1.8700164020e+01    0.2139165    0.2036256 -50.12 0.0004162602    1.082    0.076
        30  -9.8127    174.6233    149.1724   9.5289387501e+01   1.6691285613e+01    0.2771944    0.2167433  45.24 0.0005852567    1.277    0.217
        31 -12.0499    144.9544    146.5534   1.0167836023e+02   2.3588528439e+01    0.5585643    0.4439234  77.06  0.002598959    1.548    0.354
        32 -11.8484    136.0542    130.9653   1.0029227395e+02   2.9020479819e+01    0.9433026    0.2089409 -49.58  0.002266804    4.981    0.799
        33 -11.3904    135.0867    121.5710   9.8209543829e+01   3.1355984590e+01    0.6535946    0.2208327 -47.91  0.001998715    3.028    0.670
        34 -10.6017    160.4791    127.7658   9.3452911086e+01   2.4303313660e+01    0.4497852    0.2774773 -56.51  0.001532744    1.868    0.465
        35 -11.2857    107.9863    123.3794   1.0617884346e+02   3.6606597786e+01    0.3472092    0.2941728 -23.24 0.0006144933    1.353    0.261
        36 -10.6160    113.6424    117.5290   1.0308487950e+02   3.6849868486e+01     0.289105    0.2645767 -89.32 0.0005569921    1.168    0.144
        37 -10.8231    168.3645    113.4073   8.8015006712e+01   2.5480265912e+01    0.4184587     0.309126 -75.75 0.0008127066    1.786    0.440
        38  -9.9790    231.2280    113.7695   7.6366655565e+01   1.1432135457e+01    0.2321014    0.2261957  34.38 0.0008206867    1.140    0.123
        39 -10.5279    134.6748    107.1093   9.4504032296e+01   3.4639716443e+01    0.5352334    0.1517698 -47.98  0.001460395    3.815    0.738
        40 -10.0405    205.4441    110.1715   7.9806544204e+01   1.7565385002e+01    0.3166888    0.2124883  43.69  0.001025178    1.622    0.383
        41  -9.9459    188.9648    213.1056   1.0496481156e+02   1.8453005760e+00    0.2039974    0.1766563  12.32 0.0005450057    1.038    0.036
        42 -10.9098    184.0140    211.1352   1.0563624494e+02   3.0238341698e+00    0.2325538    0.1948969 -30.39  0.001378416    1.276    0.217
        43 -11.7593     11.9068    205.8421   1.4304107740e+02   3.0093234453e+01    0.2320608    0.1629804  44.02 0.0006944499    1.408    0.290
        44 -12.7013    151.0116    195.5433   1.1004539716e+02   1.1854266777e+01    0.6197827    0.5805758 -61.60  0.003610467    1.192    0.161
        45  -9.5692    147.6454     81.9546   8.4074893833e+01   3.6657623400e+01    0.2175083    0.2021219 -40.97 0.0006101048    1.106    0.095
        46  -9.7217     92.4226     79.0938   9.8720123493e+01   4.9590354203e+01    0.2338641    0.1984317  21.45 0.0004055608    1.214    0.176
        47 -10.6612    159.4389    194.8174   1.0801761699e+02   1.0434306626e+01    0.2632578    0.2146203  63.48 0.0007141838    1.431    0.301
        48 -13.4471    157.6064     59.2018   7.5118344724e+01   3.8084961003e+01     1.469123     1.001067  55.05  0.002423588    1.392    0.282
        49  -9.9852    248.0103    250.0000   1.0011948903e+02  -1.1978880998e+01    0.1777199   0.05315534  34.81 0.0008041364    2.954    0.662
        50 -12.3264    174.7104     37.0844   6.5685015920e+01   3.6882145913e+01    0.4074848    0.3905865  22.01 0.0008705251    1.245    0.197
        51  -9.8860     13.4924     59.8288   1.2415647975e+02   6.3966305024e+01    0.1889696    0.1599289 -17.08 0.0003960999    1.190    0.159
        52 -10.9226    150.9231    241.0098   1.1716986013e+02   3.5252160173e+00    0.2471721     0.196174 -47.71 0.0009850403    1.528    0.346
