#   1 NUMBER                 Running object number                                     
#   2 MAG_AUTO               Kron-like elliptical aperture magnitude                    [mag]
#   3 X_IMAGE                Object position along x                                    [pixel]
#   4 Y_IMAGE                Object position along y                                    [pixel]
#   5 X_WORLD                Barycenter position along world x axis                     [deg]
#   6 Y_WORLD                Barycenter position along world y axis                     [deg]
#   7 A_WORLD                Profile RMS along major axis (world units)                 [deg]
#   8 B_WORLD                Profile RMS along minor axis (world units)                 [deg]
#   9 THETA_WORLD            Position angle (CCW/world-x)                               [deg]
#  10 FWHM_WORLD             FWHM assuming a gaussian core                              [deg]
#  11 ELONGATION             A_IMAGE/B_IMAGE                                           
#  12 ELLIPTICITY            1 - B_IMAGE/A_IMAGE                                       
         1 -14.5127     68.2955    144.3971   1.0617478921e+02   3.7237555325e+01     4.589014      2.18259  70.71  0.004120837    3.580    0.721
         2 -14.0713    223.9710     15.5852   4.0025133263e+01   2.7399963598e+01     1.320219     1.030558  21.52  0.002671467    1.653    0.395
         3 -13.9617    198.6059     38.7665   4.8915246672e+01   3.0659917316e+01     1.682829     1.195463  -7.72  0.004145877    1.621    0.383
         4 -13.9531    206.9475     32.9044   4.6299584548e+01   2.9397825073e+01     1.439747     1.064682 -30.14  0.004887517    1.219    0.180
         5 -12.7344    214.7864     25.3362   4.3416673157e+01   2.8443926647e+01     0.590339    0.4554184  30.57   0.00122215    1.629    0.386
         6 -10.4191      2.3186      4.5362   9.8954236869e+01   7.7659259781e+01    0.2242489   0.09150899 -56.22    0.0010887    2.028    0.507
         7 -10.8477     47.0415      2.2559   6.6891762578e+01   7.1937275517e+01    0.5371889    0.2612277  65.98  0.002012139    4.074    0.755
         8 -11.1741    193.2921    193.2701   8.6426726835e+01   8.3920790984e+00    0.6575356    0.3882135 -48.94  0.003609543    2.358    0.576
         9  -9.6762    174.4666    249.9888   9.7552481649e+01   3.9330753837e+00    0.1977385    0.1158943  43.93  0.001336604    1.686    0.407
        10 -15.3540     90.0950    246.3802   1.1193620476e+02   1.4950137846e+01     8.552723     2.208453  30.16   0.03100209    5.092    0.804
        11  -8.9038    156.2993    200.3605   9.4365753783e+01   1.2934732257e+01    0.1217226   0.08702206   1.28 0.0004390177    1.715    0.417
        12  -9.3591     64.3755    198.2347   1.1309469917e+02   2.6230670721e+01      0.21748    0.1736865  69.87 0.0008970609    1.114    0.103
        13 -10.0724     66.9874    195.7011   1.1230963144e+02   2.6399724989e+01     0.283625    0.1835707  66.18   0.00129271    1.466    0.318
        14 -14.6061      5.4056    245.9321   1.2685059650e+02   2.3903339249e+01     1.264722    0.6923007  39.86  0.009302014    1.430    0.301
        15  -9.2517    150.4126    189.2983   9.3863261307e+01   1.5579234722e+01    0.2228684    0.1166919 -40.25  0.001126895    2.172    0.540
        16 -12.1505     62.7486    180.4572   1.1182832937e+02   2.9986335279e+01    0.3905774    0.3135776 -14.44  0.001194911    1.914    0.478
        17 -12.0342     67.6541    174.8702   1.1011132428e+02   3.0536543876e+01    0.2924171    0.2566567 -48.71  0.000975209    1.409    0.290
        18  -9.1629     99.3420    180.8905   1.0352124130e+02   2.4927879395e+01    0.1664415    0.1557696  63.11 0.0005773716    1.072    0.068
        19 -10.6355     48.7784    179.8734   1.1499877115e+02   3.1772119599e+01    0.2824708    0.1655287  68.79 0.0008888287    1.625    0.384
        20 -11.5536     41.0493    176.8058   1.1654155314e+02   3.3281151960e+01    0.4198072    0.3004223   3.30  0.001892525    2.225    0.551
        21 -13.6248     64.8780    160.9228   1.0921268469e+02   3.3921505212e+01    0.5711421      0.46662 -30.29  0.002996946    1.687    0.407
        22 -11.6305     77.3929    164.9772   1.0661237436e+02   3.1352738496e+01    0.3271912    0.2551941  88.85 0.0004136299    1.275    0.216
        23 -12.9175     84.2231    158.7721   1.0409462166e+02   3.1733284981e+01     1.193085    0.8590497  73.33  0.001462425    1.472    0.321
        24 -14.1450      7.9121    229.5985   1.2599089664e+02   2.6378520488e+01     1.338099    0.4046379  53.87  0.007589168    2.189    0.543
        25 -13.4810     46.9027    221.2771   1.1831656790e+02   2.3992179977e+01     1.071606     0.690844  69.97  0.004289255    1.378    0.274
        26 -11.3459     32.7679    155.8995   1.1686104874e+02   3.8775438755e+01    0.3053518    0.2104914  57.02  0.001243265    1.271    0.213
        27  -9.4570    174.5676    148.3094   8.1651111156e+01   1.8371665903e+01    0.2573716    0.1270947 -44.62 0.0008066171    2.133    0.531
        28  -9.9859    134.3757    148.2109   9.0206684439e+01   2.5721082452e+01    0.4266126    0.1366075 -50.57  0.001463887    3.353    0.702
        29 -10.1514    133.5079    141.0181   8.8977327905e+01   2.7321425254e+01    0.4660321    0.1859341 -52.32  0.001734128    2.748    0.636
        30 -10.0654    137.1992    171.0922   9.3692104924e+01   2.0859106723e+01    0.2044079    0.1752832   9.92 0.0008725696    1.265    0.210
        31 -10.2676     47.8670    145.8817   1.1188900331e+02   3.9466682628e+01    0.1896487    0.1710033 -61.91 0.0005235937    1.262    0.208
        32 -10.4132     98.5056    143.5224   9.8061992666e+01   3.2900827373e+01    0.2714764    0.2355833  54.56 0.0007745567    1.105    0.095
        33  -9.9409    101.2204    140.2067   9.6767238136e+01   3.3191217206e+01     0.356626     0.257832 -15.54  0.001290259    2.179    0.541
        34 -12.3759     86.7091    142.3214   1.0093240212e+02   3.5042152117e+01    0.2784082    0.2542121 -52.51 0.0004135867    1.197    0.164
        35 -10.2235     81.7691    141.8486   1.0216854278e+02   3.5900896472e+01    0.2848067    0.1960877  69.33 0.0006239132    1.596    0.374
        36 -13.6945     36.1028    208.5484   1.1972634505e+02   2.7451727981e+01    0.8200636    0.5933008   2.60  0.004066467    2.330    0.571
        37  -8.8473     38.2905    133.6343   1.1315673850e+02   4.3464819744e+01    0.1429094   0.08443739  69.41 0.0007025865    1.706    0.414
        38 -13.6602     23.9703    225.1367   1.2288711247e+02   2.5665280671e+01     1.070321    0.6010904  45.57  0.003924276    1.329    0.248
        39 -10.8318    107.9434    131.3517   9.3311073917e+01   3.4010852774e+01    0.5637728    0.2948685  45.13  0.002431254    1.898    0.473
        40 -10.2707     32.0629    129.8652   1.1454505156e+02   4.5023530193e+01    0.2012003    0.1490803  70.30 0.0003575781    1.224    0.183
        41 -10.9746    135.2947    122.6209   8.4540667832e+01   3.0750963239e+01    0.6701859    0.1247521 -47.01  0.001655061    5.460    0.817
        42 -10.7948     96.9415    128.0658   9.5577477141e+01   3.6660618333e+01    0.2944214    0.2488217 -26.64  0.001498867    1.441    0.306
        43 -12.7632     39.6237    233.8315   1.2036815622e+02   2.2613222256e+01    0.5744621    0.3843384  41.02  0.003199412    1.256    0.204
        44  -9.5177    160.5798    127.7823   8.0039838205e+01   2.4705362201e+01    0.2098257    0.1323434 -51.19 0.0009581757    1.742    0.426
        45  -9.9273    116.4341    126.2079   9.0030829634e+01   3.3609623904e+01    0.3961855    0.2422196 -72.74  0.001616794    2.366    0.577
        46  -8.7157    125.6503    127.3205   8.7955052824e+01   3.1637136382e+01    0.1510102    0.1143473  81.68 0.0007048504    1.741    0.426
        47  -9.6257    230.6454    166.3179   7.5372552017e+01   6.3143007803e+00    0.1061868   0.09697063 -59.44  0.000704616    1.747    0.428
        48  -9.8156    106.8658    120.0809   9.1197693262e+01   3.6737045779e+01    0.2070667    0.2000824 -63.30 0.0003093031    1.046    0.044
        49  -8.8008    230.6662    113.3325   6.4237455126e+01   1.3457785975e+01    0.1304277   0.09651224 -54.51 0.0007052232    1.731    0.422
        50 -10.1521    205.2313    110.5716   6.7497579140e+01   1.8698276908e+01    0.3056446    0.2292657  27.33     0.001056    1.456    0.313
        51 -11.3972     23.7944    117.6146   1.1570624812e+02   4.8827802383e+01    0.3517145    0.2038286 -84.69 0.0009676892    1.521    0.343
        52 -13.0451    243.3675    101.3886   5.9758433020e+01   1.2797095502e+01     0.977048    0.2676417 -37.05  0.003655014    2.983    0.665
        53  -9.1220    192.7831    165.5849   8.1622080714e+01   1.2430502573e+01    0.1697413    0.1168374  46.97 0.0009437399    1.603    0.376
        54 -10.1873    134.4534    104.1872   8.0160555054e+01   3.4743955203e+01    0.5183377    0.1451678 -43.37  0.001534337    3.477    0.712
        55  -9.8901    168.0783    113.0608   7.4938769346e+01   2.5897072339e+01    0.3380163    0.2357162 -75.29  0.001234716    2.361    0.576
        56 -11.3969    249.2729     87.6921   5.5851158417e+01   1.3526190381e+01    0.2548107    0.2212739   7.79 0.0008620567    1.238    0.192
        57 -10.1043     72.9147     83.6068   9.2524926148e+01   5.1289628314e+01    0.3551225    0.2186672  63.81  0.001121373    2.245    0.555
        58  -9.3315    159.6042     81.1617   6.7969103295e+01   3.3584054360e+01    0.2137012     0.142013 -24.25 0.0004786384    1.628    0.386
        59  -9.3715     48.7130     62.9281   9.5744734007e+01   5.9890039605e+01    0.1917995    0.1628512 -61.55 0.0002586947    1.075    0.070
        60 -10.3247     13.4870     60.1598   1.1100562621e+02   6.4154054297e+01    0.2373515     0.196907 -73.92 0.0004259656    1.055    0.052
        61 -14.0307      5.3403    183.9547   1.2500285479e+02   3.5181475254e+01     1.715296    0.5118036 -85.62  0.001492182    3.063    0.674
        62 -13.7296     88.3880    228.3132   1.1080407905e+02   1.7936432004e+01     1.002811     0.608021  54.99  0.001933948    1.471    0.320
        63 -14.7237      9.6990    207.5444   1.2496227876e+02   3.0174698526e+01     1.188417      1.01732  48.26  0.003480945    1.302    0.232
        64 -16.0354     43.7660    197.3371   1.1743735661e+02   2.8785084859e+01     9.326115     3.132778  72.99    0.0303939    5.939    0.832
        65 -10.8060    189.5145     15.4024   4.2799549695e+01   3.5576296579e+01    0.2519429    0.2211634 -45.90 0.0007399117    1.031    0.030
        66  -9.4227     63.3492    202.0772   1.1363600085e+02   2.5621516689e+01    0.1589345    0.1256016  72.25 0.0003903256    1.148    0.129
        67 -10.7965    137.8398     44.0142   6.0157194562e+01   4.5185398220e+01    0.3287207    0.2666202 -77.16  0.000308232    1.402    0.287
