#   1 NUMBER                 Running object number                                     
#   2 MAG_AUTO               Kron-like elliptical aperture magnitude                    [mag]
#   3 X_IMAGE                Object position along x                                    [pixel]
#   4 Y_IMAGE                Object position along y                                    [pixel]
#   5 X_WORLD                Barycenter position along world x axis                     [deg]
#   6 Y_WORLD                Barycenter position along world y axis                     [deg]
#   7 A_WORLD                Profile RMS along major axis (world units)                 [deg]
#   8 B_WORLD                Profile RMS along minor axis (world units)                 [deg]
#   9 THETA_WORLD            Position angle (CCW/world-x)                               [deg]
#  10 FWHM_WORLD             FWHM assuming a gaussian core                              [deg]
#  11 ELONGATION             A_IMAGE/B_IMAGE                                           
#  12 ELLIPTICITY            1 - B_IMAGE/A_IMAGE                                       
         1 -13.3957     68.6508    146.3141   1.2467281502e+02   3.7232169987e+01     4.492914     2.390598  80.74   0.01360571    4.116    0.757
         2 -12.9224    210.5983      8.9659   5.8602212328e+01   3.1814780782e+01    0.9047276    0.7523005  86.54  0.002820615    1.083    0.077
         3 -13.0657    189.0189     32.6249   6.6631436579e+01   3.4118553918e+01     1.443187     1.004822  23.62  0.004008562    2.290    0.563
         4 -13.3507    197.2366     26.4251   6.4048426350e+01   3.2926878694e+01     1.801224     1.385387  -8.51  0.009953615    1.911    0.477
         5 -11.5503    203.8283     18.0125   6.1317908855e+01   3.2369813726e+01    0.4309718    0.3700395  46.72  0.001107509    1.447    0.309
         6 -10.9358    189.1078     15.1140   6.2348541348e+01   3.6143679236e+01     0.309898    0.2206043 -88.93  0.001116656    1.290    0.225
         7  -9.3196    164.8308     12.1529   6.4781064995e+01   4.2200378680e+01    0.1751204    0.1356032  49.35 0.0004412711    1.301    0.231
         8  -9.8393    172.8726     10.8676   6.3347089766e+01   4.0424254276e+01    0.1944893    0.1536237  54.74 0.0004436256    1.254    0.203
         9  -9.7773      9.9988      9.9996   1.0827205607e+02   7.0462591332e+01    0.1326284   0.09452973 -14.00 0.0007941733    1.016    0.016
        10  -8.8435    103.1733    237.5927   1.3011126653e+02   1.0935937737e+01    0.2024868    0.1592377  84.31 0.0004907976    1.257    0.204
        11 -10.8013    165.7588    249.9178   1.1925042516e+02  -1.8257659563e+00    0.6533245    0.1802289  35.66  0.002161416    3.888    0.743
        12 -12.0284    180.3858    248.0504   1.1609296416e+02  -3.9680512845e+00     0.822611    0.3467599  33.14  0.003568472    2.326    0.570
        13 -11.5020    149.5456    245.1532   1.2178429982e+02   1.7334543029e+00    0.4385541    0.4026697   7.93  0.002849985    1.253    0.202
        14 -10.8846    131.9364    249.5208   1.2587945871e+02   3.9354362409e+00    0.6201826    0.2623495  35.97  0.002692802    2.328    0.570
        15 -10.0423    121.2593    248.4732   1.2785062638e+02   5.8987637587e+00      0.27043    0.2546052 -76.01  0.001448389    1.237    0.192
        16  -9.5927     71.0928    250.6045   1.3767379355e+02   1.3274997409e+01    0.2962742   0.09937017  40.75   0.00115965    2.626    0.619
        17  -8.9936     62.9643    250.5540   1.3915413599e+02   1.4428176551e+01    0.2057279    0.1071937  38.75 0.0004605075    1.938    0.484
        18  -9.9650     63.4342    247.2261   1.3877518438e+02   1.5010794749e+01    0.2672018    0.1610757  74.98  0.001316994    1.547    0.354
        19 -13.0317     52.8309    235.3942   1.3969062165e+02   1.8823902106e+01     1.716109      1.57277   0.99   0.01179531    1.801    0.445
        20 -13.4577     35.8582    221.7579   1.4171493422e+02   2.3817251014e+01     1.671972      1.41015 -68.88  0.009476849    1.405    0.288
        21 -12.4577     47.3885    217.3367   1.3907948814e+02   2.3347519044e+01    0.5407782    0.4264005 -65.81  0.001051293    1.392    0.282
        22 -15.2598     45.1277    196.7769   1.3746230255e+02   2.8222624908e+01     9.640775     3.933995  63.98    0.0236959    3.321    0.699
        23 -11.1644     70.9944    186.8296   1.3048580859e+02   2.7088401252e+01    0.4704137    0.2763929 -47.09  0.001275573    2.016    0.504
        24 -11.0478     75.4758    180.7510   1.2856895229e+02   2.7876361991e+01    0.3201345    0.2741213 -49.00 0.0007855048    1.336    0.252
        25  -8.7525    200.0798    181.2474   1.0005542403e+02   4.4814428124e+00    0.4646895    0.2770165 -75.25  0.001363108    5.322    0.812
        26 -10.5883     83.8374    169.9987   1.2485582753e+02   2.9189134492e+01    0.2799695    0.2521251 -77.54 0.0003617207    1.043    0.042
        27 -12.5225     71.6878    166.5093   1.2730777731e+02   3.1869730583e+01    0.5369995    0.3089573 -46.79  0.001510867    1.906    0.475
        28 -11.7590     89.6036    163.1200   1.2222531359e+02   2.9937889867e+01      1.00797    0.8240781  89.12  0.001070369    1.236    0.191
        29 -11.6298    155.4784    247.9362   1.2099797603e+02   2.4185965205e-01    0.7048072    0.4486643 -60.42   0.00379576    2.001    0.500
        30  -8.9180    250.6851    154.4980   8.5066001662e+01   7.0098324399e-03    0.2315282    0.1116355 -39.92 0.0005505272    1.826    0.452
        31 -13.3800     10.7205    207.0808   1.4531685033e+02   2.9701994955e+01    0.7028546    0.5810109  62.81   0.00206529    1.274    0.215
        32  -7.9740    173.2263    153.0305   9.9722981393e+01   1.5868080692e+01    0.1949028    0.1270379 -44.66 0.0003294558    1.521    0.343
        33 -11.8681     42.0534    149.1797   1.3216259588e+02   3.9862422617e+01     0.508849    0.3996765 -75.16  0.002490172    1.091    0.083
        34 -10.9925     53.8853    147.1681   1.2875390554e+02   3.8968879480e+01    0.4397211     0.221665 -58.72  0.002040577    1.707    0.414
        35 -10.2490    219.6396    148.0154   8.9104118018e+01   7.1025594726e+00    0.2434502    0.2119261  48.23 0.0004291874    1.233    0.189
        36  -9.1941    102.4041    146.7887   1.1574872602e+02   3.1725634615e+01    0.2916927    0.2757243 -63.58 0.0008282199    1.042    0.041
        37  -9.6503    105.4003    143.1002   1.1417565622e+02   3.2075990327e+01    0.3127974    0.2698691  -6.23 0.0006571201    1.447    0.309
        38 -11.4705     91.0517    145.9303   1.1859156328e+02   3.3890579663e+01    0.2963793    0.2621842 -42.27 0.0004200474    1.194    0.162
        39 -10.5365     36.5047    151.0048   1.3384773753e+02   4.0019987770e+01    0.2698688    0.1821114  42.02 0.0009805306    1.643    0.391
        40 -11.0964    143.2764    248.8054   1.2354117565e+02   2.1569564502e+00    0.6206103    0.2835505  46.99  0.002890161    1.910    0.477
        41  -8.8967    112.2226    134.0479   1.1034302575e+02   3.2965391279e+01    0.2658008     0.217979   1.25 0.0008114388    1.581    0.368
        42  -8.8392     76.5324    134.4994   1.2024790448e+02   3.8960529164e+01    0.1446074    0.1314492 -68.29  3.74667e-05    1.022    0.022
        43 -12.1829     44.2322    129.4104   1.2837314713e+02   4.4365144051e+01    0.7621237    0.3602989 -77.38  0.003033145    2.772    0.639
        44  -9.9311     99.5150    130.7587   1.1304498298e+02   3.6090697558e+01    0.2771272    0.2344165 -14.19  0.000726393    1.431    0.301
        45  -9.1976    238.3998    129.8853   8.1843937545e+01   6.7810954330e+00    0.2283346     0.203507  39.75 0.0003028096    1.268    0.211
        46 -14.9698      4.5807    237.8734   1.4839574451e+02   2.3946053451e+01     4.011667     1.050965 -71.47    0.0188545    3.073    0.675
        47 -10.4047     14.2388    124.1138   1.3590123979e+02   4.8346600868e+01    0.2317909    0.1988242  15.93  0.001598945    1.482    0.325
        48  -8.7091    108.3356    122.0191   1.0855306053e+02   3.6521191804e+01    0.2049007     0.180342 -50.24 0.0002873472    1.094    0.086
        49  -9.4253    227.5215    170.9003   9.2547173329e+01   1.2305571845e+00    0.3569737    0.1914221 -54.82  0.001461968    2.438    0.590
        50 -12.7615     28.3274    249.5485   1.4514701190e+02   1.9060982812e+01     1.024611    0.6999178  48.46  0.007150674    1.432    0.302
        51 -10.0070    159.0216    215.6841   1.1524401075e+02   5.5300758505e+00    0.2251214    0.2023312 -53.84 0.0004159771    1.216    0.178
        52  -9.8234    167.6090    112.9338   9.1361288573e+01   2.5744168913e+01    0.3712514    0.2872835 -75.90  0.001056332    1.550    0.355
        53  -9.6453     40.8806    108.8785   1.2547193163e+02   4.9514862231e+01    0.2101509    0.1572406 -42.31 0.0009516865    1.234    0.190
        54  -9.2934    250.3019    159.0882   8.6080214740e+01  -7.3805965665e-01    0.2032767    0.1755832 -36.87 0.0006254398    1.060    0.056
        55  -8.7018    107.2323    158.2120   1.1680994619e+02   2.8093935319e+01    0.2049822    0.1932172 -54.34   0.00039213    1.104    0.094
        56  -8.5674    178.3592     83.9603   8.1614148794e+01   2.8831757756e+01    0.1995203    0.1821172 -52.32 0.0003457642    1.097    0.088
        57  -9.5996      3.0242     75.9913   1.3110664274e+02   5.9581886972e+01     0.165054    0.1327024  79.23 0.0007041811    1.673    0.402
        58 -10.0669    234.3294     74.2672   7.0190833670e+01   1.7467108380e+01    0.2392555    0.2206374 -77.53 0.0002924377    1.110    0.099
        59  -9.0305    238.6022     70.2284   6.8754527607e+01   1.7191156993e+01    0.1797354    0.1243645 -32.65 0.0003517568    1.625    0.385
        60  -8.9250    236.3928     63.7809   6.7636600368e+01   1.8690028159e+01    0.1835626    0.1244422 -32.79 0.0009548353    1.669    0.401
        61  -7.8080    177.2445     57.3575   7.4820960224e+01   3.3534400354e+01    0.1352208    0.1121198  16.24 0.0004513917    1.595    0.373
        62  -9.7512     83.9972    247.2641   1.3493603291e+02   1.2028937240e+01     0.202484    0.1609894 -87.34 0.0006467019    1.228    0.185
        63 -10.3300     73.5738    247.0538   1.3688013767e+02   1.3607056032e+01    0.2375695     0.132786  58.33  0.001017461    1.535    0.349
        64  -9.9363     88.9904    244.3044   1.3366966667e+02   1.1847279807e+01     0.262438    0.1909498  77.13 0.0006993787    1.287    0.223
        65  -9.6340     37.4227    212.6629   1.4061592494e+02   2.5594761071e+01    0.2197836    0.1885415 -76.18   0.00016202    1.286    0.222
        66  -9.1163     66.2678     47.8302   9.9986623997e+01   5.8449815781e+01     0.255474    0.1695029  49.63  0.001050794    1.949    0.487
        67 -10.1866    132.5096     45.3911   8.0289615271e+01   4.5920986306e+01    0.2479691    0.2261789  44.13 0.0003242588    1.019    0.019
        68  -8.6941     60.1946     45.1732   1.0119161708e+02   5.9762044743e+01    0.2065342    0.1540637  55.08 0.0007474099    2.018    0.504
        69  -7.7221    143.6778     41.6966   7.6774602243e+01   4.3832267185e+01     0.142178   0.09997746  31.18 0.0005192267    1.635    0.388
        70  -8.7812     32.6831     36.4227   1.0857752083e+02   6.4547119670e+01    0.1984787    0.1014183  33.42 0.0009733683    2.147    0.534
        71  -9.5888    227.8653     25.4651   6.0405811408e+01   2.5989325327e+01    0.3128711    0.1749921 -38.77  0.001072995    1.828    0.453
        72 -12.5700     29.4686    206.1846   1.4161086676e+02   2.7937642104e+01     1.894204    0.4491228  52.38  0.006650816    4.494    0.777
        73  -9.6598    192.1573    194.3977   1.0432737952e+02   3.4478425690e+00    0.7267358    0.3493288 -64.04  0.001790547    7.349    0.864
        74 -12.0508    246.2956    237.4313   1.0185887052e+02  -1.2641133381e+01    0.2323374    0.2010688  -4.54   0.00020883    1.163    0.140
