#   1 NUMBER                 Running object number                                     
#   2 MAG_AUTO               Kron-like elliptical aperture magnitude                    [mag]
#   3 X_IMAGE                Object position along x                                    [pixel]
#   4 Y_IMAGE                Object position along y                                    [pixel]
#   5 X_WORLD                Barycenter position along world x axis                     [deg]
#   6 Y_WORLD                Barycenter position along world y axis                     [deg]
#   7 A_WORLD                Profile RMS along major axis (world units)                 [deg]
#   8 B_WORLD                Profile RMS along minor axis (world units)                 [deg]
#   9 THETA_WORLD            Position angle (CCW/world-x)                               [deg]
#  10 FWHM_WORLD             FWHM assuming a gaussian core                              [deg]
#  11 ELONGATION             A_IMAGE/B_IMAGE                                           
#  12 ELLIPTICITY            1 - B_IMAGE/A_IMAGE                                       
         1 -14.0322    226.2968     33.7296   3.4421714986e+01   2.6005985047e+01     1.348225    0.9479255  45.32  0.007966694    2.042    0.510
         2 -12.4704    249.4091     12.1379   2.8418636296e+01   2.4027303175e+01    0.5620594    0.2513014 -38.99   0.00310872    2.002    0.501
         3 -11.6370      2.3908      4.3698   8.2683185261e+01   7.4298861548e+01     0.577765    0.1776987 -41.70  0.002819519    2.921    0.658
         4  -8.9237     97.5340      6.0472   4.4889751994e+01   5.8287678964e+01    0.1659685    0.1211083 -25.35  0.001009054    1.576    0.366
         5  -9.6663     12.6742      6.3313   7.7397571923e+01   7.3033382421e+01   0.09388092   0.08849579  16.22  0.000705096    1.708    0.414
         6 -10.4756     16.4805      2.0015   7.2866142945e+01   7.3137490609e+01    0.1812206    0.1247989  18.40  0.001261557    1.226    0.184
         7  -9.4338     45.1112    221.6559   1.1288722488e+02   2.1263086608e+01    0.2237969    0.1532118  83.60 0.0009316688    1.379    0.275
         8 -14.3483     99.2942    227.1549   1.0127952095e+02   1.2719877046e+01     6.229416     1.106299  40.79   0.01363796    4.349    0.770
         9 -15.3652      4.5187    178.5004   1.1868170779e+02   3.5535771904e+01     9.244646     1.239804 -74.76   0.02605749    5.557    0.820
        10  -9.5440    191.8939    192.6872   7.4783537194e+01   4.6995060077e+00    0.3960142    0.2321166 -67.28  0.001368045    4.222    0.763
        11 -11.6947     48.0499    178.2067   1.0764258843e+02   3.1331854227e+01    0.4252275    0.2992235 -33.21  0.001350571    1.868    0.465
        12 -11.6805     55.0666    172.2814   1.0499684498e+02   3.1983872206e+01    0.3249127    0.2742422 -32.22  0.000527168    1.416    0.294
        13 -10.4623     99.1624    170.9407   9.2784315057e+01   2.5847258319e+01     0.478082    0.1651337  46.16  0.001504684    3.225    0.690
        14  -8.6050    110.5591    167.5208   8.9090060599e+01   2.4746877969e+01    0.1529225    0.1464508  85.47  0.000192959    1.056    0.053
        15 -12.2838     52.7486    115.3679   9.5880825355e+01   4.6992784601e+01     1.366647    0.3455926 -63.61 0.0004901925    4.917    0.797
        16 -12.4501     75.3802    155.9482   9.6720523315e+01   3.3430087473e+01    0.7654167    0.6586111  81.09   0.00404496    1.209    0.173
        17 -13.4459     66.1041    141.9079   9.6903082833e+01   3.8413064177e+01     2.377386      1.25595  80.43  0.006113402    4.605    0.783
        18 -13.0612     52.9156    158.5740   1.0362608122e+02   3.5792641802e+01    0.5695699     0.367352 -37.48   0.00217198    1.859    0.462
        19 -11.7013     33.6775    157.5517   1.0895558256e+02   3.8213638772e+01    0.3833329    0.3310303 -72.72  0.001837628    1.046    0.044
        20  -9.2570    134.6002    143.1262   7.7530450310e+01   2.6143342718e+01     0.298043      0.19939 -41.41  0.001289918    1.493    0.330
        21  -9.9035     91.9527    142.8273   8.9315652165e+01   3.4182466339e+01    0.3011496    0.2918977  86.22 0.0007821711    1.050    0.047
        22  -9.5313     95.2512    139.5947   8.7649271923e+01   3.4438477985e+01    0.3726341    0.2428557 -29.98  0.001135782    1.936    0.483
        23 -12.0009     79.2340    140.8586   9.2702554775e+01   3.6750289362e+01    0.3310508    0.2746604 -48.92 0.0004294352    1.161    0.139
        24 -14.4998     50.9478    246.6284   1.1372592435e+02   1.5228396301e+01     4.928891     1.295231  27.14   0.01427201    6.689    0.851
        25 -13.8219     12.8137    205.9459   1.1875783268e+02   2.8294985129e+01    0.9325583    0.5802624   9.61  0.005017433    2.480    0.597
        26 -10.5957    105.7985    131.1209   8.2625441882e+01   3.4653616158e+01    0.4087024    0.3443322   0.37 0.0009771296    1.397    0.284
        27 -11.1375     67.0737    127.1803   9.3653660887e+01   4.2080032142e+01    0.6889166    0.3186177 -72.44  0.002257195    3.255    0.693
        28 -10.2437     92.2741    127.3508   8.5766914957e+01   3.8032012587e+01    0.3244534    0.2502824 -32.00 0.0007677818    1.400    0.285
        29  -9.6135    113.7061    125.1578   7.8898848719e+01   3.4585707469e+01    0.3023341    0.2120612   5.87  0.000927654    2.118    0.528
        30  -9.5227    103.8979    119.6291   8.0370719065e+01   3.7805328555e+01     0.237046    0.2045869 -37.22 0.0003235945    1.149    0.130
        31 -10.5002    120.5076    221.0505   9.5596180369e+01   1.0751628995e+01    0.2819733    0.1741226  48.48  0.001365737    1.615    0.381
        32 -11.0341     66.9997    162.6408   1.0025279127e+02   3.2895716141e+01    0.2779486    0.2675243 -51.94 0.0004305622    1.111    0.100
        33  -9.5929     42.1431    213.7404   1.1284507729e+02   2.3409827769e+01    0.4160557    0.2583661   1.29  0.001497586    3.082    0.676
        34  -9.7193    204.6662    110.7826   5.4598000939e+01   1.8348977549e+01    0.3841467    0.2503906  41.33  0.001771101    1.810    0.447
        35 -10.5220    163.5726     84.3260   5.5613932612e+01   3.2332044864e+01    0.3364617    0.2183556  22.80   0.00134078    2.572    0.611
        36  -8.6584    184.4900     77.4635   4.9947496673e+01   2.8724089818e+01    0.1415952    0.1330561 -69.14 9.069059e-05    1.038    0.036
        37  -9.7427     61.7018     71.7095   8.0949292711e+01   5.5859255310e+01    0.2415098    0.1935519 -11.67 0.0005846834    1.246    0.197
        38 -10.2552     24.3111    225.3174   1.1763524220e+02   2.2783527894e+01    0.1840636    0.1420121  54.74 0.0008563417    1.158    0.136
        39 -10.6842     13.3644     60.3648   9.8070911717e+01   6.3610843533e+01    0.2481981    0.1875675 -51.46 0.0004303807    1.201    0.167
        40 -12.7954      6.9318    246.5594   1.2227982955e+02   2.0085944745e+01     1.298108    0.7017985  55.17  0.006001242    1.450    0.310
        41 -12.4998    206.2231     50.4681   4.0235816978e+01   2.8037630861e+01    0.8267367    0.5144026 -77.47  0.004083594    1.767    0.434
        42 -12.6913    212.6249     45.3760   3.8329765334e+01   2.7353513905e+01    0.7748092    0.4640709 -55.00  0.004193187    1.509    0.337
        43 -13.9722     24.2569    197.4436   1.1552615478e+02   2.9185060445e+01     1.164794    0.8984994  81.52  0.003002759    1.101    0.092
        44 -11.4992     11.2871     43.0749   9.3811713107e+01   6.7219301214e+01    0.4263084    0.2407545  39.82  0.001679154    2.509    0.601
        45 -11.0247      3.2436     38.3215   9.6417177676e+01   6.8663881556e+01    0.3252092    0.2600236  55.85  0.002124614    2.032    0.508
        46  -8.6599     92.1577     53.1045   6.3844734332e+01   5.3790734722e+01    0.1731332    0.1651126 -88.16 0.0003580268    1.270    0.212
        47 -10.7931    120.3943     28.5809   4.7892280629e+01   5.0908793502e+01    0.5440233    0.3137236 -75.06   0.00192341    3.284    0.695
        48  -8.5731     94.5866     46.5216   6.0748948658e+01   5.4304389357e+01    0.1357478    0.1266217  23.67 7.449294e-05    1.033    0.032
        49 -10.1424     21.4063    242.9493   1.1934522274e+02   1.9348780812e+01    0.2473379    0.1736962 -50.55  0.001089995    1.960    0.490
        50 -10.1468    189.5784     15.4536   3.3879065611e+01   3.6130937766e+01     0.223756    0.1846639 -81.41 0.0008113701    1.014    0.014
        51 -13.0796      6.4802    226.9485   1.2136321693e+02   2.4203467693e+01      1.45797    0.6027807  77.40  0.007036929    2.393    0.582
        52 -14.4482     29.8887    186.2144   1.1315843388e+02   3.1340096377e+01     3.940607       1.5095  69.90   0.01247607    4.590    0.782
        53  -9.0864     26.1851    232.8706   1.1776173417e+02   2.0949434219e+01    0.1983948    0.1270459  65.06  0.001202826    1.318    0.241
