#   1 NUMBER                 Running object number                                     
#   2 MAG_AUTO               Kron-like elliptical aperture magnitude                    [mag]
#   3 X_IMAGE                Object position along x                                    [pixel]
#   4 Y_IMAGE                Object position along y                                    [pixel]
#   5 X_WORLD                Barycenter position along world x axis                     [deg]
#   6 Y_WORLD                Barycenter position along world y axis                     [deg]
#   7 A_WORLD                Profile RMS along major axis (world units)                 [deg]
#   8 B_WORLD                Profile RMS along minor axis (world units)                 [deg]
#   9 THETA_WORLD            Position angle (CCW/world-x)                               [deg]
#  10 FWHM_WORLD             FWHM assuming a gaussian core                              [deg]
#  11 ELONGATION             A_IMAGE/B_IMAGE                                           
#  12 ELLIPTICITY            1 - B_IMAGE/A_IMAGE                                       
         1 -13.5554     69.0139    125.9926   4.8044423040e+01   4.1961576306e+01      4.59379     2.545222  78.08    0.0151651    3.340    0.701
         2 -13.5590    233.4305     46.7892   3.5498901222e+02   2.3953431007e+01    0.9897228    0.8422868  42.70  0.007117731    1.708    0.415
         3 -13.3641    217.6704     56.2217   3.5834583831e+02   2.5597148787e+01     1.299387      1.09423  27.66  0.007671584    1.757    0.431
         4 -11.5712      5.2700     58.5871   6.2738042864e+01   6.7003883394e+01    0.5728025    0.3824374  50.92   0.00187891    1.740    0.425
         5 -11.1074      5.1141     11.5433   4.5765492619e+01   7.7471474835e+01    0.4385917    0.2218731  33.74  0.001832947    2.010    0.502
         6 -10.5186      2.4137      2.9224   4.2862102994e+01   7.9294489201e+01    0.4115252    0.2385009 -48.82  0.002348243    1.767    0.434
         7  -8.8885    110.1451      3.7435   3.5552747407e+02   5.6374058997e+01    0.2468274    0.1076944 -63.22 0.0009641802    2.905    0.656
         8 -10.3683     72.1941    226.1496   6.0687642495e+01   1.7505388469e+01    0.3699494    0.2204644  46.66  0.001314642    1.524    0.344
         9  -9.6632     75.2691    247.8851   6.1837361299e+01   1.3016517335e+01    0.4026052    0.1435903 -55.48  0.001870278    3.228    0.690
        10  -9.4126     51.3891    250.3163   6.7322723591e+01   1.5125641004e+01    0.3661975    0.1059912  38.63  0.001478333    2.363    0.577
        11 -14.0871     55.3514    236.5046   6.5504743963e+01   1.7335054821e+01     5.400229     2.360261  16.03   0.01272767    2.747    0.636
        12 -13.8909     53.6621    218.6116   6.4562546109e+01   2.1179945521e+01     2.395901     1.197897 -74.57  0.002877245    2.277    0.561
        13 -14.5962     21.9624    180.6782   7.0198035339e+01   3.3267467355e+01     2.598431     1.773237  -3.39  0.008948657    1.920    0.479
        14 -15.5533     33.0057    173.2128   6.6381373524e+01   3.4080299093e+01     9.856486     4.188938  70.43   0.03578822    3.062    0.673
        15 -14.4402     10.0937    206.8603   7.4812508104e+01   2.8071740013e+01     1.486913    0.9338195  13.77  0.005437105    1.779    0.438
        16 -11.5964    126.5857    229.5759   4.8556208321e+01   1.0233288272e+01    0.4232515    0.2705963  26.87  0.002465735    1.330    0.248
        17 -10.6867     45.4653    229.9858   6.7381080825e+01   1.9688235429e+01    0.5233955    0.2485866  13.88  0.001794756    2.586    0.613
        18 -10.1187    148.6497    228.3363   4.3722577372e+01   7.7386864368e+00    0.2533001    0.1404878 -39.55  0.001404123    1.901    0.474
        19 -11.2298    118.6701    230.5948   5.0415463075e+01   1.1029187684e+01    0.3056903    0.2840759  45.25  0.002124275    1.239    0.193
        20  -9.4531    171.7043    225.2998   3.8712160786e+01   5.4632630019e+00    0.1737985    0.1200534  -4.96 0.0003014491    1.381    0.276
        21  -9.9065    174.6993    223.7033   3.7910086484e+01   5.3558292863e+00     0.219816    0.1363737  11.96 0.0005563235    1.535    0.348
        22  -8.8886    247.6130    220.7607   2.5352130639e+01  -1.8732583364e+00    0.1322011   0.07879209 -35.80 0.0007311163    1.595    0.373
        23  -9.5543     96.0324    211.7963   5.3413133829e+01   1.7479881397e+01    0.3027189    0.1965125 -80.16  0.001372213    2.104    0.525
        24 -10.6805     72.9108    208.9762   5.8846356990e+01   2.1002319999e+01    0.3613056    0.2176125  86.69  0.001732641    2.229    0.551
        25 -10.1395    103.7094    203.5491   5.0504463066e+01   1.8156617150e+01    0.2675453     0.219914  -6.57 0.0002824813    1.336    0.251
        26  -9.1950    210.9955    198.9985   2.7604418597e+01   4.7905961817e+00     0.175425    0.1370479 -11.75  0.000472441    1.024    0.024
        27 -11.0846     96.5854    195.1613   5.1166971307e+01   2.0911371480e+01    0.3920648     0.344912  76.33  0.001964451    1.279    0.218
        28 -10.6205    113.8800    195.0019   4.6833151571e+01   1.8516109262e+01    0.4168204    0.2342348 -24.67  0.001727047    2.748    0.636
        29 -11.8536    108.0665    188.9276   4.7378389779e+01   2.0635369096e+01    0.6456885    0.3287461 -41.77  0.002804611    2.249    0.555
        30  -8.9806    207.5080    189.9901   2.6696614146e+01   6.5476317860e+00    0.1772808   0.09972125 -35.70  0.001019966    1.556    0.358
        31  -9.9834    101.6017    185.8229   4.8566554725e+01   2.2250692430e+01     0.247795    0.1906587 -84.39 0.0006676146    1.614    0.380
        32  -9.8561     99.7581    182.5439   4.8559960127e+01   2.3250866779e+01    0.3790717    0.2142475  20.73  0.001115769    1.968    0.492
        33 -10.6606    116.0214    181.7530   4.4279924788e+01   2.1004752585e+01    0.2466199     0.203967 -52.04 0.0007612701    1.280    0.219
        34 -11.5877     80.9929    132.1687   4.5293308845e+01   3.8436172955e+01     0.414196    0.3279911 -28.65 0.0005311164    1.499    0.333
        35 -11.3620     42.4055    247.1566   6.9135162999e+01   1.6628425038e+01    0.3652277    0.3299983 -40.65  0.001396757    1.436    0.304
        36 -10.5439    234.0674    168.7460   1.8915088338e+01   6.4377351545e+00    0.2490498    0.1359119 -46.25 0.0009307414    1.932    0.482
        37  -9.2728     56.8698    169.0870   5.8781927724e+01   3.2413147829e+01    0.2118967    0.1940983  59.23 0.0003680428    1.011    0.011
        38  -9.7878    180.4028    166.5024   2.7360802910e+01   1.4102982993e+01    0.3599138    0.1458762 -48.89  0.001483548    2.657    0.624
        39  -9.2784    110.6605    167.3187   4.3247081091e+01   2.5028809408e+01    0.2315458    0.2082496  70.73  0.000536801    1.227    0.185
        40  -8.3528    101.5532    167.4584   4.5697113820e+01   2.6434516708e+01    0.1432957    0.1376587  35.95 6.162571e-05    1.003    0.003
        41 -11.3091     52.2830    160.8998   5.9169431358e+01   3.5085532863e+01    0.4885152    0.3446231 -28.81  0.001263818    1.831    0.454
        42 -11.1557     58.1090    156.9595   5.6823597877e+01   3.5370833330e+01    0.3778833    0.2940604 -13.81 0.0008061905    1.629    0.386
        43 -10.7675    238.1606    158.6423   1.6561281723e+01   7.3891128694e+00    0.2339804     0.134913 -30.44  0.001110853    1.401    0.286
        44 -11.7965     76.2865    145.9092   4.9368156304e+01   3.5658273085e+01    0.7201819    0.5080906   0.37  0.000481793    1.955    0.488
        45 -11.3789    237.7112    148.3098   1.4759316544e+01   8.9424282801e+00    0.4878086    0.2014433 -46.30  0.002380072    2.428    0.588
        46  -9.1621    134.3215    148.8458   3.3770008419e+01   2.5151506589e+01    0.2891228    0.1327419 -56.76  0.001076816    2.564    0.610
        47 -10.3957    109.1057    145.5603   3.9615645818e+01   3.0330237375e+01    0.3307801    0.2876696 -82.11 0.0008678013    1.271    0.213
        48 -14.7972     13.2955    243.8382   7.5454863180e+01   2.0008661434e+01     1.864382      1.29636  75.09   0.01252872    1.405    0.288
        49 -13.2910     18.4038    243.7430   7.4322459862e+01   1.9573079329e+01    0.9554208    0.4412385  44.35 0.0007604894    1.603    0.376
        50 -15.1617      4.8445    214.3043   7.6398265813e+01   2.6844052502e+01     3.821404     1.614554  14.49   0.01692881    2.755    0.637
        51 -10.2067     36.7714    142.6514   6.1974685029e+01   4.1743919778e+01     0.328693     0.233091 -74.64 0.0007873673    1.366    0.268
        52 -13.7635     69.1389    148.1528   5.2004717351e+01   3.6143261733e+01     2.211778     1.221024  82.24  0.001774765    2.943    0.660
        53  -9.0548    249.4591    140.4782   1.1837855243e+01   8.5560069491e+00    0.1142787   0.08589175 -30.51 5.836401e-05    1.010    0.010
        54  -9.1092     19.0963    136.9964   6.7551767712e+01   4.4994013451e+01    0.2155516    0.1922576  79.65 0.0004245235    1.024    0.024
        55 -10.5514     94.6948    132.9368   4.1177439374e+01   3.5905156521e+01    0.5517989    0.4677332 -70.37  0.002805114    1.221    0.181
        56 -11.1122     47.0583    133.4051   5.7079550173e+01   4.3055987900e+01     0.511308     0.490253 -83.30  0.002060738    1.044    0.042
        57 -10.6353     40.5711    131.7856   5.9166103240e+01   4.4274223124e+01    0.3963717    0.3392026 -76.19 0.0009702974    1.127    0.112
        58  -9.8107    105.6921    130.7542   3.7470187522e+01   3.4456863799e+01    0.3876928    0.2951915 -63.14  0.001080656    1.373    0.272
        59  -9.1184    106.4914    126.4984   3.6290495890e+01   3.5322290579e+01    0.3264754    0.2586865  15.02 0.0009626713    1.527    0.345
        60 -10.0267    243.1964    127.7942   1.0257811400e+01   1.1187235230e+01    0.1876499    0.1111925 -62.98 0.0009602103    2.872    0.652
        61 -10.6850     35.8547    126.5286   6.0138478415e+01   4.6242871302e+01    0.3376544     0.256971  65.68 0.0007721671    1.338    0.252
        62 -10.9287     32.1551    120.6844   6.0694462560e+01   4.8243154663e+01    0.4229979    0.2652677  70.74 0.0009400982    1.795    0.443
        63  -8.0619    219.2910    126.6573   1.3138731827e+01   1.4830815176e+01    0.1222376    0.0858615 -57.82 0.0003851166    1.653    0.395
        64 -10.6331     42.1246    125.1270   5.7578007459e+01   4.5909669869e+01    0.4839672    0.2500546  65.85   0.00169606    2.602    0.616
        65  -9.0438    104.5066    172.0129   4.5660448528e+01   2.4925212410e+01    0.2148502     0.143314 -58.18  0.000945857    1.585    0.369
        66  -9.2226     18.4626    123.2840   6.6338725207e+01   4.8806758695e+01    0.2572043    0.1949009  24.73 0.0007704867    1.385    0.278
        67  -8.9926    113.9566    121.8300   3.3108856228e+01   3.4991813789e+01    0.2488094    0.1813861   5.80  0.001058618    2.026    0.506
        68  -8.5814    135.0000    122.0307   2.7724404903e+01   3.0818579725e+01    0.2501439   0.08232895 -46.80 0.0008022865    2.941    0.660
        69 -10.5129     92.9661    121.6089   3.9221224051e+01   3.9011274819e+01    0.3914147    0.3265349   2.95  0.000940002    1.473    0.321
        70 -11.3700     68.6544    163.1029   5.4442040179e+01   3.2377425510e+01    0.9288269    0.4860057  88.25  0.003338504    3.041    0.671
        71 -10.9252    244.1100    115.0872   7.7395961827e+00   1.2885120289e+01    0.2766381    0.1926342 -71.41   0.00170632    2.113    0.527
        72  -9.5463    104.3718    116.0862   3.4460630065e+01   3.8195584088e+01    0.2591839    0.2149448  50.28 0.0003530028    1.215    0.177
        73  -8.9897    118.4359    110.2428   2.9051228186e+01   3.6730403054e+01    0.2117195    0.1436308 -60.91 0.0007678011    1.600    0.375
        74  -8.2983     96.4180    109.4362   3.5216725518e+01   4.1321430209e+01    0.1529426    0.1478879 -86.88 3.393485e-05    1.011    0.010
        75  -9.1435     19.8698    108.8525   6.3961685420e+01   5.2660472923e+01    0.2293231    0.1818882  57.94 0.0004911672    1.280    0.219
        76 -11.0703     24.6964    105.5199   6.1422572502e+01   5.3144634859e+01    0.3915665    0.2963197  43.78  0.002013168    1.346    0.257
        77 -12.9457     55.5437    144.6119   5.5872169083e+01   3.8957184872e+01    0.9499402    0.5720414 -41.63 0.0009856432    1.958    0.489
        78  -8.8955     39.3461    106.6307   5.5450325869e+01   5.1279574082e+01    0.2322687    0.1594681  63.03 0.0006446049    1.634    0.388
        79  -9.5493     33.2396    106.4109   5.7952558992e+01   5.2037049132e+01    0.2793823    0.1145628  37.12  0.001047079    2.347    0.574
        80  -7.9455    165.6719     97.2904   1.5162830092e+01   2.9503549771e+01    0.1428135     0.105821 -74.60 0.0007016874    1.620    0.383
        81  -9.1868     34.0568     94.7800   5.5378548950e+01   5.5085960428e+01     0.222524    0.1839278  55.79   0.00045113    1.266    0.210
        82 -10.8076     54.8246     89.8832   4.5184233049e+01   5.3570089667e+01    0.4098568    0.3209124 -18.16  0.001974115    1.560    0.359
        83  -7.8935    165.2847     89.6757   1.3323037657e+01   3.0955037995e+01    0.1447571    0.1024478 -67.61 0.0002525108    1.600    0.375
        84  -9.1873     89.0683     86.8009   3.1377334318e+01   4.8082853775e+01    0.2327777    0.1998992  81.49 0.0004791188    1.274    0.215
        85  -9.7942     38.9609     86.0391   5.1191683707e+01   5.6799333874e+01    0.2456847    0.2125051  89.92 0.0003472069    1.223    0.183
        86  -8.9173     86.0172     83.5133   3.1416243617e+01   4.9449385661e+01    0.2232653    0.1496927  45.10 0.0003629269    1.483    0.326
        87 -10.7266     23.3284     80.8076   5.7514479099e+01   5.9908974574e+01    0.2416251    0.2339373  59.95 0.0003392446    1.081    0.075
        88  -9.5125     82.6419     79.1652   3.1237956792e+01   5.1112057280e+01    0.2511124    0.2427849  65.58 0.0007154897    1.017    0.017
        89  -8.6929     71.4905     78.5054   3.5142612447e+01   5.3455350777e+01    0.1514203    0.1457473  79.14 0.0008102198    1.043    0.041
        90  -8.9598     96.6608    242.8157   5.6624741250e+01   1.1496256412e+01    0.1448009    0.1157925 -84.97 0.0005883437    1.647    0.393
        91 -11.6436    208.4427     62.1610   6.0028207771e-01   2.6533206148e+01    0.4040698    0.3756846  -5.34  0.001243149    1.409    0.290
        92  -9.8679    238.4986    238.9822   2.9314134502e+01  -3.2138243353e+00    0.1433458   0.07827339 -29.73 -9.723472e-06    1.527    0.345
        93  -9.2467     65.5096     68.4453   3.4227903223e+01   5.6863286616e+01    0.1471574    0.1434638  63.96 7.058253e-05    1.027    0.027
        94 -11.1917      2.1869     65.5535   6.5930116444e+01   6.5412581757e+01    0.6072862    0.2920837 -80.11  0.002671433    2.101    0.524
        95 -11.4940     13.2496     60.4183   5.8320722751e+01   6.5995648334e+01    0.5907305    0.3368054 -49.64  0.002444721    1.598    0.374
        96  -9.7270    103.7661    238.1825   5.4574934030e+01   1.1483817778e+01    0.2269892    0.1774198  -1.60 0.0006757865    1.363    0.266
        97  -9.2417     77.4665     54.4792   2.4480036145e+01   5.7329298188e+01    0.3274643    0.2231723 -89.39 0.0009933708    2.384    0.580
        98  -8.2847    137.4716     73.5608   1.4323437486e+01   4.0008087576e+01    0.1466191    0.1359334 -75.32 0.0003245186    1.007    0.007
        99  -9.8935     18.1152     51.4183   5.2810765899e+01   6.7746102332e+01    0.2303357    0.1999841  52.22 0.0007045822    1.308    0.235
       100  -9.0176     46.2967     50.7395   3.6443958701e+01   6.4124641051e+01    0.2471562    0.2235761  71.15  0.001397626    1.268    0.212
       101  -8.2683    117.4756     60.4512   1.4761238800e+01   4.7035948751e+01      0.14923    0.1363949 -84.55 7.662885e-05    1.046    0.044
       102  -8.3978     65.6824     73.6955   3.5908440693e+01   5.5647132753e+01    0.1507725    0.1192175 -10.31 0.0005993822    1.627    0.385
       103  -9.8962     18.6488     37.5120   4.7469236295e+01   7.0831956600e+01    0.2343827    0.1205126 -57.10   0.00109026    1.937    0.484
       104  -9.3977     52.9551     71.9916   4.0823513114e+01   5.8261981095e+01    0.2172903    0.2148387  65.64  0.001232001    1.027    0.026
       105  -9.4580      1.6201     32.2129   5.8246880441e+01   7.3476761316e+01    0.1874501   0.09889184 -52.67 0.0008042971    1.654    0.395
       106 -10.3414     26.8311     30.4657   3.8717697546e+01   7.1242421835e+01      0.24144    0.2112962  75.95  0.001125157    1.520    0.342
       107  -8.5342     85.8313     27.8624   1.0718048074e+01   5.9766937713e+01    0.1903684    0.1585994 -75.34 0.0004095259    1.307    0.235
       108 -10.3619      2.2093     23.2163   5.4364613080e+01   7.5392800110e+01    0.3120753    0.1606039 -65.07  0.001362429    2.052    0.513
       109  -9.3851     60.6210     21.4926   1.6124694720e+01   6.6457819196e+01    0.2387957    0.2075285  53.08 0.0008744959    1.076    0.071
       110  -8.8730    189.4771     15.0665   3.5101445992e+02   3.6364215845e+01    0.1801686    0.1056399 -36.60 0.0009151891    1.549    0.355
       111  -8.8099    185.4035    238.3024   3.7977820687e+01   2.0348809801e+00     0.131848    0.1015131 -38.89 0.0006201479    1.541    0.351
       112 -10.2267     72.8522    233.7513   6.1206775914e+01   1.5929581403e+01    0.3442356    0.2348128 -79.44 0.0006732701    1.798    0.444
