#   1 NUMBER                 Running object number                                     
#   2 MAG_AUTO               Kron-like elliptical aperture magnitude                    [mag]
#   3 X_IMAGE                Object position along x                                    [pixel]
#   4 Y_IMAGE                Object position along y                                    [pixel]
#   5 X_WORLD                Barycenter position along world x axis                     [deg]
#   6 Y_WORLD                Barycenter position along world y axis                     [deg]
#   7 A_WORLD                Profile RMS along major axis (world units)                 [deg]
#   8 B_WORLD                Profile RMS along minor axis (world units)                 [deg]
#   9 THETA_WORLD            Position angle (CCW/world-x)                               [deg]
#  10 FWHM_WORLD             FWHM assuming a gaussian core                              [deg]
#  11 ELONGATION             A_IMAGE/B_IMAGE                                           
#  12 ELLIPTICITY            1 - B_IMAGE/A_IMAGE                                       
         1 -10.9867     19.0910     27.1539   8.1475682583e+01   7.0327293401e+01     1.140064    0.4210623 -53.25   0.00459403    3.534    0.717
         2 -10.1124     14.8997     39.7970   8.9090243013e+01   6.8401659509e+01     1.133471    0.5778152 -68.69  0.004777903    3.435    0.709
         3 -11.1857     74.0816     26.1625   5.5594907525e+01   6.1543145047e+01     1.087265    0.5437753 -17.94  0.004406042    2.573    0.611
         4 -11.9336     74.5234      4.6596   4.5800154577e+01   6.3693832051e+01     0.566955     0.479664  35.73  0.001809341    1.044    0.042
         5 -10.1296     77.1594     11.9210   4.8324441735e+01   6.2467265807e+01    0.5535948    0.1753529  52.15 0.0009874339    2.507    0.601
         6 -11.3636     71.0684     15.5079   5.1838595554e+01   6.3400631889e+01    0.6682197    0.2759424  46.88  0.001404423    2.044    0.511
         7 -10.2237     69.7461     11.4371   5.0387020869e+01   6.4093696203e+01    0.2665703    0.1841646  44.71 0.0002415381    1.233    0.189
         8 -12.0138     61.8908     17.2567   5.5863223317e+01   6.5069261137e+01    0.5302505     0.291241  30.08  0.001351384    1.859    0.462
         9 -10.5152    116.9368     34.5971   4.7094261207e+01   5.0838321369e+01    0.6226917    0.3623797  12.03  0.001860647    3.120    0.679
        10  -9.6934     31.2095     12.3057   6.7094376348e+01   7.1022583750e+01    0.3158892    0.1846574  40.48  0.001265606    1.734    0.423
        11 -10.8821     29.0128     29.2070   7.6788479276e+01   6.8813553587e+01     1.100658     0.556882 -21.47  0.004089542    2.441    0.590
        12  -8.8804     35.5802     17.7738   6.7707275223e+01   6.9631267645e+01     0.361996     0.190266 -33.53  0.001401712    1.908    0.476
        13 -10.8475     42.2306     15.7495   6.3378722743e+01   6.8835426194e+01    0.4317046    0.3224289  20.25  0.001875254    1.154    0.133
        14 -10.4356     94.9474     34.9793   5.2768276066e+01   5.5899192926e+01    0.4555885    0.4233797 -15.43  0.001229543    1.145    0.126
        15 -10.9647    219.5956     19.3454   2.9101198829e+01   2.8796068897e+01    0.4801591    0.3068557 -79.59  0.002324634    1.434    0.302
        16  -9.8697    225.7654     16.4267   2.8033481506e+01   2.7864180929e+01    0.2776164    0.1551897 -33.52  0.001572214    1.780    0.438
        17 -10.7623    231.0170     14.7003   2.7320922114e+01   2.7007404507e+01    0.3298118    0.1937161 -87.41   0.00137692    1.602    0.376
        18 -12.4885    105.1799     20.7469   4.4716485347e+01   5.5226293379e+01    0.3235748    0.2916695  51.40 0.0003665123    1.017    0.017
        19 -10.7425     85.7606     22.0638   5.0199641480e+01   5.9525660368e+01    0.4240527    0.3077111  78.47  0.001219775    1.782    0.439
        20 -10.2401    131.5022     22.1274   3.9996550535e+01   4.8764568182e+01    0.3903565    0.2712825 -13.66  0.002084089    1.777    0.437
        21 -10.5840    153.6550     22.7685   3.6765100020e+01   4.3322819102e+01    0.2992417     0.260309 -13.50 0.0002996715    1.390    0.281
        22  -9.1715    144.0916     18.2575   3.6780250949e+01   4.6109430846e+01    0.9649969    0.4022953 -10.39  0.003190045    5.145    0.806
        23  -8.9184    159.5311     11.1835   3.2713672635e+01   4.3094815766e+01    0.2907931    0.1288913 -36.14  0.001184288    2.232    0.552
        24 -10.9560    145.4279     12.6997   3.4909560425e+01   4.6332921280e+01    0.8847783    0.3445608  50.62  0.003372088    2.565    0.610
        25  -9.6967    151.7646     18.0115   3.5633744486e+01   4.4279776381e+01    0.2335009     0.188321 -32.67 0.0003642175    1.370    0.270
        26 -10.2877    148.3823     16.2539   3.5572740204e+01   4.5273390312e+01    0.3228526    0.2638085 -61.57 0.0007421065    1.231    0.188
        27 -12.4065    161.0544      2.1194   3.0049041142e+01   4.3557170225e+01    0.8283541    0.3061675  60.38  0.003487327    2.353    0.575
        28 -10.9982    156.0001      3.6617   3.1002710674e+01   4.4618873646e+01    0.2452643    0.1469698  61.86  0.000438331    1.514    0.339
        29 -10.8450    165.7638     18.3689   3.3970221391e+01   4.0895377480e+01     0.415703      0.32537  21.73  0.000987708    1.752    0.429
        30 -10.4174     15.9959      3.5291   7.0960850158e+01   7.4266291967e+01    0.4441334    0.2398131   7.93  0.001752021    2.129    0.530
        31 -10.2012      6.7240      9.6728   8.0746095297e+01   7.4434994958e+01    0.6641179    0.3763745  -6.55  0.003233349    1.798    0.444
        32 -12.1207     14.3282     11.2522   7.6498131851e+01   7.3397393267e+01    0.3138031     0.217183  15.81 0.0002078972    1.284    0.221
        33 -10.3175      5.7510     16.0511   8.4701812562e+01   7.3501584750e+01    0.5330967    0.2013341 -52.05  0.002458854    2.908    0.656
        34 -10.5065      9.6488     14.8706   8.1489245202e+01   7.3334956752e+01    0.3612637    0.2068316  -8.25  0.001229706    1.799    0.444
        35 -10.7835    167.5487      7.8585   3.0936537350e+01   4.1515801275e+01     0.703314    0.3629248  57.18  0.003614084    1.887    0.470
        36 -11.9985    177.8138      3.2553   2.8772969476e+01   3.9562903425e+01    0.5024644    0.2929616  80.55  0.002834011    1.510    0.338
        37 -11.2054    182.2739     18.4216   3.2171823228e+01   3.7037681053e+01    0.5669482    0.3206524  48.54  0.002592018    2.120    0.528
        38 -11.0406    175.3288     12.5698   3.1381958207e+01   3.9245443095e+01    0.5999203    0.3505531  76.11  0.003275412    1.539    0.350
        39 -10.1320    184.2810     12.8910   3.0591563999e+01   3.7156268766e+01    0.2679333    0.2042996  78.47 0.0008007457    1.196    0.164
        40  -9.8517    128.4805     11.1686   3.6898853220e+01   5.0575890951e+01    0.6063777    0.2683937 -19.45  0.002668314    2.802    0.643
        41 -11.0987    133.0507     12.6225   3.6662151324e+01   4.9335688277e+01    0.2844617    0.2350077 -32.35 0.0002689105    1.356    0.262
        42  -9.6904    117.0385     14.9258   4.0148507833e+01   5.2987055672e+01    0.2325136    0.1926157  -0.12 0.0006961783    1.424    0.298
        43 -10.3715    244.2795     13.6782   2.6289342211e+01   2.4569594595e+01    0.2680345    0.2318943  31.84  0.001507948    1.857    0.462
        44  -8.9153     84.0631     14.4649   4.7470550720e+01   6.0704188144e+01    0.1883745    0.1657387  31.00  0.001189302    1.067    0.063
        45  -9.6957    202.7464      6.8144   2.7610438418e+01   3.3673772306e+01    0.3213232    0.1926896  37.37  0.001666293    2.813    0.645
        46  -9.9107    210.4787     13.5211   2.8526034503e+01   3.1332258025e+01    0.2433941    0.2199697 -26.50  0.001071145    1.414    0.293
        47 -10.3894    212.0265      8.8150   2.7380805780e+01   3.1497025383e+01    0.3877449    0.2007779 -45.91  0.002005347    1.647    0.393
        48 -10.6796    209.3321      3.8193   2.6479670364e+01   3.2565307619e+01    0.5842721    0.3295645 -12.58  0.003012053    2.950    0.661
        49  -9.6027    206.0486      2.0037   2.6304135809e+01   3.3437094338e+01    0.2300774     0.183265 -75.73 0.0007005402    1.021    0.021
        50  -9.8243    200.6164     12.5762   2.9088985945e+01   3.3549176343e+01    0.3446783    0.2090734 -26.08   0.00177339    1.918    0.479
        51 -10.6268     97.5935     12.4264   4.3234579523e+01   5.7822292966e+01     0.555331    0.2188076  50.49 0.0008867187    2.111    0.526
        52  -9.1765     98.0331      5.9629   4.0586602935e+01   5.8283704659e+01    0.3564751    0.2661433 -22.41  0.001711777    1.530    0.346
        53  -9.8627     92.3790      8.2432   4.2758196545e+01   5.9399827070e+01    0.4229571    0.1859741  44.64  0.001338868    2.051    0.512
        54 -10.2149    218.4485     11.0579   2.7413363516e+01   2.9929471246e+01     0.307045    0.1931722 -54.61  0.001171639    1.318    0.241
        55 -10.3376    191.8258      9.0188   2.8982269897e+01   3.5847769176e+01    0.3999271    0.3201064 -59.90  0.002673461    1.127    0.113
        56 -10.8821    195.5042      3.5870   2.7415161938e+01   3.5563942812e+01     0.490263    0.2432643  66.92  0.002651376    1.887    0.470
        57  -9.0728     51.2409     11.6195   5.7250498940e+01   6.7735868111e+01    0.1822627    0.1621437  16.90 0.0009633086    1.125    0.111
        58  -9.8441     50.5389      8.0769   5.5699576270e+01   6.8245231508e+01    0.3698659    0.2586296  54.51  0.002187702    1.567    0.362
        59 -11.2597     23.9321      7.0424   6.8194984994e+01   7.2754258744e+01    0.4216558    0.3142678  47.07  0.001786268    1.862    0.463
        60  -9.5559    119.9138      9.9614   3.7899559995e+01   5.2751531973e+01    0.2199439    0.1851834 -83.78 0.0004211888    1.227    0.185
        61 -12.0415     91.6537      2.5576   4.0594838058e+01   6.0029888286e+01    0.2992927    0.2347545 -60.69  0.001813966    1.580    0.367
        62 -10.8748    106.7127      5.3955   3.8632702061e+01   5.6290745247e+01    0.5083957    0.4027193  -9.47   0.00259173    1.478    0.324
        63 -10.7874    233.9603      2.6526   2.4733993161e+01   2.7694253118e+01    0.5379874    0.1658557 -52.56  0.002085637    2.547    0.607
        64  -9.8721    238.0022      3.0000   2.4581539115e+01   2.6881019499e+01    0.2534558    0.1271883 -86.97  0.001502292    1.872    0.466
        65  -8.3165     64.5321      7.4823   5.0217739519e+01   6.5554597705e+01     0.127214    0.1065465  33.73 0.0001448142    1.012    0.012
        66  -8.2346     61.5375      6.4402   5.0724867544e+01   6.6262279308e+01    0.1985579    0.1633893  35.92  0.000529339    1.033    0.032
        67  -9.1720     87.5985      6.2923   4.3086152276e+01   6.0655998248e+01        0.214    0.1374912  68.70 0.0006901525    1.537    0.349
        68  -9.4753    247.9878      5.0000   2.4436072642e+01   2.4802308872e+01    0.2617539    0.1171507  88.93  0.001053302    2.213    0.548
        69 -10.9045    249.9241      1.5699   2.3702401946e+01   2.4799346289e+01    0.1893125    0.1526832 -63.04 0.0002919061    1.147    0.128
        70 -10.4388    217.9703      3.1788   2.5780572713e+01   3.0831914876e+01    0.2725272    0.2386584  48.95  0.001990525    1.575    0.365
        71  -9.8343    126.6612      1.6698   3.4041394296e+01   5.1814892917e+01    0.2847558    0.1568757  55.56 0.0008056252    1.588    0.370
        72 -10.8715    115.5946      2.0016   3.5842419029e+01   5.4443696324e+01    0.2654042     0.192918  52.78 0.0003659219    1.233    0.189
        73  -9.7665    119.9488      1.6983   3.5047128419e+01   5.3424545048e+01    0.2241722    0.1925439 -89.92  0.000660417    1.144    0.126
        74  -9.2105     38.0851      4.3472   5.9152836509e+01   7.0861077361e+01    0.2012812    0.1432836   3.54 0.0006287499    1.320    0.243
        75 -10.3311     30.5311      2.4531   6.1830618545e+01   7.2308330688e+01    0.2263366    0.1808808 -30.93  0.001525465    1.535    0.349
        76  -9.5763    145.0033      2.4542   3.1898813647e+01   4.7344157543e+01    0.3420689    0.1840149 -82.20  0.001657466    2.062    0.515
        77 -10.2687    135.2068      1.6333   3.2865033075e+01   4.9762523106e+01    0.3023164    0.1536392  76.29 0.0008973176    1.765    0.433
        78  -8.8608    185.7733      1.3984   2.7651896597e+01   3.7928359366e+01    0.1674945   0.09490226  66.94 0.0007757178    1.643    0.391
        79  -9.2540      5.3738      1.3439   7.6901797306e+01   7.5790212580e+01    0.1882267    0.0914842  22.06 0.0003710711    1.905    0.475
        80 -10.4957     45.0251    119.5558   9.6694009253e+01   4.6815253679e+01    0.3743445    0.2745468  31.38 0.0009990355    1.456    0.313
        81  -9.7699    201.3132    249.5415   7.9260554117e+01  -4.5032413600e+00    0.2232921    0.1702937   4.15 0.0006812261    1.007    0.007
        82 -10.5035    115.8959    248.6301   9.6523360767e+01   6.9510801722e+00    0.2852403    0.2470073 -83.77  0.001839669    1.466    0.318
        83  -9.7640     29.2969    120.9385   1.0247298686e+02   4.8083691365e+01    0.3814966    0.1681935 -65.69  0.001083633    1.982    0.495
        84  -9.9672     32.8440    117.8940   1.0070999027e+02   4.8539706542e+01    0.2570857    0.2072274 -41.20  0.000412646    1.223    0.182
        85 -10.2361     33.8449    114.1550   9.9686256797e+01   4.9409768779e+01    0.4136312    0.2663059  67.98  0.001769612    2.027    0.507
        86 -11.6633     21.8909    119.2578   1.0480992986e+02   4.9161649273e+01    0.5126999    0.4266469  77.08  0.001839434    1.271    0.213
        87 -11.1825     21.4504    109.1456   1.0336777146e+02   5.1805935996e+01     0.709089    0.3642146 -66.61  0.003270303    1.699    0.411
        88 -10.5732     15.5096    108.1746   1.0541795180e+02   5.2501899467e+01    0.3894482    0.2746198 -20.68  0.001192752    1.609    0.378
        89  -9.8737    221.5548    119.2826   5.1007570062e+01   1.3864196856e+01    0.2658483     0.239294  33.86 0.0006892778    1.285    0.222
        90  -8.7254    103.9944    119.2351   7.7057024270e+01   3.7681555187e+01    0.2140325    0.1993655  31.77 0.0003012212    1.090    0.082
        91  -9.1651     93.9720    118.9816   8.0070395261e+01   3.9613107942e+01    0.2411075    0.2229295 -19.94  0.000549946    1.110    0.099
        92  -9.6202     55.3511    118.0924   9.2769304050e+01   4.5922522297e+01    0.3662046    0.2179889  51.78  0.001168435    2.036    0.509
        93  -9.1928     37.9926    118.8035   9.9040474893e+01   4.7783934260e+01    0.2263222    0.1785322 -40.43 0.0009028406    1.258    0.205
        94 -10.1970      3.5993    117.7140   1.1097261661e+02   5.0813003811e+01    0.4073504    0.2284655 -75.18  0.001341942    1.527    0.345
        95  -9.7834      3.3941    109.2629   1.1001367518e+02   5.2978153969e+01    0.2994591    0.2590209  58.91  0.001883929    1.292    0.226
        96 -10.6517     10.2738    114.9918   1.0830283856e+02   5.1108410519e+01    0.6634365    0.3329663  70.34  0.002763655    2.731    0.634
        97  -9.7056     13.9690    113.4994   1.0677764258e+02   5.1244808230e+01    0.2525426    0.1795518 -79.36 0.0004514522    1.313    0.239
        98  -8.0980     76.9895    116.7637   8.5037314705e+01   4.3083915199e+01    0.1966288    0.1292135  32.54 0.0007614479    1.578    0.366
        99  -8.7820     70.1993    116.1867   8.7198924867e+01   4.4298521219e+01    0.2030932     0.174768  69.86 0.0003906231    1.334    0.250
       100  -8.0887    104.2699    115.2898   7.5968030988e+01   3.8562071172e+01    0.1531127    0.1215481 -14.02  0.000691562    1.508    0.337
       101 -10.2018     46.9742    114.1339   9.4926234193e+01   4.7986458001e+01    0.3064179    0.2322671  -2.47 0.0007170988    1.556    0.357
       102  -8.7744    129.7306    114.0045   6.8427614034e+01   3.3669977418e+01    0.2181527    0.1978032 -41.42 0.0001713877    1.084    0.077
       103  -8.2724     80.3182    114.3378   8.3338176110e+01   4.3136968601e+01    0.1619539    0.1168977 -21.16 0.0007049089    1.705    0.413
       104  -9.1841    234.2263    111.8165   4.7570468873e+01   1.2858750226e+01    0.2188959    0.1264573 -66.14 0.0009549508    2.825    0.646
       105  -8.5624    162.3642    113.7763   6.0529363534e+01   2.6716330352e+01     0.208368    0.1382925 -33.20 0.0003923368    1.547    0.354
       106  -9.7288    116.1873    107.1620   7.0311558133e+01   3.8028536109e+01    0.3031946    0.2205524  22.65   0.00056738    1.633    0.388
       107 -10.0385    118.9727    102.9798   6.8375011218e+01   3.8364154297e+01    0.3181286    0.2399861 -17.87   0.00143323    1.625    0.384
       108 -10.3633    114.1514    101.2844   6.9268518421e+01   3.9750962032e+01    0.3459331    0.2551327  87.15  0.001180552    2.055    0.513
       109  -9.1166     36.9622    106.6769   9.7097328733e+01   5.1012502495e+01    0.3370569    0.1702195 -40.40  0.001030461    2.047    0.511
       110  -8.8488      8.3654    105.8464   1.0772628701e+02   5.3562795584e+01    0.2096371    0.0932744 -59.48 0.0009468822    1.789    0.441
       111  -9.3204    132.2825    103.9199   6.5058763981e+01   3.5295563592e+01    0.2628552    0.2122171  61.84 0.0007289333    1.368    0.269
       112  -9.6008     33.3175    103.6510   9.7870995483e+01   5.2151286177e+01     0.352342    0.1784538 -31.81    0.0014327    2.413    0.586
       113 -10.7338    101.6042    102.8189   7.3439957674e+01   4.1970302596e+01    0.6370065    0.3498194  29.83  0.002448599    2.162    0.537
       114  -9.1437    100.5041     99.4819   7.2844368173e+01   4.2941688968e+01     0.251522    0.2065789 -53.98  0.001077887    1.256    0.204
       115  -9.9465     70.9884    103.0071   8.3680540261e+01   4.7434632213e+01    0.1888347    0.1731491 -42.79 0.0007270481    1.042    0.040
       116  -9.1444    127.1558    102.0875   6.5896066890e+01   3.6798971293e+01    0.2290475    0.2066727  -1.54 0.0003495809    1.209    0.173
       117  -8.7968     87.4753    102.5273   7.7885377992e+01   4.4728108044e+01    0.1514941     0.149014 -43.23 0.0003576963    1.048    0.046
       118  -9.4620     85.9840     95.8935   7.6529370064e+01   4.6535850088e+01    0.3092961    0.2639166  78.35 0.0008055548    1.463    0.316
       119  -8.3583     80.7506    101.6642   7.9917181234e+01   4.6129061520e+01    0.1999338    0.1435977  46.34 0.0002079165    1.498    0.332
       120  -8.9659     77.6451    101.7199   8.1002877801e+01   4.6649104230e+01    0.3071353    0.1715341 -29.68  0.001150043    2.401    0.584
       121 -10.8344     79.9351     95.9097   7.8605741676e+01   4.7619165920e+01    0.5140395    0.4345839 -24.37  0.002640507    1.214    0.177
       122 -10.5202     51.0818    101.1232   9.0524572747e+01   5.0768619980e+01    0.4576103    0.3810445 -49.41  0.001880267    1.108    0.097
       123  -9.6593     43.9880     99.5476   9.2869405587e+01   5.2032173330e+01    0.3568184    0.2026442  28.67   0.00118036    1.864    0.464
       124  -9.6419     39.6616     99.1212   9.4452390393e+01   5.2629878997e+01    0.4243349    0.3070364 -60.35  0.001269292    1.285    0.222
       125  -8.9823    177.0088    101.3128   5.4394361399e+01   2.5959010757e+01     0.191462    0.1864178  72.47  0.000380948    1.082    0.076
       126  -9.8363     95.0282    100.1901   7.4773578775e+01   4.3852684988e+01    0.2532799    0.2181808 -48.74  0.000261782    1.157    0.136
       127 -10.3523     57.9950     98.7723   8.7335749985e+01   5.0416368422e+01    0.5583403    0.1950001 -39.99  0.001702515    3.625    0.724
       128  -9.6975      3.2460     80.9195   1.0577776997e+02   6.0030782074e+01    0.4158893    0.2760075 -75.75  0.002159059    1.454    0.312
       129  -9.6853      8.7954     98.4205   1.0644267977e+02   5.5412636547e+01    0.3275221    0.2618143 -82.36  0.001946527    1.235    0.190
       130  -8.4719      3.9776     97.7915   1.0822178814e+02   5.5840836612e+01    0.2439364    0.1895737   0.43 0.0008622347    1.484    0.326
       131 -10.6354      2.7207     92.6279   1.0794094811e+02   5.7191258446e+01     0.586274    0.2545914  45.23  0.002507425    2.985    0.665
       132 -10.0383      1.9619     87.6729   1.0747017020e+02   5.8450238865e+01    0.5532292    0.1207361 -60.06  0.002047359    2.871    0.652
       133  -9.1074    149.7625     97.0522   5.8945521256e+01   3.2809887286e+01    0.2091375    0.1951232 -48.46 0.0002039064    1.049    0.047
       134  -9.5974    125.9653     96.9445   6.4769775126e+01   3.8139387735e+01    0.2441479    0.2361089 -72.38   0.00104747    1.075    0.070
       135 -11.7151    117.6537     97.9788   6.7337357317e+01   3.9723212119e+01    0.3758883    0.3023347 -13.16 0.0003130855    1.473    0.321
       136  -9.4618     12.9703     94.6472   1.0416162499e+02   5.6094938521e+01    0.3620892    0.2396421 -43.34  0.001962551    1.370    0.270
       137 -11.0944     26.6784     87.6139   9.7115514146e+01   5.6769016650e+01    0.6441305    0.4146681 -33.26  0.000984779    1.543    0.352
       138  -9.9805     31.6271     93.8455   9.6467723254e+01   5.4774694392e+01    0.3421404    0.2308718 -80.26   0.00117089    1.736    0.424
       139  -9.8110     34.1524     90.8133   9.4752769546e+01   5.5269174680e+01    0.3492853    0.2274019 -35.63  0.001039854    1.511    0.338
       140  -9.3508     23.0022     94.7736   1.0014595426e+02   5.5318973352e+01    0.2639358    0.1865365 -74.87   0.00113088    1.433    0.302
       141  -9.4917    139.3721     93.1675   6.0300141148e+01   3.5916277586e+01    0.2269931     0.137998 -50.96 0.0006354817    1.742    0.426
       142 -10.4636     46.6464     91.2741   8.9813101024e+01   5.3741666865e+01    0.5523953    0.3376571 -78.34   0.00146553    2.359    0.576
       143 -10.9546     50.6285     83.1666   8.6022166419e+01   5.5147059039e+01    0.5854441    0.3432101  22.49  0.002672394    1.858    0.462
       144 -13.0949     52.8782     74.4004   8.2488005125e+01   5.6818274280e+01    0.7683824    0.4061499 -60.24  0.001278433    2.271    0.560
       145 -11.5580     45.1835     68.6966   8.3968755301e+01   5.9121208785e+01    0.3082652    0.2345702 -42.36  0.000230143    1.216    0.178
       146  -9.5411     42.8946     81.8647   8.8852828654e+01   5.6438099425e+01    0.3388614    0.2314478  -2.12 0.0003692026    1.720    0.419
       147 -10.0011     38.4623     81.4405   9.0608379106e+01   5.7056028947e+01    0.3834358    0.2463873   3.07 0.0009832786    1.847    0.459
       148  -9.2325    134.5776     92.2267   6.1208422015e+01   3.7183749819e+01    0.2043713     0.147188 -30.44 0.0005294735    1.495    0.331
       149  -9.4320     71.0114     90.8292   8.0340962895e+01   5.0313961007e+01    0.3500687    0.2067812 -40.09  0.001518792    1.689    0.408
       150  -9.0486    105.2765     90.7607   6.8842189508e+01   4.3876953250e+01    0.3003531    0.2092419  45.16  0.001371189    1.448    0.309
       151  -9.0316     18.3103     90.9001   1.0129118734e+02   5.6650017671e+01    0.2012043    0.1734542  28.82 0.0006082773    1.322    0.243
       152  -9.0388    113.2799     90.0876   6.6283119098e+01   4.2323723958e+01    0.2752014    0.2029062  61.65  0.001141607    1.576    0.366
       153 -10.4550     64.7039     75.4887   7.8069972657e+01   5.4772361502e+01    0.5600317    0.4013529 -67.58  0.002650325    1.861    0.463
       154  -9.4949     90.8906     83.6355   7.1224673788e+01   4.8303201135e+01    0.2630361    0.1999512 -27.56 0.0001989952    1.399    0.285
       155 -10.4125     86.2725     88.7135   7.4327411062e+01   4.8094053128e+01    0.4494342    0.3503429 -20.43 0.0008952852    1.426    0.299
       156  -9.5003     86.9415     83.6764   7.2561101314e+01   4.9060683246e+01    0.2655615    0.2568819  70.06 0.0004043322    1.154    0.133
       157 -11.6300     80.9465     83.4231   7.4554084829e+01   5.0239692234e+01    0.5037632     0.361968  -9.71 0.0003703806    1.789    0.441
       158 -11.5601     72.5984     80.2505   7.6578858918e+01   5.2416728827e+01     1.088071    0.7453188 -10.90  0.004220188    1.934    0.483
       159 -10.1854     57.6027     87.7447   8.4535825366e+01   5.3108128756e+01    0.6030414    0.3735456  67.10  0.001870438    3.094    0.677
       160  -8.6162     52.5824     90.2376   8.7188948687e+01   5.3221314903e+01    0.2098116    0.1248891 -45.85 0.0005307333    1.554    0.356
       161  -8.7677      7.3477     89.3235   1.0552257391e+02   5.7761100825e+01    0.2967796    0.1639182  40.64   0.00112066    2.170    0.539
       162  -9.1734     97.5930     88.6012   7.0574979948e+01   4.5911893403e+01    0.2557633     0.208331 -89.80  0.000567056    1.647    0.393
       163  -9.4649     39.7165     87.9251   9.1768441092e+01   5.5371489848e+01    0.2789807    0.2040006 -43.08 0.0006228277    1.239    0.193
       164  -9.1949     14.2439     87.8097   1.0237722232e+02   5.7702520473e+01    0.3629481    0.1684232 -48.91  0.001674532    1.798    0.444
       165 -10.3692    118.1576     83.6268   6.2970241703e+01   4.2565272420e+01    0.4728121    0.3107517  56.62  0.001902191    1.650    0.394
       166 -10.7146    123.4774     86.8439   6.2498318292e+01   4.0744346191e+01    0.3642699    0.3179663 -21.59  0.001021987    1.219    0.180
       167 -11.0222    128.8729     85.3859   6.0660018335e+01   3.9816727118e+01    0.6445141    0.3957089  19.77  0.002356704    2.826    0.646
       168 -10.9749    155.1830     85.1426   5.4490479224e+01   3.3825871805e+01    0.2805991    0.2706046 -76.47 0.0002721933    1.024    0.023
       169 -11.6130    150.8079     80.6120   5.4147625410e+01   3.5655803832e+01    0.9646385    0.3426294  54.65  0.001226789    2.893    0.654
       170 -10.1715    145.7850     74.9540   5.3602275268e+01   3.7830006396e+01    0.3634065    0.2941093 -58.31  0.001735843    1.296    0.228
       171  -9.5832    141.5879     75.1816   5.4593442457e+01   3.8773768464e+01    0.2101809    0.1929225 -27.32 0.0006252808    1.142    0.124
       172 -10.5255    142.1239     83.3862   5.6863644046e+01   3.7161968947e+01    0.4853291    0.3403257 -89.02 0.0007048236    2.100    0.524
       173  -8.9264    137.6867     84.3040   5.8168327571e+01   3.8012086849e+01    0.2162299    0.1835473  16.89 0.0005128068    1.372    0.271
       174  -9.5911    110.2117     85.4261   6.5767440093e+01   4.3942033345e+01    0.3701885    0.1455029  50.21  0.001240295    2.738    0.635
       175 -10.0571    105.5968     82.9375   6.6366777053e+01   4.5434759290e+01    0.5495117    0.2721963 -35.61  0.001480871    2.215    0.548
       176  -9.6849     20.3926     81.5905   9.8443973654e+01   5.8760008444e+01    0.3292499    0.3037648  62.59  0.001724822    1.299    0.230
       177  -9.4263     18.7548     76.4292   9.7977665878e+01   6.0118812038e+01    0.4394724    0.1466814 -46.94  0.001127969    2.451    0.592
       178  -8.9792     18.7516     72.2339   9.6962682019e+01   6.1102312720e+01    0.2406057    0.1345461 -31.40 0.0009346908    1.780    0.438
       179 -10.7184    167.9547     78.3902   5.0125413700e+01   3.2075450464e+01    0.2648687    0.2485767 -76.18 0.0004121621    1.037    0.036
       180 -10.3591    170.0238     73.5158   4.8438510499e+01   3.2416859718e+01    0.3510922    0.2408256 -30.60  0.001560429    1.549    0.354
       181  -9.1417    178.4769     78.4203   4.8262206731e+01   2.9674181031e+01    0.2325749    0.1757994 -47.62 0.0001073027    1.250    0.200
       182 -10.0109    175.0406     74.9999   4.7956316110e+01   3.1021108030e+01    0.2466821    0.2129725  67.93 0.0003233614    1.181    0.153
       183 -10.6562    179.0395     75.0000   4.7278078416e+01   3.0112409491e+01    0.3816115    0.2336536  42.50  0.001756732    1.940    0.485
       184  -9.5051    111.2387     77.1025   6.2885767529e+01   4.5366304878e+01    0.3173626    0.2156802 -43.79  0.001461308    1.499    0.333
       185  -8.6726     94.2419     78.4120   6.8476356524e+01   4.8715753376e+01    0.1553615    0.1137459 -13.15 0.0006918521    1.706    0.414
       186  -9.6905     95.8012     64.3571   6.3297807269e+01   5.1094107506e+01    0.6649159    0.2903473  32.06  0.001148142    3.412    0.707
       187  -9.1061     75.3058     66.0193   7.0864279677e+01   5.4871178858e+01    0.2493107    0.2052289 -40.26 0.0007744504    1.230    0.187
       188 -10.3623     89.0719     73.8821   6.8702163436e+01   5.0668068632e+01    0.5945108    0.4162244 -31.10  0.002052683    1.499    0.333
       189 -10.6583     94.5259     71.7635   6.6212265297e+01   4.9974350138e+01    0.3790321    0.3157664 -56.60 -6.403168e-05    1.355    0.262
       190  -9.9454     82.2069     61.9995   6.6970983145e+01   5.4314556241e+01    0.4485132    0.3558629 -42.34  0.002265097    1.312    0.238
       191  -9.5907     77.1697     62.1077   6.8801712857e+01   5.5270782338e+01    0.2568548    0.2207196  -2.06 0.0003096293    1.170    0.145
       192 -10.3022     86.9949     67.9805   6.7415857333e+01   5.2236776928e+01    0.4282833    0.3126861  61.46  0.001116423    1.716    0.417
       193  -9.4626     89.6827     66.3030   6.5940624701e+01   5.2010912099e+01    0.2549231    0.1970792 -59.93 0.0002762653    1.590    0.371
       194  -8.4711     12.6442     78.1611   1.0110294049e+02   6.0147582606e+01    0.1958661     0.093516 -53.13 0.0005355077    1.681    0.405
       195 -10.0042     37.1101     76.5155   8.9843243577e+01   5.8354367906e+01    0.2520008    0.1708304 -43.68 0.0003530786    1.318    0.242
       196  -9.3522    119.3258     75.6591   6.0196614313e+01   4.3832846634e+01    0.4301299    0.2785078 -75.04   0.00105497    2.755    0.637
       197  -9.7581     29.0652     75.0054   9.2987127265e+01   5.9548345358e+01    0.3634562     0.218942 -47.02  0.001416367    1.441    0.306
       198  -9.1485     33.9746     41.9452   7.9660638169e+01   6.5948337674e+01    0.3418921    0.1889363  16.14  0.001655247    1.995    0.499
       199 -11.1740     44.3988     54.7149   7.9540512836e+01   6.2127044050e+01     1.537998    0.3001054  35.95  0.004545216    4.905    0.796
       200 -10.2621     29.5628     68.2789   9.0890064693e+01   6.1033646626e+01    0.8686022    0.3668987 -46.14  0.003754041    2.039    0.510
       201 -10.6893     28.0495     63.4154   9.0159034477e+01   6.2265269578e+01    0.5178286     0.285401 -40.45  0.001177184    1.620    0.383
       202 -10.4726     32.3728     47.7880   8.2745150886e+01   6.5036931570e+01    0.2722934    0.2311518 -53.79 0.0005459152    1.388    0.279
       203  -9.9806     22.4048     38.2407   8.4294854148e+01   6.7980304860e+01    0.2943203    0.2398942  41.86  0.001028146    1.623    0.384
       204  -8.6061    150.5496    249.4930   8.9312853627e+01   2.0753340062e+00    0.1250969    0.1020611  17.55 7.156563e-05    1.015    0.015
       205  -9.5280     16.2514     46.7921   9.0816673344e+01   6.6884500308e+01    0.2374469    0.1853976  -5.89 0.0003471957    1.206    0.171
       206  -8.2231     57.0308    249.0076   1.0912652514e+02   1.4470126479e+01    0.1346004      0.11153  55.16            0    1.038    0.037
       207 -11.2654     23.3084     47.3349   8.7241040670e+01   6.6120713374e+01    0.3831671    0.3514133  71.91  0.001800398    1.559    0.359
       208  -9.6402     27.7321     42.7175   8.3191476204e+01   6.6553073565e+01    0.3885191    0.2528045 -33.47 0.0009255057    1.375    0.272
       209 -11.6290     24.5048     55.5334   8.9418732106e+01   6.4313216709e+01     0.445637    0.3708553 -10.11  0.001603964    1.120    0.107
       210 -11.4573     28.7827     51.9833   8.6071397722e+01   6.4609148665e+01     0.475584    0.2233657  31.17 0.0005593055    2.207    0.547
       211  -8.2812    215.5656     75.5729   4.2071238864e+01   2.2157814045e+01    0.1323494    0.1127501 -55.91 8.255684e-05    1.025    0.024
       212  -9.6248    185.0139     75.3134   4.6382363084e+01   2.8718626064e+01    0.1880655     0.173488  80.39 0.0003473504    1.105    0.095
       213  -9.5091    132.9541     74.7905   5.6477232262e+01   4.0859554489e+01    0.2481267    0.1764297  86.01  0.001081569    1.971    0.493
       214 -11.1518      8.5544     51.3437   9.6394261919e+01   6.6511590926e+01    0.6439434    0.4003724   8.96  0.003148743    1.687    0.407
       215 -12.4220      2.4147     66.1602   1.0324859836e+02   6.3559014731e+01    0.4348344    0.2340668 -64.93 0.0003165975    1.623    0.384
       216 -10.0605      8.9310     62.7248   9.9275275891e+01   6.3978498244e+01    0.2809889      0.24171  17.25  0.001324318    1.325    0.245
       217 -10.8501      4.3598     59.4523   1.0074592739e+02   6.4984249995e+01    0.6375436    0.3092064 -32.10  0.003154026    1.940    0.485
       218 -10.4188    157.3543     70.4337   4.9936542634e+01   3.5879515726e+01    0.3625045    0.2544118 -32.90 0.0001556517    1.482    0.325
       219  -8.6526    122.8060     70.7828   5.7753672151e+01   4.3927715112e+01    0.1972868    0.1721521 -83.86 0.0002683486    1.313    0.239
       220  -9.5217    102.6888     69.5855   6.2952846242e+01   4.8656384195e+01    0.3811471    0.2738478 -15.74  0.001373253    1.718    0.418
       221  -8.8281    106.5273     66.4554   6.0779520449e+01   4.8386760659e+01    0.2674372    0.1769972  47.24  0.000721146    1.467    0.318
       222  -8.4087     23.4839     71.2552   9.4527376287e+01   6.0933238888e+01    0.1786718    0.1251531 -71.80 0.0009383924    1.620    0.383
       223  -9.0013    146.0859     70.1080   5.2120649944e+01   3.8591905681e+01    0.2267781    0.2111892 -88.57  0.001257446    1.079    0.074
       224 -10.3526    140.8421     68.1737   5.2673711489e+01   4.0157932528e+01    0.2916481    0.2629569 -76.18 0.0003829399    1.158    0.136
       225 -10.3456    143.7652     65.7436   5.1318333698e+01   3.9868869029e+01    0.2955647    0.2404936 -70.08 0.0006234784    1.357    0.263
       226  -8.8083     80.1718     70.1248   7.0514704655e+01   5.3149734829e+01    0.1883166    0.1755304  83.06  0.001032718    1.307    0.235
       227  -9.6414     37.5572     69.0805   8.7475855706e+01   5.9983575125e+01    0.3899815    0.2099136 -38.59  0.001803858    1.762    0.432
       228 -10.4512    173.5429     68.7983   4.6566026503e+01   3.2370357593e+01    0.2481713    0.2283081 -89.49 0.0003016355    1.061    0.057
       229  -7.6818    114.3496     69.2864   5.9513121774e+01   4.6126805420e+01    0.1536616    0.1149076  18.32 0.0007021739    1.659    0.397
       230  -9.1754     64.0852     69.1290   7.6222068700e+01   5.6215779894e+01    0.3172985    0.1886517  26.42  0.001119092    1.805    0.446
       231  -8.3460     10.4612     69.4822   1.0016644950e+02   6.2333369116e+01    0.2159146    0.1211096 -37.56 0.0005727673    1.596    0.373
       232  -9.8612     14.1217     65.1167   9.7346504853e+01   6.3086634805e+01    0.5235912    0.2268428 -10.85  0.002019764    3.436    0.709
       233  -9.3475     15.4807     60.3733   9.5403557913e+01   6.4049352879e+01    0.4045193    0.2331167 -33.79  0.001211764    1.586    0.370
       234  -9.1671    120.0359     66.9977   5.7261922655e+01   4.5233577768e+01    0.2293538    0.2173732  41.48 0.0006721798    1.031    0.030
       235  -9.3496     21.6187     64.8154   9.3647506946e+01   6.2558187058e+01    0.4907098    0.1270329 -44.21  0.001709162    3.284    0.696
       236 -10.6057    134.7410     64.8698   5.3026355908e+01   4.2154328369e+01    0.3650896    0.3385064  -6.66  0.001124571    1.184    0.155
       237  -8.0133    228.2555     65.6997   3.8364091028e+01   2.1097650915e+01     0.127661   0.08065924 -59.27 0.0001495024    1.503    0.335
       238 -10.9614     54.7116     61.5145   7.7435043471e+01   5.9264539421e+01    0.5112064    0.3768724  68.05 0.0009169737    2.267    0.559
       239 -11.7208     56.1353     56.5898   7.5050932542e+01   6.0010190939e+01     0.456725    0.3659978  68.73 0.0003928618    1.900    0.474
       240 -10.6225    194.2377     60.7783   4.1367430295e+01   2.8914360716e+01    0.3477681     0.322717 -43.96 0.0007110639    1.142    0.125
       241  -9.6665     65.0574     62.1776   7.3424262444e+01   5.7450160291e+01    0.4196847    0.2257116  32.53  0.001848653    1.895    0.472
       242  -8.7922    175.7735     62.2022   4.4444927951e+01   3.2882822957e+01    0.1926457    0.1696565  18.25  0.001083571    1.425    0.298
       243 -10.2267    167.8916     61.4162   4.5521369857e+01   3.4838691917e+01    0.3751236     0.172776 -43.40  0.001558189    2.091    0.522
       244 -10.8754    153.4811     60.4958   4.7831953606e+01   3.8392386036e+01    0.5140857    0.3187211  48.56  0.002408831    1.653    0.395
       245 -10.4826    131.5074     59.8779   5.2202953350e+01   4.3735348799e+01    0.4689122    0.3982107  50.91  0.002478369    1.143    0.125
       246  -9.8885    126.4634     57.0000   5.2448404695e+01   4.5389247465e+01    0.4460601    0.1813379  58.51  0.001420752    2.527    0.604
       247  -9.4921     39.8890     60.2368   8.3566855328e+01   6.1603392309e+01    0.4508959    0.2818804 -68.76   0.00204389    2.427    0.588
       248 -10.1299    161.2561     60.1375   4.6310034178e+01   3.6598985314e+01    0.3461023    0.2524535  37.45 0.0009840139    1.631    0.387
       249 -11.5094    160.8553     54.5500   4.4801965941e+01   3.7531493499e+01    0.3542275    0.3272454  53.88 0.0003262431    1.143    0.125
       250  -9.3036     71.6585     60.4909   7.0260941222e+01   5.6604015199e+01    0.3211113    0.2289054  57.74   0.00111306    1.818    0.450
       251 -10.9873    164.3414     46.3521   4.1924722572e+01   3.7862225711e+01    0.6802776    0.5149612  28.83  0.003577148    1.739    0.425
       252  -9.9740    141.1064     59.5433   5.0006617810e+01   4.1499047530e+01    0.4522436    0.1328351  55.25  0.001465982    3.175    0.685
       253  -8.5077     99.3207     59.6643   6.0585647068e+01   5.1165496302e+01    0.1460571    0.1173409 -81.38 0.0005081401    1.706    0.414
       254  -8.5565    182.5628     58.4477   4.2424376631e+01   3.1883934140e+01    0.1359652    0.1242362 -69.83 7.225545e-05    1.011    0.011
       255  -9.7139    136.8568     55.4334   4.9634036058e+01   4.3153212874e+01    0.3963569    0.2154412 -25.54  0.001551287    2.230    0.552
       256  -8.4716    111.6840     56.9237   5.6126079666e+01   4.8852742384e+01    0.1864776    0.1811802  10.14 0.0001647635    1.046    0.044
       257  -9.1720     75.9269     55.8275   6.6961785140e+01   5.6658743800e+01    0.4568281    0.2674343  59.94  0.001874262    2.567    0.611
       258  -9.4963    187.6100     55.9440   4.1064290265e+01   3.1100960441e+01    0.2255114    0.1814795  85.22 0.0002347968    1.233    0.189
       259  -8.3802    167.4783     56.4662   4.4230244650e+01   3.5680293654e+01    0.1375935    0.1308421 -86.39 0.0002735871    1.045    0.043
       260  -9.8140     93.4961     54.1683   6.0413034400e+01   5.3356560623e+01    0.4349672    0.2992308   7.58  0.001903201    1.993    0.498
       261 -10.7581    122.9948     50.4880   5.1126335361e+01   4.7210471427e+01    0.9372523    0.4912757  36.94  0.003107906    2.344    0.573
       262  -9.2458    131.2858     45.6987   4.7718744111e+01   4.5917801312e+01    0.2791088    0.2112826  64.55 0.0002531657    1.269    0.212
       263 -11.1359    127.7024     48.3291   4.9345455177e+01   4.6404444547e+01    0.3716432    0.2859434 -66.98  0.000945668    1.522    0.343
       264 -11.0974    125.9662     44.9887   4.8628629838e+01   4.7295963211e+01    0.4210848    0.2965512  78.69 0.0009483268    1.634    0.388
       265 -10.4847    146.2339     52.8198   4.6942507538e+01   4.1290232595e+01    0.6103898    0.2743266  62.43  0.002437044    2.233    0.552
       266  -9.2627    142.9159     49.3073   4.6514040725e+01   4.2599793286e+01    0.2094956    0.1828189 -81.29 0.0003612763    1.175    0.149
       267 -10.2652    145.9565     45.9481   4.4918114023e+01   4.2337095911e+01    0.3429686    0.2346247 -32.00 0.0006895445    1.555    0.357
       268  -9.3112    144.0371     41.4899   4.3908447903e+01   4.3404964476e+01    0.3047681    0.2255071  64.31 0.0009899759    1.267    0.211
       269  -9.8518    194.7516     52.9906   3.9376833641e+01   2.9919721727e+01    0.4155231    0.1965709  70.26  0.001118749    2.283    0.562
       270  -8.8606    106.8731     52.8554   5.6024805838e+01   5.0604123571e+01    0.2224585    0.1828346  30.57 0.0004518233    1.239    0.193
       271 -11.6305     68.6820     48.0626   6.6696302089e+01   5.9379631593e+01    0.4716787    0.3425173 -55.38 0.0003822919    1.807    0.446
       272 -12.7503     62.0317     44.1324   6.7743882177e+01   6.1252265720e+01    0.4959631    0.3702391  31.26 0.0005576857    1.263    0.209
       273  -9.8444     61.3611     52.0859   7.1171888443e+01   5.9985751747e+01    0.2539973    0.2080421  27.69 0.0004096341    1.175    0.149
       274 -10.2820    175.0549     49.0265   4.1042383533e+01   3.4966447835e+01    0.3822305    0.2892165 -34.13  0.001422097    1.375    0.273
       275 -10.8427    153.9338     47.4893   4.3958171236e+01   4.0198214550e+01     0.385587    0.3458575  55.65  0.000949853    1.137    0.121
       276  -9.7844     38.0013     47.2540   7.9757069428e+01   6.4434996094e+01    0.3017284    0.2158282  12.88 0.0009023279    1.381    0.276
       277  -9.5649     42.4820     48.9763   7.8276307782e+01   6.3502888095e+01     0.296999    0.2112623 -41.82  0.001297612    1.371    0.271
       278 -10.4129     46.3315     47.4743   7.5897828068e+01   6.3231622789e+01    0.4268027    0.2709834   2.32  0.002058984    1.946    0.486
       279  -9.7034    182.1367     48.2209   3.9834151791e+01   3.3435437206e+01    0.2535706    0.2069592  43.89  0.001457242    1.447    0.309
       280  -9.9105    185.1222     43.8720   3.8320299039e+01   3.3336478768e+01    0.2461156     0.226624  12.75 0.0005050982    1.393    0.282
       281  -8.4354    136.6864     49.2846   4.7744029569e+01   4.4106422653e+01    0.1428409    0.1073349 -76.29 0.0002519564    1.578    0.366
       282 -10.0046    114.9096     46.7464   5.1800647520e+01   4.9670997251e+01    0.4013659    0.2758282 -15.46  0.001204623    1.791    0.442
       283  -9.5281     86.7434     48.9348   6.0627503555e+01   5.5646132893e+01    0.3326837     0.219515  35.71  0.001625524    1.489    0.328
       284  -9.0688    197.0009     48.6560   3.8034575973e+01   3.0019960499e+01    0.2294083    0.1651751  87.23  0.001184403    1.407    0.289
       285  -9.4829    245.1095     44.7891   3.2372186565e+01   2.0725468293e+01    0.1864693    0.1299531 -62.30 0.0007211941    1.214    0.176
       286 -10.5384     79.9750     43.1819   6.0661389965e+01   5.7954705869e+01    0.4717336     0.322418  65.13  0.002267252    1.958    0.489
       287 -10.1616    177.4869     43.8382   3.9321487147e+01   3.5103518667e+01    0.3830047    0.2236901  86.26  0.001794508    1.989    0.497
       288 -10.2630    107.4441     44.0001   5.2731156564e+01   5.1807046342e+01    0.4921766     0.217086  52.60 0.0006550006    2.076    0.518
       289  -8.7604    107.9969     40.2387   5.1235461639e+01   5.2205862831e+01    0.2018224    0.1673849  53.99 0.0004463244    1.125    0.111
       290 -10.6838     93.3654     38.2636   5.4491106744e+01   5.5807986553e+01    0.7184476    0.4162403 -15.25  0.002262205    2.289    0.563
       291  -9.0215     31.3342    247.6842   1.1433260346e+02   1.7611071465e+01    0.1281806    0.0651091  57.15 1.420528e-05    1.690    0.408
       292 -10.3559     73.4985     38.3704   6.0983850611e+01   5.9991148639e+01    0.7792607    0.3515021 -20.66  0.002153059    3.557    0.719
       293 -10.5948     87.4819     33.7819   5.4483186333e+01   5.7710952180e+01    0.4554765    0.3236293  24.86  0.002043285    1.503    0.335
       294 -10.7270     80.5240     31.6862   5.5810992038e+01   5.9484257876e+01    0.5400518    0.3468173  44.07  0.001681256    1.406    0.289
       295  -8.7915    163.4895    246.4990   8.6236423762e+01   8.0438030582e-01    0.1259262    0.1012747  13.02 -0.0001542105    1.024    0.023
       296  -8.9593      1.4720    244.0360   1.2005601406e+02   2.1243888072e+01    0.1566152   0.09331026  89.09 0.0004607528    1.534    0.348
       297  -9.9762    245.7136    240.6695   7.0018823970e+01  -8.3800368436e+00    0.3930148    0.1613327 -18.30  0.001464971    3.063    0.674
       298  -8.6044    145.7210    242.3272   8.9350907809e+01   3.9191845125e+00    0.1178474   0.09395824  55.61 0.0003195398    1.595    0.373
       299 -10.9277     62.2217     22.3501   5.8136422198e+01   6.4395622932e+01    0.2895692    0.2143232  15.85 0.0007958752    1.327    0.247
       300 -10.2047    101.5578    240.5697   9.8710805808e+01   1.0379734277e+01    0.2363081      0.19019  44.46  0.001482056    1.117    0.104
       301 -10.8203    226.8496     33.2187   3.1488873389e+01   2.5701289054e+01    0.3628931    0.2317053  57.01 0.0003357554    1.861    0.463
       302 -11.0288    234.7838     29.9920   3.0180047052e+01   2.4523142070e+01     0.303174      0.21697  54.75 0.0007281082    1.791    0.442
       303 -10.7662    227.8258     40.5901   3.2977920231e+01   2.4588139556e+01     0.462255    0.3043369 -31.97  0.001865081    1.579    0.367
       304 -10.4086    222.6831     40.4874   3.3422862494e+01   2.5636908150e+01    0.2509603    0.2380179 -55.77 0.0007671771    1.246    0.197
       305  -8.4101     45.6047     42.7410   7.4325459271e+01   6.4192888402e+01    0.1398783   0.09340286   1.59 0.0006966636    1.704    0.413
       306 -10.0127    203.4844     39.3712   3.5071981302e+01   2.9820826918e+01    0.2408056    0.1626287 -57.66 0.0005593494    1.335    0.251
       307  -9.5073    131.4439     35.7796   4.4465271605e+01   4.7197211904e+01    0.3253983    0.2512552 -71.38 0.0009172414    1.465    0.317
       308  -9.8395    126.6552     39.7950   4.6757520715e+01   4.7837163335e+01    0.4876246    0.2391287  69.02  0.001977482    2.303    0.566
       309  -9.6517    120.8765     38.7271   4.7645338444e+01   4.9365655525e+01    0.3629571    0.2082101 -39.31  0.001317716    1.843    0.458
       310  -9.5424    201.8161     47.2445   3.7125041003e+01   2.9153263107e+01    0.2395875    0.2038493 -12.80 0.0006143337    1.517    0.341
       311 -11.9468     40.1457     39.5544   7.5600549330e+01   6.5548838555e+01    0.2283942    0.1913006 -13.45 0.0002785411    1.052    0.049
       312 -11.2328      6.0323     35.7111   9.2764154534e+01   6.9897755799e+01    0.5449334    0.4216848 -55.15  0.003112335    1.371    0.271
       313  -9.7283     10.4712     31.6066   8.8537654635e+01   7.0346923783e+01    0.4019619    0.1757873  33.76  0.001681903    2.658    0.624
       314 -10.6437    178.6240     37.3442   3.7463153620e+01   3.5679708293e+01    0.3380283    0.2506075  57.71 0.0009872138    1.395    0.283
       315  -9.7948    158.2484     39.0492   4.0803072515e+01   4.0288341560e+01    0.3444158    0.1855692  69.68            0    1.823    0.451
       316  -9.0065    163.8469     36.3488   3.9199475036e+01   3.9289029420e+01    0.2975886    0.1919082  46.52  0.001509374    1.729    0.422
       317  -9.9656    103.6997     38.2673   5.1627039746e+01   5.3468557299e+01    0.3330246    0.1716346 -35.38  0.001484318    2.052    0.513
       318  -9.7770    137.6045     37.3600   4.3800629920e+01   4.5502521322e+01    0.4720239    0.2107276  51.95 0.0008975005    2.094    0.522
       319 -12.4087    107.8654     29.0110   4.7172464780e+01   5.3670086584e+01    0.4160832    0.3393494   2.32  0.002369538    1.407    0.289
       320  -8.8778    127.3246    240.6569   9.3076278416e+01   6.7849771942e+00    0.1291437   0.09147254  57.24 0.0006021776    1.735    0.424
       321  -9.4132    239.8158     37.4520   3.1313830882e+01   2.2645829555e+01    0.2071346    0.1078634  81.40  0.001137051    2.097    0.523
       322  -9.3615    186.0049     35.6632   3.6123154468e+01   3.4188644163e+01    0.2345296    0.1603415 -52.18  0.001308245    1.361    0.265
       323  -8.9498     65.0528     28.6881   5.9945465872e+01   6.3024094887e+01     0.272248    0.1848878  47.24 0.0009716701    1.435    0.303
       324  -9.5970     60.7176     34.0440   6.4011169787e+01   6.3081044673e+01    0.3144709    0.1921619 -27.26 0.0006274211    1.699    0.411
       325  -9.0267     63.2993     31.6888   6.1950923969e+01   6.2943032089e+01    0.3596082    0.2848772 -70.37  0.001924661    2.083    0.520
       326  -8.8608     55.8930     34.2214   6.6086472900e+01   6.3919549535e+01    0.3310065    0.1739081 -52.80  0.001354732    3.195    0.687
       327  -8.4506    242.2098     34.5671   3.0544546699e+01   2.2547390109e+01    0.1364001    0.1038759  69.27 0.0003993385    1.498    0.332
       328  -9.0481    145.8679     34.0662   4.1322441503e+01   4.3906410282e+01    0.2547864    0.2165027  59.60 0.0007960825    1.130    0.115
       329 -11.2119    146.8409     28.5188   3.9481220003e+01   4.4329238375e+01    0.6088026    0.3524066  56.71  0.001339141    1.598    0.374
       330 -10.3197     49.2168     33.6013   6.8736833703e+01   6.5148534668e+01    0.4530904    0.2115086  25.70  0.001882912    2.612    0.617
       331  -9.0170     42.2793     30.7401   7.0684270813e+01   6.6698609924e+01    0.5115321    0.3338152 -31.02  0.002354068    1.489    0.328
       332  -8.8046     53.0229     16.7080   5.9082685229e+01   6.6821676545e+01    0.1951342    0.1430174  17.93 0.0003483932    1.265    0.209
       333  -9.4024    188.4832    235.4754   7.9563988297e+01  -8.2692461048e-01    0.1252362    0.1011524   5.95 8.768638e-05    1.017    0.016
       334  -9.2959    221.9456    233.4782   7.2951505545e+01  -4.7608184030e+00    0.1712943    0.1005279  25.61 0.0006686876    1.571    0.364
       335  -8.9923     32.0390    232.4775   1.1324371010e+02   2.0596815710e+01    0.1782402    0.1417607  80.97 0.0004455553    1.169    0.145
       336  -9.8434     41.0000     20.9736   6.6627489977e+01   6.8343350212e+01    0.3318163    0.2859326  75.68  0.001634388    2.012    0.503
       337  -9.4291    186.5283    230.9730   7.9238300722e+01   1.3405110216e-01    0.1790321   0.09246265 -19.75 0.0008095354    2.509    0.601
       338  -9.6434     34.4585     31.7447   7.5054319206e+01   6.7672176858e+01    0.2475414    0.1551074  29.35  0.001365615    1.537    0.350
       339 -10.3218     37.2998     26.8429   7.1327044050e+01   6.8052693100e+01     0.360446    0.2365199 -18.65   0.00144839    1.514    0.339
       340 -11.0299     48.4538     26.8053   6.5964237229e+01   6.6296582305e+01    0.3214439    0.2413421  43.32 0.0003646881    1.435    0.303
       341 -10.1749     50.2339     22.3777   6.3055725275e+01   6.6605057340e+01    0.3137613    0.1974712 -23.61   0.00106741    1.624    0.384
       342  -8.9612    160.4476     31.8025   3.8405997036e+01   4.0658647050e+01    0.2562004    0.1716267  70.13  0.001362283    1.388    0.279
       343  -9.9384    152.8975     31.8838   3.9545289406e+01   4.2467090857e+01    0.2503891    0.1977268 -81.27            0    1.268    0.211
       344  -9.7630    247.9493     30.4987   2.9319971148e+01   2.1967803153e+01    0.2244958    0.1660311 -46.16 0.0009539057    1.188    0.158
       345  -9.9534    133.5500     30.3427   4.2302903652e+01   4.7347497650e+01    0.4551913    0.2825022  -1.83  0.002058406    2.485    0.598
       346  -9.4435    124.9493     29.6558   4.3709039358e+01   4.9513141990e+01    0.2601547    0.2088272 -76.69  0.001450672    1.390    0.280
       347  -9.1046    190.0013     28.6398   3.3917407307e+01   3.4129637589e+01    0.1832161    0.1431888  85.82 0.0005037064    1.176    0.150
       348  -8.9807    162.5778    225.6058   8.3310673339e+01   4.3856576325e+00    0.3109564    0.2165833  70.31  0.001423198    3.104    0.678
       349  -9.9176    222.2130     26.6358   3.0462160048e+01   2.7426391274e+01    0.2839507    0.2134522 -73.51  0.001878963    1.142    0.124
       350  -9.0578    223.9855    224.9865   7.1186102296e+01  -3.8092959362e+00    0.1850792    0.1410892  -3.01 0.0005668523    1.027    0.026
       351  -7.9343    143.3138    225.7144   8.7496225611e+01   7.1875504693e+00    0.1269077    0.0980539  54.41 0.0002697145    1.580    0.367
       352  -8.8223    132.1985    225.2187   8.9895836594e+01   8.9208648974e+00    0.1735633    0.1486643  53.22 0.0004648715    1.311    0.237
       353  -9.1814    211.9934     26.5679   3.1305958110e+01   2.9557794337e+01    0.1925569    0.1698393 -14.93  0.000597628    1.507    0.337
       354  -8.7493    182.7093     27.3336   3.4386361667e+01   3.5944994843e+01    0.2190133    0.1269553 -65.01  0.001100769    1.793    0.442
       355  -9.1104    160.9601     26.3455   3.6791353810e+01   4.1171172271e+01    0.2342401    0.1905055  72.65  0.001398694    1.130    0.115
       356  -9.9781    204.4252     24.6650   3.1547422927e+01   3.1398169703e+01    0.2890443    0.2675924   3.51  0.001263772    1.483    0.326
       357  -8.5359    204.5111     20.4754   3.0576183099e+01   3.1853170854e+01    0.1231553    0.1018986 -71.99 1.877573e-05    1.008    0.008
       358  -9.5431    101.1997     26.0551   4.7674848853e+01   5.5572003780e+01    0.2492837    0.1734519  55.76 0.0005385334    1.291    0.225
       359  -8.4580    125.5032    225.5263   9.1447862167e+01   9.8489467778e+00    0.1337817    0.1171913  29.62 0.0008099302    1.028    0.028
       360  -8.6819    197.3318    221.3358   7.5534563865e+01   1.8639711784e-01    0.1353236   0.08474199  -4.75 0.0007052161    1.735    0.423
       361 -10.7965      2.0693     25.2098   9.1241561874e+01   7.2174236436e+01    0.2324033    0.1469626 -38.38 0.0003616953    1.282    0.220
       362  -9.4981     89.3007    220.6725   9.9185748017e+01   1.6041851619e+01    0.2430806    0.2213476   1.19 0.0008739638    1.243    0.195
       363  -9.8393    232.5269     23.5168   2.9018138653e+01   2.5723506645e+01    0.3821534    0.1774107 -87.95  0.001740183    2.430    0.589
       364 -10.2312    173.0022     23.1874   3.4417466235e+01   3.8670143963e+01    0.5644313    0.2401685  67.68   0.00223194    2.131    0.531
       365  -8.0305    110.3143    214.6336   9.3441103850e+01   1.4277606617e+01    0.1424441    0.1000849  64.07 0.0007038566    1.769    0.435
       366  -8.6259    117.6815    212.0037   9.1322001618e+01   1.3714429988e+01     0.181691    0.1789381   0.41 0.0004956357    1.095    0.087
       367  -8.3480      2.6341    212.3085   1.1843357091e+02   2.7739877276e+01    0.1336357   0.06522741  58.03 0.0007037683    1.752    0.429
       368  -7.9967    209.3030    211.3017   7.1524080120e+01   1.4193369908e-01    0.1301321   0.08406782  -5.63 0.0003171372    1.591    0.371
       369  -9.0006    242.5370    209.8792   6.5412399183e+01  -3.8951948210e+00    0.1700885    0.1453173 -16.17 0.0007529109    1.285    0.222
       370  -8.4956    230.5324    209.5326   6.7383722535e+01  -2.3711603583e+00    0.1255716   0.09423252  -9.28 0.0008078521    1.072    0.067
       371  -8.4608    194.3506    209.2981   7.4050928638e+01   2.5597585575e+00    0.1374336   0.08934242  -2.47 0.0004551792    1.688    0.407
       372  -9.8580    123.9909    205.9995   8.8917832530e+01   1.3988481996e+01    0.1980391    0.1814757  22.27            0    1.011    0.011
       373  -9.6234    112.6330     33.7172   4.7763741334e+01   5.1971582528e+01    0.3373019    0.2102568 -28.92  0.001001189    1.750    0.428
       374  -9.3888    116.9389     22.3711   4.2795072885e+01   5.2258624936e+01    0.2048273    0.1860231  12.63 0.0002431259    1.225    0.183
       375  -8.9123     82.8817     25.8565   5.2637186335e+01   5.9715105672e+01    0.1768101    0.1584896  23.76 -0.000430966    1.053    0.051
       376  -8.8991     26.2444     22.4626   7.5121200001e+01   7.0255322158e+01    0.2516534    0.1457894 -33.09 0.0008844766    1.615    0.381
       377  -8.5347     11.7110     22.7361   8.3963509874e+01   7.1831243057e+01    0.1213545   0.07532094 -16.56 0.0005165457    1.497    0.332
       378  -8.7392    221.4743    198.5265   6.7008070828e+01   5.0121208295e-01    0.1291372    0.1020674 -10.63 5.403782e-06    1.037    0.035
       379  -8.6656     96.0347    195.5058   9.4203939975e+01   2.0597922705e+01    0.2112112     0.133313  32.82 0.0004134901    1.504    0.335
       380  -9.2924      7.1694    194.8877   1.1645115334e+02   3.1306229043e+01    0.3147312    0.2026067  41.12  0.001864978    1.467    0.318
       381  -8.2768    241.6958    193.7111   6.2673723909e+01  -1.4282098509e+00      0.12316   0.07846835  -8.41  0.000268483    1.568    0.362
       382  -8.6877     22.3120    179.3294   1.1154864746e+02   3.3707081976e+01     0.131257   0.09235296 -44.90 0.0003567732    1.670    0.401
       383  -8.8372      9.4638    179.4905   1.1487339755e+02   3.4784350687e+01    0.1276447    0.1083925  84.88 7.836203e-05    1.026    0.025
       384  -9.4091    193.2353     20.0372   3.1493925970e+01   3.4380559771e+01    0.2173516    0.1754699  54.00 0.0007271772    1.452    0.311
       385  -9.3485    195.4563     15.7608   3.0269949689e+01   3.4348146594e+01    0.2201035    0.1751888  73.34 0.0006848166    1.251    0.201
       386  -9.7632     18.4362    174.3052   1.1213694557e+02   3.5299314152e+01    0.2529511    0.1645105  -2.52  0.001285193    2.214    0.548
       387  -9.3760      5.9937    174.5528   1.1541082970e+02   3.6262306276e+01    0.1712393     0.122459  28.49 0.0004052045    1.537    0.350
       388 -10.6371     15.7533    164.9907   1.1204907224e+02   3.7858336024e+01    0.4682328    0.2002545  21.32  0.002053141    2.646    0.622
       389 -10.4248     11.3831    167.2667   1.1343549770e+02   3.7642931127e+01    0.2862162    0.1914218 -80.08  0.001601484    1.306    0.235
       390 -10.0526      7.4996    166.4638   1.1441732714e+02   3.8144184301e+01    0.2223484     0.186731  36.45 0.0007672601    1.303    0.232
       391  -9.3126    199.7392     18.7857   3.0602772175e+01   3.3078476109e+01    0.1901125    0.1584739 -31.23 0.0005658827    1.387    0.279
       392  -8.9624    138.4231     19.1467   3.7908157573e+01   4.7393956018e+01    0.4114813    0.1105466  50.29  0.001390145    3.641    0.725
       393  -8.6335     80.4873     18.9711   5.0432273592e+01   6.1022481046e+01    0.1759055    0.1288427 -15.94 0.0003132647    1.491    0.329
       394  -9.8339    237.6847     17.3164   2.7411078414e+01   2.5421594877e+01    0.2025973    0.1839912  37.65  0.001235454    1.647    0.393
       395  -9.5294    124.3793     17.3536   3.9652708780e+01   5.0981249085e+01    0.3923076    0.1417589  52.29  0.001452364    2.411    0.585
       396 -12.5471     41.1582    162.0270   1.0453316331e+02   3.6171956563e+01     0.799089    0.3593305  54.37  0.000779882    2.619    0.618
       397 -12.0699     30.7432    154.8078   1.0670445042e+02   3.9111857253e+01    0.7281904    0.4481724  61.46  0.003407576    1.752    0.429
       398  -8.4637     29.4710     16.9260   7.0510768632e+01   7.0646428085e+01    0.1488928     0.108323 -57.74 0.0008072623    2.469    0.595
       399 -10.1948     23.7307    162.3945   1.0957284495e+02   3.7822457220e+01    0.4684328    0.1784846  45.42  0.001766287    2.616    0.618
       400  -9.8795      8.0346    161.9814   1.1391644288e+02   3.9224313244e+01    0.1977819    0.1651313  88.74 0.0003783559    1.020    0.019
       401  -8.4377    111.4956     14.9933   4.1242290002e+01   5.4307282842e+01    0.1676501    0.1329875 -12.94 0.0004282891    1.460    0.315
       402 -10.9986      1.8274    158.4559   1.1534685715e+02   4.0549037840e+01    0.5726462    0.1625091 -71.90 0.0007277185    2.774    0.639
       403 -10.4133     10.1202    157.9309   1.1299538783e+02   4.0088483706e+01    0.2952545    0.1968791  60.13  0.001548189    1.478    0.323
       404  -8.4645     48.7759    157.4254   1.0168676572e+02   3.6493198042e+01    0.1814101    0.1410345   7.92  0.000933927    1.552    0.356
       405  -9.4644    248.8430    153.8800   5.4045537770e+01   3.7562341880e+00    0.1954357    0.1440953 -18.55 0.0007566752    1.247    0.198
       406 -10.9755     19.7788    151.8345   1.0961788787e+02   4.0874549354e+01    0.5363536    0.2291721 -60.32  0.002345044    2.033    0.508
       407  -9.0358     45.8597    151.7695   1.0176112908e+02   3.8300974666e+01    0.2049851    0.1830352 -47.78 0.0004205234    1.166    0.142
       408 -11.2131     13.4002    150.9499   1.1140763565e+02   4.1616209862e+01    0.4624967    0.2727115   7.37  0.001060782    2.206    0.547
       409 -10.9580     10.1474    147.1353   1.1199800774e+02   4.2836573137e+01    0.5076573     0.234987 -26.87  0.001855873    3.567    0.720
       410 -10.6103     15.9794    142.9829   1.0980851157e+02   4.3467508984e+01    0.2772845    0.2216376  88.75 0.0003459303    1.150    0.131
       411  -9.4388     89.8934     13.3934   4.5479325271e+01   5.9499315986e+01    0.3279759    0.1625282  62.94  0.001259887    1.908    0.476
       412  -9.6275     35.5425    149.0763   1.0453924542e+02   4.0121807701e+01    0.2175581    0.1847939 -44.08 0.0004035239    1.249    0.200
       413  -9.8087      3.2931    145.9769   1.1391851157e+02   4.3601804392e+01    0.3080403    0.1526388 -51.38  0.001477035    1.986    0.496
       414  -9.2057     38.2707    143.1301   1.0287140276e+02   4.1392424770e+01    0.2125189    0.1920214  -6.19 0.0002529541    1.273    0.215
       415  -9.6564      1.7077    139.5749   1.1382519947e+02   4.5331421325e+01    0.2782957     0.152543 -88.82  0.001379926    1.685    0.406
       416  -9.9841     41.3160    138.4661   1.0120386480e+02   4.2288516079e+01    0.3410331    0.2393758  87.90  0.001677897    1.552    0.356
       417  -9.2279     41.4917    134.4857   1.0051884983e+02   4.3313027844e+01    0.2590461    0.1798347  71.28 0.0007856375    1.680    0.405
       418  -8.9818    230.7213    137.0001   5.3368682591e+01   9.2848545506e+00    0.1912123    0.1503954 -32.31  0.000621099    1.067    0.063
       419  -9.4811     34.4318    136.3181   1.0311049403e+02   4.3570572608e+01    0.3844516    0.1656896 -54.03   0.00157653    2.077    0.518
       420  -8.8119    235.7667    136.6071   5.2524239651e+01   8.5294744008e+00     0.151458    0.1273397  61.80 0.0005154816    1.567    0.362
       421 -11.6482      8.4374    132.7135   1.1105340747e+02   4.6663646790e+01     0.564007    0.3666549  67.54  0.002979721    1.637    0.389
       422 -10.3346      3.0257    133.5242   1.1285075661e+02   4.6797626487e+01    0.2954085    0.2307338  -1.55  0.001766521    1.575    0.365
       423  -8.5101     58.4721    135.5125   9.5135737026e+01   4.0996448205e+01    0.1490244    0.1374119 -49.16 -1.297459e-05    1.069    0.064
       424 -10.4400     60.3134    131.1069   9.3702152054e+01   4.1897159757e+01    0.4516554    0.3659655  88.63  0.002301708    1.367    0.268
       425  -9.2334     15.7490    135.2553   1.0900365826e+02   4.5486933982e+01    0.1856868    0.1413408 -46.37 0.0009992183    1.334    0.250
       426  -8.6369    248.7905    133.9917   5.0131576475e+01   6.9087469243e+00    0.1736699   0.08297686 -37.66 0.0004152159    1.682    0.406
       427  -9.2024     48.1017    134.0546   9.8271273413e+01   4.2674433832e+01    0.4085845    0.1230455  46.73  0.001163914    4.566    0.781
       428  -9.6056     34.1254    127.4025   1.0184581199e+02   4.5935838948e+01    0.3024619     0.180311  88.63  0.001328544    2.030    0.507
       429 -10.0507     18.6544    126.3284   1.0692838821e+02   4.7582664845e+01    0.2860391    0.1893851 -52.68 0.0001455196    1.385    0.278
       430  -8.0904    114.7287    127.2500   7.5907378595e+01   3.3703732048e+01    0.1463593    0.1229811  78.08 0.0006806767    1.446    0.309
       431 -10.5665     50.3487    126.5516   9.6174980833e+01   4.4364936242e+01    0.3480382    0.2441845  27.59  0.001412684    1.525    0.344
       432  -9.1302    241.5150    124.0135   4.9112273066e+01   9.6536466034e+00    0.2086327    0.1053257 -39.01  0.001039357    1.615    0.381
       433 -10.4950     61.6534    121.5433   9.1315072723e+01   4.4184691315e+01    0.4256889    0.2466924 -47.26 0.0003058473    1.658    0.397
       434  -9.9230     38.4131    123.8265   9.9780926706e+01   4.6432389697e+01    0.3783107    0.2347109  -0.51  0.001696339    2.168    0.539
       435  -9.2623     84.7113    121.3107   8.3580955603e+01   4.0669229462e+01    0.4694605    0.1732687 -45.40  0.001535589    2.754    0.637
       436  -8.5312     71.8475    123.2123   8.8235906727e+01   4.2268581790e+01    0.2063561    0.1694958 -29.50 0.0003228391    1.298    0.230
       437 -10.6159      8.3736    121.7764   1.0982474673e+02   4.9485537432e+01    0.3028441    0.2031945 -46.29  0.001341519    1.445    0.308
