#   1 NUMBER                 Running object number                                     
#   2 MAG_AUTO               Kron-like elliptical aperture magnitude                    [mag]
#   3 X_IMAGE                Object position along x                                    [pixel]
#   4 Y_IMAGE                Object position along y                                    [pixel]
#   5 X_WORLD                Barycenter position along world x axis                     [deg]
#   6 Y_WORLD                Barycenter position along world y axis                     [deg]
#   7 A_WORLD                Profile RMS along major axis (world units)                 [deg]
#   8 B_WORLD                Profile RMS along minor axis (world units)                 [deg]
#   9 THETA_WORLD            Position angle (CCW/world-x)                               [deg]
#  10 FWHM_WORLD             FWHM assuming a gaussian core                              [deg]
#  11 ELONGATION             A_IMAGE/B_IMAGE                                           
#  12 ELLIPTICITY            1 - B_IMAGE/A_IMAGE                                       
         1 -16.6181    176.9700     47.8158   6.3794057374e+01   3.4807186388e+01      5.37062     3.670629  13.30     0.013454    1.983    0.496
         2 -13.4985    140.6704     47.0198   7.1051025331e+01   4.4144356576e+01    0.8096477    0.4002649 -25.65  0.002101148    2.217    0.549
         3 -16.9649    215.4533    100.6343   7.1965835053e+01   1.6550510821e+01     5.524734     3.342497 -66.41   0.02038828    2.905    0.656
         4 -19.1882    187.8011    130.5016   8.4758346016e+01   1.7687493877e+01     9.029775     6.360932  48.88   0.04303704    1.400    0.286
         5 -12.8092    239.0808     16.0666   4.6289774483e+01   2.2893153247e+01    0.2864492    0.2688505 -30.19  0.001779505    1.166    0.142
         6 -10.9688     13.2900     14.7449   1.0251572420e+02   7.0352881374e+01    0.1948919    0.1451249 -29.97 0.0006231964    1.064    0.060
         7 -13.1121    228.6897      6.9457   4.4925573895e+01   2.6438525254e+01    0.6083369    0.2872795 -71.12  0.002419812    2.705    0.630
         8 -13.9899    237.5256      5.3530   4.3737786353e+01   2.4438637496e+01    0.7475044    0.6477432  22.79  0.004516225    1.451    0.311
         9 -12.7986    248.3675      4.7393   4.2699843510e+01   2.1918166421e+01    0.6354122    0.4620742 -47.54  0.003566643    1.229    0.187
        10 -10.6709    100.8936      9.1916   6.6244968571e+01   5.8286764065e+01    0.1841742    0.1748247   4.98 0.0003005809    1.151    0.131
        11 -12.3295    178.5153      5.7281   5.0125191010e+01   3.9529942421e+01    0.2729241    0.2519636 -21.14 0.0002625194    1.170    0.145
        12 -12.6865    244.5466      9.2844   4.4113081804e+01   2.2333370666e+01    0.3713907    0.1981683 -38.59  0.001301071    1.677    0.404
        13 -10.8459     25.8929      7.6800   9.3326956795e+01   7.0429079617e+01    0.2319613    0.0971299  26.47  0.001211076    2.734    0.634
        14 -11.2612    202.0267      3.9757   4.6780516385e+01   3.3530823444e+01    0.2104396    0.1918771  89.24 0.0003352056    1.008    0.008
        15 -11.0348    208.0054      1.6328   4.5494829585e+01   3.2211449313e+01    0.1988356    0.1617621  80.33 0.0004824654    1.140    0.123
        16 -10.1901     93.7357      2.0459   6.4977114406e+01   6.0523684549e+01    0.1832921    0.1523863   1.03 0.0005239696    1.106    0.096
        17  -9.5141     25.7128      1.2756   9.0238720131e+01   7.1401047109e+01   0.09458671   0.08325841 -35.52 0.0006924594    1.513    0.339
        18 -10.9733    182.7513    237.5014   1.0525788827e+02   1.6742507361e+00    0.2982239    0.1353316  34.09    0.0015036    2.112    0.526
        19 -13.3730    233.9673    243.4156   9.7578173655e+01  -7.1194401123e+00    0.5299127    0.2724209  19.45  0.002443467    2.175    0.540
        20 -11.4685    222.8894    250.3217   1.0035854303e+02  -6.1330142125e+00     0.172129    0.1116133  44.43 0.0005656074    1.413    0.292
        21 -11.7704    202.7265    250.1271   1.0360737551e+02  -3.0094868988e+00    0.2969246    0.1286196  46.09  0.001618681    1.891    0.471
        22 -10.4582     43.3933    238.1984   1.2859792302e+02   2.2039804316e+01    0.1385794   0.07420779  85.07 0.0006348154    1.647    0.393
        23 -11.7743    234.4741    235.4720   9.6297244998e+01  -6.3921693659e+00    0.2207778    0.1813678  38.42  0.001623457    1.337    0.252
        24 -11.8318    193.0282    233.1418   1.0289748863e+02   5.2657112084e-01    0.2589754    0.1795839 -37.32 0.0007331048    1.812    0.448
        25 -11.1863    245.6543    233.8213   9.4229415559e+01  -7.9276515297e+00    0.1949123    0.1178578  28.16  0.000580831    1.289    0.224
        26 -10.8300    249.8586    232.3229   9.3317552272e+01  -8.4094284573e+00    0.1695042    0.1424584 -10.75  0.000685502    1.379    0.275
        27 -10.6677    201.3034    233.3042   1.0150708843e+02  -8.5648519140e-01    0.1172274   0.07717505  20.41 0.0002229348    1.596    0.374
        28 -11.0341    174.6056    232.7839   1.0602695983e+02   3.6314616537e+00    0.2300798     0.188097  50.22  0.001615526    1.145    0.127
        29 -12.1477    175.8933    228.8424   1.0526681392e+02   3.9446961981e+00    0.3474389    0.1904925  46.08  0.001972207    1.474    0.321
        30 -10.1764     57.6917    233.6535   1.2605428600e+02   2.1079273065e+01   0.08622762   0.08165267 -69.69 0.0007043987    1.702    0.413
        31 -10.6258    144.6153    230.8738   1.1102092478e+02   8.8582973104e+00    0.1416664    0.1074552 -81.17 0.0003467303    1.673    0.402
        32 -10.6075     81.5427    230.5765   1.2189091005e+02   1.8478608768e+01    0.1775512    0.1355324  19.93 0.0008260767    2.357    0.576
        33 -10.4641     69.3169    230.1789   1.2390173759e+02   2.0182582837e+01    0.1732327    0.1232375  48.19 0.0005312923    1.354    0.261
        34 -10.6451    183.9563    228.9716   1.0387585589e+02   2.5714026355e+00     0.186268    0.1480233  35.71 0.0007116891    1.050    0.047
        35 -12.0150    197.1878    226.8299   1.0126576392e+02   6.2313511902e-01    0.2820734    0.2138138  44.24  0.001878335    1.176    0.149
        36 -11.4338    202.9692    225.5428   1.0007268348e+02  -1.8560999399e-01    0.2481902    0.1917399  23.95 0.0004819851    1.164    0.141
        37 -11.2540    206.8676    221.2946   9.8745226000e+01  -3.1275778379e-01    0.3393403    0.2073425  -5.78  0.001785788    2.452    0.592
        38 -12.6295    205.7465    214.9865   9.7942810244e+01   6.8037814365e-01    0.3327242    0.2416629  55.60 0.0004825156    1.591    0.371
        39 -10.4287    149.4993    227.4948   1.0974365146e+02   8.5549665266e+00    0.2037081    0.1202358 -51.38  0.001195219    2.111    0.526
        40 -13.7533    246.9818    221.0471   9.1943561463e+01  -6.8190088643e+00    0.3518511    0.2511457   5.60 0.0009788749    1.276    0.216
        41 -11.0101    233.3781    225.9319   9.4980086684e+01  -5.2067272325e+00    0.2082621    0.1348022  29.63 0.0004269353    1.225    0.183
        42 -10.2397    223.5040    223.4992   9.6244020705e+01  -3.3432359772e+00    0.1211137   0.09344708  26.02 -0.0002886129    1.019    0.018
        43 -12.1164    182.5487    221.5871   1.0306232859e+02   3.8002858011e+00    0.2484624    0.2090214  15.41 0.0009735308    1.275    0.216
        44 -11.7614    132.7589    222.6225   1.1213103194e+02   1.2057013121e+01    0.2840539    0.1667267  48.12 0.0008872628    1.370    0.270
        45 -12.0396    130.4397    219.3161   1.1215027013e+02   1.2965089588e+01    0.2821675     0.218744 -48.52  0.001627549    1.642    0.391
        46  -9.8834     15.4760    223.5488   1.3212839069e+02   2.7518521005e+01    0.1015806   0.06787696  72.67 0.0001534812    1.006    0.006
        47 -10.8953    231.9751    220.4929   9.4332555119e+01  -4.3774061510e+00     0.322451   0.09780878  43.42  0.001374627    2.782    0.641
        48 -11.9263     91.0517    219.0770   1.1920579300e+02   1.9091629359e+01    0.1976911    0.1586345  80.81 0.0002898541    1.144    0.126
        49 -11.9163     93.0332    214.6060   1.1840735577e+02   1.9584231699e+01    0.3199707     0.201343  44.44  0.001410413    1.453    0.312
        50 -12.6696    213.2419    216.7619   9.6919616094e+01  -8.2695950561e-01    0.5321667    0.3540281  13.47  0.003125857    1.664    0.399
        51 -13.7692    220.9302    208.1138   9.4147355283e+01  -1.0574189581e+00    0.3847888    0.2950196  32.12  0.001033595    1.085    0.078
        52 -10.7634    121.2103    217.9842   1.1366749930e+02   1.4676419619e+01       0.2235    0.1705975 -86.74 0.0008985815    1.434    0.302
        53 -12.4976    124.5175    215.4586   1.1276349632e+02   1.4563840099e+01    0.3669797    0.2729056  59.42  0.001620592    1.136    0.120
        54 -11.8295    137.9979    215.8504   1.1033767458e+02   1.2275664185e+01    0.2388691    0.1902095  56.09 0.0007229277    1.053    0.050
        55 -11.6936     58.7544    216.0627   1.2459132178e+02   2.3986380093e+01    0.2873357     0.256076  34.12  0.001608642    1.681    0.405
        56 -10.8362    234.8266    215.2624   9.2985259011e+01  -4.2451187391e+00    0.2616826    0.1707749  19.35  0.001181989    1.408    0.290
        57 -15.6173    169.7448    201.5785   1.0236739625e+02   9.0052401634e+00     2.462793     1.240136 -48.85   0.01207207    2.390    0.582
        58 -16.5135    148.6347    194.8020   1.0536506613e+02   1.3947633682e+01     3.615539     1.779419  57.11   0.01611726    2.272    0.560
        59 -13.2003    243.3670    245.8244   9.6434194170e+01  -8.7496152140e+00    0.4735487    0.3193114  23.30  0.003400677    1.126    0.112
        60 -10.7826     11.0806    174.9569   1.3016381888e+02   3.6975139250e+01    0.1603218    0.1154163  82.01 0.0003427995    1.013    0.013
        61 -12.0646    101.3627    172.5024   1.1167451655e+02   2.6335959516e+01    0.4040557    0.2754735 -87.31  0.001023846    1.600    0.375
        62 -10.8185     62.4397    173.5440   1.1995756288e+02   3.1745294386e+01    0.2037789    0.1602213  75.26 0.0005104112    1.058    0.055
        63 -10.6532     78.8585    171.8754   1.1634748252e+02   2.9874179959e+01    0.1746454    0.1600201 -74.33 0.0003465934    1.261    0.207
        64 -11.5055     76.8819    201.2848   1.2003233511e+02   2.4316204522e+01    0.3066947    0.1523144 -68.67  0.001697818    2.020    0.505
        65 -10.5589     97.9856    166.2876   1.1149419502e+02   2.8160581379e+01    0.1816082    0.1506381  63.17 0.0002697992    1.098    0.090
        66 -10.8251     92.2066    165.7898   1.1267609696e+02   2.9170340335e+01    0.1626499    0.1533805 -46.67 0.0004350261    1.354    0.262
        67 -10.3890     38.0137    165.9465   1.2419255690e+02   3.6201685163e+01    0.1426104      0.10882  86.59 0.0003008862    1.018    0.017
        68 -10.6661     82.6566    165.2784   1.1467575290e+02   3.0711662046e+01    0.1339599   0.08529591  70.52 0.0004097105    1.628    0.386
        69 -10.3659     48.6688    165.3061   1.2192603876e+02   3.5150642276e+01    0.1265768    0.0736694  71.16 0.0004298535    1.661    0.398
        70 -10.1538     65.6491    163.3126   1.1809696298e+02   3.3482518561e+01    0.1337674   0.08004069  71.47 0.0007045788    1.724    0.420
        71  -9.9361     52.2896    162.2991   1.2083950238e+02   3.5364033712e+01      0.10869   0.08744217 -51.75 0.0004574838    1.559    0.359
        72 -10.8470     42.3125    158.7359   1.2258110326e+02   3.7262092306e+01    0.2797704    0.1202996 -71.53  0.001425092    1.990    0.497
        73 -10.7577    248.3078    159.1272   8.0018229716e+01   5.3298986847e-01    0.2074261    0.1904885 -83.02  0.001261847    1.622    0.384
        74 -11.7005     85.9805    159.0020   1.1306455464e+02   3.1558984802e+01    0.2887118    0.1894602  32.30  0.001031049    1.859    0.462
        75 -10.2274      2.0602    159.2677   1.3085779604e+02   4.0886446724e+01    0.1433966    0.1062685  80.57 0.0003529557    1.079    0.073
        76 -11.0012     67.3204    157.1247   1.1695185152e+02   3.4593031501e+01    0.1943741    0.1407457 -55.79  0.001159704    1.489    0.329
        77 -13.1554     80.4935    150.2702   1.1301407295e+02   3.4263991106e+01    0.3731575    0.2643163 -71.68 0.0007254499    1.303    0.233
        78 -10.9739     82.0048    155.9869   1.1351569859e+02   3.2797153541e+01    0.1915028    0.1680826  88.73  0.001218326    1.046    0.044
        79 -11.3565     78.0812    155.9753   1.1439552892e+02   3.3365545462e+01    0.2126649     0.172612  58.74 0.0004308141    1.189    0.159
        80 -10.2653     69.4855    203.4575   1.2161022944e+02   2.4910529597e+01     0.116692   0.09029389  71.77 6.370065e-05    1.006    0.006
        81 -12.5404     97.0497    149.3735   1.0904781894e+02   3.1923456064e+01    0.5588351    0.2348367 -67.00  0.002081351    2.896    0.655
        82 -12.9686    101.6012    150.0071   1.0810305662e+02   3.1041821570e+01    0.4953914    0.3390187  69.01  0.002555701    1.592    0.372
        83 -11.9527     90.1654    149.8684   1.1072089192e+02   3.2902983057e+01    0.3889239    0.2192945 -52.84  0.001531324    1.799    0.444
        84 -10.9300     71.9536    152.0581   1.1522766911e+02   3.5074253593e+01    0.1930857    0.1639228 -83.42 0.0003781071    1.056    0.053
        85 -12.4555    227.3113    198.9872   9.1440411741e+01  -1.0032399936e+00    0.2668764    0.2161992  30.73 0.0005878807    1.098    0.089
        86 -11.2869     56.9939    145.4758   1.1775884704e+02   3.8455998503e+01    0.2262313    0.1572039 -73.69 6.959062e-05    1.241    0.194
        87 -15.1034    229.3708    156.7344   8.2767197981e+01   4.4972147283e+00     2.311996     1.427253  33.60  0.009893408    1.585    0.369
        88 -12.7580     98.1613    140.3389   1.0721851956e+02   3.3726142464e+01    0.7374892    0.2462234  38.10 0.0001706465    3.294    0.696
        89 -10.8328     86.9954    140.4643   1.0991727116e+02   3.5466453983e+01    0.2020847     0.165234 -73.11  0.000366874    1.119    0.107
        90 -11.4669     71.1324    137.8071   1.1330564320e+02   3.8349215491e+01    0.3386966    0.1761099  59.26  0.001564798    2.252    0.556
        91 -10.8188     42.1416    138.1551   1.2027782792e+02   4.1769416614e+01    0.1762221    0.1467386 -61.00 0.0007925864    1.288    0.224
        92 -10.8658     45.7290    201.3805   1.2573517261e+02   2.8265533718e+01    0.1740938    0.1349675  47.10   0.00101554    1.438    0.304
        93 -11.9318     68.9411    129.2766   1.1246594005e+02   4.0570090351e+01     0.328178    0.2185524 -60.04  0.001814232    1.354    0.262
        94  -9.9922     23.4217    198.7940   1.2947287403e+02   3.1181134723e+01    0.1326434    0.0808356 -74.67 0.0003125251    1.510    0.338
        95 -11.9482     87.4707    128.3542   1.0763880235e+02   3.8111460904e+01    0.2925789    0.2053788 -31.50  0.001352051    1.987    0.497
        96 -11.1749     76.6209    128.2601   1.1035826981e+02   3.9742305120e+01    0.3283373    0.1256592  30.86  0.001208695    3.660    0.727
        97 -16.8768    176.8572    114.8475   8.3188674615e+01   2.3114955368e+01     2.182477     1.473228  -8.86  0.008916914    2.184    0.542
        98 -10.1967     57.1419    123.8157   1.1456208323e+02   4.3306423195e+01    0.1663109    0.1385667 -50.10 0.0003362494    1.307    0.235
        99 -10.6648     63.7833    122.4423   1.1262668402e+02   4.2797372040e+01    0.2235965     0.154901 -64.55  0.000317682    1.256    0.204
       100 -10.6312     70.8748    117.6576   1.0991673590e+02   4.2955320459e+01    0.2378465    0.1570477 -54.70 0.0006435485    1.386    0.279
       101 -11.1674     34.4959    117.9614   1.1949648631e+02   4.7059118216e+01     0.191892    0.1511454 -52.39  0.001165778    1.340    0.254
       102 -12.6193     93.1318    115.5235   1.0360049843e+02   4.0113134529e+01    0.5614645    0.2937251 -35.27  0.001901686    2.844    0.648
       103 -11.4682      5.8273    116.8973   1.2656952816e+02   4.9592978094e+01    0.1704828    0.1227571 -66.37 0.0005442833    1.218    0.179
       104 -12.6840    249.0410    114.3846   6.9809181663e+01   6.8842344386e+00    0.4169001    0.3285247  -1.88  0.001032682    1.306    0.235
       105 -10.8208     66.8468    112.9025   1.1009681146e+02   4.4579113786e+01    0.1818277    0.1428889 -89.73 0.0002954509    1.298    0.230
       106 -12.2006    212.4741    196.4848   9.3614688696e+01   1.9632132355e+00    0.4760048     0.313448 -59.98  0.002347871    2.736    0.634
       107  -9.8244     66.3237    109.2584   1.0953576225e+02   4.5479728007e+01    0.1246213   0.09815652 -31.57 0.0002625335    1.551    0.355
       108 -10.6591     85.8147    105.5690   1.0338236882e+02   4.3529657094e+01    0.3458596    0.1609397 -42.72  0.001398302    2.343    0.573
       109 -11.1196    241.4571    104.1885   6.8527106645e+01   1.0056412727e+01    0.2335117     0.202074 -10.03 0.0005209353    1.118    0.106
       110 -11.1313    100.8943    103.5499   9.8779535251e+01   4.1483645388e+01     0.255126    0.1815455 -43.45 0.0007771818    1.383    0.277
       111 -12.6646    215.4772    194.4806   9.2717087719e+01   1.6956818372e+00    0.5791315     0.383989 -46.25  0.003189954    1.947    0.487
       112 -10.7146    101.5909    194.7868   1.1458599877e+02   2.1911336054e+01    0.2285301    0.1482675  47.87 0.0006200364    1.370    0.270
       113 -11.9406     85.9113     99.4991   1.0194966998e+02   4.4880744808e+01    0.3771496    0.2399494 -33.23  0.001760828    1.933    0.483
       114 -11.2747    101.0673     98.2873   9.7422437024e+01   4.2616683922e+01    0.3255381    0.1759102  35.15 0.0009682016    2.149    0.535
       115 -10.3318     72.4807     97.4721   1.0531261032e+02   4.7327693155e+01     0.136299    0.1200133 -61.63 -3.213181e-05    1.004    0.004
       116  -9.9592     32.8486     95.1685   1.1639936848e+02   5.2349903741e+01    0.1688784    0.1172999 -51.41 0.0004245912    1.315    0.240
       117 -10.1116    235.2342    194.6075   8.9275283521e+01  -1.8231324321e+00    0.1768274    0.1000529  32.77 0.0006240894    1.567    0.362
       118 -10.3687     51.2198     90.7642   1.1011013716e+02   5.1506505062e+01    0.1760864    0.1329885 -41.94 0.0004253501    1.331    0.249
       119 -10.9483     87.6385     89.0039   9.8834506037e+01   4.6935303699e+01    0.2579664    0.1998892  -6.97  0.001321023    1.731    0.422
       120 -10.1359     71.7736    193.1906   1.2018336861e+02   2.6563697871e+01    0.1404826    0.1272429 -85.74 0.0002063287    1.296    0.228
       121 -11.8206    211.4115    207.5051   9.5712822902e+01   6.7155092430e-01    0.2984874    0.2564375  72.39  0.001905508    1.670    0.401
       122 -11.0250    226.8241    190.4731   8.9969590101e+01   1.9495898667e-01    0.2492876    0.2260882   5.51  0.000734598    1.148    0.129
       123 -10.8288    230.8834     85.2003   6.5378664655e+01   1.5408315361e+01    0.2496282    0.2156223  18.61            0    1.257    0.205
       124  -9.6457      1.2932     86.2956   1.2421583284e+02   5.6543028420e+01    0.1127758   0.06410529 -51.73 0.0002033961    1.559    0.359
       125 -11.4446    101.8371     83.4967   9.3219489979e+01   4.5677348563e+01    0.2929394    0.2338012 -79.19  0.001485849    1.561    0.359
       126 -11.1195    107.3764     83.0355   9.1516941814e+01   4.4740657613e+01    0.2224726    0.2018473  13.18 0.0003841092    1.207    0.172
       127 -10.1841     83.6291    192.3203   1.1780096895e+02   2.5078556050e+01    0.1966129    0.1162203  71.29 0.0009658186    1.721    0.419
       128 -10.5002    232.6902     81.5957   6.4163034540e+01   1.5542334697e+01    0.2891949    0.1852153  66.92  0.001310474    1.814    0.449
       129  -9.6239     52.4939     81.4502   1.0764070223e+02   5.3441998893e+01    0.1304813    0.1094159 -53.82 0.0001397697    1.022    0.022
       130 -10.9633    250.6241     80.1634   6.1206408196e+01   1.1651209416e+01     0.201781     0.125095 -31.77 0.0003859935    1.462    0.316
       131 -11.1816    112.4204     70.1691   8.6185380839e+01   4.6363976837e+01    0.2128223     0.188161 -42.11  0.000439977    1.093    0.085
       132 -13.0271    108.0908     70.5371   8.7527727198e+01   4.7153272849e+01    0.7721882    0.4060642 -54.66  0.002708116    2.293    0.564
       133 -11.7741    112.5864     77.7350   8.8488734216e+01   4.4819634114e+01    0.3299876    0.2730041  82.88 0.0007678302    1.541    0.351
       134 -11.5970    108.4797     77.5764   8.9592222595e+01   4.5659087806e+01    0.2993739    0.2709995  36.23 0.0008684304    1.167    0.143
       135 -10.7013     70.0993     78.0106   1.0122571046e+02   5.1974380852e+01    0.1979499    0.1746211 -50.74 0.0003908918    1.020    0.020
       136  -9.6241    229.2680     77.3801   6.3580436683e+01   1.7001951516e+01    0.1518741    0.1130525   8.53 0.0006990575    1.688    0.408
       137 -10.1632     77.1812    192.2197   1.1904120593e+02   2.6010832492e+01    0.1688651    0.1147849  74.85 0.0005559725    1.325    0.245
       138 -10.2466     49.4964    191.9684   1.2428354368e+02   2.9629938805e+01    0.1664877   0.07608285  80.98 0.0008095704    2.516    0.603
       139 -10.3159    240.9232     72.8313   6.0693325129e+01   1.4938553149e+01    0.2182735     0.188086  16.61 0.0007886398    1.303    0.233
       140 -10.0384     77.5599     73.2253   9.7545006157e+01   5.1915843288e+01    0.1835726    0.1179048 -40.76 0.0002886704    1.437    0.304
       141 -10.6797    225.7198     71.6094   6.2586580225e+01   1.8740910688e+01    0.3034452    0.2158753 -19.99   0.00144014    1.482    0.325
       142 -11.0557    224.5989     67.6221   6.1684019423e+01   1.9619109553e+01    0.5441106    0.3318864  69.91  0.002382826    1.889    0.471
       143 -12.0583    119.2035     71.2811   8.4665020193e+01   4.4749058967e+01    0.3844447    0.2533471  38.64   0.00132116    1.615    0.381
       144 -10.7450     88.7850     72.1441   9.3742033261e+01   5.0348291405e+01    0.2028363    0.1796279 -54.69 0.0003214606    1.133    0.117
       145 -10.7935    100.0160     71.4658   9.0161908166e+01   4.8504870093e+01    0.2054497    0.1437994  44.36 0.0006061778    1.540    0.351
       146 -10.3559     48.7722     70.5491   1.0616859967e+02   5.6238457842e+01    0.1540575    0.1201756  49.15 0.0004099427    1.579    0.367
       147 -11.1370     43.8889     67.4938   1.0702802937e+02   5.7413186916e+01    0.2735561    0.1530177 -56.84 0.0004617776    1.489    0.328
       148 -10.0347    237.0435     67.9475   5.9971061556e+01   1.6569254106e+01    0.1632603    0.1569209 -48.59            0    1.036    0.035
       149 -12.1528    243.6500     66.0476   5.8580731052e+01   1.5294062462e+01    0.5349972    0.3087698  87.18  0.002152367    2.710    0.631
       150 -11.7531    126.4488     65.5319   8.0872823758e+01   4.4278738270e+01    0.3483715    0.2791386 -83.50  0.001519445    1.687    0.407
       151 -10.7812     52.5861     66.0798   1.0369323723e+02   5.6764116444e+01    0.1860992    0.1775032  72.29 0.0004102901    1.266    0.210
       152 -10.8257     11.1964     65.7754   1.1779700341e+02   6.0422950939e+01    0.1662227    0.1023152 -48.08 0.0006603623    1.370    0.270
       153 -11.1817    112.1725     63.4841   8.4081471538e+01   4.7701471562e+01    0.3019705    0.1892516 -22.35  0.000944179    1.918    0.479
       154 -10.5742    229.1101     61.7658   5.9453700547e+01   1.9384687077e+01    0.3927645    0.2003113 -54.95  0.001036938    2.446    0.591
       155 -10.7227     75.2610     62.2832   9.4970051555e+01   5.4526967514e+01    0.2247448    0.1841933 -26.09 0.0003022278    1.184    0.156
       156 -10.7393    236.5331     61.5501   5.8369901488e+01   1.7621622750e+01    0.5173257    0.1776901 -42.47  0.001797415    2.758    0.637
       157 -11.3926    101.8144     61.1045   8.6279855769e+01   5.0203000562e+01    0.2706299    0.2140876   6.38            0    1.470    0.320
       158 -12.1197    131.5968     60.0646   7.7730202521e+01   4.4110293135e+01    0.4049814    0.2763387   7.59  0.001028487    2.097    0.523
       159 -10.4125     10.3879     59.3346   1.1678201997e+02   6.1839629884e+01    0.2744429   0.09039138 -44.13  0.001278659    2.655    0.623
       160 -16.3731    231.2325    122.1272   7.4576972839e+01   9.4724482337e+00     2.246791     1.884439 -84.76   0.01180106    1.640    0.390
       161 -11.7009    138.6389     58.2402   7.5368356910e+01   4.2789018007e+01    0.4027567    0.2503324   7.78  0.001475859    2.774    0.640
       162  -9.6289     67.2797     57.7048   9.6174390917e+01   5.6611934362e+01    0.1223219    0.1027568 -76.74 0.0002604784    1.534    0.348
       163  -9.6626    226.2957     55.3274   5.8116460957e+01   2.1007451626e+01    0.1474927    0.1128222  20.32  0.000702395    1.629    0.386
       164 -11.6169    129.3622     55.3432   7.6697181824e+01   4.5443857380e+01    0.2369065    0.1763603  10.04  0.001096653    1.646    0.392
       165 -10.2769     11.8271    207.8274   1.3192737429e+02   3.0651043289e+01    0.1434758   0.08220847  70.81 0.0003842659    1.276    0.217
       166 -11.0564    114.3326     52.6691   7.9768735084e+01   4.9217683978e+01    0.2599809    0.1303853 -44.14  0.001048439    2.050    0.512
       167 -10.0150     51.7925     54.8031   1.0067036513e+02   5.9192364099e+01    0.1591352    0.1394088 -63.57 0.0002643586    1.272    0.214
       168 -11.4324    249.4102     53.2417   5.4599424922e+01   1.5754350996e+01    0.2409804     0.203284 -55.24 0.0003589956    1.136    0.120
       169 -12.6771    130.4304     44.8089   7.2730518989e+01   4.6928586944e+01     0.623233    0.2786168  63.03  0.002147743    3.048    0.672
       170 -10.1488    125.6229    249.2341   1.1625812757e+02   9.1866125227e+00    0.1261979    0.1039812 -48.65 0.0009119972    1.710    0.415
       171 -11.7871    120.8220     53.0945   7.8149435140e+01   4.7744078536e+01    0.2249348    0.2015409 -59.13 0.0005776007    1.270    0.212
       172 -11.9108     56.8326     52.9016   9.8265542953e+01   5.8960710095e+01     0.212437    0.1947829 -23.31 0.0002629036    1.112    0.101
       173 -10.6598    131.8194     50.7467   7.4485071884e+01   4.5650295558e+01    0.2586669    0.1542696  16.99 0.0009466722    2.738    0.635
       174 -11.9264    242.7036     48.3141   5.4146019239e+01   1.7997550742e+01    0.2783258    0.2483408  42.49 0.0004776229    1.252    0.201
       175 -16.0415    192.9011    201.0586   9.7966171926e+01   4.8684708226e+00     2.911888     1.589991 -34.59   0.01383333    2.167    0.539
       176 -10.7079    236.2508     46.4156   5.4437464421e+01   1.9804333376e+01    0.4161333    0.2364301  28.84  0.001634603    2.830    0.647
       177 -12.0980    142.7576    215.8461   1.0946324577e+02   1.1475951679e+01    0.2663893    0.2321401  77.31 0.0008652927    1.207    0.172
       178 -10.6068     62.4139     47.8633   9.4579860171e+01   5.9209852940e+01    0.1928057    0.1535899  12.91 0.0005076969    1.383    0.277
       179 -10.7600    230.4544     47.0877   5.5344688584e+01   2.1131187227e+01    0.2319833    0.2037651  70.94 0.0004433375    1.173    0.147
       180 -12.4778    214.0091     43.8993   5.6673728108e+01   2.5705475248e+01    0.6733688    0.3569895 -14.90  0.002600264    2.487    0.598
       181 -15.7147    225.7164    177.5956   8.7701503058e+01   2.1641756455e+00     1.958308     1.104994  53.07  0.009394403    2.055    0.513
       182 -10.9534    202.9017     45.1783   5.8659643837e+01   2.8398205008e+01    0.2398804      0.19617 -69.62  0.001078858    1.311    0.237
       183 -11.7763    195.3369     43.7447   5.9408303889e+01   3.0573995517e+01    0.2586613    0.2455368  23.62 0.0003702626    1.114    0.102
       184 -12.2181    150.7972     43.8132   6.7675750497e+01   4.2132641670e+01    0.2941368    0.2295152 -54.29 0.0008696217    1.449    0.310
       185  -9.9753     90.4890     44.5256   8.3873990173e+01   5.5338170252e+01    0.1400565    0.1247392 -14.50 6.933694e-05    1.012    0.012
       186 -11.4165    146.1024     43.1245   6.8462593374e+01   4.3407174655e+01    0.2309441    0.1985767  18.23 0.0004481053    1.209    0.173
       187 -10.6253     30.1353    249.0691   1.3115963214e+02   2.1781891644e+01    0.1350145    0.1015446  75.59 0.0004429513    1.223    0.182
       188 -11.7609    117.2444     40.2509   7.4452588216e+01   5.0634808233e+01    0.3073372     0.262079  23.72 0.0004580776    1.158    0.136
       189 -10.3374     29.5050     40.9220   1.0474197214e+02   6.4230958673e+01    0.1768744   0.09581435 -51.44 0.0003640888    1.472    0.321
       190  -9.9998    231.4857     39.9920   5.3324344060e+01   2.1827501598e+01    0.2073459    0.1366647 -28.22 0.0003924379    1.497    0.332
       191 -11.5775    166.5785     39.0965   6.2910493389e+01   3.8767977601e+01    0.3209191    0.2710089  30.12 0.0003862343    1.237    0.192
       192 -12.8102    166.9652     31.9524   6.0473916593e+01   3.9626682020e+01    0.3963578    0.3429978 -89.49 0.0005841071    1.253    0.202
       193 -10.6306     61.8823     40.1271   9.1982019364e+01   6.0721710713e+01    0.1810375    0.1635667 -40.81            0    1.210    0.173
       194 -11.2452    248.8656    185.1276   8.5178454860e+01  -2.9829949811e+00      0.45225    0.1252179  36.41  0.001570503    3.890    0.743
       195 -10.1995    208.2872     38.9881   5.6078481538e+01   2.7842966218e+01    0.2026411    0.1850757 -29.72  0.000300073    1.115    0.103
       196 -12.3226    136.9378     45.0056   7.1222958463e+01   4.5357668069e+01    0.3593985    0.3139599  47.96  0.001156943    1.141    0.124
       197 -12.3219    132.7564     35.1635   6.8664605034e+01   4.7818380229e+01    0.4976283     0.331219   9.96  0.002207035    1.924    0.480
       198 -10.7363    233.0267     35.7995   5.2030752914e+01   2.1991674098e+01    0.2426939    0.1976774 -32.72 0.0005613512    1.198    0.165
       199 -16.6876    187.8370    168.0013   9.2903376477e+01   1.1037342674e+01     3.270869     1.496317  40.61   0.01366546    2.066    0.516
       200 -12.2528     84.9844     35.1986   8.2040449721e+01   5.7893789781e+01     0.267922    0.2216996 -22.60 0.0003921837    1.088    0.081
       201 -13.2084    199.4001     32.7796   5.5527297607e+01   3.0972299420e+01    0.3632832    0.3228778 -50.21 0.0009750891    1.117    0.105
       202 -15.9614    157.5144    141.3272   9.3675351552e+01   2.2230056130e+01     2.019819     1.215898 -33.04  0.008747241    1.988    0.497
       203 -10.6086     99.7917     32.7037   7.6437118424e+01   5.5470188301e+01    0.2409322    0.1757343 -16.39 0.0007525265    1.353    0.261
       204 -10.5373     55.4884     33.4628   9.1822753073e+01   6.2775439308e+01    0.1293606    0.1048175 -22.85 0.0001916595    1.042    0.040
       205 -12.0734    214.8609     31.9261   5.3191804514e+01   2.7060897946e+01    0.3577565    0.2291723  76.42 0.0009709966    1.632    0.387
       206 -11.2363    128.7462     30.5952   6.7912786271e+01   4.9405302645e+01    0.2518383    0.1669356 -47.77 0.0006054015    1.764    0.433
       207 -10.3737     60.1688     30.6620   8.8925340785e+01   6.2615390738e+01    0.2242606    0.1535088 -41.92  0.001000378    1.388    0.279
       208 -11.9025    105.2360    183.7175   1.1243273083e+02   2.3466174324e+01    0.3664535      0.23292 -41.10  0.001894242    2.256    0.557
       209 -16.0492    171.4903    156.0790   9.3806641713e+01   1.6483509034e+01      2.11797     1.042651  30.82   0.00779423    2.836    0.647
       210 -17.0313    209.5495    139.9065   8.2676884313e+01   1.1252678405e+01     2.495104     1.758633  12.81   0.01177565    1.742    0.426
       211  -9.8459     17.4650    184.5294   1.2961547889e+02   3.4502546931e+01    0.1078781   0.07900039  82.62 -3.677018e-05    1.041    0.040
       212 -11.8857    188.5068     27.4065   5.5492075405e+01   3.4516616702e+01    0.2779023     0.259008  46.46 0.0005325204    1.091    0.083
       213 -10.9025    161.8275     27.3398   5.9852324519e+01   4.1552598157e+01    0.2304905    0.1861003 -87.84  0.001159504    1.412    0.292
       214  -9.8242    141.4952     27.5486   6.3916863136e+01   4.6710698019e+01    0.1491406     0.134423  29.02 0.0001127591    1.066    0.062
       215 -10.5315    236.3059     26.3293   4.9191912928e+01   2.2366699310e+01    0.1373294     0.105183  29.19 0.0007037405    1.656    0.396
       216 -11.8127    209.4373     25.6653   5.2110237244e+01   2.9233527601e+01    0.3284833     0.175803  38.04  0.001319415    2.421    0.587
       217 -11.1054    172.5555    247.0334   1.0820701226e+02   2.1312620139e+00    0.2627293    0.1144597  54.31  0.001284943    2.495    0.599
       218 -12.0727    226.9245     23.7241   4.9516936217e+01   2.5001686039e+01    0.3886918    0.1352051  60.10  0.001457021    2.673    0.626
       219 -11.2169     86.0025    181.3042   1.1604018553e+02   2.6910670784e+01     0.268237    0.1757685  82.85 0.0009301874    1.567    0.362
       220 -11.6159    106.6833     22.9889   7.0534748343e+01   5.5402046539e+01    0.2549801    0.2151124  -7.81 0.0003893193    1.120    0.107
       221 -10.6014    175.0439     22.5480   5.6021569041e+01   3.8659555024e+01    0.2221892    0.1390394  65.41 0.0004704299    1.533    0.348
       222 -12.5808     87.4863    173.7654   1.1477734844e+02   2.8226243994e+01    0.4395512    0.2157395 -60.50  0.002186686    2.011    0.503
       223 -11.7625     15.9237     20.2826   1.0343055128e+02   6.9185768777e+01     0.201456    0.1462551 -36.89 0.0002949242    1.020    0.020
       224 -11.6269    248.3821     19.0998   4.6183359260e+01   2.0323199050e+01    0.2867803    0.1331919 -42.90  0.001294552    1.896    0.473
       225 -11.2261     50.7279     18.3117   8.7327266403e+01   6.5902605524e+01    0.2496317     0.145172 -39.47  0.000828526    1.576    0.365
       226 -11.3257    161.2301    245.9927   1.0997868766e+02   4.0733234166e+00    0.1796031    0.1181863  61.14 0.0004748282    1.611    0.379
       227 -10.3464     31.8226    180.1962   1.2664216667e+02   3.3934039079e+01    0.1410417     0.112826 -76.08 0.0003551021    1.315    0.239
       228  -9.8859    126.8837     16.3790   6.2878038936e+01   5.1614825749e+01    0.2140984    0.1128202  46.76 0.0009415703    1.752    0.429
       229 -12.4212    157.3816    243.6374   1.1034805809e+02   4.9989141582e+00    0.2451957    0.2202357 -28.33  0.001106381    1.500    0.333
       230 -10.7114     90.0028     13.7256   7.1342642564e+01   6.0001039095e+01    0.1835346    0.1583382  12.49 0.0003033308    1.027    0.026
       231 -10.5826     21.9552    176.2933   1.2821650369e+02   3.5706296065e+01    0.1487636    0.1135542  73.44 0.0003603668    1.112    0.100
       232 -10.0541    192.3159     13.3003   5.0664487154e+01   3.5123505616e+01    0.1477021     0.102286  37.81 0.0003899115    1.614    0.381
       233 -12.9366    191.4559    241.9365   1.0437952238e+02  -2.8608577917e-01    0.5263915    0.1959973  42.83  0.002618309    2.057    0.514
       234  -9.9145     51.5212    245.4743   1.2778159230e+02   1.9906539392e+01    0.1035374   0.07126143  66.72  5.30371e-05    1.007    0.006
       235 -10.7162    121.7467    243.3909   1.1632099195e+02   1.0617104311e+01    0.2268155    0.1504078  58.21   0.00116056    1.222    0.181
       236  -9.6877     76.7161     11.6591   7.4608769730e+01   6.2754295489e+01    0.1348904   0.08799708   7.82 0.0004085082    1.634    0.388
       237 -11.9882    126.4722    238.7388   1.1504631349e+02   1.0579885880e+01    0.3312751    0.2041838  39.21  0.001300358    1.511    0.338
       238 -11.1055    201.7222    242.9348   1.0279771501e+02  -2.0497947625e+00    0.1527468    0.1263909  29.54 0.0005141207    1.108    0.097
       239 -10.1847     21.8988    243.2798   1.3208651724e+02   2.3580007836e+01    0.1337991   0.08706898  64.45 0.0003488616    1.087    0.080
       240 -10.0593      2.3675    242.8030   1.3485475397e+02   2.5599148099e+01    0.1185224   0.06604883 -79.47 0.0009406613    1.686    0.407
       241 -11.6249    208.2556    241.3842   1.0149396387e+02  -2.9153408257e+00    0.2359684    0.1468145  22.01 0.0007717975    1.622    0.383
       242 -10.5473     32.7203    242.4240   1.3045025648e+02   2.2557060936e+01    0.1190937   0.08077177  46.06 0.0009356074    1.550    0.355
       243 -10.9534     90.5697    241.1987   1.2128527956e+02   1.5510433360e+01    0.1837539    0.1155303  52.52 0.0003961561    1.215    0.177
