#   1 NUMBER                 Running object number                                     
#   2 MAG_AUTO               Kron-like elliptical aperture magnitude                    [mag]
#   3 X_IMAGE                Object position along x                                    [pixel]
#   4 Y_IMAGE                Object position along y                                    [pixel]
#   5 X_WORLD                Barycenter position along world x axis                     [deg]
#   6 Y_WORLD                Barycenter position along world y axis                     [deg]
#   7 A_WORLD                Profile RMS along major axis (world units)                 [deg]
#   8 B_WORLD                Profile RMS along minor axis (world units)                 [deg]
#   9 THETA_WORLD            Position angle (CCW/world-x)                               [deg]
#  10 FWHM_WORLD             FWHM assuming a gaussian core                              [deg]
#  11 ELONGATION             A_IMAGE/B_IMAGE                                           
#  12 ELLIPTICITY            1 - B_IMAGE/A_IMAGE                                       
         1 -13.7151      5.7384     14.2473   1.3536717304e+02   7.5424313251e+01     2.644021    0.5832563 -61.65   0.01049218    3.032    0.670
         2 -13.3972    189.3551     28.0313   7.3694702251e+01   3.3623015439e+01     1.279129     1.141518  48.69  0.006105488    1.192    0.161
         3 -14.0364    201.9718     10.3231   6.7054946079e+01   3.2183372810e+01      1.93854     1.203974  44.48  0.009306487    1.880    0.468
         4 -10.7394    229.7693    230.2234   1.1227117541e+02  -5.8151950448e-01    0.3894762    0.2678131 -53.41  0.002227071    4.161    0.760
         5 -10.8529    249.3863    248.5666   1.1178634068e+02  -4.5479351315e+00    0.2573811    0.1614662  15.54  0.002068124    1.080    0.074
         6 -11.1305    102.5056    247.5950   1.3679400456e+02   1.4835757329e+01    0.2778434    0.1621218  41.13 0.0005943829    1.182    0.154
         7 -10.5657     98.5029    249.5215   1.3768217934e+02   1.5085814084e+01    0.2609534    0.1405946  50.73   0.00161131    1.485    0.326
         8 -10.7277     97.2664    245.6304   1.3761756939e+02   1.5787471566e+01    0.1745011    0.1417157  53.99 0.0005872222    1.204    0.170
         9  -9.2711     74.0200    250.4782   1.4225072559e+02   1.7983465427e+01    0.1652822   0.07337629  38.71 0.0005095302    1.550    0.355
        10  -9.6406     67.0764    250.5061   1.4352150087e+02   1.8798911614e+01    0.1626104   0.07268248  38.83  0.001014101    1.540    0.351
        11  -9.8791     37.7495    249.5873   1.4877857708e+02   2.2172874099e+01    0.2087633    0.1142426  53.55 0.0009050537    1.255    0.203
        12 -10.8088     30.6299    250.4057   1.5007069551e+02   2.2777332996e+01    0.3540315     0.106318  36.87  0.002026899    2.165    0.538
        13 -11.9721     35.3917    244.4308   1.4901150709e+02   2.3201368305e+01    0.5214222    0.3860465  20.28  0.004018565    1.820    0.451
        14 -14.7346     54.6051    210.2414   1.4357785701e+02   2.6759107208e+01     9.558241    0.8034508  46.86   0.03204862    4.853    0.794
        15 -11.5654    152.2936    228.9755   1.2561007466e+02   1.0443751467e+01    0.6748108    0.1406119  33.78  0.002030236    5.687    0.824
        16  -9.3016     34.3045    229.1220   1.4862232679e+02   2.5754602919e+01    0.2135833    0.1044146  44.96 0.0007315215    1.392    0.282
        17 -12.6842     43.9181    232.8343   1.4694516255e+02   2.4129847443e+01    0.2881175     0.258804  26.51 0.0008497789    1.525    0.344
        18 -10.6808     82.3280    243.0722   1.4023555566e+02   1.8049426407e+01    0.2260416     0.112768  43.60 0.0008959039    1.373    0.271
        19 -10.9639    173.8233    222.5106   1.2079708998e+02   8.0923634505e+00    0.3278584    0.2492044  50.64  0.002254586    1.544    0.352
        20 -10.8212     81.4396    248.3004   1.4074947664e+02   1.7398665186e+01    0.2231774    0.1692819  66.14  0.001095337    1.329    0.247
        21 -15.0577     16.5615    167.1198   1.4975613979e+02   3.9094873491e+01     6.525088     1.535183  85.01   0.02020711    6.297    0.841
        22  -8.8396    152.5165    212.9174   1.2358595262e+02   1.2578260311e+01    0.1363821    0.1217761 -36.06 0.0003117835    1.442    0.306
        23 -10.0938     20.1709    242.2083   1.5168280233e+02   2.5059338449e+01    0.1513724   0.07413899  53.85 0.0004350686    1.360    0.264
        24 -14.5667      3.4585    231.3584   1.5444239361e+02   2.8314396070e+01     6.949945    0.6310807 -73.99   0.02474132    8.815    0.887
        25 -11.3940     68.2522    198.2976   1.3976887575e+02   2.7260116389e+01    0.2948424    0.2330334 -40.24  0.001331871    1.874    0.466
        26  -9.7336    191.9930    192.9899   1.1311292141e+02   9.0143803630e+00     0.330114    0.2031738 -64.71  0.001265112    5.701    0.825
        27 -11.6465     73.4680    190.6498   1.3793206682e+02   2.8016423829e+01    0.2334955    0.2315611 -26.40 0.0007225898    1.365    0.267
        28 -14.0166     50.0307    223.6333   1.4529568062e+02   2.4970308898e+01     1.084186    0.8717585  59.96  0.006251807    1.155    0.134
        29  -8.8563    104.9743    180.7488   1.2955993853e+02   2.5335083240e+01     0.177479    0.1364449  47.01 0.0002231945    1.072    0.067
        30 -10.8960     82.4456    177.9853   1.3455062799e+02   2.9240116000e+01    0.2241435    0.1970928  59.20 0.0004364718    1.089    0.082
        31 -13.2525     69.8551    175.8175   1.3736044563e+02   3.1409520561e+01    0.4482755     0.286212 -44.05  0.001712913    2.244    0.554
        32 -13.7530     10.0824    206.9438   1.5262050202e+02   3.1917858149e+01      1.16077      0.69749  57.71  0.002527476    1.179    0.152
        33 -12.0046     89.1490    168.5339   1.3179739301e+02   3.0153120763e+01    0.8215312    0.4735504  49.49  0.004248173    1.508    0.337
        34  -9.8315    100.8671    152.2656   1.2652482764e+02   3.1656241504e+01    0.2535588    0.2472402   6.45 0.0007800327    1.215    0.177
        35  -8.8144    103.5963    148.1809   1.2515659273e+02   3.2054039819e+01    0.1813713    0.1299008 -44.84 0.0004316987    1.653    0.395
        36 -11.9580     89.8611    151.7014   1.2931884370e+02   3.3557334977e+01    0.2640915    0.2481522   8.57 0.0005834889    1.298    0.230
        37 -12.5929     67.1994    144.0175   1.3442366989e+02   3.8590904835e+01    0.8752108    0.4964503  65.06  0.004166156    1.921    0.479
        38 -12.2611     58.0794    132.2406   1.3551107282e+02   4.2504959377e+01    0.8825783    0.3992749 -85.32    0.0034569    2.947    0.661
        39  -8.5107    192.0235    144.0367   1.0408921022e+02   1.5931113708e+01    0.1601705    0.1429779   2.74 0.0004065111    1.073    0.068
        40  -9.6407    111.4286    137.0901   1.2113048679e+02   3.3016100710e+01    0.3303169    0.2415549 -20.05  0.001518684    2.042    0.510
        41 -10.4380     99.0502    134.5656   1.2402393436e+02   3.5767373146e+01    0.2561935    0.2282183 -12.26 0.0006680593    1.417    0.294
        42 -10.0525     43.4988    126.5151   1.3921836342e+02   4.5587173664e+01    0.1317652    0.1139886  74.64 -7.018595e-05    1.002    0.002
        43 -10.5998     46.0835    248.3239   1.4723056134e+02   2.1480532758e+01    0.2985743    0.1165637  56.45  0.001234928    1.974    0.493
        44  -9.4471    108.0704    124.0268   1.1946289613e+02   3.6454727516e+01      0.21076    0.1945557  54.71  0.000304069    1.011    0.011
        45 -10.6946    234.6996    238.9433   1.1271058933e+02  -1.9906418247e+00    0.2325533    0.1494475 -46.92  0.001429692    3.683    0.728
        46  -9.2158    203.4829    111.5177   9.4674546144e+01   1.8523181386e+01    0.1422753    0.1274661   9.31 3.716792e-05    1.055    0.052
        47 -10.7286    168.1457    113.3341   1.0199810358e+02   2.5959345953e+01     0.332765    0.2905846  85.00 0.0008723616    1.398    0.285
        48  -8.8586    155.6705     75.6832   9.4436669839e+01   3.5589618858e+01    0.1619145    0.1204608  20.62 0.0007046266    1.681    0.405
        49 -10.5543     19.3855     57.2416   1.3814079478e+02   6.4680207180e+01    0.3098644    0.1952615  34.73 0.0009916639    1.740    0.425
        50 -11.1813    139.4103    249.6044   1.3020025014e+02   9.6505784065e+00     0.241758    0.2013251  41.76  0.001961951    1.230    0.187
        51  -9.3607    162.3132    249.3117   1.2608031508e+02   6.5649405093e+00      0.10744   0.06755141  17.81 0.0004036992    1.633    0.388
