#   1 NUMBER                 Running object number                                     
#   2 MAG_AUTO               Kron-like elliptical aperture magnitude                    [mag]
#   3 X_IMAGE                Object position along x                                    [pixel]
#   4 Y_IMAGE                Object position along y                                    [pixel]
#   5 X_WORLD                Barycenter position along world x axis                     [deg]
#   6 Y_WORLD                Barycenter position along world y axis                     [deg]
#   7 A_WORLD                Profile RMS along major axis (world units)                 [deg]
#   8 B_WORLD                Profile RMS along minor axis (world units)                 [deg]
#   9 THETA_WORLD            Position angle (CCW/world-x)                               [deg]
#  10 FWHM_WORLD             FWHM assuming a gaussian core                              [deg]
#  11 ELONGATION             A_IMAGE/B_IMAGE                                           
#  12 ELLIPTICITY            1 - B_IMAGE/A_IMAGE                                       
         1 -11.7450    247.3628     32.1272   6.3478462201e+01   2.0284484454e+01     1.199708    0.6642897  77.01  0.006198635    1.757    0.431
         2 -10.9988    228.3012     33.5323   6.5811059450e+01   2.4459123275e+01    0.9148831    0.7396072  67.40  0.005479211    1.248    0.199
         3 -10.5169    220.5485     15.3874   6.2534744466e+01   2.8536854436e+01    0.5949746    0.4175833  77.91  0.003465242    1.249    0.199
         4 -11.0746    225.0702     23.0263   6.3785647689e+01   2.6560336084e+01    0.6054418    0.4450718  88.54  0.003541833    1.207    0.172
         5 -11.9324    248.4028     12.1326   5.9243295986e+01   2.2561701374e+01     1.585467     0.704378 -48.58  0.008009442    1.972    0.493
         6 -10.4909    201.4800     36.8638   6.9978263482e+01   3.0489205525e+01    0.8066013     0.306466 -22.34  0.002536636    4.737    0.789
         7 -12.2663    239.9855     19.3509   6.1485351415e+01   2.3570142880e+01     1.905964    0.8572177 -58.20  0.008804535    2.230    0.552
         8  -9.0322    198.2476     10.3002   6.3777674977e+01   3.4444228894e+01    0.3011616    0.1886247 -19.44  0.001567522    2.110    0.526
         9  -8.8349    201.7356     11.9889   6.3786947861e+01   3.3418927841e+01     0.227101    0.1543705  63.41 0.0005423005    1.341    0.254
        10  -9.5288     68.0296     12.7044   9.1072867911e+01   6.2954243489e+01    0.2708393    0.1650914 -22.71  0.001617235    1.599    0.375
        11  -9.6382    193.1380     11.3053   6.4631028923e+01   3.5580646789e+01    0.2707657    0.1881436 -66.91  0.001501951    1.474    0.322
        12  -9.9754    112.6399     11.3221   7.8157266850e+01   5.4597649734e+01    0.2663997    0.1402709 -39.02  0.001165313    2.280    0.561
        13  -8.7795     84.5748     11.2408   8.5358009923e+01   6.0224094061e+01    0.2154616    0.1102114 -27.71  0.001133318    2.035    0.509
        14  -9.9526    212.8859      8.7226   6.1806380407e+01   3.1096177512e+01     0.445598    0.2880487 -40.76  0.002525546    1.604    0.377
        15  -8.8573    186.3249      8.6795   6.4802711367e+01   3.7512480977e+01    0.2915885    0.1353125 -70.92 0.0007719704    3.408    0.707
        16  -9.7236    223.2219      6.4854   6.0287986564e+01   2.8907227112e+01     0.386398    0.2163017  64.30  0.001246182    1.642    0.391
        17  -8.5987    220.5096      3.0026   5.9776418182e+01   2.9910183068e+01    0.1709869     0.117945 -40.34 0.0005202084    1.536    0.349
        18  -9.1282    206.1535      6.6201   6.2020660872e+01   3.2924772782e+01    0.2903055    0.1779896 -28.95  0.001570263    1.912    0.477
        19  -7.9905    103.3148      8.3350   7.9278791825e+01   5.6831463344e+01    0.1349289   0.08008252  28.21 0.0007046817    1.690    0.408
        20  -8.3177    131.7774      6.9770   7.2698841799e+01   5.0741393185e+01    0.1526381    0.1070096 -18.20 0.0006124634    1.638    0.390
        21  -9.4454    119.1766      4.3782   7.4319454053e+01   5.3792855389e+01    0.2090323    0.1580679  38.12  0.001281792    1.174    0.148
        22  -8.9179    171.5052      5.5273   6.5896336611e+01   4.1429397217e+01    0.2333363    0.1311842 -26.09 0.0009194621    2.080    0.519
        23  -9.2244     60.7316      5.4275   9.0468707965e+01   6.4873512545e+01    0.2006222    0.1288157  34.51 0.0008503426    1.368    0.269
        24  -9.7082     63.8844      2.1124   8.7982628717e+01   6.4688037500e+01    0.2106694    0.1583825   8.80 0.0007901086    1.113    0.101
        25  -8.8241    164.7682      3.1467   6.6170052511e+01   4.3278455771e+01    0.2681467    0.1151001 -20.65  0.001172586    2.940    0.660
        26  -8.6104    144.1434      4.3754   6.9681885569e+01   4.8095730075e+01    0.1904799     0.111498  76.17 0.0009497601    1.761    0.432
        27  -9.0581     47.5176      3.5106   9.4385904050e+01   6.7023674411e+01    0.2028227   0.09156076 -15.99  0.001034611    2.444    0.591
        28  -8.9059    191.3788      2.2127   6.2575722210e+01   3.6920313883e+01    0.4923612    0.1925306  64.69  0.002203198    2.080    0.519
        29  -8.9078     98.5869      2.7248   7.8346244789e+01   5.8280802472e+01    0.1994983    0.1488352  76.52  0.001138271    1.775    0.437
        30  -8.7592     79.4215      2.2123   8.3231961175e+01   6.2004657878e+01    0.1532483    0.1040665 -29.77 0.0009470813    1.684    0.406
        31  -9.7153    155.0958      9.6971   6.9488192882e+01   4.5010094981e+01    0.2687989    0.1951795 -13.03  0.001522459    1.682    0.406
        32  -7.9108    137.3134      1.2983   6.9886794983e+01   4.9946201058e+01    0.1337618   0.08089229  39.69 0.0004069068    1.605    0.377
        33  -8.6335     77.6580    196.6672   1.3427694501e+02   2.4323265350e+01    0.1228382    0.1033276 -32.98 0.0007051047    1.753    0.430
        34  -9.1420    249.0720    194.7673   9.8549209874e+01  -6.6244287899e+00    0.2433456    0.1748792  49.16   0.00102868    1.668    0.400
        35  -8.5125    232.1795    195.3330   1.0172542298e+02  -3.7998090478e+00    0.1876123    0.1191872  48.22 0.0009422277    1.730    0.422
        36  -9.9876    238.4439    192.4243   9.9997662380e+01  -4.4376464452e+00    0.3383684    0.2878274 -39.98  0.001468576    1.305    0.234
        37  -8.8057    199.6667    192.3091   1.0743234988e+02   2.7922987998e+00    0.1383273    0.1134967  80.55  0.000614563    1.672    0.402
        38  -8.8268    110.7353    189.6987   1.2610190315e+02   2.0499069845e+01     0.314669    0.2068134 -16.19  0.001149243    3.984    0.749
        39  -8.9377    210.5757    189.2496   1.0465479077e+02   1.2284873650e+00    0.1970265    0.1310823 -27.14 0.0009548486    1.640    0.390
        40  -9.2088    194.0731    188.8164   1.0788257457e+02   4.5310227978e+00    0.2199263    0.1940937  68.36  0.001212291    1.311    0.237
        41  -7.9591    250.6653    186.2797   9.6584547654e+01  -5.5741311731e+00    0.1180044    0.1070721 -82.49 0.0004577301    1.612    0.380
        42  -9.1097    224.9725    185.1712   1.0105109287e+02  -7.9496672386e-01    0.2369616    0.1988462 -30.93 0.0009103077    1.184    0.156
        43  -8.8897    105.9871    184.0067   1.2626136938e+02   2.2593049221e+01     0.234747    0.1579966  74.15  0.000554937    1.690    0.408
        44  -9.5547    211.5011    183.2785   1.0327054409e+02   2.1125494285e+00    0.3026257    0.1720721  55.64   0.00129318    2.184    0.542
        45  -9.3337    227.0677    179.9567   9.9590584574e+01  -2.9223212356e-01    0.2682176    0.1918371  40.69 0.0009471054    1.398    0.285
        46  -9.9088    157.9124    179.1496   1.1369138437e+02   1.3765577819e+01    0.3543034    0.2402151 -31.37  0.001254909    1.849    0.459
        47  -8.5606    242.1247    178.8576   9.6595275487e+01  -2.8825420593e+00    0.2851433     0.174306  14.17  0.001277037    2.279    0.561
        48  -9.1262    219.8567    179.1626   1.0079995598e+02   1.2239256287e+00    0.2832789    0.1908987  54.20  0.001254633    1.716    0.417
        49  -8.6815    152.6794    178.3973   1.1470899700e+02   1.4986336575e+01    0.1983619    0.1382942  37.12 0.0009264764    1.461    0.316
        50  -8.3279     62.9675    179.3269   1.3523555192e+02   3.0300274829e+01    0.2242343   0.06820105  53.78 0.0007042919    4.493    0.777
        51  -8.2717    197.6786    177.3060   1.0482116522e+02   5.9725680773e+00    0.1431795    0.1175232  86.21 0.0003735818    1.638    0.390
        52  -9.2693    234.1786    175.3361   9.7311692184e+01  -8.3331803131e-01    0.2771052    0.2463689  47.33  0.001388251    1.259    0.206
        53  -8.2016     84.6695    175.3342   1.2976990350e+02   2.8074731496e+01    0.1480235   0.09661239  75.67 0.0007052132    1.727    0.421
        54  -8.8139    225.0451    173.5172   9.8635464677e+01   1.2200856954e+00    0.2111666    0.1352887  40.36 0.0005166727    1.564    0.361
        55  -8.5612    193.3049    173.6772   1.0496860281e+02   7.5668882280e+00    0.1456348    0.1186982 -89.54  0.000703198    1.639    0.390
        56  -9.3504    212.7606    170.2322   1.0031108057e+02   4.2421804165e+00    0.2506616    0.1908464 -49.30 0.0008507576    1.417    0.294
        57  -7.8554    184.3207    171.6655   1.0643372094e+02   9.8321960296e+00    0.1513525    0.1196329  88.40 0.0007049724    1.703    0.413
        58  -8.5635    237.7800    170.5857   9.5663060932e+01  -6.9274932300e-01    0.1851395    0.1329127  55.42 0.0009431957    1.683    0.406
        59  -8.3878    242.7463    169.6125   9.4568452106e+01  -1.4484567708e+00    0.1762238    0.1312596  52.14  0.000541685    1.561    0.359
        60  -8.7776    222.9721    168.9601   9.8067172623e+01   2.4380479073e+00    0.2207591    0.1792812 -76.03 0.0008083748    1.725    0.420
        61  -8.3357    170.3340    169.6881   1.0904291031e+02   1.3172959799e+01    0.1543534    0.1194061  82.81 0.0007044621    1.681    0.405
        62  -9.8891    147.3640    168.3125   1.1392364418e+02   1.8246544654e+01    0.2772617    0.2443348  76.99  0.000458149    1.173    0.147
        63  -8.6571    126.0040    169.5154   1.1911884720e+02   2.2217960076e+01      0.21858    0.1180796  62.79 0.0008099527    2.516    0.602
        64  -8.4417    179.3324    168.6484   1.0686726707e+02   1.1490190625e+01    0.1561618    0.1202931  88.60 0.0007046822    1.779    0.438
        65  -8.9649     10.7763    168.6142   1.4528631318e+02   3.8437216580e+01    0.1515191   0.09241354  51.76 0.0009513552    1.682    0.405
        66 -10.0109    193.2176    166.5384   1.0347629243e+02   8.9830302840e+00    0.2858801    0.2781997  -5.69  0.000857374    1.025    0.025
        67  -8.5572    234.9837    165.5288   9.5102583308e+01   7.1216336273e-01    0.2041252    0.1370775  44.48 0.0006460767    1.554    0.357
        68  -9.8234    213.6329    164.3869   9.8888870449e+01   5.1522391858e+00    0.3439273    0.2987013 -11.15   0.00186853    1.186    0.157
        69  -8.4006     52.0120    159.9392   1.3514611311e+02   3.6181015721e+01    0.2140737    0.1359699  74.76  0.001116869    1.721    0.419
        70  -9.5441    246.7166    158.7157   9.1569499586e+01  -3.2885233148e-01    0.3509274    0.2019701  36.13  0.001498375    1.918    0.479
        71  -9.2496    226.4909    157.3166   9.4896478363e+01   3.8471335529e+00    0.3181842    0.2219191  -3.11  0.001454622    1.948    0.487
        72  -9.9261    222.0777    153.8827   9.4969487500e+01   5.3765178283e+00    0.3953284    0.2688666 -59.58  0.001360013    1.873    0.466
        73  -8.8002     80.4913    156.0701   1.2767167820e+02   3.3220430108e+01     0.214606    0.1261505 -60.12  0.001019982    1.562    0.360
        74  -8.7724    250.5014    152.1210   8.9513919870e+01   9.2796909806e-02    0.2123873     0.124987 -38.13 0.0008719586    1.552    0.356
        75  -9.2359    244.0210    153.8796   9.0998838622e+01   1.0156813644e+00    0.3713885    0.2316198  24.08  0.001692366    2.110    0.526
        76 -10.1560    244.9794    149.6203   8.9912109864e+01   1.5743598202e+00    0.4546302    0.2886187  64.93  0.001714196    2.284    0.562
        77  -9.8092    230.9732    153.0719   9.3141733656e+01   3.7171177175e+00    0.4925558    0.2426277  52.96  0.002014959    2.338    0.572
        78  -8.8972    118.5034    153.9356   1.1787839694e+02   2.7225724239e+01    0.2298086    0.1445505 -56.45 0.0009416752    1.572    0.364
        79 -10.6393    197.3236    150.0660   9.8992732176e+01   1.1374821568e+01    0.4273019    0.2458324 -40.66  0.001804976    1.735    0.424
        80  -9.5447    229.9399    148.4505   9.2310388041e+01   4.7662834098e+00    0.2740986      0.19441 -53.46 0.0008438904    1.559    0.358
        81  -8.9866    191.5138    149.0385   9.9965327104e+01   1.2855535036e+01    0.2366738    0.1498057 -43.16  0.001028019    1.579    0.367
        82  -9.5028    235.2548    148.0610   9.1268647572e+01   3.7626426079e+00    0.2763852    0.2083054  42.15  0.001439848    1.399    0.285
        83 -10.1711    224.3189    146.6558   9.2942397872e+01   6.2547738311e+00    0.3625127    0.3035089 -37.61  0.001651804    1.143    0.125
        84  -9.0775    205.6818    148.3028   9.6900549274e+01   9.9048372275e+00    0.1496393     0.120473 -82.99 0.0004296949    1.625    0.384
        85  -8.3054    174.5177    148.5114   1.0350603578e+02   1.6722375219e+01    0.1529481    0.1515492  50.60  0.000810282    1.013    0.013
        86  -8.5396    111.6358    147.7881   1.1833409729e+02   2.9944575853e+01    0.2138975    0.1361547 -64.86 0.0006938864    1.662    0.398
        87  -9.9370    230.9830    141.9905   9.0681562800e+01   5.7336407999e+00    0.3551795    0.2935548 -48.66  0.001417989    1.214    0.176
        88  -8.6980     18.6821    143.7039   1.4094031073e+02   4.3337348724e+01    0.1177078   0.07741562 -48.74 0.0003248927    1.610    0.379
        89  -8.8391      9.0709    141.7092   1.4297225248e+02   4.4549674494e+01     0.156276    0.1312111 -85.18 0.0009238959    1.117    0.105
        90  -9.5901    219.0412    139.0374   9.2200760313e+01   8.8016770789e+00    0.3432286     0.268526  75.06  0.001207395    1.611    0.379
        91 -10.5567    215.7826    135.5798   9.2017794561e+01   1.0166113366e+01    0.4780101    0.3030238  52.90  0.002155979    1.671    0.402
        92  -9.5306    249.1366    131.1026   8.5161441890e+01   4.0051784618e+00    0.2872714    0.2607778  75.52  0.001683905    1.270    0.213
        93  -8.8771    238.1746    136.5619   8.8202814137e+01   5.2428761205e+00    0.2868604     0.220963 -60.88  0.001471817    1.490    0.329
        94 -10.0253    242.5236    134.2196   8.6941348769e+01   4.7790403148e+00    0.4155036    0.3322018 -55.60  0.001732755    1.320    0.242
        95 -10.0720    209.7043    138.3434   9.3823540976e+01   1.0966984442e+01    0.3468729    0.2064436 -45.16  0.001496875    1.657    0.397
        96 -10.0769    249.3705    135.7807   8.6153595996e+01   3.1404717046e+00    0.3552878    0.2587238 -54.75 0.0009765861    1.482    0.325
        97  -8.7275    164.7617    136.5743   1.0292457653e+02   2.1451230996e+01    0.2252999    0.1492533  58.46 0.0006469853    1.649    0.394
        98  -9.4412    169.8624    134.8542   1.0135705899e+02   2.0667690627e+01    0.2526731    0.2491363  55.01 0.0004989295    1.024    0.024
        99 -10.2650    222.5931    130.5247   8.9583958633e+01   9.6390851422e+00    0.6551182    0.3142602  65.16  0.002168708    3.563    0.719
       100  -9.7161     86.6102    129.8247   1.2112474789e+02   3.8479291072e+01    0.3421463    0.2081267 -86.29  0.001357324    2.650    0.623
       101  -8.7757     61.9856    129.7389   1.2777137509e+02   4.2031356239e+01    0.1830121    0.1651621 -68.86 0.0003407915    1.038    0.036
       102 -10.0469    228.8778    126.3662   8.7500749879e+01   9.0531540547e+00    0.4623834    0.3337021 -39.28  0.002296502    1.304    0.233
       103  -9.2772    193.3940    128.2525   9.4695499109e+01   1.6640725148e+01     0.287957    0.1987018 -50.58  0.001210705    1.483    0.326
       104  -8.4490     68.5680    128.5130   1.2575390317e+02   4.1448382938e+01    0.1382766    0.1212991 -68.46 0.0001479538    1.024    0.024
       105 -10.5075    241.9093    124.8614   8.4946305346e+01   6.5737272863e+00    0.5128418    0.4124008  69.97  0.002652657    1.458    0.314
       106  -8.7182    243.9284    119.9210   8.3505081021e+01   7.0338260217e+00    0.3295157    0.1994631 -64.58  0.001207723    2.351    0.575
       107 -10.1962    206.7822    126.8821   9.1695516564e+01   1.3850562085e+01    0.4765413    0.2658418  39.13  0.001350138    2.047    0.511
       108  -9.8847    212.9085    124.3770   8.9931178304e+01   1.2949307208e+01     0.425807    0.3333734 -27.49  0.001543583    1.351    0.260
       109  -8.3746    113.6109    126.8634   1.1324179417e+02   3.4441655817e+01    0.2106922    0.1394757 -62.38 0.0007131177    1.618    0.382
       110  -7.7868    177.0000    124.9935   9.7373932532e+01   2.1104120083e+01    0.2582022   0.08915892 -42.24 0.0007823264    2.886    0.653
       111  -9.1216    188.9544    123.5189   9.4460531505e+01   1.8623330387e+01    0.3293123    0.2345558 -41.69  0.001196399    1.390    0.280
       112  -8.6467    161.1662    124.4930   1.0081681835e+02   2.4864679112e+01    0.2285827    0.1553289  49.84  0.000648564    1.475    0.322
       113  -9.9155    195.3617    122.5672   9.2913526195e+01   1.7323721276e+01    0.3812139    0.2343937  30.99  0.001509541    2.162    0.538
       114  -8.8594    234.0208    130.0378   8.7447032564e+01   7.2855604860e+00     0.222679    0.1735798 -73.55 0.0008144191    1.612    0.380
       115  -9.5041    221.8368    121.4007   8.7591226497e+01   1.1515427870e+01    0.3452449    0.2876661  72.10  0.001038036    1.342    0.255
       116  -8.3678    124.8301    120.1313   1.0868080879e+02   3.3754038941e+01    0.2014017     0.179339 -17.57 0.0002452526    1.269    0.212
       117 -10.1164    235.2428    115.4096   8.3889787113e+01   9.6788218589e+00    0.5541094    0.2870389 -49.00  0.002323114    1.936    0.483
       118 -10.6208    230.2339    116.3693   8.4950256376e+01   1.0593569781e+01    0.5343519    0.3620565  63.38  0.002537914    1.681    0.405
       119 -10.4032    248.9869     55.6874   6.8377691552e+01   1.6599725163e+01     0.567469     0.423896  36.29  0.003060998    1.934    0.483
       120 -10.0228    237.2264     38.5279   6.5932076612e+01   2.1713106002e+01    0.6263445    0.3621194  65.48  0.003210586    1.672    0.402
       121 -12.5643    232.3384     95.3956   7.9697380834e+01   1.3881199627e+01     2.427073     1.428453  81.48  0.009772915    2.592    0.614
       122  -9.2592    235.5030    248.5059   1.1070665908e+02  -1.1970880190e+01    0.2484492   0.09909684  38.67 0.0009059021    2.149    0.535
       123  -9.3478    183.3705    245.6020   1.1984945714e+02  -3.0928316648e+00    0.3538144     0.128908  51.45  0.001322995    3.357    0.702
       124  -8.9357    227.0105    244.4955   1.1157226324e+02  -1.0149989783e+01    0.1880632    0.1020186  37.40 0.0006247029    1.576    0.366
       125 -11.9067    234.3382     86.8313   7.7385371586e+01   1.4907532927e+01     2.264073    0.9380401 -58.93  0.006795605    4.303    0.768
       126  -8.9301    207.2263    238.1303   1.1417515305e+02  -6.0518062440e+00    0.2332265    0.1556292  59.18  0.001230771    2.082    0.520
       127  -8.7061    243.9438    236.9493   1.0725828294e+02  -1.1780553140e+01    0.1658427    0.1522372  71.42  0.001120692    1.792    0.442
       128 -11.1621    236.9535     61.8994   7.1242229260e+01   1.8365864137e+01     1.252396    0.5750796 -53.77   0.00518112    2.270    0.560
       129 -11.3061    229.5365     52.2493   6.9969435531e+01   2.1545369616e+01     1.122822    0.8831818  68.90  0.006355308    1.254    0.202
       130 -11.0880    244.5644     51.5475   6.7981215908e+01   1.8197164577e+01    0.7038875    0.4642935 -82.60  0.002953161    1.597    0.374
       131 -11.6196    246.0267     43.5971   6.6076953631e+01   1.9012808083e+01     1.004459    0.6225045  87.07  0.005225823    1.670    0.401
       132 -12.0957    244.6698     81.0044   7.4566632534e+01   1.3575717814e+01     1.539239    0.9217935 -59.92  0.007219986    1.781    0.439
       133 -11.2291    235.6414     73.4206   7.4074094093e+01   1.6841406901e+01     1.140356    0.4446571 -42.73  0.004477803    2.314    0.568
       134  -9.9071    218.9063    115.6422   8.6752503952e+01   1.3249145038e+01    0.4479733    0.2706392  54.40   0.00198082    1.740    0.425
       135 -10.2625    213.1304    115.6145   8.7793464269e+01   1.4568804911e+01    0.4462647    0.3566194  -8.85  0.002130836    1.570    0.363
       136  -8.7139    203.7085    116.0413   8.9669865029e+01   1.6663265511e+01    0.2216868    0.1870726 -40.55 0.0006162155    1.161    0.139
       137  -8.6516    182.3905    116.1473   9.4005705589e+01   2.1654784962e+01    0.2244905    0.1433524 -51.99  0.000937358    1.645    0.392
       138  -8.8676     51.9712    113.7874   1.2749847071e+02   4.6942054640e+01    0.2381149    0.1668416 -61.15 0.0007125604    1.236    0.191
       139  -9.2767     15.2102    112.1856   1.3759173960e+02   5.0698581893e+01    0.2062519    0.1544079 -61.71 0.0005944531    1.061    0.058
       140  -9.7233    104.6668    112.0203   1.1207286341e+02   3.9490915910e+01    0.2590347    0.2167767  25.39 0.0004812628    1.332    0.249
       141 -10.2555    215.2680    107.9041   8.5542965093e+01   1.5524628043e+01    0.5344321    0.3545372  79.98   0.00227556    2.081    0.519
       142  -8.4462    190.2200    109.4324   9.0686709306e+01   2.1132903391e+01    0.2150937    0.1504387  65.97 0.0005580852    1.598    0.374
       143  -8.5129    183.3888    108.7946   9.1927999294e+01   2.2890294258e+01    0.2302654     0.149686 -29.60 0.0009583379    1.756    0.431
       144  -7.9165    197.6851    108.3423   8.8929985015e+01   1.9567621149e+01    0.1622791    0.1193565 -74.59 0.0007047812    1.708    0.415
       145 -10.7280    221.1035    100.7561   8.2801236561e+01   1.5488904612e+01    0.3528017    0.2891967 -72.38  0.001440636    1.302    0.232
       146  -8.6323    196.4555    103.4984   8.7949043161e+01   2.0789832477e+01    0.2532281    0.1507307  66.37 0.0007979699    2.008    0.502
       147  -8.5037    210.8458    101.3698   8.4736380894e+01   1.7767723405e+01    0.2217802    0.1361118  44.71 0.0009527942    1.776    0.437
       148  -9.1539    195.9015     97.4295   8.6511680268e+01   2.2070404272e+01    0.3118252    0.1968856 -61.12  0.001287466    1.915    0.478
       149  -9.0293    130.3401     98.1493   1.0148560707e+02   3.7353227196e+01    0.2404964    0.2086777  26.48 0.0005771121    1.235    0.191
       150  -8.4013    207.5355     95.0214   8.3752950625e+01   1.9718041356e+01    0.2243998    0.1438356 -41.80 0.0005551139    1.510    0.338
       151  -9.3857    201.2895     92.5233   8.4252521430e+01   2.1674997313e+01    0.3229889    0.2176065  16.31  0.001264072    2.591    0.614
       152 -12.4528    247.8384    106.0482   7.9771778240e+01   8.6491466486e+00     1.906559     1.313897 -44.62  0.009825894    1.308    0.236
       153  -8.3813    176.1905     87.7541   8.7885722202e+01   2.8684486450e+01    0.2583958    0.1609814 -75.54 0.0008907786    2.672    0.626
       154  -8.4738    117.2092     85.3784   1.0136998714e+02   4.2701418073e+01    0.2026892    0.1398159  54.98 0.0006753284    1.607    0.378
       155  -8.5593    206.0052     83.9908   8.1249325683e+01   2.2060029534e+01    0.2476478    0.1733046 -71.31 0.0009358758    1.703    0.413
       156  -8.6620    220.2108     82.6977   7.8573772706e+01   1.8882409154e+01    0.2835636    0.1803338  80.50  0.001230194    1.959    0.490
       157  -9.8255    216.4919     75.4838   7.7396670004e+01   2.0987444476e+01    0.3472002    0.2393142 -41.40  0.001561708    1.409    0.290
       158 -10.0315    215.0000     79.9766   7.8741484880e+01   2.0586540258e+01    0.4634239    0.1771397 -43.50  0.001679841    2.479    0.597
       159  -8.1898     88.3146     82.6680   1.0894429812e+02   4.8636354375e+01    0.1367415    0.1126063 -86.87 0.0007045812    1.682    0.406
       160 -10.7949    249.7427     66.4942   7.0660980001e+01   1.4785790783e+01    0.8259547    0.3128543 -38.41  0.002981101    2.403    0.584
       161  -8.9599    195.8062     78.7301   8.1697633727e+01   2.5470970794e+01    0.4600177    0.1656547 -51.51  0.001362561    3.751    0.733
       162  -8.7263    118.6776     79.3226   9.9182899749e+01   4.3571748437e+01    0.1471736    0.1188366 -83.63 0.0006954253    1.678    0.404
       163  -8.8405    175.6706     77.5634   8.5214761563e+01   3.0653990376e+01    0.2621257    0.1753587 -58.38 0.0007845204    1.710    0.415
       164  -8.3359    148.6118     78.2242   9.1282532319e+01   3.7099415998e+01    0.2047094     0.146564 -26.26  0.000759442    1.568    0.362
       165  -8.9036    126.3902     76.7503   9.6354154407e+01   4.2415061499e+01    0.2058727     0.140425 -28.41 0.0007267105    1.590    0.371
       166 -10.1882    214.6007     57.9416   7.3366502447e+01   2.4254226907e+01     1.052742    0.4410267  71.72  0.003766914    2.966    0.663
       167 -10.1147    219.6027     69.1817   7.5378316127e+01   2.1279181976e+01    0.4723701    0.3294758  85.07  0.002301997    1.586    0.369
       168  -9.9705    227.3432     67.5904   7.3870097328e+01   1.9701674398e+01    0.5852025    0.2723889 -38.56  0.002104312    2.050    0.512
       169  -9.9505    223.1797     66.2382   7.4141787115e+01   2.0899695303e+01    0.3514591    0.2932608  85.74  0.001307932    1.163    0.140
       170  -8.4089      6.6791     70.6527   1.3279724227e+02   6.0058636655e+01    0.1243991   0.06124482 -39.90  0.000510658    1.736    0.424
       171  -9.0451    210.7640     66.3895   7.6037537103e+01   2.3861592625e+01    0.3523069    0.1637482 -49.90  0.001382831    2.241    0.554
       172  -9.8976    221.2888     61.3999   7.3248155357e+01   2.2111035376e+01    0.4919945     0.247985 -52.34    0.0016888    2.037    0.509
       173  -8.3215    136.3904     63.1739   8.9696075744e+01   4.2562055462e+01    0.2099425    0.1336279 -47.07 0.0009461665    1.719    0.418
       174  -9.2397    206.9636     59.8068   7.4972484398e+01   2.5830090851e+01    0.4275568    0.1653539 -47.23  0.001556725    2.659    0.624
       175  -8.6813     43.5611     62.5303   1.1781543388e+02   5.8697820234e+01    0.1240546    0.1020628 -32.23 6.875562e-05    1.011    0.011
       176  -9.3182    171.5462     59.6399   8.1033212484e+01   3.4664301906e+01    0.3681252    0.2275418  46.94  0.001498992    1.622    0.384
       177  -9.0152    126.8161     58.8398   9.0713594696e+01   4.5428347978e+01     0.217444    0.1883752  23.22 0.0005434179    1.163    0.140
       178 -10.3192    199.4007     53.4289   7.4516465749e+01   2.8667750910e+01    0.4847574     0.390896 -80.80  0.002596399    1.247    0.198
       179  -9.3047    221.5336     53.3354   7.1277697402e+01   2.3280030573e+01    0.3415245    0.1798386  51.64  0.001063044    2.039    0.510
       180  -8.4796    207.6084     53.7960   7.3362367367e+01   2.6587521629e+01    0.1966845    0.1233932 -48.76 0.0005149759    1.572    0.364
       181  -8.9751    163.5066     53.3867   8.0809387580e+01   3.7615428977e+01    0.2927597    0.1455062 -33.81  0.001200953    2.130    0.531
       182 -10.1152    215.9914     42.1175   6.9321041847e+01   2.6228656037e+01    0.4762325    0.3749133   9.55  0.002264864    1.929    0.482
       183  -9.8203    189.8581     42.7474   7.3211877376e+01   3.2577701095e+01    0.4673293    0.2744439 -15.98  0.001987058    2.529    0.605
       184  -8.4960    223.0683     43.6789   6.8785488519e+01   2.4311820780e+01    0.2433839    0.1660952 -52.27  0.001279804    1.388    0.280
       185  -8.3616     76.5579     44.4281   1.0041519148e+02   5.7407721188e+01    0.1286532    0.1115025  -2.10 0.0003407502    1.007    0.007
       186  -9.7079    174.3634     40.6829   7.5182959485e+01   3.6725923968e+01    0.4245044    0.2556754 -88.29   0.00143015    2.306    0.566
       187  -8.9386    219.5046    235.6680   1.1147486271e+02  -7.7445569333e+00    0.2295478    0.1014534  39.90   0.00108627    1.975    0.494
       188  -9.8284    165.5134     40.1288   7.6586960666e+01   3.8997687488e+01    0.2594231    0.1932679 -83.51 0.0009018109    1.570    0.363
       189 -10.2702    185.4560     37.4396   7.2482689958e+01   3.4391167861e+01    0.4430725    0.2041264 -44.59  0.001814036    2.260    0.558
       190  -8.6042     61.4837     37.9914   1.0324445910e+02   6.0679271815e+01    0.1860564    0.1094626 -34.61 0.0009648525    1.573    0.364
       191  -9.6352    221.7473     31.2574   6.6041366338e+01   2.6306420895e+01    0.4428571     0.256826 -50.87  0.002233439    1.654    0.395
       192 -10.0111    214.1911     31.2014   6.6929972981e+01   2.8125224105e+01    0.5219695    0.3182659  63.06  0.002673808    1.531    0.347
       193  -8.8719    209.2063     31.5742   6.7640971561e+01   2.9286003637e+01    0.1988392    0.1527633  72.58 0.0005521217    1.185    0.156
       194  -8.0048    169.2953     33.6525   7.4065937098e+01   3.8900332661e+01    0.1445804    0.1021064 -69.45  0.000386367    1.674    0.403
       195  -8.4714    170.5980     29.8447   7.2770481192e+01   3.9047893068e+01    0.1892855    0.1228646 -45.63 0.0009405962    1.658    0.397
       196  -8.2675    153.5124     30.5045   7.5961453035e+01   4.3160916281e+01    0.1386805    0.1258165  64.19 0.0008103806    1.029    0.028
       197  -9.3229    201.5809     27.4840   6.7612165561e+01   3.1665157130e+01    0.2844748    0.1415523 -23.82  0.001186165    2.629    0.620
       198  -8.3504    197.3483     28.7083   6.8479688489e+01   3.2554862764e+01    0.1447751   0.09509403 -74.38 0.0007028502    1.667    0.400
       199  -9.5352    119.0026     25.8006   8.1714318405e+01   5.1714216086e+01    0.2858187    0.2034614 -57.20 0.0009983815    1.938    0.484
       200  -8.7943    110.0139     26.5250   8.4167787379e+01   5.3557136377e+01    0.2062854    0.1206604  53.38  0.001035575    1.615    0.381
       201  -9.0055    145.7966     25.5607   7.5915443731e+01   4.5594714137e+01    0.1883804    0.1244014  73.93 0.0006388756    1.624    0.384
       202  -8.5162    152.3347    234.3262   1.2416177977e+02   4.1740894032e+00    0.1279634   0.09974077  12.54 0.0007051512    1.717    0.418
       203  -8.7883    209.1668     39.8100   6.9662961520e+01   2.8205221218e+01    0.2105786    0.1684538 -75.07 0.0005361515    1.190    0.159
       204  -8.8764    175.8784     20.2519   6.9284373672e+01   3.8854992083e+01    0.3449282    0.1183802 -45.36  0.001268262    3.310    0.698
       205  -8.5588    199.4917     20.5073   6.6143253121e+01   3.3011420476e+01    0.1354212     0.116382  86.26 9.584849e-05    1.000    0.000
       206  -9.4354    165.8011     20.1229   7.0793829826e+01   4.1349010943e+01    0.2130846     0.173043 -78.82  0.001221412    1.308    0.235
       207  -8.2153    151.3466     19.6752   7.3090550216e+01   4.4911605709e+01    0.2521124    0.0937845 -42.00 0.0009710372    3.086    0.676
       208  -9.0861    148.3837     16.9826   7.2800064171e+01   4.5902939191e+01     0.369725    0.1559003  54.40  0.001611279    1.975    0.494
       209  -9.1970     74.1852     17.6959   9.1089490947e+01   6.1380547350e+01    0.1780129    0.1494509  46.48  0.001177034    1.417    0.294
       210  -8.7714     68.1410     18.1580   9.3259372521e+01   6.2324833682e+01    0.1502869    0.1374339 -12.91 0.0005555429    1.310    0.237
       211  -9.2594     57.4251     18.1793   9.7002255390e+01   6.3963789984e+01    0.1856116    0.1312933  35.02   0.00119635    1.427    0.299
       212  -8.6556    187.1117     16.8469   6.6806286742e+01   3.6461729361e+01    0.1978027    0.1599091 -81.68 0.0004213104    1.188    0.158
       213  -8.8731    239.6819    232.4330   1.0723490048e+02  -1.0533162353e+01    0.2255261    0.1064922  41.92  0.000941047    2.025    0.506
       214  -9.1349    199.5742     15.3970   6.4870973309e+01   3.3570631487e+01    0.2268423    0.1942908  89.09 0.0006041978    1.018    0.017
       215  -9.0740    211.1400    228.8682   1.1188464627e+02  -5.3536439287e+00    0.1888892    0.1649056  43.35 0.0005746786    1.237    0.192
       216  -8.7149    162.4446     15.5080   7.0007829136e+01   4.2657988709e+01    0.2403769     0.121112  78.96  0.001015672    2.304    0.566
       217  -8.1066    173.4825     14.4731   6.8055473223e+01   4.0064678285e+01    0.1346602    0.1163058  72.14 0.0001235174    1.007    0.007
       218  -8.1775    105.3290     14.6850   8.1104213983e+01   5.5813128793e+01    0.1186864    0.1001489 -75.17 0.0004467618    1.676    0.403
       219  -9.5798    164.5280    228.8466   1.2094155800e+02   2.9351265491e+00    0.2817747    0.1718334  48.25  0.001456207    1.457    0.314
       220  -9.1828     99.4787    226.0952   1.3345464388e+02   1.4768032988e+01    0.2438968    0.1467112  59.45 0.0006499534    1.504    0.335
       221  -9.1443    240.7567    222.7467   1.0532069192e+02  -9.3768008854e+00    0.2604944    0.1739049  61.52  0.001285548    2.774    0.640
       222  -9.6648    193.7496    220.2679   1.1375845906e+02  -9.3218137722e-01    0.3896062    0.2706382  74.10   0.00184232    2.494    0.599
       223  -8.7009     58.4812     12.4641   9.4249068322e+01   6.4475538255e+01    0.1176564   0.09412179   7.01 0.0003106664    1.025    0.025
       224  -8.9974     48.5419    219.6565   1.4248764312e+02   2.3432914887e+01     0.190759    0.1533523 -70.24 0.0006696368    1.400    0.286
       225  -9.0849    160.1407    218.6451   1.2021547807e+02   5.5489433101e+00      0.20288    0.1153754  34.60 0.0009412245    1.775    0.437
       226  -9.3471    118.3674     10.8121   7.6702238664e+01   5.3403619603e+01    0.2484203   0.09292985  61.43  0.001007453    2.579    0.612
       227  -9.3886     63.8398    216.8234   1.3934281689e+02   2.1992520028e+01    0.1831364    0.1202509  72.98 0.0008915178    1.343    0.255
       228  -8.5953    247.1559    216.2757   1.0299096435e+02  -9.4837789246e+00    0.2539139   0.09537636  35.15  0.001080601    2.612    0.617
       229  -9.5743    219.1256    215.8450   1.0806870947e+02  -4.7503666044e+00    0.2330443    0.2282033   9.47 0.0008953213    1.236    0.191
       230 -10.2346    214.9583    215.8662   1.0886551743e+02  -4.0236680399e+00    0.2988684    0.2701347  19.91  0.001390142    1.067    0.062
       231  -9.0448    132.3444    213.9962   1.2520074784e+02   1.1540422995e+01    0.1869874     0.169172  85.07 0.0005950803    1.114    0.103
       232  -8.6045    229.1463    210.6296   1.0522273039e+02  -5.6799063100e+00    0.1935336     0.108906  30.35 0.0009475745    1.747    0.428
       233  -9.6349    186.8173    213.9198   1.1402910795e+02   1.4143466243e+00    0.3348087    0.2225847 -63.62    0.0016198    2.189    0.543
       234  -8.3375     86.4754    208.9904   1.3398172415e+02   2.0323807185e+01     0.187232    0.1006945  87.12   0.00068146    2.508    0.601
       235  -9.0697    187.9693    204.4497   1.1210011842e+02   2.8637577425e+00    0.2615056    0.1736881 -86.02  0.001019606    3.375    0.704
       236  -8.6849    173.4794    203.9655   1.1498492247e+02   5.7376698154e+00    0.2047588    0.1411048 -47.68  0.001032819    1.597    0.374
       237  -9.1529     64.9572    203.5187   1.3771440942e+02   2.4650257786e+01    0.1960939    0.1496051 -84.32 0.0006770911    1.150    0.130
       238  -8.3834    160.3435    203.1016   1.1757646366e+02   8.4375672113e+00    0.1886091    0.1315863 -63.44 0.0009266459    1.720    0.419
       239  -9.5082     16.2071    201.9502   1.4697743067e+02   3.0771080048e+01    0.1852919    0.1408174  67.74  0.000718757    1.192    0.161
       240  -8.2758    223.0002    202.0000   1.0474492212e+02  -3.2399378630e+00    0.2210117   0.07180034  42.66 0.0008015182    2.936    0.659
       241  -8.5491    203.4958    198.4768   1.0785926180e+02   9.5966047675e-01    0.1389631    0.1273898  22.63 0.0001135269    1.011    0.011
       242  -8.1598    192.4771    198.4978   1.1007718916e+02   3.0682092953e+00    0.1403069    0.1297889  31.46 7.218918e-05    1.021    0.021
