#   1 NUMBER                 Running object number                                     
#   2 MAG_AUTO               Kron-like elliptical aperture magnitude                    [mag]
#   3 X_IMAGE                Object position along x                                    [pixel]
#   4 Y_IMAGE                Object position along y                                    [pixel]
#   5 X_WORLD                Barycenter position along world x axis                     [deg]
#   6 Y_WORLD                Barycenter position along world y axis                     [deg]
#   7 A_WORLD                Profile RMS along major axis (world units)                 [deg]
#   8 B_WORLD                Profile RMS along minor axis (world units)                 [deg]
#   9 THETA_WORLD            Position angle (CCW/world-x)                               [deg]
#  10 FWHM_WORLD             FWHM assuming a gaussian core                              [deg]
#  11 ELONGATION             A_IMAGE/B_IMAGE                                           
#  12 ELLIPTICITY            1 - B_IMAGE/A_IMAGE                                       
         1 -14.7900     68.3608    144.2299   1.0412703099e+02   3.7428801611e+01     4.860053     2.631871  75.69  0.009886569    4.074    0.755
         2 -14.3908    214.3056     26.7523   4.0492957552e+01   2.8779377569e+01     1.096515    0.8910552  20.27  0.006996981    1.803    0.445
         3 -14.4900    202.2975     38.8774   4.4461463765e+01   2.9930421997e+01     1.769547      1.36178  27.10  0.007586845    1.830    0.453
         4 -12.5372    241.5267      3.5879   3.3823356593e+01   2.5794675389e+01    0.4981638    0.3330737  64.16  0.003256086    1.739    0.425
         5 -12.2108    236.3949      3.1816   3.4017291253e+01   2.6803651305e+01    0.3558878    0.2365934 -79.66  0.001728805    1.309    0.236
         6 -10.7585     56.3853      5.9303   6.2455896086e+01   6.7633760467e+01    0.4329121    0.2297939  66.46  0.001855926    3.008    0.668
         7  -9.8148     59.4732    220.3773   1.1649350264e+02   2.0407002674e+01     0.290342    0.2066511   9.78  0.001140949    1.682    0.405
         8 -11.6901    139.8129    248.5622   1.0135813528e+02   4.6180530005e+00    0.3921244    0.2478766 -56.73  0.002216425    2.179    0.541
         9 -13.3114      8.6611    188.4263   1.2637299519e+02   3.2602476961e+01    0.5880489    0.3293965 -52.31  0.001595398    1.997    0.499
        10 -14.7815     85.0635    222.1368   1.1057725691e+02   1.6848257931e+01     5.505886    0.8892345  37.02   0.00387527    4.089    0.755
        11 -14.0779     24.0569    225.9866   1.2501596104e+02   2.2995220446e+01     1.516317    0.6197498  62.17  0.003430626    2.532    0.605
        12 -15.0344      9.7151    207.7398   1.2721221220e+02   2.8159201966e+01     2.068498     1.347137 -43.29  0.004691243    2.019    0.505
        13 -11.3666    109.4088    201.5322   1.0189145699e+02   1.7742300449e+01    0.4192657    0.2867192 -35.84  0.001104986    1.656    0.396
        14 -12.3069    201.7770    199.7267   8.0542922066e+01   3.9460819041e+00    0.4894206    0.2915392   5.06  0.002434689    1.895    0.472
        15 -11.5009    193.2720    195.2944   8.1425843419e+01   5.9238121510e+00    0.9144999    0.5013857 -60.37  0.002996357    5.618    0.822
        16 -11.0799     61.5791    199.0904   1.1383365635e+02   2.4837888943e+01    0.3102987    0.2377792 -67.90 0.0007043946    1.367    0.268
        17  -9.5884     66.2411    194.2966   1.1207435451e+02   2.5365147378e+01    0.3013704    0.2160392  11.97  0.001010392    1.596    0.373
        18  -8.5716    161.2628    199.6765   8.9110595603e+01   1.0062169611e+01    0.1226905    0.1122246  68.27 0.0002182388    1.558    0.358
        19 -14.2849     50.9022    191.0094   1.1574628105e+02   2.7970935640e+01     2.263724     1.326932  82.20    0.0106429    2.066    0.516
        20  -8.8063    134.2776    196.3058   9.4874440032e+01   1.4987873520e+01     0.142508    0.1042828  -8.78  0.000233185    1.550    0.355
        21 -15.8680      7.3276    164.0214   1.2510729381e+02   3.8544198137e+01     6.787152     1.807547 -75.90   0.02487526    3.248    0.692
        22  -9.0792     72.1767    188.1404   1.0972936698e+02   2.6039158045e+01    0.1866866    0.1499427  63.29 0.0004069365    1.298    0.230
        23 -16.0970      7.4933    243.1965   1.2930251749e+02   2.1079446510e+01     1.826155     1.593846  48.64    0.0143514    1.187    0.157
        24  -9.1578     80.5011    184.0017   1.0690629613e+02   2.5888029715e+01    0.1914886    0.1205497  78.88 0.0008065401    2.318    0.569
        25  -9.2385     69.7581    183.8017   1.0981722105e+02   2.7383883429e+01    0.1907614    0.1513878  62.18 0.0003931748    1.312    0.238
        26  -9.9751     99.3880    180.6746   1.0124960487e+02   2.3898862376e+01    0.2635956    0.2339534   4.13 0.0006381513    1.156    0.135
        27 -10.4403    150.0131    177.7014   8.7652091713e+01   1.6195667682e+01    0.3619481    0.2437247 -67.00  0.001571027    2.357    0.576
        28 -10.7934    144.0533    178.3974   8.9235349446e+01   1.7070335866e+01    0.3249973    0.2164147 -42.03  0.001553926    1.536    0.349
        29 -12.1930     66.5399    175.2957   1.0956696116e+02   2.9857508611e+01    0.5146413    0.2959999 -37.43  0.001507638    2.168    0.539
        30 -12.1250     71.0070    170.4502   1.0759950774e+02   3.0459240591e+01     0.356723    0.2755436 -37.02  0.001177501    1.427    0.299
        31 -10.1225    187.8186    172.9588   7.8212302303e+01   1.0700618535e+01    0.3855459     0.199463 -57.24  0.001365316    3.804    0.737
        32  -9.4920    204.2931    175.6561   7.5454601245e+01   7.5764410584e+00    0.1218073    0.1089698 -62.95 0.0002605633    1.660    0.398
        33 -14.0586     55.4278    146.6568   1.0867321120e+02   3.8478422921e+01      9.13534     1.302812  41.77   0.01933835    7.972    0.875
        34 -15.9458     38.4781    249.1538   1.2331288424e+02   1.6986547935e+01     11.74201     3.198273  19.89   0.02293746   16.250    0.938
        35 -12.3100     87.2901    154.3211   1.0010848382e+02   3.2104047327e+01    0.6882724    0.4790411 -19.40  0.002102352    1.843    0.457
        36  -9.8708    234.7807    155.0112   6.5916960331e+01   6.2893670619e+00    0.1741163   0.08879758 -35.41 0.0004556618    1.652    0.395
        37  -9.8460    187.4484    151.4988   7.3777905046e+01   1.4714918086e+01    0.1442739    0.1283434 -14.02  0.000177113    1.017    0.016
        38 -11.0991    133.6157    144.2996   8.4777070781e+01   2.6348142484e+01     1.126032    0.2999349 -52.92  0.002694832    5.563    0.820
        39 -10.3978    174.6562    148.9288   7.5915816228e+01   1.7546424303e+01    0.2720969     0.250904  11.34 0.0007668095    1.080    0.074
        40  -9.2289    111.1021    149.3086   9.2103353102e+01   2.9355320105e+01    0.3354469    0.1720488  55.18  0.001125794    2.992    0.666
        41 -11.8640     30.0615    144.1598   1.1642958320e+02   4.1794390442e+01    0.5193968    0.3481099  18.09  0.002668495    1.646    0.392
        42 -10.9075    101.6228    139.7255   9.2826480952e+01   3.3324441214e+01    0.6145859    0.3778138 -17.80  0.002280563    2.536    0.606
        43 -10.9694     81.4959    141.3500   9.9398585024e+01   3.6244046420e+01    0.3290994    0.2600551  62.48  0.001030273    1.482    0.325
        44 -12.3291     88.6614    139.6651   9.6798763405e+01   3.5531158512e+01    0.3038555    0.2637264 -32.26 0.0004929673    1.168    0.144
        45 -12.0873     25.8939    137.7661   1.1697905446e+02   4.3810147171e+01    0.4585895    0.3150577  46.52  0.001361813    1.540    0.351
        46 -11.1900    124.6993    244.3758   1.0411611418e+02   7.3371791086e+00    0.3131821     0.157846 -57.42  0.001552989    2.597    0.615
        47 -12.6752     80.2008    161.3023   1.0346179254e+02   3.1437288550e+01    0.8620063    0.4550265  45.25 0.0004016749    1.979    0.495
        48 -10.4102    105.9147    130.7736   8.9493914260e+01   3.4707607672e+01     0.363599    0.3426061 -73.27  0.001408549    1.184    0.155
        49 -10.1652    110.9637    130.0862   8.7818063729e+01   3.3930132106e+01    0.3575383    0.2723035   4.63  0.001555976    1.556    0.357
        50 -14.2065     41.1599    200.6389   1.1917698690e+02   2.6802273399e+01     2.139771     1.038873  73.17  0.004907225    2.658    0.624
        51 -11.9117     44.6390    129.5932   1.0946312679e+02   4.4151984419e+01    0.3560005    0.2950563 -56.97  0.001566303    1.128    0.113
        52 -10.8674    135.6503    127.1326   8.0158461169e+01   2.9740477966e+01    0.6476032    0.1475266 -48.02  0.001594454    4.882    0.795
        53 -10.8217     98.1636    126.2675   9.0816253131e+01   3.7198405391e+01     0.333278    0.2636406 -12.56  0.001309753    1.443    0.307
        54  -9.9485    116.9366    124.2637   8.4638859951e+01   3.4134066329e+01    0.2607358    0.1799923   6.55  0.001059983    1.965    0.491
        55  -9.5084     87.6645    121.0424   9.2951281312e+01   4.0309353686e+01    0.4825793    0.2922673  68.00  0.001649354    3.199    0.687
        56 -13.6640     67.8544    156.7860   1.0642291512e+02   3.4298475114e+01     0.602725    0.4728223 -33.75  0.001312332    1.393    0.282
        57  -9.9120    160.8564    127.5401   7.4028309309e+01   2.4492937138e+01    0.3151736    0.2007845 -56.11  0.001333316    1.942    0.485
        58  -9.9106    107.4562    119.0467   8.6150397659e+01   3.7185096946e+01    0.2235193     0.202414  26.16 0.0003654267    1.087    0.080
        59 -10.9035     31.9860    118.8324   1.1216241182e+02   4.8213695340e+01    0.2274871      0.17796 -37.00 0.0009322354    1.272    0.214
        60  -9.4525     34.6602    171.9319   1.1818187170e+02   3.4312063410e+01    0.1920578      0.15672 -82.78 0.0005771563    1.165    0.142
        61  -9.1199    168.1554    112.7768   6.8734846240e+01   2.5868245975e+01    0.2530518    0.1706322 -81.44 0.0009556206    2.916    0.657
        62  -9.6793    134.8307    112.2062   7.6537632015e+01   3.3122500542e+01     0.352493    0.1113361 -48.25  0.001007879    3.568    0.720
        63 -10.1061    205.4316    110.1150   6.1032934160e+01   1.8729624958e+01    0.2757494    0.2075752  42.25 0.0008287226    1.464    0.317
        64 -11.8441     33.7548    108.4200   1.0968170412e+02   5.0746921756e+01    0.4005175    0.3256859 -64.31  0.002204545    1.160    0.138
        65 -12.4811    248.0293    103.3039   5.3455318549e+01   1.2143053162e+01    0.5490271    0.2510833 -33.71   0.00271442    1.861    0.463
        66  -9.5948    134.5994    105.7276   7.4849641027e+01   3.4527780560e+01    0.2973158    0.1493574 -38.49  0.001068746    2.030    0.507
        67 -10.8466     36.1122    101.1131   1.0732125054e+02   5.2389199600e+01    0.2984139    0.2374286  39.96  0.001605858    1.402    0.287
        68  -9.9170     41.5251     98.5068   1.0458492136e+02   5.2488181810e+01    0.2663145    0.1132549  36.88  0.001029155    2.514    0.602
        69  -9.8857    112.9861    206.2450   1.0169875113e+02   1.6219096535e+01    0.2019958    0.1692942  27.24 0.0005396411    1.063    0.059
        70  -9.3650    139.3487    106.0489   7.3707720391e+01   3.3428164692e+01    0.2183966    0.1944691 -40.81 0.0007456518    1.132    0.116
        71 -10.7216    137.2439    168.3982   8.8975740952e+01   2.0372450144e+01    0.3558339    0.2982098  54.24  0.001533478    1.405    0.288
        72  -9.6867    125.9764     93.0059   7.3562594674e+01   3.9018920576e+01    0.2488014    0.1972114 -85.70  0.001123358    1.778    0.437
        73 -10.2166     52.8755     90.8767   9.8107458351e+01   5.3010668595e+01    0.2375828    0.1878752 -27.99 0.0006326119    1.227    0.185
        74 -10.2474    234.2483     85.9968   5.1491518651e+01   1.7073377199e+01    0.1747367   0.09287448 -36.59 0.0008169162    1.600    0.375
        75  -9.8476    230.3076    166.6421   6.8967114187e+01   5.1175826910e+00    0.1195533   0.09828552 -54.90 0.0007041341    1.729    0.422
        76  -9.2244     74.9651     84.9795   8.7688816951e+01   5.1017943304e+01    0.2270486     0.186901  68.58 0.0006018928    1.642    0.391
        77  -9.8906    112.7090     82.2188   7.4072910620e+01   4.4096685719e+01    0.3462298    0.2533855  77.60  0.001180914    2.080    0.519
        78  -9.6771    159.1997     82.1600   6.2485663798e+01   3.3454730584e+01    0.2028004    0.1730571 -70.16 0.0004226658    1.315    0.240
        79  -8.8855     69.4164     81.4528   8.8740820369e+01   5.2743646439e+01     0.145643    0.1414627  -9.76 0.0001663694    1.111    0.100
        80 -10.7058    243.3144     77.9913   4.8753161248e+01   1.6584329684e+01    0.1775441    0.1360058 -43.26 0.0004693766    1.077    0.071
        81  -8.8210    184.6657     76.7084   5.6311597604e+01   2.8562740305e+01    0.1387611    0.1086783  20.25 0.0003504538    1.636    0.389
        82  -8.8799     52.1576     64.3594   9.0404175578e+01   5.9143470566e+01    0.1875504    0.1262545  38.22 0.0001279714    1.600    0.375
        83 -10.7327     13.4524     59.8569   1.0800936321e+02   6.4237859422e+01    0.2625747    0.2118993 -54.21 0.0004393724    1.183    0.154
        84  -9.2557     37.7565    215.6113   1.2121810707e+02   2.3830379864e+01    0.1634602   0.09442367  43.50 0.0004180252    1.487    0.328
        85 -13.0023    192.9771     45.4954   4.7156047811e+01   3.1163620876e+01    0.8786799    0.4994023  50.20  0.001070204    1.951    0.487
        86 -11.3712     59.4950    230.4883   1.1738680136e+02   1.8315496588e+01    0.3055443    0.2418326 -67.92   0.00052536    1.418    0.295
        87 -11.1645    139.6256     45.2120   5.5463674956e+01   4.3877491165e+01     0.353764    0.2644534 -75.22 0.0007417845    1.620    0.383
        88 -10.6296      3.2058     25.2340   1.0293662206e+02   7.2206115989e+01    0.4278825    0.1385728  23.63  0.001887097    3.026    0.670
        89  -9.2696    189.5082     14.9785   3.9946091113e+01   3.5433883406e+01    0.1735955    0.1163293 -33.97 0.0005489739    1.533    0.348
        90 -10.2048    143.2232     40.2849   5.3218611336e+01   4.3640769478e+01    0.2454798    0.2164521 -85.26 0.0003009558    1.167    0.143
        91 -10.7334     49.0881    224.3923   1.1926723148e+02   2.0750359520e+01    0.3174758    0.1916973 -57.21 0.0003753109    1.866    0.464
        92 -14.0598     57.5692    240.4983   1.1864004378e+02   1.6556998840e+01     0.921594    0.3867404  46.93   0.00379306    2.056    0.514
