#   1 NUMBER                 Running object number                                     
#   2 MAG_AUTO               Kron-like elliptical aperture magnitude                    [mag]
#   3 X_IMAGE                Object position along x                                    [pixel]
#   4 Y_IMAGE                Object position along y                                    [pixel]
#   5 X_WORLD                Barycenter position along world x axis                     [deg]
#   6 Y_WORLD                Barycenter position along world y axis                     [deg]
#   7 A_WORLD                Profile RMS along major axis (world units)                 [deg]
#   8 B_WORLD                Profile RMS along minor axis (world units)                 [deg]
#   9 THETA_WORLD            Position angle (CCW/world-x)                               [deg]
#  10 FWHM_WORLD             FWHM assuming a gaussian core                              [deg]
#  11 ELONGATION             A_IMAGE/B_IMAGE                                           
#  12 ELLIPTICITY            1 - B_IMAGE/A_IMAGE                                       
         1 -13.6584    203.4012     30.0095   1.9238947358e+01   3.0383741227e+01    0.9249502    0.8527175 -81.12  0.004065434    1.034    0.033
         2 -11.4245     68.3908      6.8693   3.9796790864e+01   6.4517619225e+01    0.2047319    0.1578513  45.47 0.0008787233    1.407    0.289
         3 -10.7469     84.8081    241.8665   8.8372645205e+01   1.4489366935e+01     0.149443    0.1248489  68.11 0.0003453804    1.161    0.138
         4 -14.0001    247.2198    241.3663   5.9207468561e+01  -1.1230137730e+01     1.408887    0.5640649 -27.55   0.00721657    2.803    0.643
         5 -15.8630    117.9479    232.3931   8.1371604321e+01   1.1050042855e+01     4.348386     3.795207 -82.70   0.03030073    1.274    0.215
         6 -12.3297    234.0275    168.5120   4.8167323603e+01   6.9417763180e-01    0.4017781    0.2248589 -45.27  0.001481383    2.018    0.504
         7 -11.9200      2.2010    155.0522   9.7099800099e+01   4.1760959710e+01    0.1722672       0.1497 -89.57 0.0004808075    1.233    0.189
         8 -11.9777    133.8531    146.2189   6.4347286949e+01   2.5540838998e+01     1.224319    0.3066095 -55.45  0.002879673    6.050    0.835
         9 -10.1601    129.6973    140.9939   6.4244497012e+01   2.7544650081e+01    0.2345897    0.2171559  12.05 0.0007567249    1.267    0.211
        10 -10.1417    117.8865    150.4623   6.9054404075e+01   2.7705590926e+01    0.2198394    0.1400839  45.75  0.001011021    1.540    0.351
        11 -12.6652     71.3950    227.0395   8.9463825229e+01   1.9074037648e+01    0.2358584    0.1972504  64.08  0.001234974    1.186    0.157
        12 -12.9576    106.8401    130.7962   6.7822554969e+01   3.4280103671e+01    0.7581704    0.4926716  48.14  0.003548075    1.568    0.362
        13 -11.9237     99.7962    130.2013   6.9540159611e+01   3.5679696916e+01    0.2621198    0.2378413 -57.92 0.0002234331    1.097    0.089
        14 -11.3902     88.0463    128.7900   7.2368606506e+01   3.7990452296e+01    0.2722736    0.1947299 -53.29 0.0006735903    1.336    0.251
        15 -11.4341     92.0761    127.0406   7.0933050641e+01   3.7740536511e+01     0.224818    0.2028364 -85.27 0.0007269937    1.058    0.055
        16 -10.3329    116.7978    125.1808   6.3990151606e+01   3.3694630121e+01    0.2021648    0.1827196  -8.12 0.0006089697    1.336    0.252
        17 -11.0248    105.2203    119.4553   6.5737509435e+01   3.7206203072e+01    0.3218668     0.236052 -38.69 0.0007206256    1.485    0.327
        18  -9.7689    111.7362    115.3750   6.3024021832e+01   3.6917360648e+01    0.1955799    0.1445612  33.88 0.0003706347    1.504    0.335
        19 -12.6487     85.3345    110.2632   6.9147903806e+01   4.2769640154e+01    0.6041521    0.3591511  59.88  0.002621268    2.207    0.547
        20 -11.4165    109.0770     97.0466   5.9076568369e+01   4.1542540444e+01    0.3710235    0.2254948  70.19  0.001380214    2.827    0.646
        21 -12.0313    119.2822    104.9616   5.8380078254e+01   3.7762035055e+01    0.4714511    0.3232753  86.19  0.001913639    2.309    0.567
        22 -11.7069    115.4742    101.9527   5.8618692524e+01   3.9197626937e+01    0.3673812    0.2606276 -85.37  0.001466298    2.062    0.515
        23  -9.6415    156.8325    104.8519   4.8923012629e+01   2.9476536585e+01    0.2104302    0.1826319 -80.09 0.0002375654    1.278    0.218
        24 -10.8275     77.4727    218.5829   8.7545074320e+01   1.9821527232e+01    0.2184125    0.1890695  58.34 0.0007770782    1.243    0.196
        25 -11.9425    119.0350    110.2619   5.9809145835e+01   3.6633122891e+01    0.4575942    0.3714375 -85.23  0.001402765    1.443    0.307
        26  -9.9521    211.0121    198.6774   5.8303138496e+01   1.9858048747e-01    0.1877219    0.1500996  32.94 0.0005012866    1.119    0.107
        27 -10.9467     92.8298     88.6502   6.1492675932e+01   4.6389445604e+01    0.2779109    0.1814771  43.14 0.0005611918    1.632    0.387
        28 -10.5133     95.7838     86.7959   6.0092203908e+01   4.6265140555e+01    0.2619736    0.2083375  57.57 0.0005588479    1.432    0.302
        29  -9.8277    152.5006     86.9952   4.4987056296e+01   3.4099054644e+01    0.2175817     0.141818 -12.06 0.0008095452    2.455    0.593
        30 -10.4950    115.1317     85.5879   5.4160611537e+01   4.2780226391e+01    0.3482777    0.2221642  66.35  0.001427186    2.220    0.549
        31 -10.8320     91.2307    185.4370   8.0930237034e+01   2.4525248206e+01     0.235935    0.1684742 -72.01 0.0005820458    1.373    0.271
        32 -11.2615     17.8008    185.6888   9.6207633829e+01   3.3828277362e+01    0.1461909    0.1426316  38.36  0.001156474    1.562    0.360
        33 -11.2095    155.0108     71.0920   3.9722881325e+01   3.6474526697e+01    0.3127386    0.2463427 -87.82 0.0006542951    1.556    0.357
        34 -13.0739    166.6213     68.6015   3.6473638813e+01   3.4017664684e+01     0.545353    0.4644396  55.48 0.0008878594    1.156    0.135
        35 -10.3237    135.9410     66.2245   4.2716401704e+01   4.1944072932e+01    0.2264299    0.2037315  89.90 0.0006002316    1.246    0.197
        36 -18.8039     39.8043    140.2974   8.6865413164e+01   4.1699626350e+01     16.43587     3.965311 -70.52   0.05357606    4.160    0.760
        37 -13.7472    181.3049     55.3200   2.9737850987e+01   3.2460746398e+01     1.241669    0.9609402  24.19   0.00411364    1.626    0.385
        38 -12.0961    187.5373     49.3483   2.6946403495e+01   3.1768518973e+01    0.4597282    0.3707624  55.01 0.0008840694    1.234    0.189
        39 -10.4534      9.0513    167.0127   9.6573126785e+01   3.8611805793e+01    0.1651557     0.111809 -68.44  0.001111706    1.387    0.279
        40 -12.2597    173.2337    176.2822   6.1582016412e+01   1.1285306671e+01    0.6070901     0.466441 -54.08  0.001524791    1.452    0.311
        41 -10.5177    129.1492     54.9054   4.0739296707e+01   4.5486972596e+01    0.2283392    0.2003582 -83.56 0.0008698527    1.348    0.258
        42 -10.0847    125.0288     52.9763   4.1142205246e+01   4.6753436466e+01    0.2142475    0.2100989  45.21 0.0003546935    1.056    0.053
        43 -11.6096     78.2650     51.9923   5.4716162382e+01   5.6226149713e+01    0.3456924    0.2279049  45.93 0.0009705858    1.709    0.415
        44 -12.1151    179.4932    169.0199   5.8840026777e+01   1.1391964833e+01    0.5741735    0.5264995 -41.84  0.003186678    1.155    0.134
        45 -10.4582     53.1605     50.8237   6.3266850672e+01   6.0109169480e+01    0.1760033    0.1630828 -39.45 0.0004907002    1.183    0.155
        46 -11.8331     68.0411    246.5494   9.1657369660e+01   1.6023922281e+01    0.1865384    0.1796181   2.27  0.001448735    1.807    0.447
        47 -12.2836    140.6343    173.3897   6.8082217991e+01   1.8337970950e+01    0.3625839    0.2595442  66.87 0.0006409191    1.553    0.356
