#   1 NUMBER                 Running object number                                     
#   2 MAG_AUTO               Kron-like elliptical aperture magnitude                    [mag]
#   3 X_IMAGE                Object position along x                                    [pixel]
#   4 Y_IMAGE                Object position along y                                    [pixel]
#   5 X_WORLD                Barycenter position along world x axis                     [deg]
#   6 Y_WORLD                Barycenter position along world y axis                     [deg]
#   7 A_WORLD                Profile RMS along major axis (world units)                 [deg]
#   8 B_WORLD                Profile RMS along minor axis (world units)                 [deg]
#   9 THETA_WORLD            Position angle (CCW/world-x)                               [deg]
#  10 FWHM_WORLD             FWHM assuming a gaussian core                              [deg]
#  11 ELONGATION             A_IMAGE/B_IMAGE                                           
#  12 ELLIPTICITY            1 - B_IMAGE/A_IMAGE                                       
         1 -13.1301    199.8358     32.7063   5.8383366456e+01   3.1041174918e+01     1.127819    0.9997441 -27.59  0.006392774    1.172    0.147
         2 -13.4064    208.0382     20.3733   5.3910154570e+01   3.0423200855e+01     1.238823    0.7285032 -31.30  0.004294513    1.679    0.404
         3 -13.2854    214.6578     15.6647   5.1919904888e+01   2.9294179691e+01    0.9313426     0.692643   0.64  0.001532972    1.733    0.423
         4 -11.1450      2.0000      9.4907   1.1025602774e+02   7.2738197958e+01    0.5756957   0.07102923 -55.13  0.001755336    6.506    0.846
         5 -12.4261    104.3141    241.8791   1.2237246291e+02   1.3282180700e+01    0.4246195    0.3089367 -68.97  0.002586658    1.628    0.386
         6 -11.5776    162.0419    249.5712   1.1302454308e+02   3.5393843223e+00     0.378469    0.1880571  35.60  0.002147787    1.673    0.402
         7 -12.9949    137.5148    248.9266   1.1724135367e+02   7.3491429772e+00     1.036151    0.2163381  41.04  0.003921014    3.673    0.728
         8  -9.6718     62.9036    250.5066   1.3012210248e+02   1.7420210605e+01    0.1578301   0.07888914  45.20 0.0004681387    1.553    0.356
         9 -14.8246     15.7988    244.1284   1.3728175877e+02   2.3687784386e+01     10.77673     6.079986  88.88   0.08235454    1.513    0.339
        10 -15.0453      9.7545    207.5809   1.3661914721e+02   3.0664975879e+01     6.068802    0.7284858 -73.45   0.01754401    5.575    0.821
        11 -12.9251     33.0913    222.2257   1.3336752453e+02   2.5661248595e+01    0.4063737    0.2789075  82.87  0.001839821    1.200    0.166
        12 -10.5793    150.0385    228.2765   1.1253642869e+02   8.4129582704e+00    0.1805332    0.1345173  42.80  0.001169178    1.082    0.076
        13 -10.8068     48.8497    237.6372   1.3162569866e+02   2.1210225719e+01    0.2185048    0.1135717  52.84    0.0010413    1.448    0.309
        14 -11.2079     45.5343    234.0006   1.3195676952e+02   2.2212068211e+01    0.3870077     0.138319  59.88   0.00201206    2.526    0.604
        15 -10.8232    224.0761    197.6322   9.4047036455e+01   3.9339439639e-01    0.2909618    0.2337731 -52.06  0.001170995    1.841    0.457
        16 -10.0424    192.5797    194.2374   9.9243229284e+01   6.3458657296e+00    0.4285566    0.2270417 -62.68  0.001333609    6.425    0.844
        17 -14.0378     40.6950    213.0748   1.3143929077e+02   2.6498989701e+01    0.9533188    0.6351206  78.42  0.005246421    1.232    0.188
        18 -11.6468     60.6822    190.7518   1.2575435786e+02   2.8462867557e+01    0.3511017    0.2437877 -48.75  0.001283315    1.911    0.477
        19 -11.6920     66.5401    183.7969   1.2382457459e+02   2.9132981682e+01    0.2587027    0.2228072 -56.14 0.0008945896    1.420    0.296
        20 -10.9292     76.5743    172.4341   1.2031286211e+02   3.0164532444e+01    0.2270481    0.2031454  83.30 0.0002367874    1.074    0.069
        21 -13.2959     63.4412    169.5903   1.2290392627e+02   3.2524879819e+01    0.4607104    0.2660775 -48.08  0.001756343    2.158    0.537
        22 -12.0889     83.9857    164.1245   1.1750966434e+02   3.0891872954e+01     0.732861    0.4808424  60.03  0.003953251    1.517    0.341
        23 -13.1672     65.5379    141.6358   1.1869005928e+02   3.8463764137e+01     2.337971     1.084644  89.15  0.006376729    4.862    0.794
        24 -11.3672     33.2415    156.0947   1.2827705622e+02   3.8897376215e+01     0.285926    0.1795244  86.47  0.001545774    1.430    0.301
        25  -9.8371     97.5108    148.7561   1.1186153216e+02   3.2182811141e+01    0.2670335     0.256467 -59.18 0.0008689793    1.144    0.126
        26  -9.1616    100.4634    145.0365   1.1047487290e+02   3.2524975805e+01    0.2539866    0.1697061  -8.01  0.000779994    3.216    0.689
        27 -11.9695     85.8756    147.7252   1.1455434313e+02   3.4230275629e+01    0.2710469    0.2314266 -51.28 0.0004144177    1.263    0.209
        28 -15.3421     50.0113    206.5046   1.2923207780e+02   2.6667968718e+01     9.687577     3.218072  68.56   0.02871952    7.372    0.864
        29  -9.5091    109.1302    135.1982   1.0641429679e+02   3.3230035940e+01    0.2829358     0.214537 -14.37  0.001344443    1.932    0.482
        30 -10.5228     96.4133    131.8660   1.0902194140e+02   3.6151298902e+01    0.2601127    0.2242337 -24.18  0.000456783    1.414    0.293
        31  -9.3900    106.5164    122.2624   1.0435857488e+02   3.6585134594e+01    0.1968938    0.1385736 -52.54 0.0004636571    1.381    0.276
        32 -10.4725    167.9809    113.0069   8.6985376109e+01   2.5821082695e+01    0.3707539    0.2939295 -81.03  0.001274477    1.686    0.407
        33  -9.2652    204.4122    111.1539   7.9090396380e+01   1.7860174624e+01    0.3636764    0.1569858  37.70  0.001252085    2.884    0.653
        34 -10.6896     53.6743    231.0069   1.3036840498e+02   2.1774306947e+01    0.2936802    0.1287769 -82.25  0.001634969    2.471    0.595
        35 -12.4291    193.3442     37.4993   6.0681267400e+01   3.2090383815e+01     0.886272    0.6279619 -67.03  0.004243832    1.605    0.377
        36 -12.0493    170.4350    247.7408   1.1133509689e+02   2.4902906885e+00    0.4560091    0.1780536  38.13  0.002298552    2.031    0.508
        37 -11.8779     89.6805    245.6056   1.2525519316e+02   1.4733882382e+01    0.2865135    0.1584137  54.10   0.00106517    1.419    0.295
        38 -12.1608    194.5546    246.0793   1.0692830843e+02  -9.9910414410e-01    0.5234269    0.1569838  39.51  0.002347321    2.588    0.614
        39 -10.1751    189.7995     15.1506   5.4596955969e+01   3.5627727754e+01    0.2167295    0.1819719 -65.91 0.0006181136    1.193    0.162
