#   1 NUMBER                 Running object number                                     
#   2 MAG_AUTO               Kron-like elliptical aperture magnitude                    [mag]
#   3 X_IMAGE                Object position along x                                    [pixel]
#   4 Y_IMAGE                Object position along y                                    [pixel]
#   5 X_WORLD                Barycenter position along world x axis                     [deg]
#   6 Y_WORLD                Barycenter position along world y axis                     [deg]
#   7 A_WORLD                Profile RMS along major axis (world units)                 [deg]
#   8 B_WORLD                Profile RMS along minor axis (world units)                 [deg]
#   9 THETA_WORLD            Position angle (CCW/world-x)                               [deg]
#  10 FWHM_WORLD             FWHM assuming a gaussian core                              [deg]
#  11 ELONGATION             A_IMAGE/B_IMAGE                                           
#  12 ELLIPTICITY            1 - B_IMAGE/A_IMAGE                                       
         1 -11.3959      2.0831     22.1890   1.0108823633e+02   7.0957238663e+01      0.40059    0.1530776 -52.69  0.001886958    2.064    0.515
         2 -11.4273     75.6756     19.8983   6.6059963868e+01   6.2189038863e+01     0.465719    0.2796202 -11.03  0.002385809    1.788    0.441
         3 -11.1377     13.7365     15.7550   9.2026457616e+01   7.1272124461e+01    0.3348151    0.2661677 -52.20  0.001618552    1.669    0.401
         4 -11.4004    234.7235     15.0672   3.6315640410e+01   2.5731947617e+01    0.2170981    0.1885725 -69.52  0.000205088    1.060    0.057
         5 -10.3752     86.0691     12.1360   5.9258447833e+01   6.1024567665e+01    0.2135394    0.1801609  48.13 0.0004881795    1.238    0.192
         6 -10.9352     43.2980     14.2432   7.6283938740e+01   6.8214899017e+01    0.2667784    0.2183806 -39.89  0.001748738    1.632    0.387
         7 -11.5781     66.6546     13.5438   6.6341498892e+01   6.4586373539e+01    0.4261869    0.2548259  50.70    0.0013567    1.868    0.465
         8 -10.8741     37.5310      7.4239   7.5507282115e+01   6.9892898728e+01    0.4090435    0.3077742   4.92  0.002773781    1.072    0.067
         9 -11.4601     34.5660     12.6073   7.9601431084e+01   6.9591721441e+01     0.301475    0.2424562 -26.55 0.0009566427    1.325    0.245
        10 -11.6420     30.6063      7.4863   7.8952875496e+01   7.0776024502e+01    0.4199337     0.292219  21.49  0.002795948    1.362    0.266
        11 -10.2729    134.9468     11.6543   4.7617229505e+01   5.0012540143e+01    0.2031609    0.1746202  24.09 0.0003448753    1.205    0.170
        12  -9.8644     99.6545     11.6371   5.5271525361e+01   5.8201724523e+01    0.2235284    0.1647612  63.67  0.001105879    1.464    0.317
        13 -11.0883    125.9851     11.0172   4.9084028301e+01   5.2225067526e+01    0.1969018    0.1735495  46.57   0.00120093    1.008    0.008
        14  -9.8551     92.9770     10.0265   5.6366832421e+01   5.9794901431e+01    0.2777405    0.1400127  26.88  0.001047079    2.256    0.557
        15 -11.8687     57.1350      4.2239   6.5350740066e+01   6.7257518670e+01     0.567624    0.3048329 -21.61  0.003119978    1.801    0.445
        16 -10.5745     22.5194      9.6117   8.4283382919e+01   7.1399644951e+01    0.3073065    0.1818267  -1.24  0.001836513    1.679    0.404
        17  -9.8314     15.2953      8.7463   8.7833053215e+01   7.2235106874e+01    0.1569261   0.09844525 -16.11 0.0003986549    1.321    0.243
        18  -9.7936    218.2976      7.3162   3.5915504557e+01   3.0239305647e+01    0.1175115   0.09267056  42.24 0.0003418504    1.609    0.379
        19 -11.0365     71.0884      6.4407   6.1394833876e+01   6.4533670972e+01    0.3435601    0.2777303  17.60  0.002226876    1.017    0.017
        20 -10.4369     74.4938      4.5050   5.9352939509e+01   6.4069010326e+01    0.1995951    0.1458113   6.07 0.0007701343    1.276    0.217
        21  -9.3310     11.2985      7.6234   8.9562690672e+01   7.2755474174e+01   0.09507131   0.08820238 -47.56 0.0003829248    1.754    0.430
        22  -9.6712    151.2246      5.9757   4.3065319193e+01   4.6540980490e+01     0.168955    0.1649716  74.58 -0.000430966    1.098    0.089
        23  -9.8473      2.4979      6.6692   9.4326739996e+01   7.3571258509e+01    0.1718643   0.09072118  13.26  0.001072451    1.932    0.483
        24 -10.7946    102.1482      2.2451   5.0781356196e+01   5.8479541045e+01    0.3585606    0.2396638  62.18  0.001210299    1.445    0.308
        25  -9.5625    176.1957      2.8226   3.8898265753e+01   4.0676902512e+01    0.1742032    0.1369984  49.67 0.0003642551    1.315    0.240
        26  -9.3721    129.9730      3.2466   4.5555169700e+01   5.1941725596e+01    0.1720185    0.1006713  64.90  0.000438793    1.521    0.343
        27 -11.2103     80.2162      1.6623   5.6262395622e+01   6.3190840447e+01    0.2990034    0.1390456  47.96    0.0013518    1.803    0.445
        28 -10.6670     20.3308      1.9510   8.1438748284e+01   7.2692733944e+01    0.2193878    0.1518901  22.14  0.001510447    1.450    0.310
        29 -10.4544     11.6002      1.8269   8.6391168350e+01   7.3578848659e+01    0.1774366    0.1385532  12.79 0.0005222212    1.389    0.280
        30  -9.5762      1.4719      2.5098   9.2929644058e+01   7.4289138683e+01     0.111505   0.07940204 -22.24 0.0001862648    1.018    0.018
        31 -10.5748    243.9863      2.0000   3.2798613293e+01   2.5147365418e+01     0.187054   0.06072654  75.58 0.0008043238    2.956    0.662
        32  -9.8061    153.8130      1.2705   4.1217615448e+01   4.6301279695e+01    0.1837646   0.09639446  62.61   0.00033086    1.617    0.381
        33  -8.9317     67.2715      1.3176   6.0198460749e+01   6.5732108249e+01     0.127862   0.07782599  19.79 0.0005120012    1.562    0.360
        34  -9.2494    208.2971     13.6738   3.8368208820e+01   3.1889414776e+01    0.1375962   0.08401706 -62.88 0.0006424981    1.630    0.386
        35 -12.1093     17.6872    249.1257   1.2663899529e+02   2.0377067174e+01    0.3033668     0.226666  29.76  0.002294633    1.797    0.444
        36 -12.4960     10.0139    245.9867   1.2775768920e+02   2.1700085948e+01    0.4778928    0.2593405  60.10  0.003351358    1.362    0.266
        37 -12.6145      5.3648    240.2431   1.2827581850e+02   2.3187492470e+01     0.471307    0.2837846  40.73  0.003400608    1.627    0.385
        38 -10.9193     13.8942    192.6483   1.2418478359e+02   3.1938335175e+01    0.2119683    0.1363031  73.08 0.0005163408    1.291    0.225
        39 -10.3261      6.3243    191.8098   1.2565712243e+02   3.2774177924e+01     0.185529    0.1097473  80.32  0.001160504    1.375    0.273
        40  -9.6437     22.5035    179.9571   1.2143233840e+02   3.3964183675e+01    0.1762576   0.09973112 -78.50 0.0003935847    1.484    0.326
        41  -9.6591     13.0161    180.2546   1.2351046057e+02   3.4741930175e+01    0.2271532     0.080682  68.86 0.0008884015    3.582    0.721
        42 -10.5878      5.0834    167.1227   1.2429190825e+02   3.8338321015e+01     0.180458    0.1372254 -70.29  0.000935529    1.248    0.199
        43  -9.7229    226.6530    163.9744   7.2209173365e+01   4.2158284408e+00    0.2015483     0.162067 -22.95 0.0008920293    1.114    0.102
        44  -9.3735    247.4971    155.4645   6.6748388903e+01   2.0050157657e+00    0.1362941    0.1141951 -16.52 0.0003123997    1.005    0.005
        45 -10.5189      2.7937    153.3927   1.2378326465e+02   4.1653215894e+01    0.1404084    0.1155785  -8.12  0.000960855    1.748    0.428
        46  -9.1875    243.2978    150.6932   6.6425353210e+01   3.5009551675e+00    0.1271724    0.1045296 -57.56  0.000664134    1.590    0.371
        47 -10.4391     15.9449    150.4957   1.2035131771e+02   4.1367225850e+01    0.1567671    0.1227362  31.09 0.0005722991    1.544    0.352
        48  -9.5196    237.7088    149.6796   6.7153480440e+01   4.6553753524e+00    0.1408456   0.09914419  -3.97  0.000280328    1.605    0.377
        49  -9.2226     37.2365    146.0019   1.1438584235e+02   4.0565981023e+01    0.1664645   0.09490857 -70.55 0.0002426602    1.493    0.330
        50 -10.2201    212.5717    133.9527   6.8103560922e+01   1.2221577969e+01    0.2530674    0.2117735  69.60 0.0008034364    1.531    0.347
        51 -10.5226      2.4550    133.1386   1.2212730246e+02   4.6417860562e+01     0.304568    0.1830456  68.10  0.001767425    1.717    0.418
        52  -9.3450     96.2860    133.6971   9.5858169591e+01   3.5799053572e+01    0.1480408    0.1154566  81.50 0.0003303133    1.560    0.359
        53 -10.8563     12.0187    129.7850   1.1923054713e+02   4.6601232567e+01    0.2101623    0.1518449  60.61 0.0009764033    1.481    0.325
        54  -9.3130     28.6636    128.2589   1.1439175099e+02   4.5692576882e+01    0.1269595   0.08836433  68.03 0.0002339063    1.577    0.366
        55 -10.4724      2.0077    123.2867   1.2127810790e+02   4.8775107923e+01    0.2260346    0.1413983 -81.76 0.0003860923    1.296    0.229
        56 -11.6804     23.8503    121.3255   1.1482413788e+02   4.7779228973e+01    0.4093799    0.2314226  67.80   0.00159057    2.227    0.551
        57 -11.9585      8.4497    120.5413   1.1917610386e+02   4.9047994643e+01    0.3718074    0.2359132 -54.57  0.001468358    1.405    0.288
        58 -10.7486     65.6970    110.7575   1.0001396609e+02   4.6007347250e+01    0.3002735    0.2396144 -89.29 0.0009931963    1.462    0.316
        59 -11.9405      3.3935    108.9669   1.1927729739e+02   5.2093945501e+01    0.3699133    0.2307416  -9.94  0.001734214    2.197    0.545
        60 -10.8645     57.6481    107.6993   1.0192270267e+02   4.7771370355e+01     0.255078    0.2162298 -11.66 0.0007489833    1.351    0.260
        61 -10.0190     26.8351    106.3992   1.1162551722e+02   5.1167568540e+01    0.2847376    0.1339965  15.15  0.001309303    2.814    0.645
        62 -10.1321    186.9309    103.0284   6.5385074578e+01   2.3605379983e+01    0.2296589    0.2216643 -40.55 0.0005542887    1.026    0.026
        63  -9.3280     55.5107     97.4908   1.0033642119e+02   5.0483956377e+01    0.1428014    0.1204663 -43.41 0.0008095229    1.071    0.066
        64 -11.6952     10.2013     91.7811   1.1469089006e+02   5.5779585872e+01    0.4277855    0.2687501 -84.84  0.002178871    1.624    0.384
        65 -11.3024     11.4986     86.5291   1.1336203344e+02   5.6932041647e+01    0.3508918    0.1840456 -87.00  0.001676622    2.354    0.575
        66 -10.4337      3.4981     95.2927   1.1744908470e+02   5.5311023601e+01    0.2496656    0.1484165 -54.12  0.001024409    1.356    0.262
        67 -11.0935     24.0976     88.1747   1.0922614335e+02   5.5720702778e+01    0.3415345    0.2082074 -47.63 0.0007207654    1.377    0.274
        68 -12.4117     20.9034     92.7829   1.1121421900e+02   5.4866825462e+01    0.3505538    0.2662682 -39.01 0.0004337692    1.278    0.217
        69 -10.8444     19.2576     86.8837   1.1068989950e+02   5.6365454102e+01    0.3677622     0.198219 -61.11  0.001121533    1.457    0.313
        70 -11.9402    125.1710     93.3008   7.7294198884e+01   3.9619218945e+01    0.2718072    0.2662208   6.75 0.0002311456    1.035    0.034
        71  -9.6675     78.8093     94.1065   9.1665417947e+01   4.8082849180e+01    0.1965274    0.1588909 -22.01 0.0002737514    1.304    0.233
        72  -9.7687     94.4743     93.4696   8.6434718496e+01   4.5619990663e+01    0.1512413    0.1396215 -28.36 0.0001566604    1.023    0.022
        73 -11.3009     57.8306     91.7136   9.8142382577e+01   5.1564576956e+01    0.3087093    0.2353035   4.10 0.0009356077    1.545    0.353
        74 -10.5660     43.6954     89.9510   1.0266487955e+02   5.3576164157e+01    0.3898859    0.2606126 -85.91  0.001175805    2.033    0.508
        75  -9.8767     29.2642     92.3873   1.0825205213e+02   5.4326858083e+01    0.1588565    0.1206619  36.59 0.0007564782    1.575    0.365
        76 -12.1879     55.5707     85.7178   9.7400065135e+01   5.3230144454e+01    0.2792892    0.2389932   9.37 0.0004227503    1.285    0.222
        77  -9.5515     76.7691     82.7908   8.9150646871e+01   5.0949626804e+01    0.1796045    0.1654923 -71.19 0.0003933083    1.260    0.207
        78 -10.8521      3.3287     82.2349   1.1551301835e+02   5.8348156262e+01    0.2596372    0.1831708 -75.36   0.00149793    1.264    0.209
        79 -10.2955    124.5402     80.1797   7.3486735198e+01   4.2434568420e+01    0.4922751    0.1482432 -40.67  0.001485982    3.255    0.693
        80  -9.6693    250.3152     81.2933   4.9759395159e+01   1.3471657000e+01    0.1260463    0.1029985   5.80 0.0002998446    1.599    0.374
        81  -9.6140     89.5295     81.0018   8.4328801572e+01   4.9221761362e+01    0.2244015    0.1387985 -47.77 0.0006485586    1.563    0.360
        82 -10.1357     64.5323     80.2293   9.2686884700e+01   5.3309925492e+01    0.2814753    0.2024655 -20.64  0.001441621    1.517    0.341
        83  -9.2107     36.3072     81.2684   1.0328876096e+02   5.6310456932e+01    0.1332382   0.08560923 -33.14 0.0001898946    1.537    0.349
        84  -9.0636     80.7241     79.2613   8.6737392224e+01   5.1086556791e+01    0.1298757    0.1151681  88.92 0.0002664292    1.470    0.320
        85 -10.5083     26.7207     77.9340   1.0608856540e+02   5.7889927308e+01    0.4222978    0.2072584 -14.15 0.0009957784    3.139    0.681
        86 -11.3550     10.9058     78.4185   1.1209604666e+02   5.8835211731e+01    0.2647827    0.1236582   9.27  0.001321018    2.750    0.636
        87 -11.2226     15.1026     75.6930   1.0998669052e+02   5.9210047491e+01     0.232701    0.2095258  81.12  0.001599385    1.349    0.259
        88  -9.8945    176.7054     76.9379   6.0255133994e+01   3.0781822613e+01    0.2157814    0.2027782 -48.39 0.0006995075    1.046    0.044
        89 -10.0819     55.7256     76.0086   9.4677626007e+01   5.5396080890e+01     0.200451     0.162895 -41.15 0.0005111775    1.066    0.062
        90 -10.0745     42.0160     75.5477   9.9700876458e+01   5.7052164257e+01    0.2164844     0.156526 -50.72 0.0006367838    1.179    0.152
        91 -11.2601     36.9933     74.8710   1.0143861598e+02   5.7697631204e+01    0.5174268    0.2405089 -57.66  0.001079919    1.857    0.461
        92 -10.3014     32.9728     73.2139   1.0256078475e+02   5.8435965635e+01    0.2434277    0.1714069  42.95 0.0007882596    1.809    0.447
        93  -9.3424     66.1695     74.6519   9.0443441438e+01   5.4300410546e+01    0.1867789     0.128343  14.50 0.0004701214    1.687    0.407
        94 -10.5863     20.9464     72.7098   1.0709946518e+02   5.9500254434e+01    0.2600162    0.1596595 -69.53  0.000655155    1.598    0.374
        95  -9.4054    216.9939     72.0619   5.2064031552e+01   2.2054273761e+01    0.1732888    0.1481487 -42.87  0.000374629    1.083    0.077
        96 -11.1562    106.2490     71.2421   7.5899288263e+01   4.8041013318e+01    0.3455349    0.2861744  79.48  0.001557955    1.664    0.399
        97 -11.3866     10.3860     69.0907   1.1041681041e+02   6.0969219790e+01    0.3851511    0.1649976 -59.90  0.001471077    1.748    0.428
        98 -11.1448      6.1534     63.1049   1.1081820309e+02   6.2511175753e+01    0.3022444    0.2325113  64.54  0.001949009    1.791    0.442
        99 -10.2855     46.2109     69.4853   9.6399523015e+01   5.7940854026e+01    0.2095044    0.1316278  17.28 0.0006538997    1.822    0.451
       100 -11.3885      5.1442     68.3031   1.1230511447e+02   6.1413231344e+01      0.29739    0.1959082  67.82   0.00162831    2.202    0.546
       101 -10.1882     16.0698     67.2584   1.0776029855e+02   6.1040457787e+01    0.2988383    0.1986774  73.74  0.001565828    2.376    0.579
       102 -10.1491     14.4406     63.5128   1.0753624147e+02   6.1965114268e+01     0.326302    0.1515125  12.63  0.001368555    2.614    0.617
       103 -10.5242     77.4969     66.9198   8.3902784253e+01   5.4179756117e+01    0.2118366    0.1740571 -35.72 0.0006378054    1.128    0.113
       104  -9.3594     81.4098     73.5350   8.4706544391e+01   5.2183018356e+01    0.1456813       0.1289 -23.75  6.78518e-05    1.028    0.027
       105 -10.5232     62.9108     62.0748   8.7623147519e+01   5.7382505708e+01    0.2615165    0.1662841 -37.22  0.001327158    1.411    0.292
       106 -10.5682     39.2850     61.7594   9.6860452512e+01   6.0327683272e+01    0.3250917    0.2173962 -43.31  0.001607374    1.239    0.193
       107 -13.1966     20.4023     58.1504   1.0368532165e+02   6.2726630023e+01    0.3804281    0.2545771 -64.16  0.001211457    1.487    0.327
       108  -9.9461    194.4678     58.9972   5.2068689571e+01   2.9382521846e+01    0.2218746    0.1845305  66.14 0.0005924573    1.213    0.175
       109 -10.7496     84.2197     56.9809   7.8090933450e+01   5.4936455819e+01    0.3580306    0.2315577 -54.10  0.001662803    1.967    0.492
       110 -10.9339      9.5191     59.4906   1.0861105815e+02   6.3122910403e+01    0.2398774    0.1655056 -80.77   0.00143343    1.724    0.420
       111 -10.7048      4.0588     57.9804   1.1054544568e+02   6.3723669470e+01    0.3530024    0.1622545 -24.09  0.001801077    2.417    0.586
       112  -9.7487     71.6385     56.7863   8.2510171260e+01   5.7100393856e+01    0.1917908    0.1230328 -48.70 0.0009358977    1.653    0.395
       113 -10.0983     32.9720     56.3173   9.7819389780e+01   6.2078578804e+01    0.3405835    0.1632846 -42.98  0.001686532    1.702    0.412
       114 -10.0874     26.7109     56.9691   1.0067305002e+02   6.2491426222e+01    0.2673241    0.1591542 -10.46  0.001423724    1.964    0.491
       115  -9.5858    104.0682     56.5001   7.1490119060e+01   5.1188534726e+01    0.2292896    0.1891407  -3.67 0.0003959902    1.238    0.192
       116 -10.8860    105.6497     52.6734   6.9638408416e+01   5.1506656088e+01    0.2545511    0.2345916  11.87 0.0002999572    1.017    0.017
       117 -11.3149    114.6796     53.9492   6.7488754429e+01   4.9355571905e+01    0.3085039    0.2998587  33.09 0.0007305604    1.103    0.093
       118  -9.3036     95.6762     54.7029   7.3456826831e+01   5.3190767442e+01    0.1483878    0.1067792   6.79 0.0007022989    1.624    0.384
       119 -11.1054     88.3809     52.8933   7.5182342280e+01   5.4904824893e+01    0.2916731    0.2343865 -28.12 0.0007052735    1.183    0.155
       120  -9.2873    164.9500     54.0000   5.5780539033e+01   3.7399190564e+01    0.2283308   0.08231356  58.59 0.0007700823    2.723    0.633
       121 -11.7420     65.5943     52.6554   8.3285464214e+01   5.8813271085e+01    0.4420612    0.2153398  37.77  0.001529188    2.182    0.542
       122  -9.4186    149.4069     52.1591   5.8351612900e+01   4.1508373586e+01    0.1976463    0.1351641 -44.15 0.0008412267    1.535    0.349
       123 -10.0260    121.8610     51.6743   6.4737018806e+01   4.8116447892e+01    0.1969859    0.1798349  44.32 0.0003659295    1.096    0.088
       124 -10.7347      4.0488     50.7105   1.0882146543e+02   6.5268670311e+01     0.167056    0.1261196 -42.22 0.0005220642    1.056    0.053
       125 -11.7691     77.7151     46.7432   7.6554473519e+01   5.7890477749e+01    0.4802761    0.3233575   3.48   0.00140423    1.770    0.435
       126 -10.4908     38.6307     48.4398   9.2802617613e+01   6.3097061903e+01    0.2085061     0.169358 -26.11 0.0001641489    1.013    0.013
       127 -11.3869      9.1684     47.1860   1.0559519208e+02   6.5734739733e+01    0.4162005    0.2138664 -51.07  0.001810806    1.451    0.311
       128 -10.1563     14.3646     48.7842   1.0369787538e+02   6.5093661662e+01     0.310721    0.1322606 -53.67  0.001519726    1.795    0.443
       129  -9.7803     19.6629     44.6979   1.0004088143e+02   6.5551577865e+01    0.2002214   0.09667956 -49.05 0.0004946065    1.618    0.382
       130 -10.9200     15.3431     43.1030   1.0153730899e+02   6.6176999694e+01    0.3787105    0.2528847 -80.87   0.00205873    2.451    0.592
       131  -9.6325     57.7632     48.3427   8.4758214801e+01   6.0752738035e+01    0.1843936    0.1599735  -5.86  0.000232676    1.071    0.067
       132 -10.5839     56.5465     45.5183   8.4180178213e+01   6.1437064299e+01    0.4515291    0.2579357  11.90  0.001295623    2.264    0.558
       133  -9.7083     26.6795     47.6965   9.7824273865e+01   6.4391629869e+01    0.1923557    0.1031547 -45.73 0.0008720358    1.487    0.328
       134 -10.5646     26.1306     44.1796   9.6902562417e+01   6.5132752544e+01    0.2439321    0.1595468 -52.59  0.001026111    1.441    0.306
       135  -9.6063    154.5293     47.5035   5.5802155645e+01   4.0935692729e+01     0.215914    0.1873627 -17.85 4.278229e-05    1.226    0.185
       136  -9.6913    152.2252     44.6365   5.5347872246e+01   4.1911946672e+01    0.2046479    0.1860965 -76.07 0.0001601161    1.186    0.157
       137 -10.3220     31.1937     45.7042   9.5132625894e+01   6.4377281795e+01    0.2888932    0.1701244 -56.22  0.001548992    1.770    0.435
       138  -9.2440    135.5432     46.4717   5.9553582740e+01   4.5710372386e+01    0.1433043     0.139623  42.77 0.0002165079    1.045    0.043
       139  -9.7009     67.7824     46.8226   8.0257171877e+01   5.9529300973e+01    0.2975247   0.09616003  33.36  0.001025611    3.596    0.722
       140 -12.5131    141.3169     41.5772   5.6609133894e+01   4.5011200460e+01    0.2917596    0.2638125 -72.02 0.0007105335    1.238    0.193
       141 -10.4807     69.2650     42.0630   7.7829588341e+01   6.0105199725e+01    0.2216885    0.1863028  30.18  0.001320924    1.256    0.204
       142 -10.5161     35.6317     41.1837   9.1515080668e+01   6.4795300809e+01    0.2928476    0.2194765 -19.71  0.001831759    1.150    0.130
       143 -10.5013      7.5430     34.1813   1.0242946698e+02   6.8413055237e+01    0.2771085    0.1317653  32.03  0.001492151    2.714    0.632
       144 -11.2367      2.7417     35.4423   1.0521143439e+02   6.8427270191e+01    0.3414043    0.2212264 -72.17  0.002038343    1.907    0.476
       145 -10.4157      3.2253     42.3791   1.0700097984e+02   6.7023759256e+01    0.2469244    0.1334698 -27.48  0.001450055    1.710    0.415
       146  -9.8520      5.6297     39.2114   1.0494495738e+02   6.7537043276e+01    0.1677284    0.1015058 -36.08  0.001043953    1.303    0.233
       147  -9.0600    184.0054     42.0000   4.8962499542e+01   3.4379006227e+01    0.2391474   0.07800844  63.29 0.0008088852    2.987    0.665
       148 -10.4050     43.1627     40.3738   8.7852692944e+01   6.4098803822e+01     0.213172    0.1791902 -22.27  0.001375249    1.076    0.071
       149 -10.2253    128.1700     38.8277   5.8626357088e+01   4.8539971923e+01    0.1972425    0.1898149 -74.26 0.0003210292    1.170    0.145
       150 -11.5959    121.4238     37.3614   5.9734542933e+01   5.0315143241e+01    0.3765773    0.3338891  41.27  0.001154908    1.062    0.059
       151 -10.2541     22.4812     38.0722   9.6481076114e+01   6.6616157083e+01    0.1885147    0.1607453  23.84 0.0005785976    1.462    0.316
       152  -9.3435    223.7798     36.0363   4.2240948934e+01   2.5664777699e+01    0.1709485    0.1003446 -35.46 0.0003498786    1.617    0.382
       153 -10.0943     90.0749     35.9356   6.8068998820e+01   5.7283076317e+01    0.2133894    0.1787367  11.82 0.0004815361    1.096    0.087
       154 -11.8647     39.2593     32.9586   8.6638171708e+01   6.5862989015e+01    0.4753496    0.2699529 -36.63  0.001547602    1.509    0.337
       155 -10.9345     27.0680     34.9064   9.3124054535e+01   6.6800559397e+01    0.3269674      0.16635 -27.68  0.001083427    1.887    0.470
       156  -9.7632     74.6838     35.2743   7.3055713962e+01   6.0264441824e+01    0.1994756     0.158524 -22.74  0.000247423    1.187    0.158
       157 -10.0424     72.8333     32.7498   7.2673065853e+01   6.0967160868e+01    0.2709468    0.1832669   0.36  0.001310618    1.606    0.378
       158 -10.0565     16.9565     32.7812   9.7255686948e+01   6.8046555661e+01      0.20417    0.1427821  -7.06 0.0007312736    1.382    0.276
       159 -10.0222     20.5114     31.4776   9.5004223897e+01   6.8002926331e+01    0.3098442    0.1952567 -48.41  0.001881579    1.457    0.314
       160 -11.0658    127.8263     30.3959   5.5702538319e+01   4.9710186815e+01    0.3607614    0.2830236 -63.14  0.001229958    1.603    0.376
       161  -8.9920    166.3304     31.2698   4.8600433798e+01   4.0149444325e+01    0.1433212    0.1003573  37.72 0.0002661608    1.584    0.369
       162 -11.6435      9.4536     29.1600   9.9732851308e+01   6.9243491611e+01    0.4977844    0.3060156  51.17  0.002423836    3.348    0.701
       163  -9.8788    229.6932    247.9910   8.7253728665e+01  -8.5891772701e+00    0.1570073    0.1233951   2.37 0.0005865133    1.109    0.098
       164 -10.7075     35.0401     22.1538   8.3934144233e+01   6.8125686377e+01    0.2346203    0.1603175 -24.52 0.0002946231    1.211    0.174
       165 -10.1540     36.5025     18.5645   8.1562998840e+01   6.8496042928e+01    0.1789215    0.1683711  78.87 0.0006276233    1.951    0.487
       166 -11.7269     45.8407     27.1639   8.1182561251e+01   6.5988536797e+01    0.5303988     0.404476  24.06  0.003360691    1.337    0.252
       167 -10.7600     68.8985     26.7261   7.1533089193e+01   6.2515549545e+01    0.3384038    0.2330787 -41.09 0.0009931956    1.692    0.409
       168 -11.4929     40.8014     20.4216   8.0407332738e+01   6.7677502051e+01    0.3215401    0.2351457   6.33  0.002049278    1.219    0.180
       169 -11.5216    113.8819     26.2663   5.7478225102e+01   5.3453205355e+01    0.2564301    0.2256269 -29.92 0.0005907575    1.236    0.191
       170 -10.0866    100.4272     26.3588   6.1081693559e+01   5.6421023189e+01    0.2442351    0.1771434  12.33 0.0007594629    1.448    0.309
       171  -8.8804     18.4729     26.0521   9.3899541204e+01   6.9140119739e+01    0.2467151    0.1000117 -35.36   0.00121634    2.078    0.519
       172 -11.1103     14.5481     21.7686   9.4192095142e+01   7.0200229405e+01    0.4519226    0.2024325  22.03  0.002461251    2.384    0.580
       173 -10.1289     59.2119     23.5470   7.3871521242e+01   6.4566003238e+01    0.2084632    0.1499669  -1.43 0.0005326282    1.293    0.227
       174 -10.2396     58.7516     19.7673   7.2314768773e+01   6.5154911926e+01    0.2403917    0.1877481 -34.04 0.0007435677    1.452    0.311
       175 -10.0783     91.2026     22.4498   6.2161987021e+01   5.8832076016e+01    0.2407245    0.1791231 -17.75  0.001150038    1.345    0.257
       176 -11.0973     82.9450     22.1698   6.4626789626e+01   6.0522234329e+01    0.4545297    0.1723237  32.43  0.001606761    3.489    0.713
       177 -10.0874    225.0353    247.1992   8.7958339548e+01  -7.8604370788e+00    0.2002956    0.1482958 -13.54  0.001371634    1.296    0.228
       178 -10.8905     30.2738     21.2542   8.5855422126e+01   6.8807374320e+01    0.2471676     0.177809  13.00  0.001208053    1.338    0.252
       179  -9.5567      6.9743     20.8965   9.7921986520e+01   7.0895171515e+01    0.1383284    0.1360878  76.05  0.000438442    1.617    0.382
       180  -9.4580     20.6868     17.4589   8.9043019659e+01   7.0385749264e+01    0.2408265    0.2076454  -8.70  0.001649997    1.264    0.209
       181  -9.5434     57.9990    248.2526   1.1962944254e+02   1.6025758014e+01    0.1404888   0.07953922  42.58 0.0004097594    1.500    0.333
       182  -9.6181    209.1946     18.3895   3.9451250808e+01   3.1164226641e+01    0.1795006    0.1129652  88.82 0.0004269664    1.589    0.371
       183 -10.1388    114.9099     17.3046   5.3801557706e+01   5.4210090152e+01    0.1944221    0.1491773  50.29 0.0003387637    1.174    0.148
       184  -9.5823    170.9402    247.0119   9.8008082843e+01   5.3527689151e-02    0.1912251    0.1316199   9.13  0.001042046    1.675    0.403
       185  -9.7124     90.5007     16.5255   5.9855423132e+01   5.9651241416e+01    0.1913192    0.1716445 -64.77  0.001168169    1.532    0.347
       186  -9.4229     89.5234     13.4989   5.8837138334e+01   6.0174288732e+01    0.1861807    0.1067925  41.73 6.334208e-05    1.532    0.347
       187 -11.4015      3.0479    249.0470   1.2900693794e+02   2.1815581759e+01    0.4059265    0.2095152  53.54  0.002876262    1.440    0.305
       188 -10.1849     82.8996     16.0259   6.1950121801e+01   6.1247997099e+01    0.1964141    0.1701227  13.49 0.0003990914    1.047    0.045
       189  -9.1251     74.2743    243.6772   1.1628115707e+02   1.4789071431e+01    0.1195851   0.07157846  65.53 0.0003577833    1.577    0.366
       190  -9.4844    202.4473    240.4787   9.1044913127e+01  -3.7638302309e+00    0.1229917   0.09820026  17.10 0.0001004772    1.007    0.007
       191  -9.7213     36.2931    240.6709   1.2300070733e+02   1.9949479661e+01    0.1180722     0.061573  65.28 0.0007021632    1.628    0.386
       192 -11.7148     14.2379    238.9124   1.2673111089e+02   2.2582511218e+01    0.2369344     0.128283  70.38 0.0006566772    1.457    0.314
       193  -9.8062    117.5458    239.4759   1.0749340357e+02   9.4318265833e+00    0.1230874    0.1033427  46.68 8.876511e-05    1.019    0.019
       194  -9.6160     90.8814    237.2148   1.1250187806e+02   1.3717574431e+01    0.1419469    0.1396969  32.59 0.0005890996    1.307    0.235
       195 -11.9061     25.7077    235.6847   1.2457885009e+02   2.2025407622e+01    0.2493224    0.2185726  25.71  0.001104996    1.654    0.395
       196 -12.1982      4.0194    232.7473   1.2817906275e+02   2.4706472109e+01    0.2569362    0.1713406  66.00  0.001936439    1.104    0.094
       197  -9.8035    249.3211    233.9650   8.1520143529e+01  -9.5002322121e+00    0.1603033    0.1191832  -3.07 0.0004156778    1.080    0.074
       198  -9.5165    104.4262     10.4386   5.3584078132e+01   5.7262049506e+01    0.1313315    0.1145794  34.97 0.0001132341    1.016    0.016
       199 -12.6292      9.7927    227.4201   1.2694020621e+02   2.5186759380e+01    0.3844522    0.2679544 -89.56  0.001746585    1.222    0.182
       200  -9.0744    243.3287    230.2942   8.1932569084e+01  -8.2485537941e+00    0.1242187   0.07478777   4.95 0.0006732012    1.629    0.386
       201  -9.6326      3.7804     10.6518   9.5400673804e+01   7.2843891246e+01    0.1243525   0.09225591  10.54 0.0002708201    1.453    0.312
       202  -9.8316    209.5041    229.5212   8.7951821278e+01  -3.2912812243e+00    0.1258372    0.1021382  13.92 -1.316821e-05    1.018    0.017
       203 -10.7277    140.3818    228.6955   1.0152464535e+02   7.7833973506e+00    0.2538999    0.1608031 -43.10  0.001125909    1.866    0.464
       204 -10.0151    223.7595    226.1095   8.4722043220e+01  -4.9375972130e+00    0.2109887    0.1227445  -6.07  0.001082815    2.049    0.512
       205 -10.9816      1.4646    224.9557   1.2827370467e+02   2.6423501979e+01    0.2045759   0.08299137 -88.23 0.0009824766    2.100    0.524
       206 -11.4965      2.4249    220.6805   1.2791300295e+02   2.7170615934e+01    0.2938289    0.1384497  88.80  0.001785402    1.756    0.431
       207  -9.4817     47.9862    230.0346   1.2014342953e+02   2.0639936658e+01    0.1375371    0.1070848  69.67 0.0004015188    1.013    0.013
       208  -9.2387    126.6452    220.7430   1.0328289161e+02   1.1418571780e+01    0.1257036   0.09770883  11.29 0.0003822109    1.611    0.379
       209 -11.4053      9.0448    218.0007   1.2660009971e+02   2.7104038327e+01    0.2100731    0.2016277 -39.25  0.001718361    1.623    0.384
       210  -9.9179    205.7046    212.6080   8.5773463441e+01  -1.9218553890e-01    0.2217489    0.1474382 -20.27 0.0007706454    1.571    0.363
       211  -9.3864    137.3668    215.3161   1.0024777718e+02   1.0698367375e+01    0.1347009    0.1013872   2.78 0.0007038358    1.776    0.437
       212  -9.1247    249.3461    211.3209   7.7522277180e+01  -6.6047777007e+00    0.1315182   0.07914067   1.99 0.0007049527    1.733    0.423
       213  -9.0616    209.6606    211.2906   8.4773750805e+01  -6.2294913610e-01    0.1172477    0.1036449  59.80 0.0007024285    1.645    0.392
       214  -9.7787      3.3166    211.6724   1.2732083129e+02   2.8886380701e+01    0.1194323   0.05855015  65.80 0.0003900023    1.677    0.404
       215 -10.2136     20.1686    209.8795   1.2405954062e+02   2.7700647144e+01    0.1832162    0.1162981  66.97  0.000633797    1.287    0.223
       216 -10.0852      3.6508    205.6904   1.2695364497e+02   3.0078236379e+01    0.1008224   0.07652783 -55.87 0.0002667675    1.712    0.416
       217  -9.2811    193.5029    201.5675   8.6194574686e+01   3.6174148886e+00    0.1364502    0.1182299  12.96 0.0001127685    1.010    0.010
       218 -10.2115     23.5400    196.8530   1.2251033010e+02   3.0127669570e+01    0.2029651    0.1712012 -56.26  0.001052104    1.494    0.331
