#   1 NUMBER                 Running object number                                     
#   2 MAG_AUTO               Kron-like elliptical aperture magnitude                    [mag]
#   3 X_IMAGE                Object position along x                                    [pixel]
#   4 Y_IMAGE                Object position along y                                    [pixel]
#   5 X_WORLD                Barycenter position along world x axis                     [deg]
#   6 Y_WORLD                Barycenter position along world y axis                     [deg]
#   7 A_WORLD                Profile RMS along major axis (world units)                 [deg]
#   8 B_WORLD                Profile RMS along minor axis (world units)                 [deg]
#   9 THETA_WORLD            Position angle (CCW/world-x)                               [deg]
#  10 FWHM_WORLD             FWHM assuming a gaussian core                              [deg]
#  11 ELONGATION             A_IMAGE/B_IMAGE                                           
#  12 ELLIPTICITY            1 - B_IMAGE/A_IMAGE                                       
         1 -11.4131     45.4225     49.1767   5.1235003518e+01   6.3850820054e+01     0.515786    0.2544051 -44.20  0.002288091    1.929    0.482
         2 -10.4098     41.1031     13.7876   3.6748801283e+01   7.0772188385e+01     0.248647    0.1856459  22.13 0.0002229155    1.216    0.178
         3  -9.3682     97.6640     12.1185   1.4861905312e+01   5.8818386581e+01    0.2834855    0.2042361   6.49  0.001283165    1.674    0.403
         4  -9.0107      3.3647     12.1972   6.1761309107e+01   7.5649734951e+01    0.1566534    0.1067751 -61.54 0.0009100993    1.700    0.412
         5  -9.0156     97.6464      5.4164   1.1938594570e+01   5.9453861223e+01    0.3104693    0.1797182  -6.34    0.0014705    2.193    0.544
         6  -8.3701     65.0078      4.7844   2.0882048345e+01   6.7178834527e+01    0.1821552    0.1490883  38.87            0    1.049    0.047
         7  -7.9644     52.0068      2.9805   2.4985306956e+01   7.0086216234e+01    0.1519529    0.1286126  25.43 0.0003190299    1.012    0.012
         8  -8.7540      2.9807      3.0251   5.7147537225e+01   7.7326052599e+01    0.1947544    0.1104057 -20.22 0.0005277226    1.670    0.401
         9  -9.5203     67.5260      1.3764   1.8150797375e+01   6.6945105593e+01    0.2303309    0.1105592  57.57  0.000339607    1.835    0.455
        10  -9.8194     30.3934    244.1753   8.5198849109e+01   1.9539154658e+01    0.1978532    0.1028611  86.99  0.001155854    2.035    0.509
        11  -9.2759    213.7448    250.2461   4.8844885019e+01  -4.6476233364e+00    0.2310039    0.1175029  20.90   0.00111746    1.636    0.389
        12 -10.8264    169.7359    224.9809   5.3463950107e+01   4.4795509902e+00    0.5909959    0.3162121  27.41  0.003115081    1.624    0.384
        13 -11.5827    173.4667    246.0842   5.5710233263e+01   8.8969321703e-01    0.6612543    0.5997357 -44.60  0.004885247    1.575    0.365
        14 -11.4726    166.3341    248.0691   5.7365180548e+01   1.5544555046e+00    0.7379097    0.2574628  32.04  0.003424566    2.298    0.565
        15 -10.9140    168.5322    233.6107   5.4959242877e+01   3.3424493451e+00    0.5887654    0.4208669  21.30  0.003310089    1.140    0.123
        16 -10.0108    161.3100    231.6423   5.6143292479e+01   4.6508415128e+00    0.4453923    0.2292062  28.80  0.001799377    1.642    0.391
        17 -11.3206    162.3673    225.6533   5.5070068645e+01   5.4322324292e+00    0.5605958    0.3288702  21.67  0.002713638    1.588    0.370
        18 -10.7365     54.1498    248.9884   8.0611989546e+01   1.6039287143e+01    0.4164376     0.286938  10.61   0.00182429    1.997    0.499
        19 -10.1278     13.0111    250.1487   8.8881075874e+01   2.0185596970e+01    0.2849393    0.1411251  39.32  0.001522423    1.506    0.336
        20 -11.1514     19.1575    247.8047   8.7600021027e+01   2.0013644604e+01    0.5775295    0.2434716  55.38  0.003305305    1.816    0.449
        21  -9.9593      3.9493    249.1870   9.0581701436e+01   2.1203036550e+01    0.2712902     0.135465  46.96 0.0007003043    1.402    0.287
        22  -9.9081      1.9453    244.9958   9.0845063153e+01   2.2145478542e+01    0.2348704    0.1765548  77.91  0.001076491    1.251    0.201
        23 -10.8859     73.5080    244.6530   7.6257161665e+01   1.4485653342e+01    0.2728603    0.2127553  36.87 0.0005685763    1.112    0.100
        24  -9.1886    100.9911    247.0245   7.0649548166e+01   1.0523713933e+01     0.146356    0.1179942  38.51 0.0004056757    1.033    0.032
        25 -11.2875    237.7743    240.1803   4.3280754352e+01  -6.2057774073e+00    0.5481261    0.3169464  -5.63  0.002815064    1.557    0.358
        26 -10.7438    238.3015    230.3965   4.1692281039e+01  -5.1313374967e+00    0.3767838    0.2336517   9.11  0.001655177    1.348    0.258
        27 -10.3852    242.5429    225.6333   4.0250014850e+01  -5.0485868299e+00    0.3832647    0.1740726 -31.72  0.002231855    2.025    0.506
        28 -10.9179     97.8753    241.5295   7.0774267802e+01   1.1881848010e+01    0.4624786    0.2311215  34.03  0.001505258    1.586    0.370
        29  -9.4590    250.5038    241.5058   4.1431770022e+01  -7.7132117340e+00    0.2150201    0.1331014 -24.37 0.0009241576    1.471    0.320
        30  -9.6428    248.5226    237.5166   4.1140519496e+01  -7.0684817196e+00    0.2000602    0.1552049   0.21  0.001123836    1.224    0.183
        31  -8.7984    221.0461    240.0501   4.6083679151e+01  -4.2879280310e+00    0.1732029    0.1286208   5.70 0.0005883011    1.029    0.028
        32 -10.5126    107.9162    238.0800   6.8255207315e+01   1.1120418868e+01    0.8082975    0.3499527  48.63  0.003725794    2.334    0.572
        33 -11.5316    106.3775    224.6483   6.7093913626e+01   1.3750063837e+01    0.9832394    0.5553494 -19.40  0.003791044    4.201    0.762
        34 -11.1160     90.4426    231.2971   7.1381108101e+01   1.4725377336e+01    0.6081167    0.2437886 -59.74    0.0028274    2.906    0.656
        35 -10.9550     87.8672    227.6261   7.1588695913e+01   1.5763327305e+01    0.6741955    0.3389962 -54.57  0.003430389    2.356    0.576
        36 -11.7341     98.6994    225.4848   6.8920686636e+01   1.4677908548e+01    0.6724993    0.5061936  38.34  0.001459293    1.092    0.085
        37 -11.6311     95.7493    217.9601   6.8754266055e+01   1.6537280548e+01    0.6446839    0.3690007  36.43  0.001828406    1.451    0.311
        38 -10.3236     99.9957    217.4638   6.7713591471e+01   1.6028970281e+01    0.3664138    0.2099542  46.74 0.0006869095    1.575    0.365
        39  -8.7239    154.2367    238.1956   5.8485177388e+01   4.6376963519e+00    0.2038781    0.1172661  -2.14  0.000836436    2.747    0.636
        40  -8.7094     15.7644    237.4114   8.7867491297e+01   2.2280458032e+01    0.2292916   0.07439561  35.37  0.001147563    2.234    0.552
        41 -10.1902    231.1521    234.4151   4.3503982846e+01  -4.7897963920e+00    0.2550802    0.1946705  -2.97 0.0007752042    1.112    0.101
        42  -8.3013    202.4881    230.9854   4.8029157895e+01  -8.5066273147e-01    0.1255915    0.1078401 -66.85 0.0003751566    2.262    0.558
        43 -10.0162    117.5039    227.5806   6.4957604193e+01   1.1622598834e+01    0.4282216    0.2457838  51.79  0.001666222    1.879    0.468
        44  -8.8681    144.9660    227.6641   5.9000944138e+01   7.6277107360e+00    0.1849565    0.1368168  27.54 0.0004435831    1.114    0.102
        45 -11.4893    126.8376    221.8029   6.2157961143e+01   1.1295325711e+01     0.622645    0.4178579  86.42  0.002676762    2.712    0.631
        46 -10.0165    181.2485    226.3778   5.1373639931e+01   2.6460376554e+00    0.2838653    0.1857838  36.04  0.000993549    1.446    0.309
        47  -8.2284     28.9627    226.0000   8.4573314496e+01   2.3189918726e+01    0.1926331   0.05752295  28.97 0.0008051929    2.962    0.662
        48  -8.4937     73.4005    224.3300   7.4544990748e+01   1.8319195054e+01    0.1515624    0.1152934  83.93 0.0009259499    1.440    0.305
        49  -9.2865    157.6199    221.4604   5.5445330434e+01   6.7955626716e+00    0.2429119    0.1863824  12.29 0.0008569133    1.201    0.168
        50  -9.4984    218.9073    219.1600   4.3205226002e+01  -1.3868422926e+00    0.3307346    0.1890171  -9.00  0.001853524    1.880    0.468
        51  -9.0030    213.1496    220.6747   4.4473566159e+01  -8.4827791475e-01    0.3138213    0.1425318  40.76  0.001573949    2.486    0.598
        52  -9.8053    133.3602    221.1805   6.0631632335e+01   1.0439497923e+01     0.367132    0.2257413 -75.22  0.001711023    2.996    0.666
        53 -10.4974    131.0433    214.6778   6.0252411141e+01   1.1953329452e+01    0.3852368    0.3120922  60.07   0.00201484    1.455    0.313
        54  -9.5103    128.0693    211.9339   6.0540802520e+01   1.2912050771e+01    0.3757489    0.1492692  41.77 0.0004385142    2.246    0.555
        55  -9.8401    114.7057    220.5284   6.4716068801e+01   1.3312622269e+01    0.2866145    0.2046976  37.67  0.001306997    1.173    0.147
        56  -8.7384    149.2150    219.7793   5.6985040934e+01   8.3195873658e+00    0.2168475    0.1760219 -35.05 0.0007898355    1.391    0.281
        57  -9.1608    152.0739    215.8363   5.5791778912e+01   8.5592558705e+00     0.315806    0.1942998  14.26  0.001327607    1.824    0.452
        58  -9.6602     75.2846    219.4816   7.3658051558e+01   1.9037090989e+01    0.2903751    0.1747005  46.53  0.001006533    1.399    0.285
        59  -9.4041    190.9973    218.5124   4.8254160752e+01   2.4429395156e+00    0.2520554    0.1799308   5.33    0.0015516    1.281    0.219
        60  -9.4841    190.3360    215.0412   4.7826274301e+01   3.0503949634e+00    0.4100674    0.2539704  -1.48  0.002198851    1.858    0.462
        61 -10.2292     84.6451    215.6364   7.1087251798e+01   1.8550083079e+01    0.5628334    0.2125078 -55.40  0.002409641    2.965    0.663
        62  -9.0305     61.1838    218.3925   7.6821207454e+01   2.1063769973e+01    0.2681184    0.1205228 -52.38  0.001234044    2.791    0.642
        63  -9.2150    176.2628    216.3453   5.0822014596e+01   4.8776469167e+00     0.256579    0.1379845 -29.74  0.001292994    2.102    0.524
        64  -8.3963    143.7494    216.9733   5.7762800595e+01   9.6201645478e+00    0.1541774    0.1127594 -44.66 0.0008863996    1.579    0.367
        65  -9.7079     23.7790    216.6635   8.5213019137e+01   2.5622458399e+01     0.408808    0.1058059  32.67  0.001729481    2.869    0.651
        66 -11.1892    122.2833    223.3998   6.3377395495e+01   1.1678564391e+01    0.6628458    0.3968649  73.86  0.002801411    3.511    0.715
        67  -9.9096    112.6564    212.6815   6.4186127109e+01   1.5102201927e+01    0.5252323     0.307189 -22.04  0.002201707    3.165    0.684
        68 -10.6536     77.6535    210.9377   7.2245409357e+01   2.0465749849e+01    0.4867846    0.3283169 -67.34  0.002581885    1.664    0.399
        69  -9.5805     63.6732    213.4145   7.5803958888e+01   2.1780410719e+01    0.2966463    0.2449357  57.19  0.001577543    1.057    0.054
        70  -9.2414    228.4346    213.9511   4.0700977060e+01  -1.9079660026e+00    0.2223046    0.1467881  -3.72  0.001419365    1.342    0.255
        71 -10.2730    170.6772    215.2598   5.1789993849e+01   5.8700876527e+00    0.2699393    0.2207017  16.82 0.0007081655    1.016    0.016
        72  -9.7113    202.4235    210.9873   4.4857785401e+01   1.9473122983e+00    0.3372188    0.1932103 -30.69  0.001886126    1.726    0.421
        73 -10.5991    212.1637    208.0379   4.2570842347e+01   1.0276909680e+00    0.5551956    0.3712636  -7.02  0.003360268    1.427    0.299
        74  -9.1132    211.8253    203.2294   4.1813262166e+01   1.7623765738e+00    0.3569904     0.145528  29.41  0.001580675    2.447    0.591
        75  -9.3680    237.7714    210.2419   3.8520758614e+01  -2.5859131116e+00    0.2402172    0.1448899  43.98  0.001395781    2.376    0.579
        76 -10.6342     11.4166    206.2319   8.7474074126e+01   2.8999906157e+01    0.3748688    0.2201391  82.13  0.002219208    1.538    0.350
        77 -11.6804     14.7727    196.3775   8.6210966100e+01   3.0848779650e+01     0.768641    0.3350511 -47.27  0.002583652    3.589    0.721
        78  -8.8341    224.6358    206.3728   4.0082339674e+01  -4.0941502770e-01    0.2860316    0.1005129 -42.41  0.001233886    3.302    0.697
        79  -9.4643    130.5410    201.8590   5.8506874440e+01   1.4436274915e+01    0.5137149    0.3295236  69.01  0.002278004    2.649    0.623
        80  -9.6499    126.5569    196.7836   5.8670090487e+01   1.6065699152e+01      0.32901    0.2518371   9.06  0.001278093    1.461    0.315
        81  -9.3941    124.6047    193.1933   5.8581417354e+01   1.7101152427e+01    0.2627079    0.2021835 -12.61 0.0008999707    1.604    0.376
        82 -10.2159    166.9200    198.7906   4.9899722593e+01   9.1909899513e+00     0.382808    0.2902961 -26.09  0.001216203    1.369    0.269
        83 -11.4702    175.8767    185.1047   4.5603031314e+01   1.0130539676e+01    0.6398429    0.5122792 -58.52  0.002906249    1.669    0.401
        84 -11.6286    178.1073    196.8061   4.7221033718e+01   7.7644670671e+00     0.817032    0.4996938 -20.67  0.002920031    1.907    0.476
        85 -11.2368    172.8965    195.6240   4.8097289408e+01   8.7875400140e+00    0.6559267    0.2914805 -39.26  0.002271154    2.378    0.579
        86  -8.6178     55.5023    194.0286   7.5991475940e+01   2.7020048159e+01    0.2451259    0.1279862 -79.75  0.001148063    2.111    0.526
        87  -9.5929     61.0564    200.5072   7.5227767463e+01   2.4879069003e+01    0.4795658    0.1574689  41.89  0.001906984    2.443    0.591
        88  -8.2365    101.1409    199.6488   6.5215931070e+01   1.9456890668e+01    0.1877521    0.1193318  24.40 0.0003303324    1.614    0.380
        89  -8.2210    148.4103    198.2590   5.3857773689e+01   1.2252556428e+01    0.1758689     0.133916 -64.15 0.0009432256    1.756    0.430
        90  -8.2273    144.5444    197.9579   5.4681186704e+01   1.2933301817e+01    0.1925539    0.1093028 -24.61 0.0008089775    2.589    0.614
        91  -9.2728    112.7427    198.0308   6.2166735950e+01   1.8006776896e+01    0.4364623    0.2097733  56.43   0.00164135    3.039    0.671
        92  -8.8582    113.0238    194.2812   6.1554317743e+01   1.8736416903e+01     0.206342    0.1862216  35.97 0.0003688832    1.016    0.015
        93  -9.4618    105.2921    197.5066   6.3908435776e+01   1.9271578775e+01    0.2462053    0.2348408   5.19 0.0009299621    1.149    0.130
        94  -9.0004      1.2840    197.4469   8.9413125176e+01   3.1766857368e+01    0.3028672   0.08817265  88.59  0.001194289    3.494    0.714
        95  -8.8448    212.8199    198.8208   4.0868853976e+01   2.2636662072e+00    0.1871502    0.1386376  -4.12 0.0004273016    1.192    0.161
        96  -8.9964     38.1925    196.6538   8.0548503278e+01   2.8443736603e+01    0.1615817    0.1528177   2.41  0.001069302    1.344    0.256
        97  -8.6315    248.6656    195.6552   3.4285658712e+01  -2.0434419384e+00    0.1237712   0.07257411  -3.89  0.000704976    1.766    0.434
        98  -8.4661    131.7857    195.0182   5.7160246395e+01   1.5569515651e+01    0.2091584    0.1777692  58.19 0.0008813861    1.316    0.240
        99  -8.6504     66.6702    194.9084   7.3252259913e+01   2.5395847463e+01     0.278572    0.1410501  74.25  0.001119902    2.851    0.649
       100  -9.0209    162.1796    194.2217   5.0140884353e+01   1.0756122210e+01    0.1789999    0.1570639  51.81 0.0005728785    1.363    0.266
       101 -11.7649     98.0565    188.6350   6.4474994006e+01   2.2286083135e+01    0.7007971     0.416201  58.76  0.001662874    1.975    0.494
       102  -9.7785    104.0333    189.2278   6.3047034415e+01   2.1226329152e+01    0.3120937     0.202008  33.62  0.000865844    1.406    0.289
       103 -10.7442     93.8802    181.6723   6.4555822673e+01   2.4480866020e+01    0.4413992    0.3587137 -26.37  0.001145262    1.520    0.342
       104  -8.0646    116.9973    190.7807   6.0055333047e+01   1.8829143873e+01    0.1832536    0.1048265  34.86 0.0002097145    1.566    0.362
       105 -10.6300    183.5469    185.8254   4.4153553989e+01   8.7531737233e+00    0.3834804    0.2417774 -51.55  0.001853579    2.020    0.505
       106 -10.0186    203.8816    187.7169   4.0530559259e+01   5.2528485766e+00    0.3739923    0.2866362  59.11  0.001990149    2.098    0.523
       107  -9.2764    198.8222    185.3696   4.1057785425e+01   6.4029985238e+00    0.1938448    0.1639623 -13.36 0.0007867989    1.086    0.079
       108  -8.9364    128.5502    188.3637   5.6863749065e+01   1.7434171244e+01    0.2456755    0.2134024 -20.19 0.0008973831    1.266    0.210
       109  -8.7742    155.1966    187.3315   5.0485541416e+01   1.3172282682e+01    0.2642887    0.1769159 -19.03 0.0008818635    1.844    0.458
       110 -11.1682     19.7998    181.6459   8.4103597594e+01   3.3750651409e+01    0.5199559    0.3935375 -68.15  0.003197411    1.385    0.278
       111 -10.2007     11.4467    187.4852   8.6543205994e+01   3.3146018081e+01    0.2553892    0.2250355  54.26 0.0005807989    1.150    0.130
       112 -12.0563     12.3045    180.1459   8.5923099262e+01   3.4765479922e+01    0.8256769    0.5612986 -54.43  0.004174141    1.718    0.418
       113 -11.2911      5.2835    176.9684   8.7533185527e+01   3.6080242009e+01    0.5127568    0.3837992 -76.99  0.002001174    1.300    0.231
       114 -11.5826      3.8622    169.3293   8.7503951773e+01   3.7987693111e+01    0.3692703    0.2695955 -83.15 0.0002156292    1.242    0.195
       115  -8.4672     55.2035    186.8278   7.5355596236e+01   2.8705999198e+01    0.2540597     0.107557  60.30 0.0009568941    2.925    0.658
       116  -9.3467    171.4510    201.4494   4.9392213488e+01   8.0242184737e+00    0.2371945    0.2126659  49.02 5.537817e-05    1.389    0.280
       117 -10.0432    109.5582    184.9335   6.1009524198e+01   2.1274041961e+01    0.4877225    0.3119246  34.51  0.002348827    1.425    0.298
       118  -8.4167    249.6832    185.6498   3.2365775816e+01  -8.5638197036e-01     0.124133   0.07448743  -5.43 0.0007047476    1.733    0.423
       119  -9.7670    209.7957    184.8268   3.8906353897e+01   4.8089830157e+00    0.2286337    0.1746651 -24.13 0.0008172831    1.202    0.168
       120  -8.4847    139.3322    185.2972   5.3780703627e+01   1.6243393927e+01    0.1435861    0.1062617  -0.08 0.0003543416    1.643    0.391
       121  -9.4750    228.9407    183.9768   3.5394144672e+01   2.1508610535e+00    0.3173811    0.1824625  30.65   0.00178617    1.745    0.427
       122  -8.4198    217.7324    182.9376   3.7132661666e+01   3.9158547856e+00    0.1769794    0.1453398 -10.11 0.0007565008    1.035    0.034
       123  -9.6525     45.8408    181.9630   7.7335568192e+01   3.0967735746e+01    0.3333792    0.2298111 -74.89 0.0009883612    1.448    0.310
       124  -9.1340     47.0000    176.9792   7.6537290557e+01   3.2017703850e+01    0.3778914    0.1772765 -78.41  0.001446701    2.259    0.557
       125  -9.6428    138.9974    180.3760   5.3004621387e+01   1.7288468764e+01    0.3092528    0.2247601  63.96  0.001501065    1.832    0.454
       126 -10.9866    150.5982    174.5013   4.9209723448e+01   1.6439497120e+01    0.5651597     0.388546  34.66  0.001828696    1.360    0.265
       127  -9.0592    112.2835    179.6010   5.9475035632e+01   2.1988047994e+01    0.2645455    0.1750153  26.22   0.00125777    1.540    0.351
       128  -9.6504    103.1039    178.9342   6.1736081837e+01   2.3637859764e+01    0.4487919    0.3120375  55.29  0.002213557    1.504    0.335
       129  -9.9897    105.2841    174.8889   6.0523927710e+01   2.4190689746e+01    0.6207815    0.3598661 -88.05   0.00226088    3.335    0.700
       130  -8.1980    209.6737    179.6954   3.7974008822e+01   5.6266316601e+00     0.133952   0.08930922  -0.37 0.0003037298    1.646    0.393
       131  -8.5844    240.4802    177.9844   3.2410287665e+01   1.4055314384e+00    0.1808487    0.1008315 -31.35  0.000602632    1.548    0.354
       132  -8.5269    219.0385    178.0062   3.5984079042e+01   4.4690344737e+00    0.1671224     0.155989 -58.51 0.0004379825    1.568    0.362
       133  -9.5606    158.3346    176.6581   4.7846971800e+01   1.4660953140e+01    0.3977542     0.233834 -34.08  0.001835615    1.866    0.464
       134  -9.1907     89.1055    177.2423   6.5174663258e+01   2.6228323109e+01    0.3719366    0.2143739  62.34  0.001298027    2.187    0.543
       135  -9.7588     90.2815    172.3983   6.4137452112e+01   2.7171562429e+01    0.5684713    0.2733935  26.59  0.001702482    2.305    0.566
       136 -10.7475    204.1139    175.5315   3.8210961853e+01   7.1593329290e+00    0.4534599     0.297048  20.04  0.002436822    1.581    0.368
       137 -10.7448    207.1054    168.1207   3.6222959382e+01   7.8834201415e+00    0.4958754    0.3206028 -13.04  0.002387971    1.724    0.420
       138 -11.0747    217.9773    165.3944   3.3748990630e+01   6.5830907501e+00    0.5479491    0.3582619  24.76  0.002356835    1.600    0.375
       139  -9.3637     77.4425    175.7262   6.8104854018e+01   2.8321841569e+01     0.362572    0.1960605  55.49  0.001284086    2.008    0.502
       140  -8.0851     59.5286    176.5032   7.3082295634e+01   3.0590710176e+01    0.1440132    0.1184268  61.69 0.0001669293    1.114    0.102
       141 -10.3598     29.1918    174.8029   8.1141932646e+01   3.4471729685e+01    0.3804153    0.2276314 -80.31  0.001304515    1.591    0.371
       142 -10.1057     28.5322    170.0278   8.0928170584e+01   3.5690199044e+01    0.2887838    0.2066729  78.22  0.001040585    1.284    0.221
       143  -8.8116    182.6938    175.3503   4.2365905642e+01   1.0707353098e+01    0.1274661     0.111991  89.02 0.0004377905    1.707    0.414
       144 -10.0342     24.2433    174.5459   8.2444976816e+01   3.5015220965e+01    0.2905014    0.1809617  64.99 0.0009996052    1.472    0.321
       145  -9.9476     19.4649    166.5290   8.3138830018e+01   3.7390186327e+01    0.2359415    0.1345407  70.09 0.0008951395    1.674    0.402
       146  -9.4737     15.0007    163.4845   8.4147805046e+01   3.8516794564e+01    0.2721058    0.2052661  25.41  0.001487044    1.456    0.313
       147 -10.2336     20.7320    161.1721   8.2373773419e+01   3.8590499575e+01    0.4211224    0.2849822 -13.19  0.002184399    2.158    0.537
       148  -9.8447     25.7861    159.9789   8.0837088802e+01   3.8423835791e+01     0.476717    0.2604042 -10.82  0.001935442    3.429    0.708
       149  -8.4456    193.3000    172.5689   3.9706638205e+01   9.4103011311e+00    0.1786696    0.1193213  23.56 0.0005484593    1.517    0.341
       150  -9.7252    179.5195    169.5594   4.1896894088e+01   1.2283450994e+01    0.2297521    0.1709155  27.53 0.0001030478    1.296    0.228
       151  -9.2028    176.5357    167.9312   4.2199767432e+01   1.3101874635e+01    0.3216968     0.192269 -37.39  0.000820514    1.676    0.404
       152  -8.6224    135.2308    171.4343   5.2303117732e+01   1.9791094834e+01    0.2091773     0.129102  45.87 0.0009458289    1.613    0.380
       153  -8.7408    138.5786    189.2816   5.4632003191e+01   1.5580967157e+01    0.2402772    0.1407908 -55.88  0.001067517    2.035    0.509
       154  -9.3461    121.5213    169.6421   5.5412844742e+01   2.2596941017e+01    0.3535997    0.2598594  74.21  0.001141601    1.850    0.459
       155  -8.6911     55.0933    169.2923   7.3468117682e+01   3.2897267230e+01    0.2770942    0.1540765  70.87  0.001084144    2.153    0.536
       156  -9.7003    199.9848    167.1187   3.7352382934e+01   9.2188649592e+00    0.3062813    0.2022996 -18.83  0.000449586    1.591    0.371
       157 -11.1399    150.0867    164.3387   4.7377734604e+01   1.8570840064e+01    0.6235294     0.379101 -35.95  0.002441818    1.785    0.440
       158  -9.0849    160.3645    166.5546   4.5449960567e+01   1.6254430903e+01     0.411185    0.2586213 -65.92  0.001711947    2.621    0.619
       159  -9.2194    139.2718    165.2918   5.0156078422e+01   2.0353972732e+01    0.3764386    0.2581163  72.83  0.001478031    2.392    0.582
       160  -9.8841     99.6666    159.6122   5.9461066380e+01   2.8657871329e+01    0.3566742    0.3050467 -48.80  0.001063247    1.242    0.195
       161  -9.7137     97.9947    165.0213   6.0852788530e+01   2.7662246438e+01     0.515412    0.3035024  69.44  0.001611359    2.646    0.622
       162  -8.8658     92.8068    160.0427   6.1454332550e+01   2.9693439216e+01    0.3002896     0.209116  70.79  0.001371292    1.767    0.434
       163  -8.7354     80.5411    164.4287   6.5622160096e+01   3.0563579204e+01    0.3859638    0.2115043  76.52  0.001389947    3.104    0.678
       164  -8.4246    121.5256    163.9410   5.4370967188e+01   2.3855442679e+01    0.2130114    0.1213731 -29.83 0.0008090751    2.568    0.611
       165  -8.1805     47.5029    164.0173   7.5012411710e+01   3.5118892282e+01    0.2031875    0.1039393  75.72 0.0008099063    2.498    0.600
       166  -9.1660     37.2189    164.0100   7.7950626926e+01   3.6275587995e+01    0.2684653    0.1940487  65.47   0.00146403    1.298    0.230
       167  -9.7736      8.9685    162.2384   8.5725377146e+01   3.9304776733e+01    0.4593779     0.158167 -86.90  0.001822725    2.851    0.649
       168 -10.5898    250.1466    153.3228   2.6289427907e+01   3.5503003709e+00    0.3773925    0.1872414 -37.28   0.00201402    1.724    0.420
       169 -10.3628    247.5761    162.2130   2.8367169501e+01   2.6502315911e+00    0.2908038    0.1664672 -23.30  0.001634553    1.572    0.364
       170  -9.4779    229.0840    161.2812   3.1072965229e+01   5.4959639920e+00    0.3304528    0.1928559   8.07  0.001561545    2.470    0.595
       171  -8.3696    177.4441    160.9097   4.0598554580e+01   1.4233293544e+01    0.1828162    0.1248101 -65.97 0.0006054699    2.370    0.578
       172  -8.8071     60.4707    158.7834   7.0595573187e+01   3.4801775194e+01    0.4270234    0.1997347  70.92  0.001385475    3.800    0.737
       173  -9.6401    219.4702    158.9575   3.2219511932e+01   7.3613181592e+00    0.2999998    0.1848255  63.09  0.001316228    3.310    0.698
       174  -9.5054    167.4075    157.9193   4.2138397262e+01   1.6639029346e+01    0.3048329    0.2638943 -74.96  0.001516369    1.516    0.340
       175 -10.5607    142.8130    158.3372   4.7919381119e+01   2.1162452388e+01    0.7296984    0.2680002  45.19  0.002497123    2.793    0.642
       176  -8.5876    127.8673    157.3897   5.1474784439e+01   2.4155184535e+01    0.3288336     0.180368 -65.80  0.001230065    2.683    0.627
       177  -9.3468    105.2364    157.6068   5.7558719198e+01   2.8177332525e+01    0.3067051    0.2272919  72.15 0.0008539974    1.666    0.400
       178  -8.9583    225.0201    157.4966   3.0994997566e+01   6.7081288332e+00    0.1759641    0.1232883  36.52 0.0005751004    1.537    0.349
       179  -9.9175    207.9016    156.1797   3.3690138933e+01   9.7173007004e+00    0.3353742    0.2600286  22.97  0.001250601    1.305    0.234
       180 -11.9285    206.3511    150.5466   3.2809667349e+01   1.0925206229e+01    0.8486058    0.6779788  83.52  0.004504428    2.090    0.522
       181  -9.5973    206.8792    142.1774   3.0951589528e+01   1.2246284644e+01    0.3263073     0.184242 -29.23  0.001060405    1.751    0.429
       182 -10.0572     81.5796    153.8172   6.3633537123e+01   3.2998372985e+01    0.6231048    0.2808368 -62.25  0.002015567    2.306    0.566
       183  -9.9420    157.9700    156.0090   4.3859413504e+01   1.8784228822e+01    0.2234582    0.1847965  81.12 0.0007355256    1.670    0.401
       184  -8.8850    119.6312    154.8655   5.3134309694e+01   2.6238763474e+01    0.3767005    0.2406542  86.52  0.001291713    3.034    0.670
       185  -9.1575    120.3796    149.6854   5.1898451392e+01   2.7280348689e+01    0.4514854    0.2761324 -14.71  0.001561893    3.267    0.694
       186  -9.2872     49.6491    155.1072   7.3320419196e+01   3.7093200543e+01    0.4092359    0.2154125  66.67  0.001686082    2.325    0.570
       187 -10.1203    134.3798    153.5803   4.9045137212e+01   2.3771946738e+01    0.5782466    0.3787539  67.32   0.00201304    2.327    0.570
       188  -9.9203     68.7070    154.1061   6.7487222297e+01   3.4842689386e+01    0.4889139    0.2989149  68.48  0.001659902    2.010    0.503
       189 -11.3421     70.0086    142.7973   6.5279225651e+01   3.7509677551e+01     0.835187    0.4887526 -63.49  0.003711234    1.702    0.412
       190  -8.9861     99.4205    152.2831   5.8204157903e+01   3.0445034010e+01    0.4269602    0.2585371 -83.06  0.001634517    2.606    0.616
       191  -9.8514    158.9540    144.9475   4.1272023773e+01   2.0824486177e+01    0.6992792    0.4014817  -2.14  0.001922955    5.492    0.818
       192 -10.7855    148.6225    143.9802   4.3483733233e+01   2.3065212846e+01    0.8723162    0.4510829 -58.38  0.002937047    2.650    0.623
       193 -10.3887    223.4595    148.2686   2.9392271712e+01   8.4064059818e+00    0.3987502    0.3492353  20.32  0.001633824    1.199    0.166
       194  -9.4213    189.7970    150.7133   3.5965363349e+01   1.3847062165e+01    0.2866398    0.2230106  48.88  0.001265674    1.448    0.309
       195  -8.7352     89.3518    151.0195   6.0874828264e+01   3.2444324163e+01    0.4468947    0.1838954  40.23  0.001648409    2.266    0.559
       196  -9.2051     28.3458    149.1387   7.9061759374e+01   4.0905606385e+01    0.5199865    0.2074258  73.82  0.001738258    3.794    0.736
       197  -8.7084     22.9848    151.4844   8.0896262660e+01   4.0806060437e+01     0.200418   0.07756104  48.02 0.0008096148    2.473    0.596
       198  -9.9444     39.4044    146.5674   7.5384747625e+01   4.0438947670e+01    0.6415412    0.3044597  71.39  0.002420043    2.876    0.652
       199  -8.9820    142.9877    146.9764   4.5506894805e+01   2.3539830516e+01    0.3412388    0.2084948  16.38  0.001308536    2.477    0.596
       200  -9.0901    134.0043    146.7681   4.7717135408e+01   2.5335809831e+01    0.2845679    0.1976212 -31.27   0.00128485    1.651    0.394
       201  -9.3903     77.7409    146.8045   6.3588813149e+01   3.5336724639e+01    0.2606113    0.1862292 -57.87  0.001258519    1.411    0.291
       202 -10.2218     57.4262    145.4798   6.9628024332e+01   3.8567084887e+01    0.7900063     0.292013  37.34  0.002714069    2.471    0.595
       203  -8.7948    195.3650    145.4198   3.3761258818e+01   1.3770414687e+01     0.337359    0.1203443 -44.07  0.001226835    2.826    0.646
       204  -9.6221    107.0772    144.7562   5.4567436798e+01   3.0886959229e+01    0.5575381    0.3324162  73.40  0.001920923    3.186    0.686
       205  -8.6696     13.2454    146.1031   8.3347084648e+01   4.2971109879e+01    0.2609964    0.1244299  51.88 0.0008495639    2.030    0.507
       206  -8.8603    190.2959    145.5780   3.4771424750e+01   1.4677911115e+01    0.1901501    0.1298817  29.85 0.0009417094    1.555    0.357
       207  -9.8758    116.4652    144.3676   5.1864953740e+01   2.9239350155e+01     1.173029    0.3873743  53.05  0.002409045    7.791    0.872
       208  -9.2797    106.9018    138.3033   5.3280993570e+01   3.2456618876e+01    0.3454604    0.3100396 -57.90  0.001532651    1.144    0.126
       209  -9.4885      3.0032    143.0573   8.6191347868e+01   4.4458330644e+01    0.4658573    0.1590189  82.97  0.001713214    3.270    0.694
       210  -8.5747    165.7498    144.1874   3.9575302045e+01   1.9641136954e+01    0.2382604    0.1674107  87.78 0.0009514414    2.761    0.638
       211  -8.5020    138.3013    144.6621   4.6173326954e+01   2.4957196349e+01    0.1521907    0.1219164  83.01 0.0007036649    1.665    0.399
       212  -9.6467    125.1821    142.8330   4.9178507158e+01   2.7925864381e+01    0.4975425    0.3245922 -85.71  0.001591907    2.826    0.646
       213  -8.7846    181.6900    140.5159   3.5379945441e+01   1.7237850043e+01    0.2678618    0.1260801 -41.04  0.001088172    2.058    0.514
       214  -9.9390    192.9505    133.9849   3.1715989319e+01   1.6259310937e+01    0.2105535    0.1966662 -66.07  0.000931091    1.250    0.200
       215 -10.9458    197.3325    136.3168   3.1412829399e+01   1.5010997722e+01    0.5598199    0.3947574  -5.09   0.00230988    1.778    0.437
       216  -9.8500     81.8287    137.2659   6.0598404726e+01   3.7086949856e+01    0.4126717    0.1933259 -54.88  0.001599038    2.102    0.524
       217  -9.9357     41.0540    135.5225   7.3435795406e+01   4.3109249651e+01    0.3877599    0.3240246 -20.39  0.001452035    1.447    0.309
       218 -10.1769     45.8793    134.5605   7.1713958036e+01   4.2812979101e+01    0.4022301    0.2479466  89.63  0.001348899    1.817    0.450
       219 -10.5539     42.4795    129.4212   7.2089726938e+01   4.4538856565e+01    0.4227556    0.3478166  44.55  0.001078067    1.226    0.184
       220  -9.4195     23.6487    138.4709   7.9424263268e+01   4.4061034388e+01    0.4066038     0.200101  61.60  0.001759037    2.240    0.554
       221  -9.7792     21.9958    132.0022   7.9269877692e+01   4.5869627870e+01    0.5853644    0.2380973 -48.06  0.002339192    2.696    0.629
       222 -10.8818    243.9754    132.0129   2.2946918884e+01   7.5895749277e+00     0.528065    0.1453816 -38.38  0.002027575    2.997    0.666
       223 -10.6278    246.9643    129.4130   2.2005029323e+01   7.5022975793e+00     0.460288    0.1832357 -45.69  0.001995526    2.631    0.620
       224  -9.4169    234.3878    136.5282   2.5263303496e+01   8.4488514777e+00    0.3025658    0.2139203  -2.81  0.001269495    1.642    0.391
       225  -9.3389    138.2991    137.3067   4.4543470281e+01   2.6559401169e+01    0.3057791    0.1919827 -69.93  0.001169214    2.501    0.600
       226  -9.1118    161.6021    136.2317   3.8718160135e+01   2.2055137654e+01    0.3229619    0.2602956  -0.12  0.001608045    1.442    0.307
       227  -9.0890     88.0418    143.6956   5.9920703844e+01   3.4463740057e+01    0.3286512    0.2202673  78.33  0.001220404    2.040    0.510
       228  -9.4322     58.2363    135.4923   6.7809739591e+01   4.1029272847e+01    0.3414497    0.2117967  -8.36  0.001351798    2.720    0.632
       229  -8.3211     96.0000    134.9459   5.5788045820e+01   3.5252453677e+01    0.2496694   0.08765122 -55.41 0.0006678017    2.900    0.655
       230  -8.4601    195.3114    154.3040   3.5646832017e+01   1.2218792791e+01    0.1406569    0.1012478  -0.49 0.0007019813    1.612    0.380
       231 -10.1545    132.3350    131.3000   4.4700115922e+01   2.9093322925e+01    0.4996342    0.2843603 -61.12  0.001578828    2.283    0.562
       232  -9.6090    131.9182    124.9007   4.3290312286e+01   3.0600139644e+01    0.3373173    0.3087755  68.57  0.001741787    1.168    0.144
       233 -10.2411     99.3132    127.8879   5.3259674498e+01   3.6374841282e+01    0.6948037    0.4423551  82.10  0.002170664    2.768    0.639
       234 -10.6466    108.4822     98.7890   4.3129452171e+01   4.1422732403e+01    0.6395879    0.5385171  81.79  0.002296858    1.405    0.288
       235  -9.2412    108.5074     91.6243   4.1066878908e+01   4.3010536355e+01    0.4551806    0.2878423  13.72  0.001534501    2.847    0.649
       236  -9.2593     99.0868    119.5452   5.1406422148e+01   3.8440796096e+01    0.4717375    0.3098629  10.26  0.001410545    2.375    0.579
       237 -11.4818    107.9819    113.6031   4.7229672700e+01   3.8116040868e+01     1.730113    0.7099127 -53.40  0.005850061    2.615    0.618
       238 -10.1973    109.7054    130.5944   5.0783928040e+01   3.3762352897e+01     0.586866    0.3782762  27.78  0.002243799    1.739    0.425
       239 -11.2964    116.7224    124.9555   4.7462472261e+01   3.3705783125e+01    0.8659971    0.7315032  -0.45  0.004147379    1.409    0.290
       240 -10.0599    118.0138    118.6789   4.5570368287e+01   3.4892445007e+01    0.5795618     0.258162 -47.83  0.002082427    2.270    0.560
       241  -9.8951    105.2185    123.5837   5.0492921369e+01   3.6296969476e+01     0.381431    0.2541727  25.98   0.00126672    1.725    0.420
       242  -9.5561    108.9931    120.9653   4.8746798732e+01   3.6181795625e+01    0.3381847    0.2244325 -50.50 0.0007147093    1.526    0.345
       243 -10.0229     83.7750    131.7224   5.8895413736e+01   3.8160040921e+01    0.5248553    0.3523449  77.49  0.001585064    2.055    0.513
       244  -9.1604    208.9653    132.0137   2.8390269719e+01   1.3588187000e+01    0.3198277    0.1904587  61.32  0.001449008    2.444    0.591
       245  -9.8368    202.7096    136.0172   3.0365762520e+01   1.4058949898e+01    0.2897341    0.2189132  49.10 0.0006885421    1.485    0.327
       246  -9.6077     13.0531    129.1539   8.1924044707e+01   4.7299612353e+01    0.5409428    0.2209799  68.11  0.002043886    3.088    0.676
       247 -10.1493     21.6347     92.1108   7.3946482525e+01   5.6225756938e+01    0.6093868     0.237608 -39.57  0.002287139    2.967    0.663
       248 -10.5766     30.4183    101.8025   7.2059329497e+01   5.2978445304e+01    0.9712977    0.2789563  45.96  0.002909566    4.655    0.785
       249 -10.2662     22.6701    110.7087   7.6413419258e+01   5.1342785247e+01    0.6078352    0.2132903 -72.86  0.002281377    2.624    0.619
       250 -10.8477     15.4224    114.1151   7.9509255638e+01   5.1011215793e+01    0.9041836    0.3568803 -64.83  0.003520483    2.102    0.524
       251 -10.9188     16.3938    105.3060   7.8042745080e+01   5.3220997736e+01    0.6382878    0.4211523 -37.28  0.003042533    1.638    0.390
       252 -10.7898     23.4759    102.3282   7.4872240378e+01   5.3450659895e+01    0.8567046    0.3490643  61.43  0.002757541    4.310    0.768
       253  -9.2137    168.7077    129.1933   3.5520040652e+01   2.1999997551e+01    0.3614804    0.1766509 -55.95  0.001267744    2.924    0.658
       254  -9.0470    152.9146    128.6160   3.8946740700e+01   2.5401264039e+01    0.4080737    0.2103064 -58.73  0.001299952    2.810    0.644
       255  -9.5236     73.2496    129.2816   6.1789005799e+01   4.0468077127e+01    0.3755495    0.2374137  72.74  0.001162669    2.194    0.544
       256 -10.3938     59.7818    124.0999   6.5304182910e+01   4.3768779093e+01    0.6953334    0.3652661  70.53  0.002365127    3.334    0.700
       257 -10.3711     44.2569    122.8022   7.0451201189e+01   4.6064854783e+01    0.7610551    0.3737676  70.01  0.002516082    3.326    0.699
       258  -8.0345    208.5546    125.5010   2.7022516300e+01   1.4764997925e+01    0.1374065    0.1229576 -27.60 0.0001434569    1.011    0.011
       259 -10.2360    180.8360    121.0168   3.1074948775e+01   2.1054194233e+01    0.6682552    0.3933358 -20.03  0.002687134    2.377    0.579
       260 -10.5765    184.8322    114.0396   2.8626400093e+01   2.1507253916e+01    0.4777998    0.3622153  80.48  0.001899245    1.806    0.446
       261  -9.2333     29.2592    116.1654   7.4769357842e+01   4.9350234018e+01    0.3934797    0.1516704 -45.24  0.001450986    2.899    0.655
       262  -8.7617    225.1894    124.4031   2.4104217027e+01   1.1908999605e+01    0.1630686    0.1290819  66.27  0.000687893    1.662    0.398
       263  -8.9144    158.8269    121.6627   3.5904429949e+01   2.5573438180e+01    0.2890507    0.1985035 -68.81  0.001217153    2.082    0.520
       264  -9.0580     84.2307    121.9245   5.6675215707e+01   4.0539376985e+01    0.2993757    0.2092367  -2.23  0.001240273    2.152    0.535
       265  -8.7692    189.0268    121.0471   2.9497001859e+01   1.9367684836e+01    0.2294786    0.1715473   7.49  0.001115417    1.715    0.417
       266  -9.2468    172.7958    119.0643   3.2238362415e+01   2.3108663920e+01    0.4481816     0.194068 -34.64  0.001624055    2.494    0.599
       267  -9.8153    141.4504    118.6004   3.9287941103e+01   2.9947349104e+01    0.4501426    0.2722399 -61.87  0.001421037    2.206    0.547
       268  -9.8965    130.8845    118.3113   4.1940516567e+01   3.2276197743e+01    0.3965636     0.276693 -83.27  0.001580005    2.281    0.562
       269  -9.7188      2.7161    116.1227   8.4224273012e+01   5.1289869763e+01    0.6988432    0.2650568  87.51  0.002725788    2.828    0.646
       270 -10.2511     28.4650    122.6254   7.5946976965e+01   4.7737951631e+01    0.5398882    0.2943977  61.91  0.002387003    2.119    0.528
       271  -9.9753     92.7609    112.3131   5.1656671694e+01   4.1383912484e+01     0.541662    0.3505753 -78.68  0.001580647    2.274    0.560
       272  -9.9961     79.3123    112.7392   5.6225825994e+01   4.3674669996e+01    0.4979484    0.3417882  82.41  0.001584294    2.085    0.520
       273  -8.5285     58.9295    114.3688   6.3714301392e+01   4.6401882435e+01    0.2375866    0.1264986  -1.10 0.0007030977    4.451    0.775
       274  -9.5956     71.1085    119.1459   6.0448294228e+01   4.3386312407e+01    0.5331377    0.2762442 -65.90  0.002097728    2.089    0.521
       275  -9.2986    122.0205    112.5061   4.2875754224e+01   3.5456305632e+01    0.4111168    0.2541664  56.94  0.001664174    1.871    0.466
       276  -9.7206    121.3425    108.5188   4.2021600729e+01   3.6493802502e+01    0.5630052     0.372028 -10.04  0.002066877    2.696    0.629
       277  -8.3996    159.4492    111.9318   3.3340444079e+01   2.7387641783e+01    0.2171403    0.1283154 -62.55 0.0008074504    2.477    0.596
       278 -10.0208    133.8382    108.2210   3.8558685768e+01   3.3832558293e+01    0.6200134    0.2560602 -44.49  0.002147991    2.437    0.590
       279 -10.1453     66.2611    108.8702   5.9905693688e+01   4.6746177711e+01    0.7438881    0.3332457 -61.11  0.002790967    2.255    0.557
       280  -8.9292     59.3923    109.2333   6.2476341074e+01   4.7657654270e+01    0.2329159    0.1430576 -61.47 0.0006237673    1.574    0.365
       281  -9.2602     61.7295    105.9526   6.0897860689e+01   4.8160902482e+01    0.3320743    0.2252119  37.90 0.0008070471    1.498    0.332
       282  -9.2971    197.5691    106.2809   2.4457869826e+01   2.0224495179e+01    0.2551609    0.1980161  52.44  0.001364232    1.395    0.283
       283  -9.0255     78.3156    105.7847   5.4898004897e+01   4.5573733998e+01    0.3416278    0.2255733  -8.87   0.00132443    2.499    0.600
       284 -10.4714     45.7326    102.1303   6.6127807395e+01   5.1262661140e+01    0.8446497    0.4052745  64.51  0.002648816    4.199    0.762
       285 -10.3737    249.7835    102.5778   1.6116346838e+01   1.0971250794e+01    0.5861465    0.1805811 -29.10  0.002014029    3.969    0.748
       286  -9.1377    139.8063    104.4465   3.6025173649e+01   3.3298782299e+01    0.4070714    0.2650038 -75.42  0.001518716    2.589    0.614
       287  -8.9322    150.3261    103.8032   3.3308759014e+01   3.1052082401e+01    0.3019625    0.2267212 -66.78  0.001197582    1.613    0.380
       288  -9.1369     93.8849    103.7394   4.9098324067e+01   4.3232000182e+01    0.4409017    0.2248739  26.00  0.001518337    2.728    0.633
       289 -10.6878    129.5985    101.5454   3.7874037774e+01   3.6204049419e+01    0.5867974    0.3975523  34.85  0.001850528    1.604    0.377
       290  -9.3744      6.9770    103.0030   8.1354531444e+01   5.4411452626e+01    0.2153763    0.1369323  61.08 0.0007555044    1.696    0.410
       291  -8.0142    160.2939    101.6301   3.0486594753e+01   2.9217713598e+01    0.1586166    0.1184091 -72.74 0.0007027148    1.725    0.420
       292  -8.0815    166.3387    103.6456   2.9723330892e+01   2.7466994996e+01    0.1591484    0.1182171 -76.23  0.000115609    1.805    0.446
       293  -9.0854     82.0629     99.3064   5.1926299873e+01   4.6500462419e+01    0.5132663    0.2708618 -65.56  0.001875591    2.481    0.597
       294  -8.1140     83.4973     93.5029   4.9839152469e+01   4.7625753359e+01     0.153419    0.1482558 -15.09 0.0008101371    1.052    0.049
       295  -8.9636    129.2578     97.0308   3.6707615795e+01   3.7237332577e+01    0.2485902    0.1978276 -22.89 0.0006277564    1.449    0.310
       296 -10.4370     64.0181     95.9115   5.7643367606e+01   5.0343424506e+01     0.561295    0.3513554  78.61  0.001853012    2.767    0.639
       297  -8.9318     96.5054     90.6725   4.4590058430e+01   4.5746473566e+01    0.4038652    0.2604605 -13.25  0.001472617    2.743    0.635
       298  -8.7015    119.1035     93.8683   3.8600007131e+01   4.0194747038e+01    0.3061579    0.2136089 -14.96  0.001243307    2.087    0.521
       299  -9.9162     45.0544     91.8063   6.4155223038e+01   5.3974698315e+01    0.5560641    0.2618929  16.37  0.002114685    2.774    0.639
       300  -8.6958    138.7728     91.7672   3.2768874229e+01   3.6127851241e+01    0.2181288    0.1849729 -82.20 0.0006591246    1.359    0.264
       301  -9.4883    124.8053     91.1186   3.6212478106e+01   3.9488651916e+01    0.4209701    0.2973608 -86.16  0.001204377    2.181    0.541
       302  -9.0390     95.0003     96.6093   4.6788960888e+01   4.4689253990e+01    0.3490146    0.2247903 -66.15  0.001110579    1.959    0.490
       303  -9.7993      5.0089     91.5205   8.0756922962e+01   5.7442569074e+01    0.5417432    0.2387182  66.44  0.002145551    3.116    0.679
       304 -10.0277      7.8003     84.2080   7.8575876928e+01   5.9143992101e+01    0.5159248    0.2227767 -41.04  0.002265445    2.315    0.568
       305  -9.8178     34.5604     89.2197   6.7952258711e+01   5.5798309095e+01    0.5481377    0.2939824 -87.80  0.002150014    2.724    0.633
       306  -9.7107     36.0404     81.7697   6.5642965853e+01   5.7511543895e+01    0.4918524    0.2596891 -23.84  0.001943634    2.727    0.633
       307  -9.6885     86.5290     86.5176   4.6749717878e+01   4.8674864479e+01    0.5539104    0.3616901  78.40  0.001677364    2.844    0.648
       308  -9.6690     87.7900     80.1125   4.4341323651e+01   4.9864404560e+01    0.7580525    0.3171466  28.31  0.002122971    4.302    0.768
       309  -9.3986     65.2897     86.7435   5.4718179591e+01   5.2384960521e+01    0.4812624    0.2311604  21.43  0.001688504    2.934    0.659
       310  -9.4296    126.1244     84.2737   3.3824472286e+01   4.0585600192e+01    0.5915951    0.3492045  12.14  0.001612455    5.103    0.804
       311 -10.1364     48.2715     83.7420   6.0848630368e+01   5.5579961749e+01    0.5633844    0.3514124  78.73  0.002202783    2.728    0.633
       312  -9.6773     49.4122     76.7566   5.8468844838e+01   5.7121426951e+01    0.3735374    0.2439268  10.46  0.001185925    1.859    0.462
       313 -10.8149    186.1773     80.0714   1.9833869078e+01   2.7154765350e+01    0.4773125     0.462028 -47.51  0.002345773    1.060    0.056
       314  -9.8716    192.1609     76.1277   1.7851545144e+01   2.6436456236e+01    0.3287405    0.2544765   2.50 0.0009691479    1.781    0.438
       315  -8.7827    141.3085     79.3322   2.8524399582e+01   3.7935862622e+01    0.2225107    0.1543883  38.44 0.0003355652    1.581    0.367
       316  -8.6502     74.6566     80.1603   4.9163001233e+01   5.2342836741e+01    0.3274172    0.1889707 -62.56  0.001154276    2.145    0.534
       317  -9.5049    104.5442     82.8050   3.9627512450e+01   4.5777602748e+01    0.4555671    0.3002496 -72.04  0.001407162    2.334    0.572
       318  -8.9962    105.4222     76.6079   3.7391090538e+01   4.6879858541e+01    0.4226843    0.1918128  33.02  0.001341984    3.165    0.684
       319  -8.9032    127.9053     74.8257   3.0447597483e+01   4.2010537613e+01     0.432289    0.1992654 -52.98  0.001441011    2.781    0.640
       320  -8.7391    129.2387     69.3525   2.8373532011e+01   4.2706252823e+01    0.4007657    0.2707589   4.57  0.001554869    2.556    0.609
       321  -9.8907     24.6314     80.6159   7.0468720851e+01   5.8888371263e+01    0.4027823    0.2464818  72.05  0.001210035    2.265    0.559
       322 -10.0003     10.8664     74.1990   7.5544436246e+01   6.1468469310e+01    0.3811815    0.1972226  13.94  0.001203251    2.162    0.537
       323  -9.9980     26.8331     71.8342   6.7474916678e+01   6.0860431240e+01    0.7567406    0.3212875 -21.89   0.00237193    4.673    0.786
       324  -9.1391    105.8601     71.7375   3.5661275599e+01   4.7764945890e+01    0.2861668    0.2010002 -70.63 0.0008699388    2.000    0.500
       325  -9.1372     95.3628     71.0341   3.8783090950e+01   5.0224043288e+01    0.3829803    0.2506493 -67.15  0.001550908    2.233    0.552
       326  -9.2791    117.1875     82.7290   3.5823750760e+01   4.2965561995e+01    0.4086813    0.2838245   2.96 0.0004144608    2.380    0.580
       327  -9.6566     51.2508     69.0200   5.5356219812e+01   5.8679774109e+01    0.4901434    0.2529643 -69.92  0.001791142    3.063    0.674
       328  -9.4336     82.7749     72.6203   4.3713799011e+01   5.2487682116e+01    0.4131849    0.3016352 -87.98  0.001212674    2.163    0.538
       329  -9.0777     16.5330     69.3211   7.1861691924e+01   6.2300560736e+01    0.3827837    0.1997155 -84.71  0.001658055    2.448    0.592
       330  -8.9322      1.4629     69.0530   7.9139900332e+01   6.3200778147e+01    0.1983127    0.1084351 -69.61 0.0005836753    1.555    0.357
       331  -8.3855    146.8013     68.0628   2.3885324187e+01   3.8619644453e+01    0.2020992    0.1180348 -38.30 0.0005521706    1.722    0.419
       332  -8.9059     44.2929     67.6938   5.8111782764e+01   5.9930561657e+01     0.282443    0.1680155  -2.21  0.001172581    2.464    0.594
       333  -8.4242    138.5524     66.4593   2.5220106508e+01   4.0936363309e+01    0.1521343    0.1444797 -88.76 0.0001397233    1.043    0.042
       334 -10.0107      9.1822     65.3858   7.4677882367e+01   6.3718627886e+01    0.3278004    0.1273825 -64.67  0.001221205    2.116    0.527
       335  -8.6328    110.6491     63.9322   3.1592919650e+01   4.8158127287e+01     0.217414    0.1969683 -53.53  0.001135014    1.158    0.136
       336  -9.3400     95.8426     63.2650   3.5938863941e+01   5.1662747438e+01    0.3732177     0.241942 -15.36  0.001505459    2.286    0.563
       337  -8.9790     37.4032     63.7562   6.0185859659e+01   6.1687669860e+01    0.2886692    0.2224198  71.23  0.001500768    1.773    0.436
       338  -8.9709     51.6782     61.4318   5.2681774860e+01   6.0324015782e+01    0.3990778    0.1942154 -29.14  0.001424254    3.092    0.677
       339  -9.6794     18.2889     61.8136   6.9241270591e+01   6.3977515645e+01    0.3169779    0.2034475 -40.18 0.0009673689    1.424    0.298
       340  -9.3524     83.7752     64.3769   4.0515989665e+01   5.4006220643e+01    0.4746836    0.2926408   0.89  0.001616568    3.462    0.711
       341  -9.8130    100.5531     60.4182   3.3409537819e+01   5.1145910542e+01     0.474189    0.2712367 -69.66  0.001462065    4.175    0.760
       342  -9.6074     73.3899     59.2835   4.2616087346e+01   5.7084955853e+01    0.3542066    0.2621354 -64.76  0.001049042    1.742    0.426
       343  -8.8989    165.3315     59.1877   1.7639474304e+01   3.5482997100e+01    0.3385903    0.1384873  47.74  0.001219818    2.704    0.630
       344  -8.7964    111.2295     58.2859   2.9462537540e+01   4.9041006952e+01    0.2955704    0.2210409  27.09  0.000984313    1.557    0.358
       345  -9.4524     39.3813     57.6955   5.7292637106e+01   6.2826562177e+01    0.2734351    0.2062945 -10.94  0.001464056    1.422    0.297
       346 -10.0452      2.1733     55.9848   7.6428546173e+01   6.6308563665e+01    0.3425108    0.2389827 -81.96  0.001971519    1.482    0.325
       347  -9.9907      7.2344     56.9366   7.3908298409e+01   6.5842111632e+01      0.31247    0.2233323  69.29  0.001311615    1.787    0.441
       348 -10.1482      7.5119     51.4421   7.2480699370e+01   6.7110404855e+01    0.4246873   0.08462172 -54.47  0.001555123    3.086    0.676
       349 -10.4052    247.0602    248.0309   4.2948652996e+01  -8.0572236178e+00    0.2992958    0.2014664  12.76  0.001150092    1.170    0.145
       350  -8.5493    100.4373     54.7215   3.1376772405e+01   5.2204712335e+01     0.205374    0.1465385 -22.82 0.0009453634    1.623    0.384
       351  -8.9399     62.8642     54.3644   4.5125392872e+01   6.0004791395e+01      0.24521    0.1948182 -56.09   0.00081239    1.423    0.297
       352  -9.2070     25.8680     54.8815   6.3352565312e+01   6.4943562532e+01    0.2189375    0.1629011 -27.91  0.000708411    1.289    0.224
       353  -8.9160     53.8318     52.6221   4.8509229172e+01   6.1869359988e+01    0.5822022    0.2106653 -57.82   0.00170037    4.789    0.791
       354  -8.7550     54.3390     46.3222   4.5792691432e+01   6.3048992073e+01    0.2431154    0.1500081  -8.07  0.001006639    2.500    0.600
       355  -9.5651     75.9655     50.0173   3.8056786683e+01   5.8370441571e+01    0.4018758    0.2239042  23.53   0.00153822    2.613    0.617
       356  -9.3918     30.9788     51.3948   5.9506573462e+01   6.5202161543e+01    0.2400968    0.1876461 -76.50  0.000707741    1.609    0.378
       357  -9.0934     92.3654     50.0548   3.2199118519e+01   5.4860701822e+01    0.3764546    0.2104151 -51.32  0.001543467    2.187    0.543
       358  -9.0521     63.7138     47.4428   4.2029433683e+01   6.1205861351e+01    0.4068497    0.2471727  -0.76  0.001551238    2.986    0.665
       359  -9.2461     22.3102     46.9004   6.2776099541e+01   6.7060152398e+01    0.3203722    0.1899879 -10.51  0.001571486    1.981    0.495
       360  -8.7182     20.5526     52.8145   6.5602001052e+01   6.5890189868e+01    0.1762477    0.1230257 -76.41 0.0009328828    1.688    0.408
       361  -8.6685      1.6165     45.9865   7.4559658517e+01   6.8652639126e+01    0.1760194    0.1330986 -55.31 0.0004404555    1.119    0.106
       362  -9.2814    149.9818     44.2101   1.5826741948e+01   4.1569417399e+01    0.2733538     0.166956 -46.07 0.0008449411    1.662    0.398
       363  -8.4396    130.6524     45.7116   2.0181893861e+01   4.6279743059e+01    0.1536647    0.1100115  32.37 0.0007024123    1.659    0.397
       364  -9.7199     16.4490     42.9961   6.4899341664e+01   6.8417416825e+01    0.5142099    0.1709845 -55.49  0.002138054    2.457    0.593
       365  -9.3299     58.1576     42.2594   4.2332535364e+01   6.3169351250e+01     0.254651    0.1868387 -69.52    0.0012201    2.127    0.530
       366 -10.1107      4.8292     40.6963   7.1258688695e+01   6.9691143927e+01    0.4613515    0.2403522 -87.02  0.002045297    2.960    0.662
       367  -9.1015    113.9200     41.3133   2.2573100505e+01   5.1139934522e+01    0.2483242     0.215373  -7.78 0.0002559242    1.304    0.233
       368  -8.4420     69.0399     41.0204   3.7096115414e+01   6.1360717540e+01       0.2114    0.1781467 -84.86 0.0006250176    1.682    0.405
       369  -8.6715     37.0455     40.7434   5.2250295661e+01   6.6716997925e+01    0.2459569    0.1753398 -82.65 0.0009975666    2.561    0.610
       370  -9.0632    123.5493     40.0378   1.9785504176e+01   4.8908155685e+01    0.2624747    0.1856862  46.20 0.0003328805    1.396    0.283
       371  -8.9025     84.4785     39.6729   3.0694556604e+01   5.8350914481e+01    0.2924068    0.1947061  27.39 0.0009173232    1.710    0.415
       372  -8.3332    119.3325     55.6723   2.6346390594e+01   4.7530016356e+01    0.1571153    0.1179242 -77.73 0.0007051593    1.715    0.417
       373  -8.7678    106.0501     36.9813   2.2982344515e+01   5.3711653208e+01    0.2333814    0.1653099  29.12 0.0004776793    1.621    0.383
       374  -9.4301     95.8227     33.7811   2.4589530323e+01   5.6635501567e+01    0.3173695    0.1869889   1.73  0.001193171    3.049    0.672
       375  -8.8864     26.0587     36.2302   5.6673538219e+01   6.8943870070e+01    0.2133951    0.1683272 -68.27 0.0009216809    1.614    0.380
       376  -8.5171     37.8662     35.2117   4.9444915449e+01   6.7685626961e+01    0.1879971    0.1416384 -10.59 0.0004726535    1.336    0.251
       377  -8.8136    119.5324     33.2223   1.8213193305e+01   5.0864293748e+01    0.2580209    0.1378418 -35.43 0.0009751496    1.955    0.489
       378  -9.9628      6.3745     33.5323   6.8096834047e+01   7.1166719830e+01    0.2792203    0.1874551 -23.98  0.001170968    1.374    0.272
       379  -8.7704    222.5058     32.4859   3.4875781572e+00   2.5824868001e+01    0.1290288    0.1033557 -60.49 0.0008101895    1.039    0.037
       380  -8.3636     60.5020     32.5298   3.6931797932e+01   6.4437563948e+01     0.135374    0.1275335  18.71 0.0001423521    1.100    0.091
       381  -8.6242     49.5033     32.5152   4.2095214400e+01   6.6397808746e+01     0.133673    0.1232807   5.19 8.949033e-05    1.078    0.072
       382  -9.1751     12.6811     31.1195   6.3072205452e+01   7.1238712733e+01    0.2015503    0.1678451  21.53  0.000809642    1.330    0.248
       383  -8.2473    112.3888     30.3002   1.8769426812e+01   5.3051187329e+01    0.1572514    0.1004973  34.40 0.0007014167    1.792    0.442
       384  -8.3476     72.2804     30.6905   3.1207988226e+01   6.2375263128e+01    0.1297103    0.1119356 -77.76 0.0003568951    1.562    0.360
       385  -9.3810     27.7973     28.1208   5.2092760409e+01   7.0326893671e+01    0.4160246    0.1249917 -38.20  0.001447848    3.705    0.730
       386  -9.3848    148.1232     28.6786   1.1173512509e+01   4.4088810103e+01     0.251886    0.1914504 -48.21  0.001335709    1.334    0.250
       387  -8.8976      2.2880     27.5651   6.8870412654e+01   7.2659542487e+01    0.2648634    0.1527059 -11.98 0.0008860993    1.753    0.430
       388  -8.4760     81.0338     26.8994   2.6302282879e+01   6.1015697839e+01    0.2286202    0.1659264  88.23  0.001077457    2.104    0.525
       389  -8.4784     61.8010     27.0138   3.3735957505e+01   6.5056520753e+01    0.2111352    0.1383386  24.54   0.00104202    1.638    0.390
       390  -7.9160     91.6720     26.3151   2.2661363281e+01   5.8636614206e+01    0.1406033    0.1101351 -76.11 0.0005923787    1.674    0.403
       391  -8.0092     73.3287     26.3151   2.8775285756e+01   6.2789804361e+01    0.1464735   0.09990316  20.64 0.0007044872    1.676    0.403
       392  -9.7448     44.3897     25.1883   4.1144056870e+01   6.8478869341e+01    0.2381806    0.1905584  14.72 0.0003563128    1.158    0.137
       393  -8.7357    110.4971     24.4552   1.6931249064e+01   5.4256186550e+01    0.2088566    0.1421032  -7.23 8.522391e-05    1.869    0.465
       394  -7.8379    118.5103     24.4891   1.5163848537e+01   5.2219898219e+01    0.1439729    0.1292488  56.54 0.0001642646    1.047    0.045
       395  -8.8491     67.3389     23.7692   2.9858742606e+01   6.4411222281e+01    0.1837388     0.124458 -17.77 0.0003223669    1.632    0.387
       396  -8.8287     40.8199     21.3621   4.1084498814e+01   6.9673913458e+01    0.2781727    0.1827861 -13.70  0.000138719    1.695    0.410
       397  -8.1009    137.5401     22.4999   1.0853291902e+01   4.7546365693e+01    0.1414666    0.1278739  80.34 0.0002004721    1.006    0.006
       398  -8.2627     58.6678     22.1216   3.2665477925e+01   6.6388244454e+01    0.1815111    0.1191194 -18.47 0.0003468907    1.674    0.403
       399 -10.0554     13.0557     21.0340   5.8574079596e+01   7.3211747611e+01    0.2694561    0.2174429  -6.87 0.0007341293    1.115    0.103
       400  -9.4894    188.8653     20.5985   3.6462937205e+00   3.4838658528e+01    0.2063568    0.1827075 -25.59 0.0007652204    1.322    0.244
       401  -8.5053     92.3511     21.3156   2.0281937034e+01   5.9099625927e+01    0.1517702   0.09677407  31.40 0.0006015917    1.732    0.423
       402  -8.6904     84.8554     21.2004   2.2457186705e+01   6.0883059428e+01    0.1993201    0.1831567  75.50    0.0004597    1.204    0.169
       403  -8.2409     48.4330     21.5362   3.7178286376e+01   6.8370490314e+01    0.1312847    0.1168384   9.36 0.0001608503    1.042    0.040
       404  -8.4003     63.3531     20.6880   2.9937692110e+01   6.5655693986e+01    0.1292902    0.1091484 -85.36 0.0007044985    1.728    0.421
       405  -8.3555     73.4149     19.2104   2.5334083012e+01   6.3717241519e+01     0.185184     0.123895 -41.68 0.0009400516    1.724    0.420
       406  -9.8837     29.6195     18.7779   4.6276974548e+01   7.1752091423e+01    0.2666031    0.2044942  43.91  0.001589716    1.621    0.383
       407  -8.5106      1.5225     19.5308   6.6454375632e+01   7.4345750851e+01    0.1201067   0.09860002 -30.75 0.0002773647    1.032    0.031
       408  -8.9814     50.5528     15.3288   3.2790506953e+01   6.8880233522e+01    0.2793142    0.1575056  19.39 0.0008060414    2.291    0.564
       409 -10.2684    196.2137    248.4781   5.1741863164e+01  -2.3295870187e+00    0.2614984    0.1914888  20.24  0.001241199    1.119    0.106
       410 -11.5285    166.8871    242.0099   5.6450154199e+01   2.3393779414e+00    0.7728763    0.3240937  29.27  0.003014118    2.000    0.500
       411  -8.2352     80.4796     12.4635   1.9703098319e+01   6.2905300445e+01     0.134298    0.1227497  51.14 3.485789e-05    1.079    0.073
       412  -8.8031    147.9871    249.0000   6.1133207357e+01   3.8709120005e+00    0.1959022    0.1497764  26.61  0.001318036    1.025    0.025
       413  -8.9573     31.8252     11.4159   4.0727094381e+01   7.2598801522e+01    0.1739388    0.1058969  23.65 0.0005597248    1.597    0.374
       414  -9.9280    107.2617    247.0185   6.9327776275e+01   9.6890478980e+00    0.3473455    0.2298026 -78.06  0.002057281    2.175    0.540
       415  -9.7787     36.8332    248.5336   8.4114039640e+01   1.8057334230e+01      0.21291    0.1572846  66.01 0.0008424478    1.195    0.163
       416 -10.9007      8.5493    241.6387   8.9461003435e+01   2.2165513295e+01    0.5609224    0.2368975  54.15  0.003262294    1.736    0.424
       417  -8.9464    188.2950    248.3594   5.3193872518e+01  -1.3256428764e+00    0.1197919   0.07363036   0.53 0.0007031891    1.702    0.412
