#   1 NUMBER                 Running object number                                     
#   2 MAG_AUTO               Kron-like elliptical aperture magnitude                    [mag]
#   3 X_IMAGE                Object position along x                                    [pixel]
#   4 Y_IMAGE                Object position along y                                    [pixel]
#   5 X_WORLD                Barycenter position along world x axis                     [deg]
#   6 Y_WORLD                Barycenter position along world y axis                     [deg]
#   7 A_WORLD                Profile RMS along major axis (world units)                 [deg]
#   8 B_WORLD                Profile RMS along minor axis (world units)                 [deg]
#   9 THETA_WORLD            Position angle (CCW/world-x)                               [deg]
#  10 FWHM_WORLD             FWHM assuming a gaussian core                              [deg]
#  11 ELONGATION             A_IMAGE/B_IMAGE                                           
#  12 ELLIPTICITY            1 - B_IMAGE/A_IMAGE                                       
         1 -10.3351     10.0763     18.8928   9.5963334781e+01   7.0912988904e+01     1.284234    0.4164035 -24.52  0.004077343    6.185    0.838
         2 -11.0958     23.6458     32.3831   9.4410563284e+01   6.7447927862e+01     1.365853     0.429067 -37.17  0.003773672    2.841    0.648
         3 -10.6711     37.2617      9.2819   7.7223127281e+01   6.9602721519e+01    0.8361729    0.2729237 -38.55  0.002695804    3.098    0.677
         4 -10.5430     26.9606     11.5130   8.3504334202e+01   7.0547486981e+01    0.9369703     0.350312  34.38  0.004543909    2.885    0.653
         5  -9.4571      2.3870     14.4601   9.8393051324e+01   7.2179427110e+01    0.4116486    0.2132228 -62.61  0.002149161    2.827    0.646
         6 -10.4757      5.6236      4.8012   9.2068829096e+01   7.3532574966e+01    0.5005819    0.3384684 -14.90  0.002258196    1.156    0.135
         7 -10.1506      4.9229     41.8886   1.0657942213e+02   6.6902474543e+01    0.7976155    0.2955869 -61.46  0.003808596    2.335    0.572
         8 -10.1777      7.2226     28.3225   1.0112289648e+02   6.9411442244e+01    0.2966169    0.2724868  29.64 0.0009959209    1.550    0.355
         9 -10.9260    134.0472     31.0217   5.5093055765e+01   4.7986202410e+01    0.4070441    0.2876075   0.07  0.002004436    1.687    0.407
        10  -8.0137     72.3784      8.2995   6.2425891649e+01   6.4025293146e+01    0.2199221    0.1561613 -13.78 0.0004173626    1.362    0.266
        11 -10.0694     73.6818     17.7201   6.6378471646e+01   6.2736125963e+01     1.087003      0.23841 -28.13   0.00317824    4.873    0.795
        12 -10.1835     69.4556     40.9238   7.7968281877e+01   6.0154577834e+01    0.9518272     0.357162 -40.10  0.002233648    2.563    0.610
        13  -9.3564    101.1926     31.4055   6.3481173136e+01   5.5506551866e+01    0.6947652    0.2669732 -26.40  0.002392695    2.812    0.644
        14 -10.0924     62.8119      3.3320   6.3351127285e+01   6.6281639668e+01    0.4930305    0.4261301   4.79   0.00336963    1.168    0.144
        15  -9.6028     63.0747     20.9172   7.1772073175e+01   6.4203359003e+01    0.4622717    0.2712868 -44.30  0.001429626    2.245    0.555
        16 -10.0769     64.4840     12.7209   6.7362310928e+01   6.4982014259e+01    0.4198413    0.2939489 -18.93  0.001533836    1.352    0.261
        17 -10.0881     52.3862     13.9809   7.2793837931e+01   6.6825213948e+01    0.7095408    0.3372728  28.11  0.001971263    2.161    0.537
        18  -8.7631     46.5923     20.5739   7.8484038750e+01   6.6779932397e+01    0.4407476    0.1888156 -27.05  0.001705756    2.364    0.577
        19 -10.1473     46.2379     29.5268   8.2689133599e+01   6.5456551787e+01    0.4605778    0.2618278 -48.17  0.001047671    2.121    0.529
        20  -9.4411     91.3138     26.2641   6.4328964547e+01   5.8242533888e+01    0.4578627    0.2460039 -45.12  0.001612632    2.476    0.596
        21  -9.7195    131.3445     19.4563   5.1546703391e+01   4.9959311875e+01     0.486863    0.3114361   8.08  0.001516256    1.972    0.493
        22  -9.6733    119.1207     19.8479   5.4328140712e+01   5.2838984950e+01    0.6487672    0.3168028 -12.90  0.002185563    2.572    0.611
        23  -8.0917    111.4172     20.9317   5.6581502160e+01   5.4505569702e+01    0.4788732    0.1280142 -27.05  0.001606485    3.787    0.736
        24  -9.0410    103.0421     21.1063   5.8814774435e+01   5.6364624451e+01    0.3656836    0.3118313 -23.76  0.001043351    1.257    0.204
        25  -8.8082    104.4421     15.4108   5.6131151731e+01   5.6666686953e+01    0.3678679    0.1918058  13.63  0.001503829    2.761    0.638
        26  -9.3212     96.3658     14.5622   5.7918803397e+01   5.8525051422e+01    0.6240105    0.2621629 -13.55  0.002443637    3.090    0.676
        27  -8.5236     97.6030      6.1713   5.4033536740e+01   5.9056650939e+01    0.2916784     0.181712  19.76 0.0007811856    1.676    0.403
        28  -8.6177     95.8700      2.8262   5.3044449719e+01   5.9719648455e+01    0.2611598    0.2001864  -9.33 0.0009100897    1.358    0.264
        29  -8.4921     89.0430      2.4193   5.4647949294e+01   6.1220727375e+01    0.2411628    0.1793325  -8.45 0.0007691957    1.372    0.271
        30  -9.5860     85.3383     13.2051   6.0523009446e+01   6.0975061704e+01    0.4387305     0.261781 -48.42  0.001563615    2.568    0.611
        31  -8.0322     85.1158      6.4772   5.7572003287e+01   6.1684211550e+01    0.3700199     0.142432  33.30  0.001456741    2.883    0.653
        32  -9.0165    140.0037     11.2147   4.7023907431e+01   4.8651207246e+01    0.5191732     0.305096 -63.06  0.002321705    2.409    0.585
        33  -9.1776    133.5068     11.5191   4.8297988814e+01   5.0216752451e+01    0.3825205    0.1931785 -47.35  0.001653117    2.514    0.602
        34  -9.6411    133.5421      3.9781   4.5632453291e+01   5.0865237349e+01    0.4593292    0.3633631   4.26  0.002694451    1.414    0.293
        35  -8.1533    136.4792      1.4762   4.4270485252e+01   5.0348708956e+01     0.227588    0.1152551  64.73  0.000685904    1.709    0.415
        36  -8.9610    127.0109      9.0190   4.8629663941e+01   5.2018165606e+01    0.4318771    0.2105058  43.78 0.0006852031    1.895    0.472
        37  -9.4151    125.6625      5.1777   4.7482014421e+01   5.2672293554e+01    0.3034952    0.2148338  24.26 0.0009906236    1.490    0.329
        38  -7.8144     80.4703     12.4341   6.1693238309e+01   6.2031704851e+01    0.2168554    0.1070344 -35.99 0.0008618115    2.297    0.565
        39  -9.1162    113.9750     10.0695   5.1727606523e+01   5.5009846459e+01    0.3505698    0.1720986  42.50 0.0003365553    1.845    0.458
        40  -8.2970    155.8701      8.8827   4.3718323145e+01   4.4922204695e+01    0.1871072    0.1521921 -61.50  0.001073586    1.336    0.251
        41  -8.7536    236.9895      7.2377   3.4714267767e+01   2.5632196862e+01    0.2151545    0.1652772 -35.64 0.0005692327    1.353    0.261
        42  -9.7074    115.3574      4.2965   4.9187840267e+01   5.5187145015e+01    0.6444387    0.3304803  82.49  0.002571166    3.119    0.679
        43  -8.7711    109.5498      7.5284   5.1719229370e+01   5.6258433836e+01    0.2539831    0.1782792  36.35 0.0007173413    1.284    0.221
        44  -8.9952    111.0061      4.4818   5.0184625089e+01   5.6182613331e+01    0.3027143    0.2231755  44.58  0.001750511    1.162    0.139
        45  -8.7161    101.9058      8.1206   5.3772159549e+01   5.7933236201e+01    0.1859626     0.177281 -89.02 0.0005822093    1.303    0.232
        46  -9.4631     77.7602      4.2338   5.8753318208e+01   6.3375837805e+01    0.4311956    0.2842238   3.13  0.001410272    1.511    0.338
        47  -8.1144    143.3689      5.1731   4.4419242207e+01   4.8354862364e+01     0.182958    0.1157504 -36.85 0.0005434902    1.739    0.425
        48  -8.2547    104.0937      2.2468   5.0826096972e+01   5.7940874902e+01    0.2553521    0.1749369  37.16  0.001023971    1.283    0.221
        49  -8.2781    248.8499      1.7663   3.2712850980e+01   2.3663335542e+01    0.1607861    0.1449729 -76.82 0.0004967293    1.184    0.156
        50 -10.1887     18.2231      4.8631   8.4778505389e+01   7.2419713645e+01    0.5571324    0.4379271 -55.72  0.003609911    2.342    0.573
        51  -7.6027    150.5128      1.5248   4.2151412398e+01   4.6887977705e+01    0.1332382    0.1165224  64.19 0.0008100151    1.008    0.008
        52 -10.2323    117.3356    124.9788   8.8716038847e+01   3.3942665818e+01    0.9588627    0.5617698 -64.95  0.002311731    2.239    0.553
        53 -10.5401    186.5130    248.7231   9.6056375418e+01  -2.5752454401e+00     0.491604    0.1973692  44.51  0.002257502    2.425    0.588
        54  -9.5648    157.9418    250.1117   1.0166298962e+02   1.5840549626e+00    0.2755138    0.1318709  40.74  0.001438486    1.689    0.408
        55 -10.5129    132.0862    120.1143   8.3513794436e+01   3.2097872571e+01    0.9340105    0.6174381  85.96  0.003294884    3.038    0.671
        56 -10.5723    108.7690    111.9977   8.7876816188e+01   3.8606084108e+01     1.319326    0.4755913 -50.42   0.00319842    2.724    0.633
        57 -10.3609    108.8225     99.5631   8.4502471861e+01   4.1432808222e+01     1.093295    0.5655062  60.03   0.00357282    3.455    0.711
        58 -11.1386    120.8892    110.7606   8.4107982734e+01   3.6513798984e+01      1.19419    0.6947491 -53.24   0.00236722    1.802    0.445
        59 -11.3621    133.6697    109.5630   8.0306482356e+01   3.4112694112e+01     1.767052    0.6508116 -49.24  0.005563127    2.907    0.656
        60  -9.8632     42.0576    122.7533   1.1023468070e+02   4.5676825731e+01    0.6533509    0.3275913  88.91  0.002505578    3.160    0.684
        61  -9.2838    142.5664    125.1809   8.2084308114e+01   2.8758244546e+01    0.5185555    0.3133375  53.84  0.001522792    1.882    0.469
        62 -10.0602     27.4459    123.0452   1.1455736566e+02   4.6952500700e+01    0.5850432    0.2966783  72.85    0.0020354    2.875    0.652
        63  -8.1101    244.3815    125.2251   6.1229299177e+01   7.0998832129e+00    0.1987344    0.1147221 -41.68 0.0003317591    1.593    0.372
        64  -9.7149    200.0174    124.0561   6.8817248724e+01   1.6375338777e+01    0.2633153    0.2392778  21.35 -0.001877172    1.129    0.114
        65  -9.8468    127.7965    102.4882   7.9931078317e+01   3.6915470415e+01    0.5526648    0.3984837 -43.48  0.001372508    1.352    0.260
        66  -8.0449    157.8682    122.0455   7.7507984070e+01   2.6115840694e+01     0.245187     0.219287 -76.73 0.0008836919    1.296    0.228
        67  -8.0722    205.1982    120.8310   6.7012102358e+01   1.5855775205e+01     0.223053    0.2011182 -61.64 0.0004831487    1.248    0.198
        68  -8.3265      1.4369    116.5089   1.2117418260e+02   5.0302047307e+01       0.3327    0.1010347 -78.38   0.00132344    2.933    0.659
        69 -10.3110     91.9495    113.0769   9.3118983693e+01   4.1358823974e+01    0.6431273    0.4917312 -82.12  0.001884237    1.650    0.394
        70  -8.9918     93.7252    103.2846   9.0082484230e+01   4.3361375976e+01    0.6619007     0.361506  17.47  0.002330526    3.140    0.681
        71  -9.4703    152.5466    115.6393   7.7123894837e+01   2.8660422906e+01    0.3146463    0.2638329 -14.61  0.001045945    1.309    0.236
        72 -10.3081     78.2037    112.1904   9.7102790761e+01   4.3756202724e+01    0.8204879    0.3837933 -63.88  0.002106827    2.469    0.595
        73 -10.6604     62.9050     94.7813   9.7842846378e+01   5.0056628292e+01     1.087889    0.3846945 -58.65  0.001752702    2.820    0.645
        74  -8.1984     68.7062     84.3848   9.3086512852e+01   5.1656558820e+01    0.4184823    0.1948149  29.59  0.001715182    2.444    0.591
        75 -10.7589     65.8710    109.9751   1.0045395386e+02   4.6034854636e+01     1.019617    0.7877237 -51.26  0.002951694    1.156    0.135
        76 -10.0973     59.1583    109.2090   1.0241454130e+02   4.7080795284e+01    0.6365206    0.3254428 -46.70  0.001993621    1.802    0.445
        77  -7.1466    167.3585    114.1844   7.3232650024e+01   2.5625913745e+01    0.2209345    0.1428765 -49.18 0.0003824793    1.615    0.381
        78 -10.0447     14.2885    111.4138   1.1681055121e+02   5.0741928749e+01    0.5039259    0.2439325  87.78  0.001830093    2.550    0.608
        79  -8.2747     14.9257    104.8564   1.1568257736e+02   5.2265718582e+01    0.2294901    0.1466608 -37.28 0.0009051207    1.668    0.400
        80  -8.5131     99.2263    119.5309   9.2527758338e+01   3.8570383461e+01    0.4904413    0.2930187  -5.33  0.001511544    4.285    0.767
        81  -9.7289     35.9261    111.5899   1.1020930588e+02   4.8996888704e+01    0.3696514    0.3145823 -87.62  0.001443904    1.193    0.162
        82  -8.9142    158.9120    111.6475   7.4523521678e+01   2.8069133212e+01    0.2991757    0.2250496 -47.03 0.0005791254    1.339    0.253
        83 -11.0230     21.5060    101.3193   1.1303780675e+02   5.2657616166e+01     1.344498    0.6144174  89.97  0.003817342    3.629    0.724
        84 -10.2221     19.9246     85.6418   1.1075807950e+02   5.6466615951e+01    0.8442549    0.1591295 -55.58  0.002723988    3.097    0.677
        85 -10.5394     25.7976     78.0197   1.0702958558e+02   5.7797251357e+01    0.7458007     0.457029  87.50  0.002924243    2.555    0.609
        86 -10.9330     32.6849     63.7900   1.0075655810e+02   6.0388088207e+01     1.555996    0.5986434 -27.64  0.005139864    4.654    0.785
        87  -9.9722     34.4269     90.7096   1.0669592061e+02   5.4140365276e+01    0.6051177    0.2826582 -75.14  0.001757057    2.758    0.637
        88 -10.1525     37.3306     80.5108   1.0333872132e+02   5.6244424938e+01    0.6853443    0.3412984 -21.23  0.002809859    3.083    0.676
        89  -8.8280    149.7107    109.9862   7.6305561420e+01   3.0495454674e+01    0.2290825    0.1964196 -36.62 0.0003720729    1.143    0.125
        90  -8.2290     40.4327    107.3748   1.0802467692e+02   4.9593724962e+01    0.2344563     0.119193 -75.94 0.0006358125    2.213    0.548
        91 -10.9598     44.6436    102.3137   1.0566242698e+02   5.0394499234e+01    0.8423475     0.465887  68.71  0.003142832    3.389    0.705
        92  -9.2043    140.0033     99.9663   7.5971641132e+01   3.4786919104e+01    0.4834644    0.3105921  49.38  0.002059775    1.618    0.382
        93 -10.0094      5.6157    104.0474   1.1845088195e+02   5.3013945645e+01    0.4760177    0.3783059  44.43  0.001722577    1.527    0.345
        94  -7.9763    189.3172    105.0022   6.6079786805e+01   2.2383610931e+01      0.22345    0.1991636 -38.29 0.0004525835    1.080    0.074
        95 -10.0812    148.9178    101.9325   7.4274747374e+01   3.2362215276e+01     0.828349    0.4619766 -54.40  0.001570335    2.172    0.540
        96  -8.3397    166.0519    103.8635   7.0747275805e+01   2.8014469121e+01    0.2733853     0.215771 -43.65 0.0005390226    1.252    0.201
        97  -8.3321     73.8504    102.4997   9.6153284134e+01   4.6719922706e+01    0.3472489    0.1839328 -58.66 0.0009893266    1.847    0.458
        98  -8.7023    159.0513    101.3373   7.1664203351e+01   3.0149718725e+01    0.2956288    0.2186203 -49.30 0.0003918359    1.397    0.284
        99  -9.6653     81.5518     99.2503   9.2846427620e+01   4.6317378803e+01    0.7231227    0.3016568 -55.26  0.001919076    2.380    0.580
       100  -9.4936     94.3036     97.1849   8.8248321062e+01   4.4662893944e+01    0.3674567    0.2574736 -53.22 0.0006969889    1.410    0.291
       101  -8.9745     96.1959     90.9930   8.5894529927e+01   4.5714703912e+01    0.5121719    0.3265738  -6.88  0.001969758    2.636    0.621
       102  -9.8003    242.2798     95.9057   5.4740678106e+01   1.2326494683e+01    0.3174373    0.2317598 -89.96  0.001609539    1.899    0.473
       103  -8.9538    164.4317     94.0663   6.8375941529e+01   3.0323958208e+01    0.3859133    0.2518519 -38.35  0.001366175    1.500    0.333
       104  -8.7030    150.8034     88.6233   6.9973566419e+01   3.4604507139e+01    0.4722301    0.2065618 -33.60   0.00133212    2.467    0.595
       105 -10.1744      4.5316     89.4946   1.1673021358e+02   5.6476742720e+01    0.6771381    0.2907937 -88.15  0.002823135    3.157    0.683
       106  -9.1843      5.6117     79.0617   1.1464374914e+02   5.8824099941e+01    0.5313691    0.2410742 -30.87  0.002637857    2.472    0.595
       107  -9.0955    157.6418     90.8991   6.9020842522e+01   3.2547478621e+01     0.472432    0.2595122 -28.53  0.001738724    2.083    0.520
       108 -10.3462     47.7829     84.3391   1.0048392231e+02   5.4303240080e+01     0.648441    0.3897597 -72.68  0.001675169    2.084    0.520
       109  -9.2135     48.8178     77.1873   9.8229314206e+01   5.5811999704e+01    0.5576329    0.2784073  10.39  0.002280037    3.065    0.674
       110  -8.4763    163.3951     87.2327   6.6645323991e+01   3.1876727283e+01     0.281504    0.1867727 -45.53 0.0007091154    1.527    0.345
       111  -9.2436     83.4092     64.5701   8.1735472767e+01   5.3517312381e+01    0.6011136    0.3578816  -8.46  0.002338025    2.763    0.638
       112 -10.0698     81.7649     72.6860   8.5010307454e+01   5.2164160383e+01    0.5130079    0.3852731 -86.52   0.00105456    2.320    0.569
       113 -10.2829     85.2848     86.5940   8.8114349960e+01   4.8592116331e+01    0.4479116    0.3770154 -74.20 0.0008742659    1.463    0.317
       114  -9.6533     87.4204     78.8722   8.5069277298e+01   4.9902291102e+01    0.6323557    0.3949685  10.95  0.002053935    2.362    0.577
       115  -9.3570    139.4147    104.7199   7.7464332777e+01   3.3910806145e+01    0.4059103    0.2730716 -58.28 0.0007606614    1.759    0.432
       116 -10.2269    103.8929     82.6373   8.0981598950e+01   4.6066412775e+01    0.5232414    0.3287615 -55.00 0.0008649108    1.830    0.454
       117  -9.8464    105.2487     71.6815   7.7043012058e+01   4.8015201550e+01    0.8110142    0.5627326 -10.15  0.003622603    1.825    0.452
       118  -8.2088    170.4775     83.0913   6.3907626872e+01   3.0933743321e+01    0.3452806    0.1383884 -42.14  0.001180015    2.459    0.593
       119  -8.7220    157.8973     83.1367   6.6683345613e+01   3.3964772954e+01    0.4459884    0.2199848 -34.75   0.00141653    2.053    0.513
       120  -8.6778    157.0059     76.5387   6.4907296772e+01   3.5389928020e+01    0.4601082     0.227703 -36.37  0.001545265    2.004    0.501
       121  -9.2132    118.7008     80.1121   7.5796361911e+01   4.3549363653e+01    0.4585741    0.3099143 -61.42  0.001258068    1.986    0.497
       122  -8.1229    120.0044     75.9695   7.4104045945e+01   4.4084703801e+01    0.2359149    0.2171025  -3.35 0.0004738632    1.067    0.063
       123  -8.6884    149.9200     80.2051   6.7661683415e+01   3.6421543036e+01    0.4525717    0.2186197 -38.15  0.001087414    2.042    0.510
       124  -9.1863     74.2835     79.2627   8.9652551882e+01   5.1966234527e+01    0.6530917    0.2524357 -47.97  0.001750703    2.342    0.573
       125  -8.3629     68.8654     79.3299   9.1569894979e+01   5.2757985491e+01    0.3726075    0.1448834 -39.60  0.001355999    2.631    0.620
       126  -7.9004    249.7897     78.7992   4.9739080270e+01   1.3479033862e+01    0.2184913    0.1427854  11.72 0.0009509675    2.803    0.643
       127  -8.7118    166.6439     78.7453   6.3453414678e+01   3.2649342352e+01    0.2976601    0.2378736 -50.46 0.0007254994    1.300    0.231
       128  -8.9921    201.9654     76.4872   5.6114912450e+01   2.4471449762e+01    0.3997329    0.2163389 -30.47 0.0008133344    1.879    0.468
       129  -8.0666    184.3464     78.1479   5.9717808446e+01   2.8435219010e+01    0.2527559    0.2057805  40.95 0.0006982414    1.296    0.229
       130  -7.1446    174.2663     78.6750   6.1846807268e+01   3.0801473493e+01    0.1549977    0.1176569 -65.05 0.0002873905    1.567    0.362
       131  -9.4489    127.3060     75.2431   7.1851385509e+01   4.2610513802e+01    0.3731746    0.2996354 -63.01 0.0008469254    1.519    0.342
       132  -8.6322    129.4928     68.9888   6.9238259925e+01   4.3275521308e+01    0.5053416    0.2754898  25.17  0.001746815    2.938    0.660
       133  -8.6804    130.3835     65.1887   6.7752140683e+01   4.3748134876e+01    0.4341618    0.2377602 -34.14  0.001745687    1.840    0.457
       134  -9.5174    201.3377    248.9471   9.3326182278e+01  -4.8136190418e+00    0.2317331    0.1806078  31.92  0.001576954    1.199    0.166
       135  -8.6572     40.8723     20.2046   8.0908478575e+01   6.7602303432e+01    0.2702448    0.1574166 -35.51   0.00104455    1.580    0.367
       136 -10.9074     21.7877     53.6365   1.0239911504e+02   6.3435908401e+01    0.8098569    0.5034525 -88.60  0.002924603    3.341    0.701
       137  -9.9216    195.7359    247.4117   9.4137102423e+01  -3.7825155677e+00    0.2741176    0.2271575 -67.29  0.001770177    2.085    0.520
       138  -9.7008     15.9540     70.6423   1.0911625871e+02   6.0150921661e+01    0.6605123    0.2445095 -43.85  0.001372489    2.220    0.550
       139  -9.7829     17.0103     60.9045   1.0638780242e+02   6.2226227863e+01    0.6616247    0.5125957 -24.49  0.004370896    1.258    0.205
       140  -7.6718    106.2012    250.6451   1.1155808923e+02   9.2664526880e+00    0.1623207   0.09539732  33.66 0.0004214907    1.628    0.386
       141  -9.8496    152.4757    245.2063   1.0207087257e+02   3.1680119825e+00     0.320273    0.1506813  26.15  0.001425737    2.600    0.615
       142  -8.2879    232.2188    242.5965   8.6727420307e+01  -8.4332065779e+00    0.1650597   0.08883325  24.53 0.0004077326    1.579    0.367
       143  -8.7170    248.4312    241.0129   8.3634739563e+01  -1.0428273071e+01    0.1886817     0.137469  32.63 0.0003685117    1.507    0.337
       144 -10.0150     13.0285     45.6520   1.0393828420e+02   6.5680668811e+01     0.625904    0.3005825 -18.13  0.002480364    2.461    0.594
       145  -8.5319    108.7384    238.0295   1.0974052435e+02   1.1059284159e+01    0.2173901    0.1369868  56.42  0.000350336    1.481    0.325
       146  -9.6798      6.8228     32.6620   1.0281894718e+02   6.8615648725e+01    0.3144777    0.1879999 -20.88  0.001227036    1.556    0.357
       147  -9.1227    188.4793    233.6405   9.3414626562e+01  -7.4739694836e-01    0.2136268    0.1792295 -49.69 0.0007448125    1.593    0.372
       148  -8.1438    162.6261     72.8288   6.2550907821e+01   3.4675784760e+01    0.2928056    0.2153542 -62.03 0.0007985957    1.637    0.389
       149  -8.5111     53.7811     39.0724   8.3448494375e+01   6.2844157192e+01    0.2505584    0.1580597 -41.20 0.0008998903    1.520    0.342
       150  -9.8965     44.2788     53.4930   9.2789735641e+01   6.1352205791e+01     0.702738    0.4124409  37.93  0.002684396    2.060    0.515
       151  -9.9867     62.9245     60.8633   8.7887804050e+01   5.7494444354e+01    0.9169729    0.2904965  32.63  0.003266611    3.514    0.715
       152 -10.5457     55.2172     70.8599   9.4018402006e+01   5.6442953144e+01     0.648869    0.4337141  60.94  0.001254255    2.538    0.606
       153  -9.1583     54.8525     63.4713   9.1853620859e+01   5.8051294386e+01    0.4867355     0.311405  15.30  0.002443656    1.796    0.443
       154  -9.9685     50.0809     54.6320   9.0797249733e+01   6.0439553121e+01    0.4559685    0.3113719 -57.51  0.001454482    1.705    0.413
       155 -10.0241     55.6284     43.8891   8.4593007354e+01   6.1741428470e+01     1.130255    0.5665178  -1.53  0.003400242    5.717    0.825
       156  -7.6956    175.4524     72.4936   5.9817270564e+01   3.1578879483e+01    0.1521775    0.1460062 -62.21 3.654052e-05    1.052    0.049
       157  -8.0708    169.4750     70.9672   6.0563776906e+01   3.3310936490e+01    0.2341358    0.1481974 -36.43 0.0006114232    1.560    0.359
       158  -9.2738    146.9953     68.7566   6.4802441245e+01   3.9192086114e+01    0.5735545    0.3032631 -40.37  0.001010565    1.895    0.472
       159  -7.9467    156.6061     70.2225   6.3068831667e+01   3.6602280544e+01    0.2056023    0.1481614 -23.13 0.0008177013    1.506    0.336
       160  -9.7642     94.7962     68.3415   7.9217094980e+01   5.0711865541e+01    0.4224319    0.2714811 -49.18  0.000843399    1.671    0.402
       161  -9.4655     97.2920     58.6439   7.5038126207e+01   5.2050097396e+01    0.7894949    0.5267046 -22.92  0.003742599    1.577    0.366
       162  -9.3386    138.1929     66.2484   6.6119835560e+01   4.1733916371e+01    0.3840084    0.2389216 -47.21 0.0006180388    1.752    0.429
       163  -9.1279    121.1174     66.0682   7.0532402713e+01   4.5695894099e+01    0.3872187    0.2494506 -46.81 0.0009466728    1.680    0.405
       164  -8.1902    122.0622     61.2023   6.8623351301e+01   4.6344279175e+01    0.2665833    0.2128059  35.48 0.0007474685    1.237    0.191
       165  -8.0607     76.0000     66.9138   8.5124530233e+01   5.4292952758e+01    0.2358995   0.07542174 -45.56 0.0007973469    2.907    0.656
       166  -7.2414    177.2255     66.3549   5.7686548885e+01   3.2160547382e+01    0.1468384    0.1163813   3.46  0.000285053    1.562    0.360
       167  -9.3747    109.7984     63.9599   7.3058571004e+01   4.8533296870e+01    0.4149543     0.275393 -52.70 0.0007989118    1.821    0.451
       168  -9.0488    110.4776     58.3576   7.0905126973e+01   4.9385287603e+01    0.4181708    0.2870241  13.38  0.001124499    1.831    0.454
       169  -8.2970    170.6095     65.2075   5.8623342493e+01   3.3988643115e+01    0.2044103    0.1462924 -21.10 0.0003975558    1.555    0.357
       170  -8.3759    157.7384     62.6292   6.0472527235e+01   3.7600926566e+01    0.4150924    0.1855458 -39.60  0.001360971    2.223    0.550
       171  -9.8387     73.2884     59.5392   8.3568822959e+01   5.6186667150e+01    0.4409282    0.2750054 -53.59 0.0009136825    1.891    0.471
       172  -9.4658     75.8176     50.4921   7.9345316941e+01   5.7449903961e+01     0.734749     0.418305   2.64  0.002801538    3.125    0.680
       173  -7.6872    229.3401     60.6971   4.8023902662e+01   2.0581502278e+01     0.146306   0.09661688 -64.94 0.0002685247    1.674    0.403
       174  -7.6898    152.4370     60.4848   6.0943863059e+01   3.9257236671e+01    0.1482126    0.1471268  24.43 0.0002876169    1.020    0.019
       175  -8.7307    146.5086     59.0374   6.1803287387e+01   4.0944214881e+01    0.2663839     0.221372 -55.94 0.0007463005    1.339    0.253
       176  -8.4507    147.5565     53.8814   5.9892722198e+01   4.1502481091e+01    0.4833995    0.2373811 -20.31  0.001741572    2.736    0.634
       177  -8.4520     87.4106     58.5217   7.8241348154e+01   5.3952307568e+01     0.281243    0.2297442 -44.08 0.0006468709    1.304    0.233
       178  -8.6455     88.6797     53.4606   7.5968023355e+01   5.4629311358e+01    0.4773019    0.2772225  20.61  0.002014492    2.253    0.556
       179 -10.2397     85.2081     48.1286   7.5136167685e+01   5.6195452412e+01    0.4050533    0.3422881 -67.48 0.0009448388    1.711    0.416
       180 -10.4923     90.8073     37.9631   6.9285177080e+01   5.6734627026e+01    0.9872761    0.3855043  32.22  0.003299859    3.603    0.722
       181  -9.1129    141.9212     48.3796   5.9327279874e+01   4.3714882157e+01    0.2962881    0.2070493 -41.71 0.0004526295    1.507    0.337
       182  -9.3554    138.8090     56.6302   6.2804782364e+01   4.3197306511e+01    0.4824286    0.1997924 -39.76 0.0006474483    2.449    0.592
       183  -8.9211    130.0300     56.8506   6.5039646097e+01   4.5245206507e+01    0.5391212    0.2446263 -30.18  0.001510559    2.354    0.575
       184  -9.4408    118.2147     54.7486   6.7434665658e+01   4.8299130935e+01    0.5168433    0.3012118 -33.48 0.0008297872    1.721    0.419
       185  -7.3945    169.0000     55.9774   5.6160066788e+01   3.5847164148e+01    0.2372483   0.08474292 -32.04 0.0007877183    2.841    0.648
       186  -9.2617    163.0206     53.1310   5.6440458412e+01   3.7774947531e+01     0.529215    0.2132704 -26.40  0.001483147    2.928    0.659
       187  -7.9786    152.3135     53.8862   5.8863642665e+01   4.0328105725e+01    0.1984961    0.1894158 -16.52 0.0004259434    1.070    0.065
       188  -9.1522    105.6348     51.7211   6.9950963374e+01   5.1538856264e+01    0.6126285    0.3085962 -30.59  0.001938851    2.040    0.510
       189  -7.4134    172.2010     50.4033   5.3886529773e+01   3.5874500088e+01    0.1882453    0.1398448  74.96 0.0002687408    1.438    0.305
       190  -8.3349    157.2841     48.9447   5.6260534584e+01   3.9829284683e+01    0.2031361    0.1967973 -32.32  0.000619341    1.063    0.059
       191  -9.5697    130.5375     46.3500   6.1288948397e+01   4.6759880958e+01    0.8166766    0.3555922 -20.30  0.001631749    3.277    0.695
       192  -8.6892    132.8374     35.8424   5.7059936512e+01   4.7669080789e+01    0.3047926    0.1977438 -35.81 0.0005559004    1.618    0.382
       193  -8.4841    219.3155    230.5794   8.7079709261e+01  -5.0562240198e+00    0.1920341    0.1600854   0.85 0.0003222031    1.127    0.113
       194  -8.9402    120.9968     46.9100   6.3895397489e+01   4.8906439255e+01    0.2759547    0.1991166 -34.76 0.0005820146    1.422    0.297
       195  -8.4902    111.9391     46.7768   6.6306792084e+01   5.0966425474e+01    0.2588957    0.2014224 -37.24 0.0005079425    1.345    0.257
       196  -8.8234    113.2408     41.9155   6.4145322156e+01   5.1406385703e+01    0.3299781    0.1969916  17.77  0.001354775    2.330    0.571
       197  -9.4719    149.3669     46.0250   5.6935153060e+01   4.2222939568e+01    0.7908807    0.2513419 -41.47  0.002552982    3.356    0.702
       198  -7.5700     56.0000    215.9998   1.1801110679e+02   2.2542391449e+01    0.1886765    0.0624421 -69.95  0.000808841    2.987    0.665
       199  -9.1628    217.8916    212.9422   8.4277332120e+01  -2.3697822325e+00    0.2830144    0.2558723 -72.85  0.001765143    1.853    0.460
       200  -9.9916     10.9886    207.3394   1.2611494328e+02   2.9153265465e+01     0.479831    0.2801739  20.41  0.002873848    2.575    0.612
       201  -9.9824     76.1283     32.2502   7.1917338796e+01   6.0356254819e+01    0.4454314    0.3678653  47.09  0.001710671    1.433    0.302
       202  -8.7887     70.0185     26.7460   7.1764359130e+01   6.2224625927e+01    0.4026173     0.235203 -28.54  0.001448555    1.635    0.389
       203  -9.7046     79.3525     24.0093   6.7237637049e+01   6.0891294706e+01    0.5188793    0.2713591  25.77  0.001519923    2.192    0.544
       204  -9.0419     84.7002     21.9075   6.4551997980e+01   6.0116516312e+01    0.2781017    0.2182804  -2.78  0.000751826    1.200    0.167
       205  -8.8397     40.5051     35.0000   8.7550055332e+01   6.5250545816e+01    0.3631924    0.2046869  26.99  0.001967183    1.868    0.465
       206  -9.8926     37.7990     42.1808   9.1551245883e+01   6.4255407430e+01     0.343902    0.2965512  87.91   0.00154134    1.961    0.490
       207 -10.2919     35.8844     38.0097   9.0831690753e+01   6.5231532468e+01    0.4543705    0.2089559 -38.52 0.0003576819    1.826    0.452
       208  -8.6981    153.5647     41.3156   5.4550440457e+01   4.1832673262e+01     0.247402    0.2266169  76.25  0.000510152    1.114    0.102
       209  -8.3917    109.5194     26.3681   5.9196080520e+01   5.4309750982e+01    0.2793123    0.2752458  12.51  0.001730315    1.162    0.140
       210  -9.0771    110.2046     33.1296   6.1641218222e+01   5.3304502773e+01    0.3731664    0.2254877 -41.39  0.001036844    1.873    0.466
       211  -9.0361    104.8625     40.9612   6.6149346330e+01   5.3384300067e+01    0.3376804    0.2455492 -55.88 0.0007956679    1.876    0.467
       212  -8.6830    106.5311     36.1366   6.3814970301e+01   5.3711215735e+01    0.3884803    0.2205491  32.82   0.00136878    1.864    0.464
       213  -9.0929    139.2914     39.6434   5.6949157439e+01   4.5594522915e+01    0.4728993    0.2281183 -36.37   0.00150103    2.124    0.529
       214  -8.1908    123.2988     40.5481   6.1010359276e+01   4.9300573027e+01     0.368634    0.2011836  22.15  0.001372058    2.820    0.645
       215  -7.8296    160.4353     39.0636   5.2527926870e+01   4.0409229425e+01    0.2181183    0.1432094 -27.69 0.0007645401    1.608    0.378
       216  -7.8822     81.0000     37.9928   7.2584437116e+01   5.8607992157e+01    0.2228303   0.07378393 -35.12 0.0008024402    2.942    0.660
       217  -7.4032    190.4757     37.4420   4.7185533900e+01   3.3073620391e+01    0.1393583    0.1309203 -89.62 0.0002683412    1.012    0.012
       218  -8.7556    144.2532     36.5733   5.4854643161e+01   4.4780175662e+01    0.2770144    0.2096275 -61.18 0.0005842353    1.595    0.373
       219  -8.9577    118.8086     34.9131   6.0071237685e+01   5.1111708159e+01    0.3482926    0.1965804 -25.69 0.0009073361    1.859    0.462
       220  -8.8861    152.7588     34.9553   5.2639755135e+01   4.2868894346e+01    0.1971274    0.1962692 -65.33  0.001162183    1.060    0.056
       221  -8.9913    206.2123    207.5450   8.5539300995e+01   3.3379997379e-01     0.241845     0.206447  32.95  0.001493916    1.236    0.191
       222 -10.4049    237.5725    206.1127   7.9392743900e+01  -4.4404438438e+00    0.2301185    0.1918344  17.75 0.0004284636    1.189    0.159
       223  -9.4973     60.3706     33.8035   7.8565354532e+01   6.2754230376e+01    0.4437131    0.3201862 -51.62  0.001729002    1.905    0.475
       224  -8.5382     62.9202     26.6838   7.4451253831e+01   6.3429908484e+01    0.3792818    0.2239748  24.30  0.001693622    1.722    0.419
       225  -9.7912    124.0046    206.0076   1.0248209372e+02   1.4673060928e+01    0.1901148    0.1709676  48.79            0    1.005    0.005
       226  -8.9293    207.1843    202.9780   8.4509289269e+01   8.8849979946e-01    0.2204403     0.168933  21.49  0.001277906    1.158    0.137
       227  -9.2109    115.1394     72.2796   7.4294118097e+01   4.5844322570e+01    0.5934644    0.3137828 -32.58  0.001948763    1.976    0.494
       228  -8.3684     45.4234     15.7266   7.6681887161e+01   6.7625581372e+01    0.2363255    0.1317602 -25.48 0.0009495899    1.619    0.382
       229  -9.0261    192.0048    194.5457   8.5960226778e+01   4.8999450303e+00    0.8424693    0.4394844 -62.62  0.002333591    7.046    0.858
       230  -8.4633    207.7910    198.1480   8.3483324513e+01   1.5565307106e+00    0.2112942    0.1876914   3.09 0.0002681247    1.080    0.074
       231 -10.3176    175.3807    193.4556   8.9221278448e+01   8.0737811652e+00    0.2439182    0.2350461  12.63 0.0002019681    1.114    0.102
       232  -8.3188     42.1811     27.9037   8.3799492703e+01   6.6240462262e+01    0.2181866    0.1487908 -24.20 0.0002318135    1.239    0.193
       233  -8.2219    156.5214     27.4901   4.9544188778e+01   4.2830812377e+01    0.2477025    0.1608897 -51.98 0.0007083367    1.756    0.430
       234  -9.2805    150.9341     26.0111   5.0050923523e+01   4.4403321882e+01    0.5005833    0.2869652 -65.94  0.001946899    2.654    0.623
       235  -7.4098    234.3759    194.1420   7.7686197686e+01  -2.2100891158e+00    0.1616724    0.1137763 -37.67 0.0001592735    1.542    0.351
       236  -8.2544     92.3947     20.8176   6.1705890106e+01   5.8680875903e+01    0.2693024    0.1604601  33.86 0.0006696514    1.587    0.370
       237  -8.9176    144.3145     25.7226   5.1178530032e+01   4.6087067598e+01    0.2764055    0.2134754 -25.41  0.001267273    1.386    0.279
       238  -8.5228    128.4686     25.8531   5.4460469225e+01   4.9950219297e+01    0.2451793    0.2088546 -71.30 0.0005798215    1.430    0.301
       239  -8.3814    127.6845    192.5571   9.9587810905e+01   1.6778908395e+01    0.2144823    0.2070002 -10.03 0.0004380549    1.146    0.127
       240  -8.2665    163.5847     24.3142   4.7369804812e+01   4.1414651557e+01    0.2959455    0.2018376  41.33 0.0008031394    1.539    0.350
       241  -7.0638    171.6976     24.7157   4.6243462569e+01   3.9324848728e+01    0.1397599    0.0999584  37.63  0.000232112    1.556    0.357
       242  -8.0681    139.9275     22.1839   5.0809167501e+01   4.7566811209e+01    0.2123621    0.1839178 -67.99 0.0008442564    1.319    0.242
       243  -9.2638     60.2036    186.2882   1.1417118877e+02   2.8391740366e+01     0.214171    0.1832772  86.36 0.0003116675    1.034    0.033
       244  -8.6529    196.7355    177.9997   8.1727424526e+01   6.9487617011e+00     0.217613    0.1884034  28.25 0.0004795901    1.123    0.110
       245  -8.6297    112.3095     15.7015   5.4313614228e+01   5.4853405914e+01    0.2200593    0.2040534  49.90 0.0006535391    1.122    0.109
       246  -8.2380    182.0812    175.5026   8.4287175767e+01   1.0167896290e+01    0.2189641    0.1372637  40.54 0.0005224827    1.546    0.353
       247  -6.9747    105.7380    171.6976   1.0130645349e+02   2.5070418274e+01    0.1346055    0.1111157 -24.69 0.0002381959    1.517    0.341
       248  -7.8087    155.3877     18.1371   4.6737076998e+01   4.4142773105e+01    0.1867405     0.121582 -40.13 0.0006503083    1.641    0.391
       249  -8.3598    139.5433     18.0201   4.9446342513e+01   4.8101230845e+01     0.192845    0.1365438 -23.78 0.0004028637    1.532    0.347
       250  -8.7316     61.0021    170.8000   1.1212798410e+02   3.1854822157e+01    0.2058873    0.1660769 -80.18  0.000274338    1.115    0.103
       251  -7.7320    230.3884    168.5393   7.3214053100e+01   2.4678464030e+00    0.2693579    0.1090654 -47.43 0.0009532397    3.406    0.706
       252  -7.6165    124.5312    169.2743   9.6282681806e+01   2.2355362837e+01    0.1869637    0.1388782 -40.70 0.0005850793    1.457    0.314
       253  -8.2679    249.2518    168.5775   6.9902314081e+01  -7.3314758087e-01     0.182437    0.1152413  25.08 0.0009526586    1.673    0.402
       254  -6.6777    129.5260    165.4982   9.4348776878e+01   2.2284997692e+01    0.1457956    0.1427608  48.53 0.0008101016    1.009    0.009
       255  -7.0772    216.2586    154.3251   7.2766928467e+01   7.4828541740e+00    0.1452066    0.1046408  -5.02 0.0002160679    1.554    0.357
       256  -7.4119    189.4146     15.4950   4.1248186541e+01   3.5905785538e+01    0.1318025    0.1208096  87.26 0.0001646771    1.030    0.029
       257  -6.9839    154.5457    149.5529   8.4939649706e+01   2.0905508599e+01    0.1519151    0.1477756   5.50 0.0003274248    1.002    0.002
       258  -8.7727    133.6506    146.1498   8.9313529679e+01   2.5861668883e+01    0.6320649    0.1762428 -52.34  0.001735636    4.080    0.755
       259  -8.2589    234.3230    146.3306   6.7677846014e+01   5.4554432275e+00    0.1469616     0.102091   0.04 0.0004632745    1.699    0.411
       260  -9.1989     68.4982    145.4887   1.0650977824e+02   3.6967456779e+01    0.3161965    0.2741122  33.78  0.001830799    1.287    0.223
       261  -9.1426     65.5129    143.0511   1.0691865879e+02   3.7959583615e+01    0.3217314    0.2572075 -70.66  0.001792722    1.135    0.119
       262  -8.7004    112.2501    133.7845   9.2172693900e+01   3.2829826257e+01    0.4148391    0.2696677  69.50  0.001244524    2.315    0.568
       263  -8.8536    125.4054     13.1080   5.0448155942e+01   5.2027509264e+01    0.2440805    0.1873552  68.40 0.0004117989    1.308    0.236
       264 -10.8766     69.7647    126.6532   1.0274813775e+02   4.1429629150e+01    0.9374602    0.6699243 -37.82  0.002603756    1.521    0.342
       265 -10.0989     58.1436    124.4103   1.0575337405e+02   4.3480658691e+01    0.5847878    0.3563602  84.34  0.002123729    2.343    0.573
       266  -9.0352     83.4632    131.7324   9.9792417989e+01   3.8199414314e+01    0.7130917    0.4025301  73.79  0.002429841    3.628    0.724
       267  -9.9664    133.6944    131.7682   8.5986324268e+01   2.9125823249e+01     0.575533    0.3515106  46.27  0.001982063    1.685    0.407
       268  -8.2553    142.1722    131.4388   8.3735335407e+01   2.7449568195e+01    0.2879098    0.2341448  75.01  0.001345575    1.536    0.349
       269  -9.8886     98.4400    128.5382   9.4837254225e+01   3.6545639604e+01    0.6108882    0.3898464  76.79  0.002096689    2.681    0.627
       270  -8.5472    126.1737    129.8419   8.7499284555e+01   3.1081021700e+01    0.2377088    0.2107988  89.15 0.0004292682    1.288    0.223
       271  -8.0146    160.6157    128.7709   7.8559006790e+01   2.4082929657e+01    0.3023314    0.2050815 -49.13   0.00131978    1.519    0.342
       272 -10.3696    140.8099    117.5291   8.0567044766e+01   3.0824854476e+01    0.8396465    0.4011944 -49.70  0.001659076    2.187    0.543
       273  -9.6086    110.4548     90.2187   8.1310095677e+01   4.3160878545e+01    0.9490998    0.4723475  29.46  0.003378168    2.686    0.628
       274  -9.6406    138.8774     91.6717   7.3853207314e+01   3.6755291255e+01     0.733956    0.3898951 -34.65  0.001860615    1.958    0.489
       275  -9.7909    140.4007     79.4147   6.9749510934e+01   3.8816174914e+01     1.160339    0.2854999 -40.00  0.003169555    3.931    0.746
       276 -10.8236    123.4609     90.7292   7.7716563912e+01   4.0355243505e+01      1.54551    0.7432001 -35.09  0.002734418    2.233    0.552
