#   1 NUMBER                 Running object number                                     
#   2 MAG_AUTO               Kron-like elliptical aperture magnitude                    [mag]
#   3 X_IMAGE                Object position along x                                    [pixel]
#   4 Y_IMAGE                Object position along y                                    [pixel]
#   5 X_WORLD                Barycenter position along world x axis                     [deg]
#   6 Y_WORLD                Barycenter position along world y axis                     [deg]
#   7 A_WORLD                Profile RMS along major axis (world units)                 [deg]
#   8 B_WORLD                Profile RMS along minor axis (world units)                 [deg]
#   9 THETA_WORLD            Position angle (CCW/world-x)                               [deg]
#  10 FWHM_WORLD             FWHM assuming a gaussian core                              [deg]
#  11 ELONGATION             A_IMAGE/B_IMAGE                                           
#  12 ELLIPTICITY            1 - B_IMAGE/A_IMAGE                                       
         1 -15.4860     69.9812    144.7573   9.5413178030e+01   3.6972289015e+01     4.480633     2.218827  67.87  0.002785959    5.788    0.827
         2 -13.7122    201.7728     44.3969   3.8042039679e+01   2.9808347004e+01    0.8805054    0.7719235 -59.10  0.002933563    1.117    0.105
         3 -14.1324    212.2235     34.9196   3.4762803268e+01   2.8785797809e+01    0.7614869    0.6849665  47.80  0.001665005    1.466    0.318
         4 -13.8552    238.2088      9.1722   2.7421641468e+01   2.6529105604e+01    0.7992532    0.5992189 -68.14  0.004244381    1.029    0.029
         5 -11.2574      2.2611      4.7436   8.2277780605e+01   7.4189620680e+01    0.4587912   0.05852636 -41.65  0.001558371    5.840    0.829
         6 -11.4380     59.0152      7.2781   5.5191092935e+01   6.5914064789e+01    0.1792968    0.1345141  35.81 0.0007020474    1.101    0.091
         7 -10.9347     88.4780    211.5041   1.0100572636e+02   1.7411729985e+01     0.328422    0.1979742  54.08  0.001529509    1.740    0.425
         8 -12.3810    140.4747    249.0004   9.4151467876e+01   1.9032434526e+00    0.3552885    0.3002377  70.74  0.002173482    1.562    0.360
         9 -12.4772    125.3502    243.6046   9.6729666359e+01   5.1226340704e+00    0.6494501     0.251639 -47.93  0.002723916    2.886    0.653
        10 -12.6536    106.5364    249.3459   1.0158576410e+02   6.7625372440e+00    0.4897504    0.3294173  48.67  0.002488276    1.388    0.280
        11 -12.4299    101.6584    243.6368   1.0198311426e+02   8.5748205616e+00    0.8395488    0.2339659 -50.61   0.00302136    4.021    0.751
        12 -14.8654     52.8255    184.1858   1.0650913070e+02   2.8939568217e+01     2.524866     1.459967  69.65   0.01112748    2.085    0.520
        13 -16.1261     41.8649    195.9170   1.1065342633e+02   2.7293553862e+01      6.93668     2.373956  61.46   0.01848377    6.214    0.839
        14 -16.1191      4.7000    171.3224   1.1767809425e+02   3.6922275194e+01     8.221716    0.8063003 -72.25   0.01887953    5.687    0.824
        15 -10.5700     82.0883    195.3702   1.0037632642e+02   2.2192606350e+01     0.318946    0.2362555 -15.60  0.001527062    1.879    0.468
        16 -10.8741     87.6220    207.0542   1.0061413921e+02   1.8575013025e+01    0.1970906    0.1721082 -70.74 0.0004707862    1.172    0.147
        17 -10.3895    157.8818    192.6119   8.0947545814e+01   1.0311813814e+01    0.2552079    0.2086433 -52.02 0.0004495261    1.325    0.245
        18 -10.4459    145.4863    184.0018   8.2246784088e+01   1.4389291926e+01     0.229597    0.1482076 -49.02 0.0009944551    1.566    0.361
        19 -10.5524     81.4561    183.0924   9.8713201566e+01   2.5340229801e+01    0.2943738    0.2020901  32.84 0.0009607503    1.480    0.324
        20 -10.6931     99.3701    180.9147   9.3544709161e+01   2.3102488028e+01    0.2751913    0.2220709  22.81 0.0005715415    1.324    0.245
        21  -9.6168    180.4479    176.2154   7.2549283532e+01   9.8023257158e+00    0.2049119    0.1384756 -53.56 0.0009425926    1.655    0.396
        22 -10.9656     86.3144    175.7062   9.6200929201e+01   2.6481507374e+01    0.4836819    0.2939289 -79.68  0.001543747    2.104    0.525
        23 -10.3668     89.3201    173.7166   9.5034286668e+01   2.6522036556e+01    0.2341456    0.2117755  70.42  0.000504521    1.134    0.118
        24 -12.0356    238.7383    172.6144   6.0534115975e+01   9.2314970645e-01     0.211353    0.1799255  42.22  0.001318969    1.496    0.331
        25 -14.0858     80.3000    157.7443   9.4750542290e+01   3.2044364040e+01     1.991414     0.920909  59.46  0.005845754    4.196    0.762
        26 -13.5384     68.5735    152.6538   9.7303471242e+01   3.5092770106e+01     0.560678    0.4680497 -21.96  0.001137083    1.374    0.272
        27 -12.0247    116.2849    248.1334   9.9309674305e+01   5.5905263084e+00      0.36308    0.2344752  88.51  0.001749324    2.581    0.613
        28 -12.7914     71.8295    165.6351   9.8583613008e+01   3.1227463719e+01    0.7617713    0.5076072  84.92 0.0009537668    1.902    0.474
        29 -11.2908    230.4144    168.1181   6.1063012354e+01   2.9784933056e+00    0.3332835    0.1092826 -47.62  0.001151114    3.345    0.701
        30 -10.7819    192.1121    168.1756   6.8376652909e+01   9.3748155328e+00    0.3413169    0.2091309 -46.69  0.001428586    1.597    0.374
        31 -10.1752    110.8152    167.5022   8.7971194649e+01   2.4519105360e+01    0.3032346    0.2067435 -75.90 0.0009475634    1.890    0.471
        32 -10.5787    186.9552    165.2275   6.8832003148e+01   1.0907092987e+01    0.2113039    0.1907224 -11.94  0.001056964    1.053    0.051
        33 -12.3114     87.6651    151.0762   9.1298918671e+01   3.2627004509e+01    0.6927488     0.459723 -22.10  0.002847173    2.092    0.522
        34 -11.4113    133.6432    144.8852   7.6933618079e+01   2.5799404973e+01     1.170767    0.2756952 -53.64  0.002508014    6.202    0.839
        35 -12.2671     55.0856    146.9565   1.0040618978e+02   3.8377464567e+01    0.5592971    0.4853047 -17.24  0.003034658    1.311    0.237
        36  -9.0746     36.3006    145.2872   1.0590756114e+02   4.0924808828e+01    0.1430239    0.0977302 -39.85 0.0003017312    1.558    0.358
        37 -18.1576     13.7511    240.0131   1.2028333946e+02   2.0205683653e+01     6.505608      2.77768  22.90   0.03043574    3.122    0.680
        38 -10.2596    111.0736    128.8368   7.9376730067e+01   3.4113453774e+01    0.3147743    0.2408012  11.64  0.000708061    1.585    0.369
        39 -11.1598    101.8826    137.5601   8.4162943114e+01   3.3661863545e+01    0.6075613     0.347567 -24.55  0.002072786    2.869    0.651
        40 -11.2581    105.9744    130.9819   8.1400912456e+01   3.4553516724e+01    0.4357411    0.3444541 -54.56  0.001285522    1.256    0.204
        41 -12.3451     89.1372    136.8905   8.7866825394e+01   3.6049078533e+01    0.3126092    0.2759665 -37.92 0.0004181854    1.118    0.106
        42 -11.2150     25.7005    137.5439   1.0806107060e+02   4.3943154340e+01    0.3259954    0.1930991  43.08  0.001589783    1.881    0.468
        43 -11.1477    134.8454    129.1689   7.2835381333e+01   2.9264596068e+01    0.3694268    0.3043289  81.13  0.001712042    1.538    0.350
        44 -12.2622     67.3067    170.3052   1.0061584102e+02   3.0640502930e+01    0.4877844    0.3180577 -31.26  0.002136689    2.001    0.500
        45 -11.1260     98.2971    124.6276   8.2174654552e+01   3.7540835673e+01    0.3068785    0.2586098  -4.37 0.0004789544    1.340    0.253
        46  -9.8727    174.7831    149.5491   6.8016553838e+01   1.6524359107e+01    0.2016201    0.1491073  54.01 0.0005742892    1.573    0.364
        47 -10.2727    117.0002    123.5024   7.6325707847e+01   3.4237172021e+01    0.2209658    0.1426024  11.80 0.0008088356    2.412    0.585
        48  -9.8836    107.5243    118.0120   7.7694361840e+01   3.7411599912e+01    0.2223099    0.2077888  26.42 0.0001937901    1.091    0.083
        49 -10.5065    231.1471    113.9500   4.9625273881e+01   1.2653359795e+01    0.2068134    0.1976645 -75.39  0.000739511    1.165    0.141
        50 -11.8182     53.0058    110.5302   9.3890636941e+01   4.8085067907e+01    0.4630855    0.1803405 -58.09  0.001708004    2.345    0.574
        51 -11.6711     33.6828    109.0240   1.0052823187e+02   5.0576412519e+01    0.4203192    0.2358373 -68.67  0.001921819    1.759    0.432
        52  -9.9658    205.3891    110.1757   5.2863821119e+01   1.8309896719e+01    0.2240321    0.1957703  40.78 0.0006791647    1.307    0.235
        53 -11.0146    119.1966    103.7973   7.0441563509e+01   3.8308269270e+01    0.2192679    0.1861352  -7.59 0.0004866314    1.325    0.245
        54 -10.5410     42.6602    104.0885   9.6185302212e+01   5.0895171092e+01    0.2241229    0.1941299  36.48 0.0004992941    1.311    0.237
        55 -10.6892     36.0291    101.0304   9.7977031295e+01   5.2337894984e+01    0.2180542    0.1688834  72.54  0.001136361    1.712    0.416
        56 -10.4536    120.4943     98.0144   6.8443964013e+01   3.9283900327e+01    0.2391249    0.1523142 -44.24 0.0005883157    1.561    0.360
        57 -12.1629    107.1067    203.4980   9.5243272563e+01   1.6418461056e+01    0.4388467      0.28075  78.59  0.001818223    2.452    0.592
        58  -9.7950    152.0370     84.0539   5.6569161947e+01   3.4968059374e+01    0.2390641    0.1793198 -76.91 0.0005581244    1.687    0.407
        59  -9.2331    129.6924     65.2781   5.6245986053e+01   4.3454633486e+01     0.142694    0.1144832 -84.04  0.000260534    1.555    0.357
        60 -11.0675     13.4980     60.1562   9.7289342947e+01   6.3578028654e+01    0.2306118     0.190192 -31.56 0.0004436854    1.047    0.045
        61 -12.9925    191.0835     52.0548   4.1225575834e+01   3.1129293312e+01    0.5843883     0.391209  47.26  0.001188894    1.751    0.429
        62 -11.8999    120.1657    245.8459   9.8167848085e+01   5.4592292410e+00    0.2427507    0.2056963  37.14  0.001505592    1.044    0.042
        63 -10.2234    168.1185    232.0931   8.5604117056e+01   8.5087209777e-01    0.1711155    0.1579664  40.22   0.00061882    1.297    0.229
        64 -11.0220     55.8556     31.2600   6.7120525872e+01   6.3704691863e+01    0.3122084    0.2190311   4.32 0.0009046375    1.418    0.295
        65 -16.0326      9.2563    207.8900   1.1927590598e+02   2.7717367375e+01     1.546402     1.082381 -47.00  0.005750282    1.812    0.448
        66 -12.0590    192.4820    193.9785   7.3539744885e+01   4.1965306171e+00    0.7277671    0.3995046 -64.33  0.002339721    4.791    0.791
