#   1 NUMBER                 Running object number                                     
#   2 MAG_AUTO               Kron-like elliptical aperture magnitude                    [mag]
#   3 X_IMAGE                Object position along x                                    [pixel]
#   4 Y_IMAGE                Object position along y                                    [pixel]
#   5 X_WORLD                Barycenter position along world x axis                     [deg]
#   6 Y_WORLD                Barycenter position along world y axis                     [deg]
#   7 A_WORLD                Profile RMS along major axis (world units)                 [deg]
#   8 B_WORLD                Profile RMS along minor axis (world units)                 [deg]
#   9 THETA_WORLD            Position angle (CCW/world-x)                               [deg]
#  10 FWHM_WORLD             FWHM assuming a gaussian core                              [deg]
#  11 ELONGATION             A_IMAGE/B_IMAGE                                           
#  12 ELLIPTICITY            1 - B_IMAGE/A_IMAGE                                       
         1 -12.8098    242.4783    100.9442   8.4200366457e+01   1.1180997713e+01     3.460377     0.689332 -35.46    0.0101067    4.125    0.758
         2 -12.4277    231.3357     61.4278   7.5911680195e+01   1.9425053746e+01     2.460544    0.7586871 -39.47  0.007470408    2.903    0.655
         3 -12.0401    214.6401     39.8886   7.2456352273e+01   2.6293923657e+01     1.299888     1.061651  81.53  0.006006272    1.273    0.215
         4 -10.2382    214.3595     22.0035   6.7665488934e+01   2.8491637100e+01    0.9082283    0.6434065 -45.14  0.002652784    1.380    0.276
         5 -11.6112    224.0887     31.9745   6.9176025075e+01   2.4972551943e+01    0.8738014    0.6207661  46.43  0.004256082    1.530    0.346
         6 -11.8138    245.9422      4.6996   6.0340214149e+01   2.2864067904e+01     1.143113    0.7497663  74.14  0.006205829    1.496    0.332
         7 -10.2029    237.4737      4.0779   6.0871161213e+01   2.4853639437e+01     0.522027    0.2848646 -59.00  0.001795051    1.850    0.460
         8 -11.5560    240.9350     15.1313   6.3219223076e+01   2.2917863382e+01    0.9179046    0.4243921 -72.24  0.001816726    3.069    0.674
         9  -9.8507    237.7003     11.3475   6.2595923095e+01   2.4062846473e+01    0.2388157    0.1714979 -83.64 0.0005198479    1.389    0.280
        10  -9.2907    202.0816     17.3111   6.7823929461e+01   3.2050016997e+01    0.6014359    0.3001908 -61.03  0.002410038    2.641    0.621
        11  -9.4317    223.0222     15.5766   6.5042223312e+01   2.7082582531e+01    0.3953188    0.2157757 -45.54  0.001029556    1.767    0.434
        12  -8.2897    219.5105     12.0047   6.4476660117e+01   2.8304218678e+01    0.2642885    0.1688223 -59.80 0.0008667854    1.621    0.383
        13 -10.2519    126.0022     14.1848   7.9100957977e+01   5.1396501708e+01    0.2776346    0.2571596 -70.38    0.0016542    1.309    0.236
        14 -10.9371    119.1629     10.1184   7.9025236789e+01   5.3397242090e+01    0.7050841    0.4083055  41.25  0.003182516    1.576    0.365
        15  -9.7494    194.3105      9.1603   6.6450047219e+01   3.4831662334e+01    0.3581309    0.2045457 -47.17  0.001700102    1.834    0.455
        16 -10.0412    143.0781      8.5201   7.3674376231e+01   4.7828674260e+01    0.4814041    0.2462546  41.91  0.002148065    1.880    0.468
        17  -9.9526    211.4879      3.2748   6.2993744685e+01   3.1119594574e+01    0.5684038    0.2265201 -51.23  0.001333401    2.790    0.642
        18 -10.7559    182.8115      4.1529   6.6375312176e+01   3.8207886766e+01    0.6473742    0.4846061  60.53  0.002384991    1.228    0.186
        19 -10.3917    172.9906      2.5480   6.7129967786e+01   4.0840717013e+01    0.7471231    0.3209973  65.97  0.003166147    2.062    0.515
        20 -11.6020    241.6643    122.8290   8.9539706610e+01   8.0551557530e+00    0.7116605    0.5760835 -46.17  0.003960176    1.391    0.281
        21  -8.3299    160.5068    127.4638   1.0637308969e+02   2.4651714626e+01    0.1488901    0.1439862  14.26 9.425351e-05    1.004    0.004
        22  -8.6854    127.0215    125.7967   1.1386577101e+02   3.1828781866e+01    0.2252267     0.200404 -49.08 0.0002783217    1.114    0.102
        23  -9.8179    184.7796    120.5121   9.9438347665e+01   2.0657488757e+01    0.2510509     0.237452  -5.40  0.001370277    1.020    0.020
        24  -8.7581    214.4593    116.1478   9.2603940860e+01   1.4833976176e+01    0.2667821    0.2504211 -62.57  0.001449285    1.248    0.198
        25  -9.3281     64.2238    246.8221   1.4346217020e+02   1.8049318180e+01    0.1673011    0.1333178  63.60 0.0002483793    1.132    0.117
        26  -9.2099    231.4704     25.2738   6.6638107939e+01   2.3997061715e+01    0.3677436    0.2048832 -45.07  0.001227595    1.701    0.412
        27 -10.8204    237.6389     74.3122   7.8321960121e+01   1.6160773998e+01     0.660281    0.4918037  -1.68  0.003355021    1.586    0.369
        28  -9.3826     89.2873    242.9677   1.3904440661e+02   1.5433772938e+01    0.1496598    0.1191299  67.36  0.000446635    1.086    0.080
        29  -8.0714    131.4489    233.5084   1.3075352970e+02   1.0797806862e+01    0.1175587   0.09362704  51.96  6.55273e-05    1.042    0.040
        30  -9.4657    190.4183    103.1165   9.3839081842e+01   2.2483958541e+01     0.330227    0.1971564  39.62 0.0008156073    1.754    0.430
        31  -8.4174    205.9642    110.0000   9.2629784193e+01   1.7745640873e+01    0.2460785   0.08471531  51.36 0.0008074007    2.977    0.664
        32 -10.2789    186.4600     95.4928   9.2588819786e+01   2.4740814270e+01    0.6415506    0.2824195 -44.43  0.002310962    2.424    0.587
        33  -8.4488     41.9374    225.5286   1.4564576579e+02   2.4198226873e+01    0.1550058    0.1182127 -87.84  0.001220624    1.241    0.194
        34  -8.3361    148.6450     95.9143   1.0096481159e+02   3.3416670185e+01    0.2563804    0.2115994  26.44   0.00111829    1.283    0.220
        35  -7.8280    134.8704     93.9104   1.0377271711e+02   3.6819561889e+01    0.2382584    0.1897484 -84.92  0.001115794    1.725    0.420
        36 -10.0190    249.5443     86.3831   7.9641316191e+01   1.1827157488e+01    0.4368169    0.2932425 -38.81  0.001823786    1.374    0.272
        37  -9.5459    249.5217     80.5419   7.8227596522e+01   1.2667939160e+01     0.401017    0.2629204 -61.41   0.00122812    1.970    0.492
        38  -9.3219    173.8075     65.7007   8.6597132899e+01   3.2801999770e+01    0.3983449    0.2538151 -60.09  0.001632788    2.141    0.533
        39 -10.9524    175.4218     73.9462   8.8722424407e+01   3.1067982898e+01    0.7065869    0.5740938  29.96  0.001374482    1.294    0.227
        40 -10.5282    184.2848     83.8778   8.9812445416e+01   2.7254166890e+01    0.7277762    0.3524307 -42.39  0.002793983    2.103    0.525
        41  -9.7710    182.7606     77.9814   8.8438384516e+01   2.8609974973e+01    0.5363551    0.3533288  60.77  0.002387763    1.642    0.391
        42  -8.5640    157.5072     88.4699   9.6796457016e+01   3.2803811135e+01    0.3166195    0.2074351  18.84 0.0009195066    2.146    0.534
        43  -9.0472    160.4884     85.9831   9.5408678714e+01   3.2562865702e+01    0.2945551    0.2395314 -64.77 0.0008674231    1.488    0.328
        44  -8.9628    142.4169     84.7906   9.9279216363e+01   3.6933545270e+01    0.3233637    0.2637258 -39.96 0.0009002945    1.217    0.178
        45 -10.2967    157.3034     75.8810   9.3142077379e+01   3.5111999429e+01    0.4059476    0.3066794 -37.61  0.001051273    1.317    0.241
        46  -7.8642    229.3594     77.6606   8.0371485175e+01   1.7546404964e+01    0.2079837    0.1563854 -61.78  0.000425447    1.565    0.361
        47  -9.2587    208.5218     66.4558   8.0623121902e+01   2.4129230641e+01    0.7938722    0.5050732 -47.49  0.003623914    1.649    0.393
        48  -9.5505    203.8518     57.5013   7.8884371410e+01   2.6577920905e+01     0.528551    0.3181822 -53.69  0.001957003    1.939    0.484
        49 -10.0702    192.7509     59.1282   8.1171083836e+01   2.9096076031e+01    0.3694832    0.3099325  67.85  0.001921525    1.247    0.198
        50 -10.2611    197.7125     54.4878   7.9012321707e+01   2.8529865365e+01    0.5418479    0.3648373  31.27  0.001359314    1.763    0.433
        51  -9.3315    182.4339     67.2926   8.5403793484e+01   3.0417227008e+01    0.2764568    0.2707157  11.12 0.0002932602    1.006    0.006
        52  -8.7601    249.7864     67.1890   7.4942058165e+01   1.4479568565e+01    0.1849843    0.1570425   9.06 0.0005017364    1.334    0.250
        53  -7.6706    156.4231     64.2100   8.9754230506e+01   3.7297265571e+01    0.2001433    0.1408307 -42.95  0.000350478    1.475    0.322
        54  -8.8410    245.1080     60.8405   7.3970310882e+01   1.6375099520e+01    0.2191925    0.1742358 -57.48  0.001218378    1.297    0.229
        55 -11.6797    172.4713     55.5976   8.3788177407e+01   3.4690796416e+01     1.442761     0.857578  74.47  0.005793756    2.256    0.557
        56  -8.7775    134.3470     50.0115   9.0172729939e+01   4.4798335847e+01    0.2949888    0.2118807 -53.57 0.0004059795    1.705    0.413
        57  -9.9497    249.0267     46.2029   6.9923578658e+01   1.7427806054e+01    0.2841837    0.2484806 -37.24 0.0003876644    1.063    0.059
        58  -8.4736    193.2952     45.9581   7.7257190301e+01   3.0817367804e+01     0.249032   0.07775018 -46.19 0.0007029283    4.143    0.759
        59  -9.9718    150.6005     45.0691   8.4825735299e+01   4.1653314670e+01     0.310168    0.2637635 -42.30  0.001193744    1.250    0.200
        60 -11.7013     10.3466    214.4797   1.5020016737e+02   2.9355460436e+01    0.7773471     0.322515 -70.28  0.004905131    2.202    0.546
        61 -10.2280    141.0035     40.2091   8.5257172187e+01   4.4664992173e+01    0.3752913    0.3198454 -27.57  0.002021206    1.192    0.161
        62  -9.6573    236.9783     36.1701   6.8784143056e+01   2.1417779917e+01    0.5522645    0.2760725 -15.78  0.002278692    2.617    0.618
        63  -8.5741    232.3917     35.4085   6.9105877643e+01   2.2582235537e+01     0.297852    0.1596603 -59.21  0.001023482    2.216    0.549
        64  -9.8529    132.7635     38.2372   8.6440413337e+01   4.6893624911e+01    0.3006404    0.2373231   8.38  0.001497763    1.338    0.253
        65  -9.3740    167.8327    113.8311   1.0136356533e+02   2.5680719647e+01     0.352775    0.2956074  77.38   0.00131713    1.478    0.323
        66  -8.6766    243.6192     36.0512   6.8035301284e+01   1.9906979768e+01    0.2360627    0.1729547  60.09  0.001314848    1.434    0.303
        67  -8.3342    248.8020     35.5491   6.7374258294e+01   1.8799887419e+01    0.2439986    0.1195788  61.52  0.001136624    2.093    0.522
        68  -7.5057    181.7617     34.9672   7.5823824735e+01   3.5168272474e+01    0.1743979    0.1223693 -24.80 0.0005796705    1.475    0.322
        69 -10.3008    186.7394    107.6502   9.5763902635e+01   2.2530853439e+01    0.6969694    0.2122252 -40.60  0.001463861    3.230    0.690
        70  -8.0947    250.3836     27.3368   6.5259543000e+01   1.9418986380e+01    0.2436898    0.1228488 -22.42 0.0009096399    2.148    0.535
        71  -7.5634    161.4927     27.4950   7.6876981895e+01   4.1224537034e+01    0.1444835    0.1349948  40.02 -3.944412e-06    1.019    0.019
        72 -10.4022    143.6710     25.9095   7.9704292346e+01   4.5853212461e+01    0.2813276    0.2432376  40.83 0.0004178031    1.078    0.072
        73  -9.3710    128.3005     22.9866   8.1908336688e+01   4.9888773293e+01    0.2015602    0.1809451   9.15  0.001135904    1.068    0.064
        74 -11.3687      4.6056    213.5802   1.5108456356e+02   3.0032811077e+01    0.6664487    0.2669413 -71.40  0.004202886    2.224    0.550
        75 -12.3198     38.3240    190.4090   1.4368598266e+02   3.1089716019e+01     0.667749    0.5848988 -60.80  0.003168746    1.462    0.316
        76 -11.8482     50.3251    179.7754   1.4036225600e+02   3.1884619103e+01    0.7902101     0.655461  76.52  0.003384905    1.046    0.044
        77 -10.1191    185.0513    194.0727   1.1492831742e+02   7.9039211695e+00    0.2094388    0.1865737  34.02            0    1.076    0.070
        78  -8.7642    133.7899     20.3818   7.9755744578e+01   4.8882589765e+01    0.2099886    0.1145888  47.77 0.0006345718    1.669    0.401
        79  -8.5575    232.4642     18.2591   6.4778339385e+01   2.4546680309e+01    0.2719216    0.2010435 -40.62  0.001030698    1.276    0.216
        80  -7.6723    185.2873    179.3521   1.1219885823e+02   1.0212547346e+01    0.1866601    0.1180988  47.49 0.0008120672    1.537    0.350
        81  -7.9752    227.3192     16.3291   6.4801594542e+01   2.5973263014e+01    0.2117925    0.1249376  64.24 0.0006566551    1.651    0.394
        82  -7.0704     60.2615    161.3192   1.3618463902e+02   3.4561214825e+01    0.1145848   0.08862512 -46.62 0.0002880573    1.548    0.354
        83  -7.3304    171.7392    154.2990   1.0995643181e+02   1.7217976483e+01    0.1332746    0.1144144 -87.77 0.0002140667    1.509    0.337
        84  -8.5297     13.0076    152.7031   1.4561009728e+02   4.1176206774e+01    0.1474737    0.1243455  83.50 0.0005416785    1.131    0.116
        85  -8.8381     69.3318    145.6723   1.3192913780e+02   3.6816550962e+01    0.3346837    0.2345526  86.34  0.001461806    1.534    0.348
        86  -8.6517     66.3288    144.6824   1.3250113550e+02   3.7423627821e+01    0.3420952    0.1991327 -81.04   0.00131325    1.916    0.478
        87  -7.7136    199.2821    142.6783   1.0178133249e+02   1.3612844463e+01    0.1370206    0.1170471 -73.57 0.0002631884    1.590    0.371
        88  -8.8914    130.0102    140.7716   1.1642440229e+02   2.8112184587e+01    0.2168117    0.1986014 -49.06 0.0003321706    1.106    0.096
        89  -9.7714    195.0755    130.3795   9.9753035175e+01   1.6637234842e+01    0.2879514    0.2724414   9.98  0.000488156    1.024    0.024
