#   1 NUMBER                 Running object number                                     
#   2 MAG_AUTO               Kron-like elliptical aperture magnitude                    [mag]
#   3 X_IMAGE                Object position along x                                    [pixel]
#   4 Y_IMAGE                Object position along y                                    [pixel]
#   5 X_WORLD                Barycenter position along world x axis                     [deg]
#   6 Y_WORLD                Barycenter position along world y axis                     [deg]
#   7 A_WORLD                Profile RMS along major axis (world units)                 [deg]
#   8 B_WORLD                Profile RMS along minor axis (world units)                 [deg]
#   9 THETA_WORLD            Position angle (CCW/world-x)                               [deg]
#  10 FWHM_WORLD             FWHM assuming a gaussian core                              [deg]
#  11 ELONGATION             A_IMAGE/B_IMAGE                                           
#  12 ELLIPTICITY            1 - B_IMAGE/A_IMAGE                                       
         1 -13.0916    201.7265     33.7151   5.7671482123e+01   3.0228453194e+01     1.130966    0.9420509  62.56  0.005946432    1.225    0.184
         2 -13.7333    218.8032     15.6844   5.0248770577e+01   2.7885859069e+01     1.400329    0.9863058  24.04  0.005818966    1.752    0.429
         3 -12.8190      2.6454      5.2962   1.0691014093e+02   7.3835458981e+01    0.7841862    0.5510861 -44.42  0.005666263    1.037    0.036
         4 -12.2925      2.3135     17.8067   1.1190943690e+02   7.1453604587e+01    0.9751849    0.1643939 -60.31  0.003591166    3.970    0.748
         5 -11.1014     98.3432    231.0060   1.1927636779e+02   1.7516882616e+01    0.2125107    0.1928267  54.26  0.001775503    1.341    0.255
         6 -10.6670    175.4945    250.3355   1.0876065316e+02   3.8967166119e+00    0.3514675   0.07179864  40.61   0.00139107    3.866    0.741
         7 -11.2845    185.1926    249.7903   1.0719201895e+02   2.5375059685e+00    0.3238034    0.1382154  36.35   0.00188055    1.886    0.470
         8 -10.8548    169.2046    248.9476   1.0958902864e+02   4.9691007688e+00    0.2748662    0.1835845  18.80  0.000540474    1.895    0.472
         9 -11.8047    170.9646    243.9690   1.0875371870e+02   5.2691534143e+00    0.3880827    0.1417291  47.10  0.001307026    2.171    0.539
        10 -10.9975    164.4966    241.5330   1.0950878856e+02   6.5149165650e+00    0.2465451    0.1333973  53.07  0.001184136    1.709    0.415
        11 -10.8132    162.3640    250.3794   1.1081520316e+02   5.8072153952e+00    0.3342023    0.1064173  43.29   0.00119781    2.276    0.561
        12 -11.5862    150.3978    247.4360   1.1239104100e+02   7.8925597044e+00    0.2640007    0.2515506  57.68  0.002338419    1.310    0.237
        13 -10.9957    143.1958    249.3685   1.1372235023e+02   8.7003637257e+00    0.2881103    0.1472059  55.08   0.00181355    1.782    0.439
        14 -12.0929    134.1893    249.1685   1.1512202083e+02   1.0011476871e+01    0.7706903    0.2056546  44.88  0.003712912    2.682    0.627
        15 -11.4498    135.8383    240.9164   1.1405959414e+02   1.0825341891e+01    0.2131488    0.2092057  86.97  0.001056891    1.365    0.267
        16 -12.5272    135.0298    234.7743   1.1356840806e+02   1.1753705469e+01    0.9227633    0.7204883 -36.00  0.006902076    1.880    0.468
        17 -12.1454    122.9239    245.6929   1.1658438502e+02   1.2048366483e+01    0.5702706    0.3425453  65.54  0.003894673    1.731    0.422
        18 -11.5257    125.9716    243.0321   1.1585290119e+02   1.1967510870e+01     0.276864    0.2210515  84.11  0.001146693    1.428    0.300
        19 -11.1573     99.2438    248.2479   1.2053154073e+02   1.4939372083e+01    0.4236824    0.2103502  55.56  0.002829404    1.570    0.363
        20  -9.9243     91.0087    250.3084   1.2196246340e+02   1.5732888362e+01    0.1971217    0.1445312  54.72  0.001198298    1.092    0.084
        21 -11.0734     86.4919    248.2345   1.2251258653e+02   1.6599201560e+01    0.2696917    0.2103723  42.18  0.000931338    1.429    0.300
        22  -9.6378     81.6560    248.0927   1.2324964550e+02   1.7231844146e+01    0.2054944    0.1099783 -72.58    0.0013756    2.177    0.541
        23  -8.5454     63.2807    250.2863   1.2618509682e+02   1.9159979331e+01   0.07849314   0.06869318  51.03 0.0002451962    1.520    0.342
        24 -10.4811     50.5827    249.3837   1.2803275117e+02   2.0752127796e+01    0.2300679    0.1788065  47.29  0.002030562    1.462    0.316
        25 -12.9400     14.1551    214.9276   1.3201513622e+02   2.9945695706e+01     1.011995    0.4993229  43.23  0.004200113    1.773    0.436
        26 -12.4434      9.7526    206.7814   1.3238314476e+02   3.1735889268e+01     1.011937    0.5401418  20.80  0.005852491    3.969    0.748
        27 -12.6143     41.6284    206.7437   1.2704332001e+02   2.8528575260e+01     1.411553    0.5112112  71.28  0.006709483    3.348    0.701
        28 -12.8523     26.4774    247.6299   1.3148318839e+02   2.3591820255e+01    0.8199037    0.6187868  34.59  0.007133919    1.914    0.477
        29 -12.8366     38.3844    240.8792   1.2943424597e+02   2.3351391449e+01    0.9483653    0.3445684 -73.00  0.006042048    2.806    0.644
        30 -12.0837     44.8815    243.3439   1.2857768797e+02   2.2273783175e+01    0.4939779    0.2218532 -79.35  0.002088722    2.276    0.561
        31 -14.0368     31.8382    218.8314   1.2936182896e+02   2.7532473443e+01    0.9219213    0.6981246  78.20  0.007877506    1.176    0.149
        32 -10.5651     96.9739    239.2663   1.2018452880e+02   1.6497251597e+01    0.2584245    0.1462425  64.21  0.001060629    1.605    0.377
        33 -11.8688    102.4897    239.8004   1.1934151919e+02   1.5677820368e+01    0.3207198    0.2933528  26.30            0    1.582    0.368
        34 -10.2750    100.5027    235.1834   1.1927678538e+02   1.6609169373e+01    0.2555912    0.1124814  48.82  0.001540314    1.692    0.409
        35 -10.9637     91.9766    241.4785   1.2115650714e+02   1.6843279872e+01    0.2317617    0.1752984 -88.82  0.001879493    1.417    0.294
        36 -11.5730     87.7037    236.9161   1.2149103854e+02   1.8064167097e+01    0.5555761    0.2130482  52.80  0.003192958    2.023    0.506
        37 -12.8008     25.5330    225.7524   1.3069669257e+02   2.7053669679e+01    0.3430888    0.2728986  36.78 0.0007859874    1.751    0.429
        38 -11.8610    115.0364    250.3677   1.1823530271e+02   1.2529863833e+01    0.8067506    0.2365686  40.26   0.00394672    2.849    0.649
        39  -9.2760     67.0773    243.7144   1.2521419129e+02   1.9655867873e+01    0.2235196    0.1241165  30.87  0.001402404    2.596    0.615
        40 -11.5031    117.0321    238.2033   1.1684945144e+02   1.3886480902e+01    0.4240692    0.3048194 -18.83  0.002608307    3.222    0.690
        41  -8.9789     66.3192    239.2933   1.2505460062e+02   2.0400322931e+01    0.1674158   0.07342521  63.69  0.001022816    2.042    0.510
        42 -11.5464    198.0748    246.0294   1.0474569587e+02   1.0357075960e+00    0.2896611    0.1517523  39.35  0.001430677    1.395    0.283
        43 -10.3750    159.0038    244.0169   1.1066205461e+02   7.0378718072e+00    0.1620651    0.1064262  60.33 0.0004179985    1.630    0.387
        44 -11.3614    129.2021    235.0328   1.1455416670e+02   1.2573739957e+01    0.2994264    0.1767248  63.99  0.001908518    1.803    0.445
        45  -8.6063     70.7141    235.3145   1.2409909170e+02   2.0461843125e+01    0.1054731   0.05621812  65.06 0.0006994853    1.582    0.368
        46  -9.2891     54.6545    235.3453   1.2664149362e+02   2.2377497776e+01    0.1682796   0.08085187  64.05  0.001122413    1.686    0.407
        47 -10.6518    113.3544    230.8772   1.1677389040e+02   1.5442204477e+01    0.2328502    0.1979255  57.43  0.001255798    1.159    0.137
        48 -11.4259    109.4956    232.4527   1.1755979252e+02   1.5760303814e+01    0.3433716    0.1915008  74.93  0.002040465    2.323    0.570
        49  -9.6595    156.6229    232.4986   1.0975825782e+02   8.8078352339e+00    0.1421992    0.1081299 -49.96  0.000587439    1.725    0.420
        50 -10.3044     84.3572    229.9986   1.2150116337e+02   1.9537220868e+01    0.2243833    0.1716824 -63.81  0.001757222    1.674    0.403
        51 -10.6204     83.7975    241.2738   1.2243782086e+02   1.7933498748e+01    0.3064788    0.1787844  55.10  0.001467266    1.247    0.198
        52 -10.3038     56.9341    228.5139   1.2586518184e+02   2.3173967465e+01    0.1919243    0.1215104 -89.44  0.001452995    1.493    0.330
        53 -10.2635     70.6632    219.5032   1.2297857078e+02   2.2947345372e+01    0.3580075    0.2247887  81.32  0.002530571    1.495    0.331
        54 -10.6421     79.3244    225.6572   1.2199635211e+02   2.0861845889e+01    0.3336471     0.197163 -78.49  0.001848344    1.825    0.452
        55  -9.4475     77.1434    220.8090   1.2198388402e+02   2.1911583039e+01    0.1981105    0.1181344  59.35  0.000397867    1.311    0.237
        56  -8.7784     53.0547    229.7732   1.2656450838e+02   2.3427574419e+01    0.1256601   0.06305625  46.65 0.0005092356    1.560    0.359
        57  -9.1257     92.6628    225.9588   1.1979157474e+02   1.9051269752e+01    0.1403137    0.1299145 -84.83  0.001077345    1.405    0.288
        58  -9.4143     51.3856    225.4896   1.2657449212e+02   2.4299818515e+01    0.1563428    0.1234665  80.04 0.0005653859    1.222    0.182
        59  -9.6266    117.3214    224.4800   1.1548453370e+02   1.5804138274e+01    0.1927193    0.1743805  29.94 0.0008164147    1.421    0.296
        60  -9.3201     65.0218    224.3712   1.2427279543e+02   2.2862474158e+01    0.2013334    0.1290526 -56.92  0.001388468    2.151    0.535
        61  -9.1547    164.3362    224.0133   1.0745403167e+02   8.6978812214e+00    0.1433659    0.1279362  44.99 0.0004120675    1.150    0.131
        62 -11.5494    109.9512    247.7700   1.1881574319e+02   1.3567050304e+01    0.4305556     0.325099  74.28  0.003509087    1.317    0.241
        63 -11.0661     98.9008    222.8659   1.1846561192e+02   1.8672129915e+01     0.293557    0.1781242  55.51  0.001302115    1.294    0.227
        64  -9.7037     87.2532    223.6094   1.2050353632e+02   2.0142040043e+01    0.1957539    0.1227421  63.88 0.0007783266    1.330    0.248
        65 -10.6171    142.0954    219.6693   1.1071449921e+02   1.2765700212e+01     0.288986    0.2485363 -85.83  0.001401164    1.384    0.278
        66 -10.1495    245.8212    220.6100   9.3838802619e+01  -3.5604942729e+00    0.1866256   0.07749227 -24.80  0.001017172    2.727    0.633
        67  -8.9224     89.3635    218.7583   1.1973041923e+02   2.0624740399e+01    0.2470723   0.08063623  59.16 0.0009708551    4.172    0.760
        68  -8.4379     99.3095    218.3007   1.1797438597e+02   1.9326213222e+01   0.09493367   0.08369259  24.43 0.0002836832    1.602    0.376
        69  -9.6676    111.5288    215.2561   1.1554595184e+02   1.8050879898e+01     0.226886     0.168813  30.26  0.001413132    1.639    0.390
        70  -9.7718    117.9852    214.7928   1.1436369641e+02   1.7167441094e+01    0.1689053    0.1447878  76.25 0.0004183877    1.179    0.152
        71  -9.4482     88.0489    212.6034   1.1941158901e+02   2.1799335851e+01    0.1758487    0.1254267  78.49 0.0006952259    1.303    0.232
        72 -10.5152     62.7855    208.7962   1.2352111453e+02   2.5710888576e+01    0.3722082    0.2113749 -64.57  0.002039809    1.955    0.488
        73 -10.3948     63.9675    205.2981   1.2304251600e+02   2.6167461351e+01    0.2939316    0.1598234 -87.40  0.000172804    1.870    0.465
        74 -10.5967     55.9671    209.1844   1.2473500104e+02   2.6466946136e+01    0.4372447    0.1946609 -83.34  0.002515643    2.386    0.581
        75  -9.3183     51.9970    205.4982   1.2516435374e+02   2.7570064173e+01    0.2213658    0.1082019  55.95  0.001392256    1.613    0.380
        76  -8.7053    134.3785    207.7445   1.1064218295e+02   1.5730880380e+01     0.135526    0.1109978 -43.54 0.0009346734    1.573    0.364
        77  -9.4056    111.8089    207.4353   1.1466602267e+02   1.9251444692e+01    0.2726334    0.1618295  82.88  0.001149198    2.302    0.566
        78  -8.5573     74.4315    208.4504   1.2144774838e+02   2.4301970525e+01    0.1111542   0.08225371  65.94  0.000194078    1.037    0.036
        79 -10.3759    248.9144    206.5981   9.1128295098e+01  -2.6921231876e+00    0.3215877    0.1765814  55.73  0.001638698    3.068    0.674
        80  -8.8206     90.4590    205.0964   1.1827936003e+02   2.2719293304e+01    0.2548291    0.1265999  31.24  0.001279515    2.776    0.640
        81 -10.3019    106.9869    203.6881   1.1513182761e+02   2.0581789888e+01    0.1855249    0.1552488 -85.86  0.000309238    1.258    0.205
        82 -10.5964      3.8342    179.0562   1.3217054525e+02   3.7236446851e+01    0.2531808    0.1517112  45.99  0.001320376    1.577    0.366
        83 -10.3452     10.5211    188.5043   1.3143104234e+02   3.4906373608e+01    0.1518879    0.1170945  56.82  0.001257086    1.304    0.233
        84  -9.6568      2.5151    202.0174   1.3337414605e+02   3.3204924159e+01     0.207528    0.1132891 -87.17  0.001203895    1.490    0.329
        85 -11.3287      3.7645    185.8158   1.3249212728e+02   3.5989403865e+01    0.4200747    0.2083175  72.59  0.001826787    1.530    0.347
        86 -10.0905      8.9165    185.4692   1.3156722778e+02   3.5606670450e+01     0.195409    0.1099661  65.60 0.0007386554    1.332    0.249
        87  -9.7930      3.0095    197.7513   1.3312504240e+02   3.3908193279e+01    0.2605977    0.1018303  54.78 0.0006771458    1.866    0.464
        88 -10.6791      2.7339    192.9352   1.3297542146e+02   3.4787384771e+01    0.4658023     0.180756  67.95  0.002853474    2.040    0.510
        89 -10.2304     83.8211    201.5212   1.1914175008e+02   2.4244501848e+01    0.1939192     0.148651  80.09 0.0002831091    1.170    0.145
        90  -9.8220     43.4276    200.1534   1.2630205653e+02   2.9487143159e+01    0.2494476    0.2349256  63.71  0.002000242    1.504    0.335
        91  -9.3255    250.4930    200.5121   8.9867177216e+01  -2.3332665642e+00    0.1171982   0.08778631  17.58 0.0008103823    1.027    0.026
        92  -9.1486     75.1556    200.0705   1.2058949194e+02   2.5655127139e+01    0.1515459    0.1322169  73.52 0.0002636963    1.204    0.169
        93  -8.2933    130.6185    199.2341   1.1026429949e+02   1.7664087920e+01    0.1231608   0.07626477  61.01 0.0004353547    1.626    0.385
        94  -9.4302     21.5492    192.8225   1.2971434814e+02   3.3088588009e+01    0.2764159    0.1489264  67.49 0.0009128302    1.434    0.303
        95 -11.8637     55.0098    193.8515   1.2375449817e+02   2.9289335125e+01    0.3580336    0.2593288 -60.79 0.0009268736    1.704    0.413
        96  -9.6679    249.5798    194.0816   8.8900537510e+01  -1.5396818895e+00    0.2500085    0.1202706  29.18  0.001335464    1.906    0.475
        97  -9.4533    191.5432    191.5609   9.8077450972e+01   8.4780765459e+00    0.2090006    0.1757852  33.27 0.0006229936    1.013    0.013
        98 -14.1628      7.1028    244.0524   1.3412545173e+02   2.6009539911e+01     1.460059    0.8452138  85.19   0.01262269    1.416    0.294
        99  -9.7204     26.2734    192.4985   1.2886043196e+02   3.2681599098e+01    0.2549891    0.2011134  35.66  0.001378599    1.674    0.403
       100 -10.2992     31.0316    192.7995   1.2803041728e+02   3.2143054760e+01    0.3496557    0.2772923 -49.99  0.001602506    1.979    0.495
       101  -9.0011     76.8279    188.0215   1.1913629690e+02   2.7602001240e+01     0.211949    0.1331867  84.96  0.001302316    1.594    0.373
       102  -9.4814     83.7235    186.8383   1.1768819171e+02   2.6879909372e+01    0.1587018     0.136524  80.62 0.0004082647    1.125    0.111
       103 -10.1502     71.3596    186.8615   1.2007086341e+02   2.8539263893e+01    0.2679437      0.19909  33.49   0.00148248    1.663    0.399
       104 -11.6109     61.5336    185.9532   1.2186759405e+02   2.9957018792e+01    0.2139362    0.1982702 -84.68 0.0004502542    1.375    0.273
       105  -8.5386     29.5227    184.1602   1.2775722086e+02   3.3897576126e+01    0.2539147    0.1818819 -54.98  0.001794383    1.938    0.484
       106  -9.2718     24.2990    184.1557   1.2871925592e+02   3.4419487578e+01    0.1850829     0.125548  54.14 0.0009845747    1.299    0.230
       107  -8.6879     85.7062    180.2886   1.1658423421e+02   2.7821303916e+01    0.1214706   0.07645698  69.53            0    1.548    0.354
       108  -8.7425     26.9827    179.7660   1.2794444130e+02   3.4984150748e+01    0.1470276    0.1068873  76.43 0.0002325587    1.007    0.007
       109  -8.8283     12.4599    178.4713   1.3056829385e+02   3.6599661630e+01    0.1032365   0.07690819  80.76 0.0008070766    1.089    0.081
       110  -8.3700    103.0188    176.0148   1.1259883983e+02   2.6068050831e+01    0.1434584    0.1221429  69.68 -0.005334738    1.015    0.015
       111 -10.8484     72.9378    173.9412   1.1844160580e+02   3.0789181330e+01     0.226757    0.1903173  73.18 0.0004225597    1.066    0.062
       112 -10.2483     19.1682    173.8370   1.2904438585e+02   3.6873703916e+01    0.3575999    0.1500286  76.03 0.0008660273    2.246    0.555
       113 -12.5941    248.0831    171.5749   8.5013021824e+01   1.1497573388e+00      1.28107    0.4674503 -39.68  0.005347119    3.528    0.717
       114 -11.0711    249.5130    161.4919   8.2815819916e+01   2.0746250101e+00    0.2791967    0.2208803 -23.15  0.001784209    1.303    0.233
       115 -11.3130    247.9731    157.6164   8.2276782233e+01   2.8051099911e+00    0.6096606    0.2639726  55.28  0.002514622    3.321    0.699
       116 -10.9236     58.5277    173.1046   1.2126475267e+02   3.2790737861e+01    0.2581834    0.2361922  50.04 0.0005883777    1.380    0.275
       117 -10.1962     12.1828    172.9229   1.3031337534e+02   3.7683173079e+01    0.2702408    0.1169208 -77.01   0.00156477    1.917    0.478
       118 -11.2702      4.8443    150.8794   1.3046657284e+02   4.2655606677e+01    0.3835656    0.1722668  47.85  0.001882181    1.997    0.499
       119 -12.0745     10.9766    157.3344   1.2961686064e+02   4.0854420649e+01    0.4191248    0.2272149 -82.07  0.001415686    1.464    0.317
       120 -10.8596      3.0535    172.8994   1.3201828814e+02   3.8464856322e+01    0.2600697    0.1453294  67.24 0.0009520862    1.365    0.267
       121 -11.0686     12.6321    167.3603   1.2990517702e+02   3.8723434502e+01    0.3225738    0.1581381  41.42  0.002081739    1.952    0.488
       122 -12.0084      6.5185    166.4786   1.3103332918e+02   3.9416788698e+01     0.600385    0.3642397  16.80  0.001760039    2.842    0.648
       123 -10.0823     27.3798    171.5745   1.2731410963e+02   3.6526282624e+01    0.2548111      0.15189 -58.60 0.0005448023    1.984    0.496
       124  -9.5861    166.9507    170.4264   9.9023101093e+01   1.6050637541e+01    0.1747338    0.1627164  36.39  0.000215138    1.051    0.049
       125  -9.2420     51.5674    171.0425   1.2247213583e+02   3.4028224820e+01    0.1690329    0.1276246  60.44 0.0005150244    1.166    0.143
       126  -8.7145     95.9237    169.0373   1.1313696861e+02   2.8479896656e+01    0.1453642    0.1209606  65.92            0    1.038    0.037
       127 -11.5613     80.4676    165.8499   1.1595928428e+02   3.1355711314e+01    0.4816287    0.3567779  37.61  0.003019261    1.511    0.338
       128 -10.5237     81.9233    158.4002   1.1470698615e+02   3.2650923138e+01    0.3447394    0.2239056 -76.90 0.0008760045    1.512    0.339
       129 -10.3958     68.3097    166.2872   1.1855514056e+02   3.2909523834e+01    0.2094142    0.1664164  73.22  0.000319546    1.041    0.040
       130 -10.3735     45.0999    164.5351   1.2319500881e+02   3.6065897159e+01    0.3228108    0.2106738 -45.77  0.001941378    2.285    0.562
       131  -9.1462     43.1661    161.1571   1.2328725296e+02   3.6964136029e+01    0.1611732    0.1225367  83.90 0.0003278888    1.044    0.042
       132  -9.4521     37.7106    162.9761   1.2457888347e+02   3.7182304089e+01    0.1724023   0.09297273  60.86 0.0009070383    1.642    0.391
       133  -9.8989     66.9860    161.6479   1.1831250477e+02   3.4017362080e+01    0.1991954    0.1525586 -71.60 0.0004616016    1.276    0.217
       134  -9.7181     24.0232    161.9931   1.2729490823e+02   3.8750726012e+01    0.1670844    0.1221498  78.50 0.0003422487    1.032    0.031
       135  -9.3681     28.7230    161.0450   1.2626615166e+02   3.8488171181e+01    0.1513245    0.1098717  88.66 0.0002530249    1.092    0.084
       136  -9.5849     46.4706    156.3836   1.2213284564e+02   3.7576609000e+01     0.203333    0.1582558  81.07 0.0005034047    1.020    0.019
       137 -10.1447     32.3004    153.7162   1.2491419027e+02   3.9631847161e+01    0.2518291    0.1401557  85.60  0.001219863    1.590    0.371
       138 -11.3476     25.7456    155.2923   1.2643062062e+02   3.9946788920e+01    0.5098831    0.1407124  40.89  0.002457385    3.044    0.672
       139 -11.5169     21.5904    149.1697   1.2682596822e+02   4.1595185355e+01    0.3710178    0.2030597  50.60  0.001824652    1.688    0.408
       140  -8.4851    228.4236    155.4969   8.5010142113e+01   6.6251835498e+00    0.1291571    0.1142306  10.58 0.0001699944    1.056    0.053
       141 -12.9373    247.9587    101.0251   6.9602828850e+01   1.0107285627e+01     1.594388    0.7962178 -12.28  0.006366262    2.556    0.609
       142 -11.8144    247.8864    142.5311   7.9142770276e+01   4.6782724147e+00    0.6372079    0.4320704  29.83  0.003590549    1.401    0.286
       143 -13.1921    248.0719    134.3294   7.7329218401e+01   5.6867746392e+00      1.46357    0.7036548 -25.96  0.006808234    1.976    0.494
       144 -10.1008    249.7941    117.7913   7.3321810321e+01   7.5054804053e+00    0.3151042    0.2389297  -4.71 0.0007835887    1.245    0.197
       145 -12.0085    248.2591    112.8727   7.2399115067e+01   8.4612609575e+00    0.8879581    0.5468689  10.23  0.004147181    2.038    0.509
       146 -10.0867     94.7579    150.3522   1.1074477379e+02   3.2396177934e+01    0.2817725    0.2160451  64.56     0.001006    1.219    0.180
       147  -9.7682     87.0115    151.0484   1.1257742809e+02   3.3424006770e+01     0.186944    0.1580483  80.01  0.001192078    1.036    0.034
       148 -10.3469     82.8064    149.3139   1.1327152440e+02   3.4399515774e+01    0.2084719    0.1831976 -76.29 0.0002990169    1.147    0.128
       149  -8.8852     55.2663    150.3532   1.1957299182e+02   3.7815817355e+01    0.1123856   0.08496789 -51.47 0.0005075256    1.625    0.385
       150 -10.3232     57.3392    148.1601   1.1885589543e+02   3.8028935309e+01    0.4242751     0.221726  51.17  0.002317311    1.812    0.448
       151 -11.9661     68.3325    144.3223   1.1587384920e+02   3.7454128260e+01    0.6134577    0.3850874  79.13  0.002448522    1.683    0.406
       152  -9.5480     40.9904    147.5062   1.2243851114e+02   4.0031756399e+01     0.158724    0.1059928  44.75 0.0005300406    1.533    0.348
       153 -11.9469      9.5598    141.9048   1.2887564867e+02   4.4129392410e+01     0.423614    0.1703551 -72.83   0.00122164    1.964    0.491
       154 -12.5385      5.8950    141.9633   1.2967352242e+02   4.4403096974e+01     0.518281    0.3836496 -54.39  0.002162231    1.695    0.410
       155  -9.7823    235.9808    145.9915   8.1777313252e+01   6.4579795858e+00    0.2112414    0.1411673  12.48 0.0004877054    1.608    0.378
       156  -8.8002     97.8203    146.3888   1.0943894175e+02   3.2736002337e+01    0.1665647    0.1223027  32.70 0.0002650321    1.606    0.377
       157 -10.1841    133.2455    141.1683   1.0056950887e+02   2.7645008483e+01    0.3127735    0.2258172 -66.01  0.001005132    1.546    0.353
       158 -11.0871     16.8173    140.2945   1.2715740231e+02   4.3870959974e+01    0.2905952    0.1594324  60.99  0.001348689    1.659    0.397
       159  -9.4671    107.7416    135.7899   1.0534229924e+02   3.3317086978e+01    0.3312281    0.2251618 -20.98  0.001471759    2.765    0.638
       160  -8.8677     56.2823    135.6678   1.1754557789e+02   4.0841904110e+01     0.128316   0.08099812  76.80 0.0007006563    1.612    0.380
       161 -11.7560      2.1976    130.5598   1.2970430846e+02   4.7062574726e+01    0.5921456    0.1919446 -82.00  0.002881362    2.485    0.598
       162 -12.0545      3.8184    122.2180   1.2870190440e+02   4.8726504825e+01    0.4559263    0.3571859 -29.67  0.002301351    1.926    0.481
       163  -9.1472     94.1687    133.1424   1.0807480506e+02   3.6110893114e+01    0.1856634     0.173356 -47.63 0.0004870054    1.256    0.204
       164 -10.1977     44.5170    130.2439   1.1968382465e+02   4.3375942629e+01    0.2605264    0.1506733  78.64 0.0008674048    1.804    0.446
       165 -11.0179     13.4026    127.8874   1.2689980377e+02   4.6796124791e+01    0.1741581    0.1671596  53.72  0.000746966    1.410    0.291
       166 -11.4616      8.1125    127.2408   1.2808872676e+02   4.7340535918e+01    0.2485818    0.2066351 -29.36  0.001852847    1.810    0.447
       167  -9.8803     48.0505    126.0070   1.1827046391e+02   4.3922807075e+01    0.1828012    0.1494141 -89.99   0.00038069    1.024    0.023
       168 -11.9833     17.7545    122.8645   1.2539326778e+02   4.7536067996e+01    0.3670224    0.1810907  38.86  0.002149277    2.152    0.535
       169 -10.3765    231.9055    116.3688   7.5757206597e+01   1.1330759786e+01    0.2371058     0.182917 -34.17 0.0005517983    1.296    0.229
       170 -13.0983      9.5603    112.1413   1.2639942273e+02   5.0512540082e+01    0.8169463    0.3173952 -87.41  0.002649206    2.435    0.589
       171 -11.0157    249.6050    150.7589   8.0613718272e+01   3.3456056933e+00    0.4354095    0.3007242 -27.05  0.002360531    1.416    0.294
       172  -8.5265    203.4940    111.5087   7.9429330671e+01   1.8213776751e+01    0.1475133    0.1355944   7.01 7.333496e-05    1.042    0.041
       173  -9.4698     32.6691    115.6562   1.2083110044e+02   4.7818034281e+01    0.1206473   0.07943227 -47.91 0.0007050704    1.753    0.430
       174 -10.9555     19.0187    105.9709   1.2325198063e+02   5.1170091031e+01    0.2839602    0.1603591  63.99  0.001342361    1.869    0.465
       175 -11.8801     14.6719    101.7124   1.2393170506e+02   5.2453265109e+01    0.3039032    0.2312537  61.09  0.001044556    1.373    0.272
       176 -11.2630     16.8181     98.8517   1.2298963440e+02   5.2934023706e+01    0.3297054    0.1625337  43.17  0.001019298    2.220    0.550
       177  -8.6596     71.6384    100.1922   1.0763103662e+02   4.6793118031e+01    0.1775422    0.1102767 -52.95 0.0002350511    1.475    0.322
       178 -10.5518     21.3598     91.8173   1.2073824277e+02   5.4169237105e+01     0.342939   0.07837331 -66.77  0.001335795    3.074    0.675
       179  -9.7213    167.6527    112.8202   8.6776907109e+01   2.6007311331e+01    0.2761465    0.2347098  83.20  0.001183054    1.407    0.289
       180 -10.9945    240.6531    150.5076   8.1974407999e+01   5.0028857903e+00    0.2656425    0.2255842  18.42  0.001425994    1.064    0.060
       181 -10.6725      2.4117     75.7257   1.2430025037e+02   5.9042268663e+01    0.2348529   0.08905485 -77.55  0.001148245    2.143    0.533
       182 -11.3975     59.8126    245.7898   1.2645088585e+02   2.0215137682e+01    0.3514326    0.1990765  52.84  0.002687856    1.250    0.200
       183 -10.8382     73.9396    243.7880   1.2415621334e+02   1.8808442688e+01    0.2638833    0.2155445  89.59  0.002022156    1.372    0.271
       184 -11.8606    178.8009    243.7827   1.0749117634e+02   4.1239844007e+00    0.3727709    0.1542343  45.35  0.001586151    1.843    0.457
