#   1 NUMBER                 Running object number                                     
#   2 MAG_AUTO               Kron-like elliptical aperture magnitude                    [mag]
#   3 X_IMAGE                Object position along x                                    [pixel]
#   4 Y_IMAGE                Object position along y                                    [pixel]
#   5 X_WORLD                Barycenter position along world x axis                     [deg]
#   6 Y_WORLD                Barycenter position along world y axis                     [deg]
#   7 A_WORLD                Profile RMS along major axis (world units)                 [deg]
#   8 B_WORLD                Profile RMS along minor axis (world units)                 [deg]
#   9 THETA_WORLD            Position angle (CCW/world-x)                               [deg]
#  10 FWHM_WORLD             FWHM assuming a gaussian core                              [deg]
#  11 ELONGATION             A_IMAGE/B_IMAGE                                           
#  12 ELLIPTICITY            1 - B_IMAGE/A_IMAGE                                       
         1 -14.0947     68.6840    144.6293   9.5789415225e+01   3.7189910860e+01     4.369717      2.34272  75.76  0.002835206    4.439    0.775
         2 -13.5911    206.7112     42.5370   3.7044338175e+01   2.8979584035e+01     1.593125      1.33805  25.77  0.008127823    1.758    0.431
         3 -13.4218    219.8064     30.9300   3.3173079595e+01   2.7690622281e+01    0.9652228    0.8317575  34.38  0.006434575    1.724    0.420
         4 -10.8410      2.4193     21.7360   9.0089503284e+01   7.1591547244e+01    0.4559742    0.1074569 -49.57  0.001879315    3.534    0.717
         5 -11.4322    248.4230      9.0922   2.6766621069e+01   2.4600243664e+01    0.3757203    0.3351127   5.30  0.002839025    1.976    0.494
         6 -12.4085    244.8891      4.4103   2.6136438788e+01   2.5769593493e+01    0.5935146    0.5213197  86.70  0.004775782    1.379    0.275
         7  -9.9288      2.6888      3.6738   8.1438722934e+01   7.4298218102e+01    0.2485881    0.1277387 -32.35  0.001542872    1.665    0.399
         8  -9.5261     49.3336      3.0157   5.6778855044e+01   6.8047387920e+01    0.1631366    0.1315317  15.50 0.0004957007    1.087    0.080
         9 -10.1717    119.6234    213.3415   9.3703351322e+01   1.2202733466e+01    0.4380161    0.1677324 -53.89  0.001646843    2.733    0.634
        10  -9.5173    139.9808    249.9860   9.4393680469e+01   1.7991441974e+00    0.2069809    0.1480099  56.15  0.001141123    1.726    0.421
        11  -8.4725    125.2993    250.3235   9.7620876657e+01   3.8732075618e+00    0.1271612   0.09572116  -4.86 0.0007025783    1.629    0.386
        12  -9.7296    102.5977    249.8755   1.0250403723e+02   7.2209840522e+00    0.2105633     0.184303  66.95  0.001353686    1.197    0.165
        13 -10.3757    101.4986    243.9835   1.0205942899e+02   8.5289028264e+00    0.3537185    0.1350132 -62.42  0.001443395    3.141    0.682
        14 -13.0725      5.6070    185.8331   1.1857870523e+02   3.3273610277e+01     1.565037     0.715117 -89.33  0.001569527    2.040    0.510
        15 -15.7271     31.9124    180.3006   1.1153631256e+02   3.2270949965e+01     11.18769     4.544091  77.03   0.03440749    4.645    0.785
        16  -8.8428    149.8953    192.3151   8.2777929868e+01   1.1763505390e+01    0.2397789    0.1839826  50.59  0.001179276    1.467    0.318
        17  -9.3021     99.5060    180.7186   9.3474385216e+01   2.3129225693e+01    0.2556982    0.2372758  23.81 0.0005527671    1.114    0.102
        18 -11.2375    239.5077    176.7374   6.1214298889e+01   9.5002482733e-02    0.3324638    0.2598521 -17.15  0.002031378    1.140    0.122
        19 -11.3884     62.5169    172.3029   1.0225925980e+02   3.0764312529e+01    0.4858949    0.2989455 -35.10  0.001484146    2.088    0.521
        20 -11.3609     67.3062    167.6564   1.0020038564e+02   3.1330454451e+01    0.4554982    0.3468601  -1.31 0.0008775527    1.707    0.414
        21  -9.1043    186.2338    173.6371   7.0762421034e+01   9.3063218996e+00     0.323894    0.2295158  57.60  0.001512536    1.934    0.483
        22 -10.1077     86.4691    173.2596   9.5744298706e+01   2.7082502921e+01    0.5105986      0.32542  13.40  0.001980022    2.109    0.526
        23 -11.2321    235.4107    172.3597   6.1049175870e+01   1.4613799440e+00    0.3390538      0.20913  28.77  0.001784894    1.876    0.467
        24 -12.0326     84.2353    152.5464   9.2605873999e+01   3.2791363462e+01     1.247656    0.6180352 -54.22  0.001697208    1.893    0.472
        25 -12.3542     76.6811    158.3429   9.5919385414e+01   3.2430894848e+01     1.322255    0.6451461  59.97 0.0005959003    3.475    0.712
        26 -12.7599     64.2189    154.4926   9.8929276068e+01   3.5205689740e+01    0.5335876    0.3605585 -36.83 0.0009428025    1.671    0.401
        27 -14.6953      9.5585    208.0794   1.1922218735e+02   2.7646427125e+01     1.467514     1.179317 -73.24  0.005297698    1.249    0.199
        28 -10.2420     71.8047    161.9818   9.7977441321e+01   3.2186086049e+01    0.3395595    0.2345147  58.37  0.001565512    1.635    0.388
        29 -10.2981    133.6559    144.8134   7.6913615551e+01   2.5814044253e+01     1.193882    0.2919935 -54.14  0.002547633    6.284    0.841
        30  -8.9669    174.8221    149.2702   6.7944660197e+01   1.6576702935e+01     0.234018    0.2003639  70.17 0.0007487429    1.447    0.309
        31 -10.4465     54.9677    147.5009   1.0053507956e+02   3.8248171411e+01    0.6582319    0.2694987 -46.62  0.002414642    2.488    0.598
        32 -16.2602     15.2861    242.3339   1.2011284915e+02   1.9569789611e+01     6.612047     2.298412  22.61   0.02616904    4.457    0.776
        33 -10.1219     32.0245    143.4937   1.0695503845e+02   4.1813656289e+01     0.513863     0.280535  11.41  0.002281074    2.399    0.583
        34  -9.9527     98.5799    139.7768   8.5649384797e+01   3.3689887753e+01    0.3387211    0.2869264 -49.34 0.0007710322    1.138    0.121
        35  -9.1382    101.6518    136.6552   8.4023585133e+01   3.3931352657e+01    0.3638414    0.2521384 -26.14 0.0008502278    1.765    0.433
        36 -11.6774     86.5729    138.0324   8.8906889208e+01   3.6180326283e+01    0.3289573    0.2956385 -48.13 0.0004806879    1.063    0.059
        37  -9.4183    122.7161    199.8299   9.0762337258e+01   1.4722904619e+01    0.3078035     0.226454  86.58 0.0009769107    1.924    0.480
        38 -10.2372    107.4761    130.3321   8.0799195785e+01   3.4432034442e+01    0.6157188    0.3920909  21.38  0.002478122    1.965    0.491
        39  -9.5277    135.5987    129.7430   7.2779277089e+01   2.8975188980e+01    0.3189408    0.1486824 -42.71  0.001133796    2.125    0.530
        40 -10.7577    240.4719    169.4749   5.9623694831e+01   1.2151510768e+00    0.2400274    0.1936792 -27.01 0.0005623029    1.005    0.005
        41  -8.6412    110.6258    167.3133   8.7985783769e+01   2.4599387027e+01    0.2360172    0.1809976  76.98  0.001061521    1.672    0.402
        42  -9.4654     97.0982    124.9957   8.2634626228e+01   3.7666963799e+01    0.3420368    0.2595491   3.78  0.001532199    1.644    0.392
        43  -8.6572    115.8166    124.1700   7.6835346432e+01   3.4313585366e+01    0.2242335    0.1883332 -13.87 0.0004672959    1.335    0.251
        44  -9.0778    106.7244    118.2735   7.8002361593e+01   3.7504114057e+01    0.2140786    0.2070073 -52.56 0.0004490921    1.058    0.054
        45  -8.6386     79.9720    114.7968   8.5598825274e+01   4.3137709000e+01    0.2577364    0.1736472  62.22  0.001070597    2.102    0.524
        46 -10.0342    231.4400    113.6619   4.9520687804e+01   1.2650685376e+01    0.2718835    0.2536136  54.57 0.0008862171    1.265    0.210
        47  -9.1827    205.5758    110.2338   5.2845485496e+01   1.8261230810e+01     0.239473    0.2032271  55.14 0.0006909406    1.306    0.234
        48  -9.6517     44.4653    165.5885   1.0637313349e+02   3.4721079360e+01    0.2853261    0.2032134  64.56 0.0008006335    1.498    0.332
        49 -11.2048    249.3226    101.3867   4.4548192758e+01   1.1557306142e+01    0.4651733     0.147651 -41.04  0.001876849    2.532    0.605
        50 -10.8145    241.2365    101.9073   4.5685155081e+01   1.2897740752e+01    0.2497108    0.1707504 -28.24  0.001364894    1.598    0.374
        51  -8.5972     27.9009     94.4276   9.9632402903e+01   5.4698948105e+01    0.1830911     0.100671  47.18 0.0008048686    2.478    0.597
        52 -11.2673    246.9069     90.7061   4.2677229375e+01   1.3721767194e+01    0.3068156    0.1624319 -43.46  0.001598085    1.535    0.349
        53  -9.8938     52.9004     90.9638   8.9065363571e+01   5.2832169898e+01    0.2253307    0.2002876 -37.53 0.0005939212    1.046    0.044
        54  -8.4673     81.3569    183.4102   9.8789061976e+01   2.5274691178e+01    0.2643506    0.1440951  13.16   0.00092479    2.934    0.659
        55 -12.3851    197.4203     49.0035   3.9655141336e+01   3.0138881259e+01     0.750164    0.5059912  51.50  0.001157712    1.674    0.403
        56 -10.2772    119.7979    245.0249   9.8143116399e+01   5.6695833171e+00    0.2741617    0.1637633 -48.11 0.0009528774    1.898    0.473
        57 -11.0348     94.9397    240.9150   1.0315582424e+02   1.0080773309e+01    0.4870395    0.2066765 -64.22  0.001763007    2.762    0.638
        58  -8.9681     46.1234     61.3854   8.2857243530e+01   6.0071573038e+01    0.1840063    0.1543945  12.76 0.0005822403    1.171    0.146
        59 -10.6884     13.3737     59.8667   9.7266619968e+01   6.3647513482e+01    0.2518392     0.215524 -45.24 0.0004362717    1.177    0.150
        60 -10.0527      1.8708     59.5735   1.0261902480e+02   6.4389112632e+01    0.3666541   0.06164755 -62.17   0.00117271    4.572    0.781
        61  -9.2588    197.9944     23.8816   3.3756308778e+01   3.3213470023e+01    0.2272124     0.169295 -10.81  0.001075048    2.022    0.505
        62  -9.5311    111.4554    204.0332   9.4245031007e+01   1.5600500156e+01    0.2243993    0.1839573  35.68 0.0003375019    1.163    0.140
        63  -8.7821    189.4957     14.9940   3.2575536325e+01   3.6085079065e+01    0.1702072    0.1156375 -37.94 0.0006009902    1.559    0.359
        64  -9.7541    203.8023    200.4019   7.2455162008e+01   1.2077006288e+00    0.1951708    0.1212622  20.26  0.000957906    1.714    0.417
        65 -10.5548    192.7512    194.6056   7.3605368746e+01   4.0323506600e+00    0.8708735    0.4481632 -63.23  0.002432167    6.309    0.841
        66 -10.4185     55.7218    192.0315   1.0672308151e+02   2.6605906709e+01    0.3335838    0.2514454 -73.54  0.001408035    1.258    0.205
