#   1 NUMBER                 Running object number                                     
#   2 MAG_AUTO               Kron-like elliptical aperture magnitude                    [mag]
#   3 X_IMAGE                Object position along x                                    [pixel]
#   4 Y_IMAGE                Object position along y                                    [pixel]
#   5 X_WORLD                Barycenter position along world x axis                     [deg]
#   6 Y_WORLD                Barycenter position along world y axis                     [deg]
#   7 A_WORLD                Profile RMS along major axis (world units)                 [deg]
#   8 B_WORLD                Profile RMS along minor axis (world units)                 [deg]
#   9 THETA_WORLD            Position angle (CCW/world-x)                               [deg]
#  10 FWHM_WORLD             FWHM assuming a gaussian core                              [deg]
#  11 ELONGATION             A_IMAGE/B_IMAGE                                           
#  12 ELLIPTICITY            1 - B_IMAGE/A_IMAGE                                       
         1 -12.3038    188.1383     45.1571   6.1871179559e+01   3.2467903223e+01      19.5344     3.860586 -46.80    0.0255202   20.784    0.952
         2 -13.1666    222.5103     47.2575   5.7657466433e+01   2.3738208500e+01     1.395298     1.113627  81.36   0.00774078    1.314    0.239
         3 -11.9891    146.7103     30.3652   6.4378548665e+01   4.4919129864e+01     2.004179     0.992466  77.18  0.007191538    3.029    0.670
         4 -12.4287    186.9094    101.4629   7.8053114518e+01   2.3692739284e+01     3.994137    0.7475713 -35.01  0.009119455    5.861    0.829
         5 -12.2184    180.0745     77.6862   7.2811820326e+01   2.9492443085e+01     1.988054     1.146322 -63.78  0.001020196    2.830    0.647
         6 -12.1065    161.1890     51.2072   6.8474825139e+01   3.8428452019e+01     1.775078     1.004289 -71.36  0.005925372    3.564    0.719
         7 -13.0045    131.2567     38.4612   7.0547845878e+01   4.7652607424e+01     2.649621     1.066111  61.85  0.009316878    2.877    0.652
         8 -13.7746    240.9907     84.3665   6.4595369696e+01   1.4267506794e+01     6.684182    0.8020976 -35.43   0.01693435    5.498    0.818
         9 -12.3303    212.8635     69.4976   6.4877313511e+01   2.2859418631e+01     2.707492     1.033327 -54.10  0.007460014    4.946    0.798
        10 -12.5025    221.7912     38.5449   5.5474644090e+01   2.5042415575e+01     1.449466    0.6141306 -50.29  0.004533627    2.527    0.604
        11 -12.8400    234.1985     64.3206   6.0540442582e+01   1.8681567404e+01     2.061832     1.163591 -64.88    0.0086833    2.476    0.596
        12 -10.0420    244.5961     25.7845   4.9964502891e+01   2.1338442928e+01    0.5155358    0.1856339 -45.41  0.001941994    2.437    0.590
        13 -11.2032    248.0132     23.4138   4.9110007705e+01   2.0858230544e+01      0.53069    0.3061932 -35.25  0.001622006    1.550    0.355
        14 -11.6626    179.8866     21.7099   5.6080155683e+01   3.7473466688e+01     1.621871    0.9369124 -24.52  0.007555798    1.833    0.454
        15 -12.3234    197.4879     14.1764   5.1689923158e+01   3.3824465036e+01     1.793136    0.9367014  85.66  0.007202275    2.149    0.535
        16 -11.8731    226.5848      6.5506   4.6885030189e+01   2.7548494896e+01    0.8206993    0.3897595 -52.33   0.00387199    2.020    0.505
        17 -13.3974    243.4617      2.9029   4.4734772588e+01   2.4072983995e+01      2.77665    0.3418782  65.04  0.008822752    5.254    0.810
        18 -10.0904    223.7223     16.5235   4.9618937704e+01   2.7176964330e+01     1.058955    0.2659775 -45.10  0.003008062    3.625    0.724
        19  -9.1231    115.9656     12.3516   6.4099970548e+01   5.4424255744e+01    0.2922217    0.2433429 -23.69  0.001330942    1.268    0.212
        20 -10.5936    120.3578      8.9333   6.1785043584e+01   5.3718961411e+01    0.4481058    0.3828072 -31.25  0.001753148    1.283    0.221
        21  -8.2351    145.6413      8.8421   5.7055972588e+01   4.7513697688e+01    0.3063832    0.1299683 -46.56  0.001164328    2.947    0.661
        22  -9.1769    172.0249      2.5763   5.1259737402e+01   4.1373810988e+01    0.3353823    0.1779896 -51.01  0.001524083    2.093    0.522
        23  -8.5753      2.3458      4.6707   1.0546435081e+02   7.3740343374e+01   0.09157287   0.08675668 -81.83 0.0007050195    1.754    0.430
        24  -9.4359    149.3131     20.6502   6.0532996556e+01   4.5395700996e+01    0.3302467    0.2068646 -53.90  0.001516495    1.930    0.482
        25  -8.0280    151.7832    149.6023   9.7397034452e+01   2.2010774920e+01    0.2000098    0.1350149  53.18 0.0004509179    1.559    0.359
        26  -9.1154    223.9149    147.7676   8.2296839605e+01   7.8012790384e+00    0.2375279    0.2065336 -54.03  0.001350975    1.440    0.306
        27 -10.8244    248.5389    143.0925   7.7105316051e+01   3.9184116344e+00    0.5030967    0.2421155 -34.26  0.002327283    1.882    0.469
        28  -8.1261    209.4978    146.5275   8.4666487444e+01   1.0835656743e+01    0.1421757    0.1312885  -0.43 0.0008098801    1.029    0.028
        29  -9.8332     69.5089    145.5116   1.1679486363e+02   3.7054748626e+01    0.3190365    0.2699993 -84.52  0.001342446    1.077    0.071
        30  -9.8860     66.5025    144.4856   1.1740313480e+02   3.7690447526e+01     0.474359     0.291877 -76.13  0.001949108    1.626    0.385
        31 -10.5359    179.6164    143.7675   9.0007440151e+01   1.7448804377e+01    0.3912174    0.2799123 -57.12  0.001847201    1.715    0.417
        32  -8.9281    192.4521    144.1214   8.7446111544e+01   1.4721403776e+01    0.2419994    0.2043478  61.64 0.0005489265    1.395    0.283
        33  -9.5620    157.1618    140.9308   9.4278312979e+01   2.2667782080e+01    0.3755906    0.2544802 -64.70  0.001557104    1.973    0.493
        34  -7.4568    133.3502    142.6712   1.0023625101e+02   2.7087419530e+01     0.153814    0.1157727  80.92 0.0007048399    1.765    0.433
        35 -11.2549    189.4916    138.3175   8.6715781900e+01   1.6387141950e+01    0.5435478    0.3396221  42.20  0.002234247    1.587    0.370
        36  -8.6641    146.8393    137.1815   9.5816313100e+01   2.5556173972e+01    0.4263556    0.2465365 -78.82   0.00110443    6.140    0.837
        37  -8.4341    211.3918    136.8035   8.2102813649e+01   1.2092095859e+01    0.2096903    0.1308002 -23.41 0.0009507041    1.697    0.411
        38  -8.8536    166.6977    136.0737   9.1029599982e+01   2.1638919000e+01    0.3667771    0.1352846 -38.91  0.001127481    2.852    0.649
        39  -7.5113     94.3121    137.3547   1.0896944249e+02   3.5264945616e+01    0.1434821    0.1092643 -25.54 0.0007044513    1.732    0.423
        40  -9.4447    160.4868    128.6291   9.0658795078e+01   2.4440902937e+01    0.3053177    0.2636105 -64.80   0.00151249    1.312    0.238
        41 -10.8199    187.3761     72.6498   6.9995854178e+01   2.8537468043e+01    0.6401743    0.3683006 -58.62 0.0008635611    2.361    0.576
        42 -10.0436    140.3882    229.7484   1.1310927828e+02   9.4041367637e+00    0.2132021    0.1851313  45.32  0.000356049    1.061    0.058
        43 -11.8655      2.9165    205.1662   1.3673498614e+02   3.1444383261e+01    0.6540218     0.295733 -89.12  0.003865319    1.828    0.453
        44  -8.8791    249.2233    200.4437   8.8529911335e+01  -4.0116669536e+00    0.1716061    0.1501174 -14.02 0.0004302241    1.319    0.242
        45 -12.3219    178.7073     61.5855   6.8349498367e+01   3.2446791973e+01    0.7469437    0.4902482  35.60  0.003309432    1.760    0.432
        46 -13.6411     31.1592    181.9839   1.2986631564e+02   3.3441963087e+01     1.184479     1.014378  15.28  0.004506249    1.691    0.409
        47 -11.4267    197.7618    120.4090   8.0777958934e+01   1.7837659569e+01    0.6962659    0.4977161 -80.24   0.00296122    2.372    0.578
        48  -9.5382    205.5370    122.0402   7.9695144596e+01   1.5857122452e+01     0.266846    0.2111686  70.71 0.0005691703    1.621    0.383
        49  -8.1355    141.4697    121.4728   9.3394919640e+01   2.9959200396e+01    0.1499973    0.1481074 -78.47 0.0001368261    1.039    0.037
        50  -9.7824    233.4664    119.5267   7.4199428725e+01   1.0408989440e+01    0.3153692    0.1380459  49.80  0.001284943    2.445    0.591
        51 -10.0832    216.0369    116.1605   7.6349284123e+01   1.4596701980e+01    0.4860665    0.2310547 -36.89  0.001985051    1.972    0.493
        52 -10.4867    167.8117    113.7431   8.5295852278e+01   2.5773661545e+01    0.4144821    0.3233688 -41.65 0.0006099585    1.275    0.216
        53 -10.4324    229.6623    114.7356   7.3684313612e+01   1.1951241674e+01    0.4487361    0.2962887  15.91  0.002051793    2.018    0.504
        54  -9.4722    135.0000    110.0489   9.2106956711e+01   3.3733443464e+01    0.7486314   0.08606373 -44.29   0.00139565    8.570    0.883
        55 -10.7824    205.1943    110.6214   7.6929077173e+01   1.7909816917e+01    0.5103418    0.3039001  35.92   0.00191152    1.895    0.472
        56 -12.9095     44.4333    172.3265   1.2615268889e+02   3.4091511963e+01    0.9537866    0.8008654  80.00  0.003167757    1.041    0.039
        57  -8.6287    166.6761     99.9181   8.1864348451e+01   2.8694284524e+01    0.2105503     0.192946 -39.39  0.000441802    1.084    0.077
        58  -9.6766    226.3342     97.6834   7.0055706907e+01   1.5383856276e+01    0.2378742    0.2208141 -13.17  0.001275504    1.048    0.045
        59  -9.8110    149.5618     97.6711   8.5161879501e+01   3.3071392953e+01    0.5101526    0.2802152  37.80  0.001618124    2.023    0.506
        60  -7.7484    129.3229     98.2698   9.0390145065e+01   3.7409747609e+01    0.1518044     0.120472   6.06 0.0001721029    1.569    0.363
        61  -8.5150    136.0760     94.9093   8.7703085922e+01   3.6641665353e+01    0.2345452    0.2050501 -82.78  0.001139818    1.356    0.262
        62 -10.0094    222.6517     93.2500   6.9528909528e+01   1.6900402709e+01    0.4040681    0.2520072 -46.49 0.0003024921    1.629    0.386
        63  -9.4275    159.9705     90.5182   8.0721649868e+01   3.2041129252e+01     0.489507    0.2951433  48.95   0.00179626    1.671    0.401
        64  -9.6295    163.4591     88.5149   7.9371810493e+01   3.1589214862e+01    0.3405243    0.2479141 -41.39 0.0009325585    1.361    0.265
        65  -9.9759    144.4840     86.6312   8.3209409167e+01   3.6389071823e+01    0.3248408    0.3066159 -19.48  0.000968783    1.048    0.046
        66  -9.1050    192.1419    193.0708   9.7446686816e+01   6.4828652914e+00    0.4186943    0.2458458 -66.61  0.001445609    5.190    0.807
        67 -11.2371    160.1801     78.8159   7.7251537181e+01   3.4137550114e+01    0.4037662    0.3023153 -18.30  0.001194287    1.489    0.329
        68  -8.0595    109.8860     79.8847   9.0345816315e+01   4.5224720522e+01    0.1841306     0.168112 -70.55            0    1.240    0.194
        69  -9.3454    247.2705    182.1004   8.5387019483e+01  -1.3560338515e+00     0.279262    0.2375157 -82.63   0.00113971    2.317    0.568
        70  -8.2366    149.9411     79.9500   7.9911424413e+01   3.6376718614e+01    0.2455711    0.1874173 -68.63 0.0006801274    1.681    0.405
        71  -8.8456    150.3558     68.2061   7.6190109992e+01   3.8373279005e+01    0.2970204    0.1309678 -45.43 0.0004195556    2.470    0.595
        72  -8.1001    224.3235     69.2984   6.3143353628e+01   2.0208856470e+01    0.1420372    0.1091846  19.92 0.0007024599    1.627    0.385
        73  -9.7883    235.2302    177.0524   8.6442057647e+01   1.3324781402e+00    0.4283296    0.2442112  29.67  0.001059328    1.725    0.420
        74 -10.2329    143.0069     59.9754   7.5228986632e+01   4.1536102102e+01    0.6339186    0.4025772  47.01  0.002061299    1.555    0.357
        75  -9.4455    236.0433    172.9670   8.5482983360e+01   1.7748295155e+00    0.2518935    0.2035912   7.57 0.0005490579    1.087    0.080
        76 -10.3516    123.7934     58.1836   7.9379742061e+01   4.6327707953e+01    0.2678865    0.2437146 -19.89 0.0002949465    1.074    0.069
        77  -8.2374     72.4862     58.2649   9.5236674114e+01   5.6272305127e+01    0.1838526    0.1258055 -52.52  0.000930054    1.547    0.353
        78 -10.2498    248.0021     55.6599   5.6752874328e+01   1.6832452753e+01    0.3161898    0.2738578 -35.81   0.00192838    1.075    0.070
        79 -11.0181    248.4891     46.2166   5.4441795953e+01   1.7970295623e+01    0.4657473    0.3583453 -63.58  0.001420901    1.280    0.219
        80 -10.1502    210.4680     47.2949   5.9229608827e+01   2.6625323826e+01    0.3383587    0.2116269 -51.61 0.0008152867    1.640    0.390
        81  -9.5835    103.6824     47.0242   8.0978832817e+01   5.2568785603e+01     0.317394    0.1659917 -41.32  0.001358324    1.951    0.488
        82 -10.5133    197.1882     64.4941   6.5984394853e+01   2.7408615525e+01    0.3705344    0.2500074  40.18  0.001217354    1.647    0.393
        83  -8.2174    204.3044    152.6844   8.7016997176e+01   1.0830163566e+01    0.1337431    0.1156416 -78.06 0.0005165249    1.622    0.384
        84 -11.5141    109.4080     36.9857   7.5523562620e+01   5.2893048879e+01    0.6571534    0.4225527  -2.05  0.002963637    1.989    0.497
        85 -10.2284    244.7183     34.2656   5.1968443772e+01   2.0299803795e+01    0.3794671    0.2204231 -55.17 0.0005780825    1.678    0.404
        86 -10.3543    200.3003    116.0035   7.9196145282e+01   1.8058054866e+01    0.2972185    0.2673016 -56.03 0.0009421071    1.232    0.188
        87  -9.5245    249.6708     32.3725   5.1054431200e+01   1.9441121568e+01    0.3400158    0.2308916 -27.05  0.001897503    1.471    0.320
        88  -8.3980    234.5087     29.5295   5.1818347860e+01   2.3175758972e+01    0.6766999    0.1715576 -44.26  0.002313615    3.476    0.712
        89  -8.5564    201.4207     33.0208   5.6489913995e+01   3.0702409429e+01    0.2029169    0.1331738 -30.99 0.0003321019    1.514    0.339
        90  -8.4532    196.5255     30.4534   5.6403463377e+01   3.2240067682e+01    0.2473255    0.1093592 -40.60  0.000942934    2.166    0.538
        91  -8.3632    250.4030     38.7694   5.2486616611e+01   1.8498428748e+01    0.1781364    0.1194479 -22.10 0.0006142854    1.590    0.371
        92  99.0000    240.2131     27.4095   5.0752797842e+01   2.2128966177e+01    0.5165059    0.2210225 -76.42  0.001622779    4.392    0.772
        93  -9.6322    227.9195    175.8858   8.7493506152e+01   2.7613147594e+00    0.2368602    0.1706454  41.18  0.001339155    1.428    0.300
        94  -8.6760     90.8719    169.1781   1.1518682499e+02   2.8674477663e+01    0.1827719    0.1577086  74.53 0.0002440148    1.074    0.069
        95  -8.7314    236.3197    167.8789   8.4400176637e+01   2.4600777906e+00    0.1864944    0.1480251 -12.24 0.0003847132    1.132    0.116
        96  -8.4508    157.1777    168.1434   9.9953174330e+01   1.7306069133e+01    0.2040186    0.1819952  12.19 0.0002997176    1.175    0.149
        97 -10.2254    204.7761    165.0351   8.9557288503e+01   8.6760100638e+00     0.357323     0.213261  34.65  0.001006164    1.638    0.389
        98 -10.4441     59.8472    164.3344   1.2175981771e+02   3.4034084280e+01    0.6247878    0.3272628  39.81  0.003219242    1.896    0.473
        99 -10.7322    159.3219     23.6642   5.9828774349e+01   4.2517476983e+01    0.5442869     0.229229  45.82  0.002085792    2.425    0.588
       100 -10.1000    202.2827    126.1751   8.1313641760e+01   1.5836561585e+01    0.3896466     0.290796 -71.03  0.001361278    1.991    0.498
       101  -8.1509    159.5051    158.4710   9.7521065406e+01   1.8720068184e+01    0.1433019    0.1365999  50.50 0.0008088984    1.073    0.068
       102 -10.3402    165.5396     27.6001   6.0084779651e+01   4.0473504106e+01    0.3904983     0.246803  31.30  0.001322231    1.898    0.473
       103  -8.3853     90.0054    153.9686   1.1302109002e+02   3.2168272805e+01    0.1567737    0.1398094 -79.58            0    1.060    0.056
       104  -9.1316    246.3160    243.0939   9.6222931311e+01  -8.3915921399e+00    0.1812567    0.1134754  21.67 0.0003000314    1.233    0.189
       105 -11.1718    203.0974     60.6937   6.3980446027e+01   2.6530470948e+01    0.4624245    0.3496421  34.81  0.002304407    1.512    0.339
       106 -12.1107    233.0318     40.6822   5.4744132330e+01   2.2140010140e+01    0.7249704    0.5251518  -9.69  0.002881277    1.695    0.410
       107  -9.2744    135.6830    241.8208   1.1543756934e+02   8.2772369708e+00    0.1735628    0.1228322  39.71  0.001031628    1.160    0.138
