#   1 NUMBER                 Running object number                                     
#   2 MAG_AUTO               Kron-like elliptical aperture magnitude                    [mag]
#   3 X_IMAGE                Object position along x                                    [pixel]
#   4 Y_IMAGE                Object position along y                                    [pixel]
#   5 X_WORLD                Barycenter position along world x axis                     [deg]
#   6 Y_WORLD                Barycenter position along world y axis                     [deg]
#   7 A_WORLD                Profile RMS along major axis (world units)                 [deg]
#   8 B_WORLD                Profile RMS along minor axis (world units)                 [deg]
#   9 THETA_WORLD            Position angle (CCW/world-x)                               [deg]
#  10 FWHM_WORLD             FWHM assuming a gaussian core                              [deg]
#  11 ELONGATION             A_IMAGE/B_IMAGE                                           
#  12 ELLIPTICITY            1 - B_IMAGE/A_IMAGE                                       
         1  -9.0269    248.9089      7.7234   3.4721343827e+02   2.4909539147e+01    0.2112077     0.143805  36.15  0.001326457    2.770    0.639
         2  -7.4136    213.2955      1.7158   3.4745642340e+02   3.2220320738e+01     0.123671   0.06327988 -57.72 0.0002048257    1.543    0.352
         3  -8.1966    125.6749    216.3343   4.9679312968e+01   1.2784248331e+01    0.1288263    0.0934042  54.27 0.0007051212    1.714    0.416
         4 -11.2225    247.3892    239.6055   3.0295099823e+01  -4.3909829779e+00    0.5640449    0.3009754 -17.36  0.004007991    1.484    0.326
         5  -9.2249    133.3093    200.1268   4.5617508450e+01   1.4748030557e+01    0.2609231    0.1082857 -44.19  0.001097865    2.578    0.612
         6  -9.9597    112.8421    197.1453   5.0063877384e+01   1.8274911988e+01    0.3117384    0.1465035 -44.11  0.001342785    2.389    0.582
         7  -8.2959    126.3135    192.6803   4.6120729070e+01   1.7216356078e+01    0.1348102    0.1035664  59.84  0.000703815    1.651    0.394
         8 -10.0269     95.6866    191.1798   5.3581184747e+01   2.1990444120e+01    0.3021994    0.1710738 -55.71  0.001420006    1.914    0.477
         9  -9.2154    100.9939    196.8212   5.2982524706e+01   2.0025949022e+01    0.2414294    0.1349255  50.90  0.001085919    2.003    0.501
        10 -10.6772     86.3264    186.6620   5.5455583088e+01   2.4317534517e+01    0.4360986     0.251962  28.25  0.002029477    1.612    0.380
        11  -8.3101    111.6586    187.3362   4.8912036896e+01   2.0496260731e+01      0.14598    0.1033511  60.35 0.0007050581    1.761    0.432
        12  -6.9919    149.6830    143.3183   3.1409526052e+01   2.3470235366e+01    0.1417853    0.1171802  87.54 0.0002696526    1.656    0.396
        13 -10.0715     80.6781    123.3461   4.6365075353e+01   4.0839211308e+01     0.367293     0.228927  85.66  0.001348476    2.591    0.614
        14 -11.5592     58.7755    118.2840   5.3111572411e+01   4.5626960921e+01     1.150334    0.2508131 -59.90  0.003156848    3.985    0.749
        15 -10.0994     86.1784    119.9911   4.3771231178e+01   4.0738273237e+01    0.4574951    0.1844319  51.52   0.00137637    3.373    0.704
        16 -10.8586    101.9902    116.0572   3.7767286316e+01   3.8754690616e+01    0.6010887    0.2513602 -48.26  0.002099376    2.387    0.581
        17 -11.7863     46.9927    117.7700   5.7504255949e+01   4.7354871540e+01    0.7634275    0.4224973 -51.82   0.00321233    1.791    0.441
        18  -8.2449    123.6696    117.6793   3.1934984483e+01   3.4038233619e+01    0.1578124    0.1233029  -4.94  0.000704878    1.693    0.409
        19 -11.0593     91.0290    115.4733   4.1105308572e+01   4.0988180463e+01    0.6736435    0.3449861 -68.88  0.002269804    2.866    0.651
        20 -10.9986     27.7392    111.0021   6.4110029577e+01   5.1333436164e+01     0.399295    0.3299472 -14.26  0.001876964    1.380    0.276
        21 -10.7445     72.1329    112.0598   4.6830437409e+01   4.5200791906e+01    0.4616784    0.3102381 -39.42  0.002008027    1.662    0.398
        22  -9.2268    111.5117    110.4723   3.3502079876e+01   3.8164929687e+01     0.292686    0.1421693 -38.58  0.001036699    2.389    0.581
        23  -9.0844     25.2494    119.9725   6.6350431433e+01   4.9084298364e+01    0.2000197    0.1179821 -75.59 0.0008926965    1.605    0.377
        24 -10.2744     81.8537    103.0889   4.1117603134e+01   4.5779075379e+01    0.4745218    0.2062117 -44.57  0.001637245    2.479    0.597
        25 -11.1720     65.3090    119.2577   5.0895209801e+01   4.4396948204e+01    0.7351016    0.2257846  33.28  0.002293367    3.068    0.674
        26 -10.7529     39.1377    102.6079   5.7870459857e+01   5.2442573414e+01    0.4382614    0.2555152 -38.73  0.001842136    1.950    0.487
        27 -11.2155     27.2033     93.0354   6.1353713588e+01   5.6308173903e+01    0.6628414    0.2870446 -39.85  0.002414491    2.711    0.631
        28 -11.3993      6.0942     89.5251   7.0773197359e+01   5.8813834347e+01    0.7319167    0.2954341 -75.97  0.002926495    2.233    0.552
        29 -12.3442     75.2521     84.7540   3.8386587490e+01   5.1504354216e+01    0.8344838    0.5846941 -54.79  0.003807383    1.445    0.308
        30 -10.4883     23.6026     73.3607   5.9044095471e+01   6.1882185053e+01    0.4392773    0.2535503  73.50  0.001789522    2.518    0.603
        31  -9.7695     96.5023     82.4702   3.0126565723e+01   4.7690011482e+01    0.4329947    0.2262888 -62.15  0.001492532    2.747    0.636
        32 -10.9555     53.1528     78.8646   4.5864655350e+01   5.6779254886e+01    0.6172177     0.224239 -59.90  0.002026505    2.954    0.661
        33 -12.7144     57.1816     84.7534   4.5783137312e+01   5.4669710873e+01     1.184709    0.6852316  13.78  0.004512205    2.476    0.596
        34 -11.3915     19.8429     82.0123   6.2829866206e+01   5.9926479158e+01    0.5026242    0.3550886 -40.86  0.002549804    1.407    0.289
        35 -11.6668     33.7188     79.0991   5.5209794332e+01   5.9343769156e+01     0.957984    0.2863245 -47.46  0.003042856    3.308    0.698
        36 -12.0955     43.9506     75.0163   4.9060424209e+01   5.9097118305e+01     1.139552    0.3623726 -53.71  0.003828766    2.828    0.646
        37  -7.4080    215.4499     19.5068   3.5140610182e+02   2.9956868348e+01    0.1199469   0.09548341 -56.53 8.711734e-05    1.039    0.038
        38  -7.2946     70.6743     19.3133   1.3305548124e+01   6.4900801516e+01    0.1388567     0.106965 -75.98 0.0007041981    1.664    0.399
        39  -7.1526     64.5195    228.5291   6.5417220770e+01   1.8129170073e+01    0.1249373    0.1068786  28.33 0.0008072864    1.111    0.100
