#   1 NUMBER                 Running object number                                     
#   2 MAG_AUTO               Kron-like elliptical aperture magnitude                    [mag]
#   3 X_IMAGE                Object position along x                                    [pixel]
#   4 Y_IMAGE                Object position along y                                    [pixel]
#   5 X_WORLD                Barycenter position along world x axis                     [deg]
#   6 Y_WORLD                Barycenter position along world y axis                     [deg]
#   7 A_WORLD                Profile RMS along major axis (world units)                 [deg]
#   8 B_WORLD                Profile RMS along minor axis (world units)                 [deg]
#   9 THETA_WORLD            Position angle (CCW/world-x)                               [deg]
#  10 FWHM_WORLD             FWHM assuming a gaussian core                              [deg]
#  11 ELONGATION             A_IMAGE/B_IMAGE                                           
#  12 ELLIPTICITY            1 - B_IMAGE/A_IMAGE                                       
         1 -19.0320    158.8150    146.2274   1.0529336326e+02   2.0958344597e+01     7.014392     6.420626  88.70   0.01522681    1.203    0.169
         2  -9.2095    232.1073     13.8399   5.9502375237e+01   2.4872438005e+01    0.2651789     0.179409 -28.50  0.001486812    1.628    0.386
         3 -10.5485    119.6897      9.6674   7.3352346680e+01   5.3588263886e+01    0.5799697    0.3473059  40.51  0.002898087    1.576    0.365
         4 -10.6228    176.4301      2.4691   6.2094994751e+01   3.9842379016e+01    0.4596692    0.2057893 -56.00  0.001879561    2.675    0.626
         5 -10.0084    102.1892    203.2888   1.2818325671e+02   2.0025672156e+01    0.6288202    0.3203388 -83.97  0.002481352    3.480    0.713
         6  -9.1746    249.2856    249.7335   1.0687997270e+02  -1.1027812696e+01    0.2034469    0.1141986  40.13  0.001274169    1.742    0.426
         7  -9.1203    126.4454    236.3398   1.2733962756e+02   1.0061576866e+01    0.2764389    0.1741886  55.39  0.001143788    1.422    0.297
         8  -9.0877    121.3344    234.1105   1.2806651633e+02   1.1260936145e+01    0.2430104    0.1445355  49.95 0.0006408258    1.370    0.270
         9  -9.4787    116.0809    246.4659   1.3044409187e+02   1.0064827910e+01    0.2955608     0.184238  72.20  0.001359771    1.938    0.484
        10 -11.4750     81.1422    161.9420   1.2723557465e+02   3.2201907387e+01    0.5102959    0.3468918 -42.96  0.002599106    1.823    0.451
        11 -10.5535    245.5766    158.6385   9.0976368890e+01   1.0365071407e+00     0.457719    0.2649212  33.90  0.001728379    1.793    0.442
        12 -10.5324    222.6436    104.1333   8.2543285598e+01   1.4342648652e+01     0.323544    0.2297871 -84.57  0.001316759    2.029    0.507
        13 -10.5373    216.3970     89.8677   8.0056464550e+01   1.8113978864e+01    0.5484326    0.3297195  84.70  0.001673437    2.673    0.626
        14  -8.8678    112.9916    225.6796   1.2871492479e+02   1.4067180723e+01    0.3533998    0.1292287  54.39  0.001373836    3.069    0.674
        15  -9.4478    212.0734     82.1606   7.8806281130e+01   2.0385565110e+01    0.2838595    0.2097378 -34.86 0.0003294093    1.335    0.251
        16 -10.5954     71.9887    154.3807   1.2838046200e+02   3.5290102094e+01    0.4578579     0.378217  82.98  0.001912493    1.134    0.118
        17  -8.8539     60.5829     89.2889   1.1901199887e+02   5.1935698144e+01     0.190459    0.1146415 -46.18 0.0009342878    1.535    0.348
        18  -8.8887     68.0253    203.0000   1.3539654390e+02   2.5236647817e+01    0.1881665    0.1502898  72.27 0.0004120463    1.042    0.041
        19  -9.5293     66.6525    232.9032   1.3842422411e+02   1.9656556263e+01    0.1648489    0.1239035  71.43  0.001140125    1.106    0.095
        20 -10.0557    206.3317     82.6523   7.9866638735e+01   2.1690539697e+01    0.3832369    0.2469727 -77.93   0.00157937    2.275    0.560
        21 -11.2546    200.9563     78.9933   7.9810900444e+01   2.3601117388e+01    0.6361365    0.3330933 -50.71  0.001816509    2.109    0.526
        22 -11.1148     80.4238    154.7547   1.2629144706e+02   3.3950466055e+01    0.5930681    0.3425913  21.23  0.002528098    2.664    0.625
        23 -10.3331     59.2485    212.2900   1.3808246375e+02   2.4556952631e+01    0.2722155    0.1447233  39.09 0.0008403466    1.782    0.439
        24 -10.2129    167.7402    233.2707   1.1897219312e+02   3.6523587756e+00    0.4364715    0.1905821  31.17  0.001899178    2.491    0.599
        25  -9.9338    234.7800     66.4252   7.1655480035e+01   1.7466996162e+01    0.2835244    0.1925138 -65.38 0.0007632712    1.608    0.378
        26  -9.0430     61.9147    194.6772   1.3583299484e+02   2.7787665681e+01    0.1918091    0.1576599 -75.40 0.0005009279    1.258    0.205
        27 -10.6469    207.9277     62.9999   7.4499522372e+01   2.4375526755e+01    0.4507763    0.3403243 -72.16  0.002270361    1.437    0.304
        28  -9.6830    240.7380     62.4793   6.9982873750e+01   1.6685917452e+01    0.2196371     0.217357  41.74 0.0006978603    1.174    0.148
        29  -8.1591     37.2726    149.6024   1.3655438995e+02   4.0732551100e+01    0.1348024   0.08110909  75.42 0.0006985207    1.741    0.426
        30  -9.3927     97.7513    222.7417   1.3142017537e+02   1.7011785794e+01    0.2634439    0.2259301  -1.06  0.001627265    1.818    0.450
        31 -10.8185     67.4233    143.9808   1.2793971404e+02   3.8346497186e+01    0.6866996    0.3919875  64.82  0.002205562    2.151    0.535
        32 -10.1364     73.7287    139.8048   1.2555314289e+02   3.8418832696e+01    0.2983279    0.2280785 -52.93 0.0008398796    1.326    0.246
        33  -9.3520     50.3066    192.8849   1.3813635391e+02   2.9660894758e+01    0.1745542    0.1338075 -88.63  0.001133378    1.160    0.138
        34 -10.7729    194.5122     56.5207   7.4818959511e+01   2.8708450495e+01    0.3751103    0.2701153  32.83   0.00177804    1.726    0.421
        35 -11.8284    143.4374     49.3569   8.2181387188e+01   4.2897548441e+01    0.9043083    0.3066984  51.40  0.002863646    2.648    0.622
        36 -11.4268    155.1686     48.3330   7.9392262200e+01   4.0061917830e+01    0.9569292    0.2863496  57.05  0.002126789    2.971    0.663
        37 -10.8100    126.4940     49.9214   8.6344826449e+01   4.6973099938e+01    0.5715074    0.2312697  45.84  0.001402883    2.382    0.580
        38 -10.4261    190.1698     48.5071   7.3280934828e+01   3.0970038281e+01    0.4735678    0.2459215  76.00  0.001692576    2.241    0.554
        39  -7.9685      2.6862    212.6948   1.4883990547e+02   3.0765196587e+01   0.09129591   0.07433806 -65.65 0.0004848908    1.620    0.383
        40 -10.5434     46.1890    138.4090   1.3277117760e+02   4.2338106467e+01    0.3533249    0.2285773 -67.19  0.001956869    1.369    0.270
        41 -10.0124     95.1874    137.0748   1.1925124121e+02   3.5626247427e+01    0.3653655    0.2707788 -26.76  0.001010369    1.838    0.456
        42 -10.6221    102.9787    230.2421   1.3120770669e+02   1.4845053048e+01    0.5105626    0.1929365  47.15  0.001744881    2.120    0.528
        43 -10.3632    221.3392     40.0318   6.6856695737e+01   2.4294302031e+01    0.3473412    0.2391182 -69.36  0.001202896    1.484    0.326
        44 -10.3120     76.8235    175.1985   1.3017439764e+02   2.9885886926e+01    0.2746767    0.2569253  62.97  0.001551643    1.165    0.142
        45 -10.6147    137.4485     37.4058   7.9502648780e+01   4.6080290167e+01    0.2715845    0.2615506 -10.31 0.0001793375    1.108    0.098
        46  -9.5627     44.3044    219.9281   1.4161441697e+02   2.4953442206e+01    0.2150736    0.1500483  43.44  0.001219111    1.410    0.291
        47  -9.0515    247.0399    118.8456   8.2137235495e+01   6.8305931314e+00    0.2023403    0.1827969 -13.11 0.0005912361    1.070    0.065
        48  -8.7886     25.0436    231.1839   1.4585177135e+02   2.5051744550e+01    0.1494603    0.1239293  73.16 0.0004952401    1.241    0.194
        49  -8.9605    112.2529    245.9927   1.3110894399e+02   1.0734941396e+01      0.18425    0.1399005  51.35  0.000203358    1.012    0.012
        50  -9.9652    214.9421    239.5840   1.1118431579e+02  -4.9064197303e+00    0.2475348    0.1578816   6.20  0.000993468    1.772    0.436
        51  -8.5030    242.4340     10.4857   5.7916578259e+01   2.2867307889e+01    0.2277799    0.1048086 -88.22  0.001026638    2.367    0.577
        52  -9.8432     12.1318    172.6951   1.4461534158e+02   3.8032776235e+01    0.2129542     0.162156  67.68   0.00120447    1.142    0.124
        53  -9.8683    117.9357    239.4471   1.2933134028e+02   1.0915977418e+01    0.3259279    0.1593764  51.54  0.001117637    1.737    0.424
