#   1 NUMBER                 Running object number                                     
#   2 MAG_AUTO               Kron-like elliptical aperture magnitude                    [mag]
#   3 X_IMAGE                Object position along x                                    [pixel]
#   4 Y_IMAGE                Object position along y                                    [pixel]
#   5 X_WORLD                Barycenter position along world x axis                     [deg]
#   6 Y_WORLD                Barycenter position along world y axis                     [deg]
#   7 A_WORLD                Profile RMS along major axis (world units)                 [deg]
#   8 B_WORLD                Profile RMS along minor axis (world units)                 [deg]
#   9 THETA_WORLD            Position angle (CCW/world-x)                               [deg]
#  10 FWHM_WORLD             FWHM assuming a gaussian core                              [deg]
#  11 ELONGATION             A_IMAGE/B_IMAGE                                           
#  12 ELLIPTICITY            1 - B_IMAGE/A_IMAGE                                       
         1 -13.1009    242.6688    121.6089   8.2494315201e+01   7.2003012649e+00     5.053032    0.9125383 -39.49 0.0009598449    4.895    0.796
         2 -11.7517    209.1434     64.8450   7.4348467651e+01   2.4642802634e+01     2.205358     1.115917 -72.79  0.007276101    3.753    0.734
         3 -12.9857    234.1318     64.0394   7.0660398446e+01   1.8902445585e+01     1.822819     1.567633  67.00  0.005544241    1.235    0.191
         4 -11.8140    145.9604     31.4715   7.5971098754e+01   4.4841785000e+01     1.905854    0.7061223 -43.61   0.00717388    3.174    0.685
         5 -12.7415    136.3512     38.3978   8.0087215306e+01   4.6243465099e+01     1.911372     1.016516  72.35 0.0005556984    2.559    0.609
         6 -12.2819    182.3088     75.9308   8.1752771221e+01   2.9375610528e+01     3.061551    0.4886641 -43.84  0.001826437    6.341    0.842
         7 -13.1933    173.0199     77.3684   8.3942648834e+01   3.1410936132e+01     3.850261      1.47659 -54.61   0.01062549    4.549    0.780
         8 -12.2647    162.9822     52.5352   7.8934251252e+01   3.7901201406e+01     1.821871     0.934528 -68.57  0.005590158    4.505    0.778
         9 -12.7382    224.4418     41.7046   6.6759817126e+01   2.4443947242e+01     2.411652      1.13405 -61.75  0.004429273    2.528    0.604
        10 -11.9939    185.0008     39.1096   7.1440230061e+01   3.4338607370e+01     2.900338     1.308697 -33.02   0.01225241    2.368    0.578
        11 -10.4395    230.9525     24.4344   6.2192413041e+01   2.5213720018e+01     1.842433    0.6684426 -63.28  0.006112636    4.392    0.772
        12 -12.0802    246.0703     22.7473   6.0405198930e+01   2.2044131842e+01    0.8116223     0.551861 -67.13  0.001256049    1.258    0.205
        13 -10.8610    250.6274     12.2884   5.7924158254e+01   2.2332661622e+01    0.4140637    0.1806377 -31.76 0.0007440635    2.657    0.624
        14 -12.0241    226.6898      7.7515   5.9012457080e+01   2.8146955782e+01    0.8292634    0.3053001 -45.65  0.003819423    2.448    0.592
        15 -13.9581    244.6352      4.5607   5.6873398291e+01   2.4514014438e+01     3.548339    0.4656914  63.25  0.007949161    5.200    0.808
        16  -9.1926    142.3620     15.5572   7.1763030253e+01   4.7426998840e+01    0.3252773    0.1455714 -28.33  0.001046034    2.473    0.596
        17  -9.3605    125.0436     14.1935   7.4628356826e+01   5.1542241062e+01     0.287487    0.1908413  22.25  0.001358953    1.725    0.420
        18 -11.1927    119.1849     10.1078   7.4466551210e+01   5.3222073729e+01    0.6346988    0.3780786  43.80  0.002997045    1.471    0.320
        19  -8.9905    144.0605      6.0663   6.8588152535e+01   4.7906323082e+01    0.4003658    0.1799331 -12.66  0.001725032    3.194    0.687
        20 -10.1007    183.1391      3.0591   6.2364480211e+01   3.8859273973e+01    0.3998944    0.2444502 -24.69  0.001730298    1.996    0.499
        21  -8.2281    171.9849      2.9699   6.3695981662e+01   4.1540527313e+01    0.2051465    0.1342275 -70.01 0.0006739409    1.683    0.406
        22  -7.8070    195.6842      7.6996   6.2081256476e+01   3.5403380862e+01     0.247283    0.1218599  38.79 0.0002012048    3.230    0.690
        23  -8.5520    205.0035      1.8339   5.9735646554e+01   3.3785496741e+01     0.171216     0.148186  68.58 0.0004018788    1.222    0.181
        24  -7.9435    199.5813      1.5096   6.0201588098e+01   3.5093705445e+01    0.1274168    0.1028433 -86.40 0.0008043837    1.052    0.049
        25  -8.3798    156.0298    129.0130   1.0131787895e+02   2.5110015896e+01    0.1919824     0.177995  54.58 0.0003109149    1.083    0.077
        26  -8.9852    136.3443    127.9986   1.0584682861e+02   2.9664831742e+01    0.3627842     0.144784 -46.99  0.001228815    2.466    0.595
        27  -8.7067    160.1487    128.1556   1.0014613134e+02   2.4365958436e+01    0.2264385    0.1913187 -82.61 0.0008047768    1.338    0.253
        28  -9.2962    211.2273    128.1404   8.9436745673e+01   1.2715045964e+01    0.4479698    0.1619914 -48.85  0.001432054    3.048    0.672
        29  -7.6557    173.9919    123.0590   9.5761727954e+01   2.2271052582e+01    0.1899677    0.1736449 -49.20  0.000405605    1.078    0.073
        30  -7.6932    225.3096    122.3136   8.5535124833e+01   1.0733531252e+01    0.1450984    0.1166525   2.95 0.0002757924    1.629    0.386
        31 -10.4308    185.9552    119.9553   9.2440435920e+01   2.0123888370e+01    0.4762034    0.2928805 -67.85  0.001790179    2.406    0.584
        32  -9.9771    168.0540    208.5889   1.1529348368e+02   5.7299958275e+00    0.2293362    0.2131006 -57.15 0.0005452136    1.181    0.153
        33  -7.7472    178.3119    118.6828   9.3731941916e+01   2.2172375628e+01    0.1614138    0.1233808 -80.41 0.0003853578    1.642    0.391
        34 -10.0654    190.2712    116.9987   9.0823220720e+01   1.9711645282e+01    0.2499529    0.2416243  66.48  0.000863185    1.053    0.050
        35  -9.1512    227.0738    114.8383   8.3499285715e+01   1.1739458692e+01    0.3490573    0.1861386 -30.27  0.001408222    2.134    0.532
        36  -8.0320    215.4918    116.5318   8.5906969538e+01   1.3994012082e+01    0.1512377    0.1396973 -61.74 0.0001059083    1.048    0.046
        37  -9.4044    168.1488    114.1527   9.4798332008e+01   2.5493342045e+01    0.4279224    0.3104174 -89.45  0.001536699    1.903    0.474
        38  -8.4035    135.0000    114.0742   1.0267568905e+02   3.3049771536e+01    0.2626823   0.08767109 -45.29 0.0008036966    2.951    0.661
        39  -9.2176    197.1934    111.7265   8.8145310928e+01   1.9132346099e+01    0.2516486    0.2014105  85.12  0.001204598    1.446    0.308
        40  -9.3103    204.0885    110.8984   8.6630962592e+01   1.7682109639e+01    0.3146568    0.2099938  23.17  0.001271223    2.344    0.573
        41 -11.8458      7.8132    203.6076   1.4759579370e+02   3.1224505198e+01    0.8047885    0.5344465  81.82  0.004852504    1.136    0.120
        42 -10.4605    182.3993     57.7417   7.6844403645e+01   3.2318996423e+01    0.9235913    0.6775167 -66.09  0.004599769    1.489    0.328
        43  -9.8359     10.9997    199.0144   1.4667275360e+02   3.1893716162e+01    0.3092164    0.1662444  70.31  0.001409358    1.649    0.394
        44 -11.5026     51.6780    192.6981   1.3797470250e+02   2.8762765091e+01    0.8524764    0.4384584  68.66  0.004069207    2.167    0.539
        45  -9.0153    191.8951    193.3034   1.0751401992e+02   4.0261546658e+00    0.5189092    0.2756632 -65.84  0.001620921    4.687    0.787
        46 -11.5824    173.8082     63.0788   7.9851708810e+01   3.3611872506e+01    0.5519134    0.4946059  16.30  0.002998848    1.324    0.245
        47  -7.2645    169.0006    194.0000   1.1244273935e+02   8.3927012517e+00    0.2311592   0.07866229  43.10  0.000777228    2.770    0.639
        48  -8.5451    198.6380     97.9459   8.4425482177e+01   2.1427803891e+01    0.3104735    0.2040388  77.92  0.001309792    1.956    0.489
        49  -8.8266    148.4608     98.0673   9.5063389778e+01   3.3394711902e+01    0.2842751    0.2179477  30.26 0.0007990871    1.497    0.332
        50  -8.1223    134.5188     95.4830   9.7778350996e+01   3.7079818772e+01    0.2560419    0.1477418  58.98  0.001011875    2.042    0.510
        51  -9.8545    191.3352     66.3432   7.7593223458e+01   2.8752302979e+01    0.3813907     0.250825  42.94 0.0009453942    1.736    0.424
        52  -8.8932    191.4153     91.6131   8.4160361758e+01   2.4343164163e+01    0.4333073    0.1692464  48.52  0.001494545    2.649    0.622
        53 -10.2841    158.9893     90.2994   9.0484661151e+01   3.2443506803e+01    0.5486529    0.3761991   9.60  0.002153335    2.487    0.598
        54  -9.0213    167.9776     89.8093   8.8386176260e+01   3.0374463099e+01    0.3077513    0.1935827 -65.24  0.001220001    2.143    0.533
        55 -10.7980    156.5902     80.7365   8.8343354979e+01   3.4804051261e+01    0.6638845    0.3865461 -24.06  0.002612752    2.288    0.563
        56  -8.9990    142.0815     87.3208   9.3590196683e+01   3.6984732688e+01    0.2742995    0.2187531 -49.27 0.0005687876    1.283    0.220
        57 -12.2155     41.1598    178.4381   1.3861888275e+02   3.3290958373e+01    0.6539669    0.5665271 -78.65  0.001474846    1.165    0.142
        58  -9.9348    197.0596     62.5404   7.5656611231e+01   2.7951319073e+01    0.3815193    0.2752672  48.29  0.001902916    1.487    0.327
        59  -8.6676    188.8307     78.0898   8.1117983635e+01   2.7397917476e+01    0.1989368    0.1821512   5.03 0.0005916618    1.317    0.241
        60  -9.1979    162.1550     77.8706   8.6324308832e+01   3.3976303741e+01    0.2401084    0.2061564 -79.35 0.0008365061    1.268    0.211
        61  -9.0629    146.7818     76.7095   8.9411058431e+01   3.7863103684e+01     0.404994    0.2530273 -46.63  0.001481559    1.670    0.401
        62  -9.5238    249.4474     75.8616   7.1344581631e+01   1.3637070525e+01    0.2416265     0.207223 -71.70 0.0003489704    1.062    0.059
        63  -8.5622    125.3551     61.9274   9.0130129883e+01   4.5298427013e+01    0.2182941    0.1897113  55.88 0.0002929328    1.173    0.148
        64 -10.5786    213.4613     52.7000   7.0755031307e+01   2.5469375771e+01    0.7228403    0.3548127  50.20  0.002803325    2.257    0.557
        65 -10.3422    211.9748     49.2878   7.0133015117e+01   2.6326311367e+01    0.5623801    0.3462405  52.69  0.002106794    1.719    0.418
        66 -12.1691     51.0342    170.7309   1.3545784459e+02   3.3901418593e+01    0.8826429    0.7097543 -80.24  0.003268936    1.048    0.046
        67  -8.0288    222.6622    178.3399   9.8398276932e+01   8.3721899387e-01     0.138686    0.1139839 -81.61 0.0004806637    1.761    0.432
        68  -9.1999    115.0259    152.7096   1.1678835471e+02   2.8221929607e+01    0.2560642    0.2097867 -58.57 0.0002249739    1.183    0.155
        69  -8.9053     22.1462    232.0938   1.4703835618e+02   2.3914727668e+01    0.1567231     0.124328  89.81  0.000430824    1.233    0.189
        70 -10.0194     67.8768    144.6803   1.2734132688e+02   3.7904857716e+01    0.6285676    0.3675406  62.30  0.002481927    2.162    0.537
        71 -10.9762    247.1698     85.4925   7.3763162912e+01   1.2544486787e+01     1.192162    0.5622317  78.84  0.004101052    4.015    0.751
        72  -7.4540    249.2908     42.3077   6.4151607130e+01   1.8741854478e+01    0.1129271    0.1025638  33.67 0.0006994801    1.578    0.366
        73  -9.0264    243.8282     41.1050   6.4461957907e+01   2.0109373319e+01    0.2188327    0.1997385 -84.93  0.001424714    1.182    0.154
        74  -9.7952    201.4262     36.1528   6.8337872835e+01   3.0697685849e+01    0.7392924    0.3596694 -68.14  0.002810464    3.025    0.669
        75  -8.3518    196.5297     30.9824   6.7702647142e+01   3.2555118564e+01    0.1949446    0.1256561 -42.59  0.001005361    1.581    0.367
        76 -10.7500    106.9275     38.2647   8.7104270949e+01   5.2740968740e+01    0.6002513    0.2471246  46.16  0.002538834    2.213    0.548
        77 -10.3825    162.9050     62.8638   8.1910294455e+01   3.6330849341e+01    0.6174857    0.4646781 -62.58  0.002336631    1.500    0.333
        78  -9.6987    154.3231     26.3726   7.2900738717e+01   4.3431428194e+01     0.461461    0.2190629  49.48  0.002052797    1.942    0.485
        79 -10.8276    128.3574     22.7054   7.6741644618e+01   4.9933585579e+01    0.3720486    0.2936927  53.14  0.002200006    1.122    0.109
        80  -9.6840    130.8457     18.3036   7.4802014728e+01   4.9824408874e+01    0.2998101    0.2322971  74.86  0.001269131    1.363    0.266
        81 -12.0561     33.3228    211.8870   1.4351294579e+02   2.6788692673e+01     1.020381    0.6046562  71.13  0.004791304    1.466    0.318
        82  -8.6411    180.8593    145.9495   9.9763512083e+01   1.5882085316e+01    0.2277119     0.225041 -75.85 0.0004670978    1.006    0.006
        83  -8.7730    133.4245    144.3791   1.1041475943e+02   2.6533517177e+01    0.4823668    0.1507213 -52.27  0.001423935    3.380    0.704
        84 -10.1939    227.0067    139.4727   8.9157943392e+01   7.1530643114e+00    0.2701089    0.2596997  64.29 0.0004215366    1.126    0.112
        85  -9.2026    212.3768    137.6704   9.1441352692e+01   1.0606394969e+01    0.2890441    0.1914161 -40.67  0.001328168    1.444    0.307
        86  -8.5684    113.1738    137.5363   1.1401192037e+02   3.2152879267e+01    0.2505005    0.1971947 -53.37 5.024707e-05    1.224    0.183
        87  -8.6830    221.8456    135.7009   8.9231478265e+01   8.9501730720e+00    0.2935756    0.1664926 -27.86 0.0009605845    2.078    0.519
        88 -11.0332    198.0843    133.6194   9.3281157563e+01   1.4570053658e+01      0.54312    0.4430185 -81.98  0.002639033    1.476    0.322
