#   1 NUMBER                 Running object number                                     
#   2 MAG_AUTO               Kron-like elliptical aperture magnitude                    [mag]
#   3 X_IMAGE                Object position along x                                    [pixel]
#   4 Y_IMAGE                Object position along y                                    [pixel]
#   5 X_WORLD                Barycenter position along world x axis                     [deg]
#   6 Y_WORLD                Barycenter position along world y axis                     [deg]
#   7 A_WORLD                Profile RMS along major axis (world units)                 [deg]
#   8 B_WORLD                Profile RMS along minor axis (world units)                 [deg]
#   9 THETA_WORLD            Position angle (CCW/world-x)                               [deg]
#  10 FWHM_WORLD             FWHM assuming a gaussian core                              [deg]
#  11 ELONGATION             A_IMAGE/B_IMAGE                                           
#  12 ELLIPTICITY            1 - B_IMAGE/A_IMAGE                                       
         1 -13.4546     37.0827     50.2101   9.0933730097e+01   6.3126529685e+01     1.522368    0.8991849 -48.74   0.00821916    1.567    0.362
         2 -11.7409     26.4659     49.4354   9.5383518619e+01   6.4344362186e+01    0.7833722    0.4995293 -79.75  0.003598675    3.281    0.695
         3 -11.0676    104.0730     20.2083   5.4889295860e+01   5.5966868375e+01    0.5891778    0.3947025  17.51  0.002268899    1.681    0.405
         4 -12.4212     67.2785     39.6847   7.4455291122e+01   6.0754322456e+01    0.9791539    0.5616233   2.76  0.004107478    2.764    0.638
         5 -11.5640     13.5980      3.1091   8.2284936784e+01   7.3295493224e+01    0.4568155    0.3218357  38.78  0.002004376    2.102    0.524
         6 -10.0335     14.9475     14.2697   8.7193013509e+01   7.1564513724e+01    0.1996102    0.1727543 -50.94 0.0009563685    1.744    0.427
         7 -11.1717     22.3714     25.6633   8.8386313951e+01   6.9045758235e+01    0.3846805    0.2600067 -25.85     0.001325    1.197    0.165
         8 -11.2768     32.3944      1.7992   7.1525695742e+01   7.1199270073e+01    0.2361428    0.1459412  30.79 0.0006070368    1.478    0.323
         9 -10.7308     27.3218      3.0567   7.4754082339e+01   7.1728636471e+01    0.2756698    0.1867548  41.12  0.001767087    1.893    0.472
        10 -11.0602     20.6182     16.9274   8.5375417657e+01   7.0607700608e+01    0.3825677    0.3471199 -35.78  0.002822134    1.540    0.350
        11 -12.2500     22.8382      6.8516   7.9151160580e+01   7.1797722128e+01    0.6347331    0.3516926 -43.60  0.001315443    2.253    0.556
        12 -10.8267    130.6468     12.8810   4.6464046867e+01   5.0459623627e+01     0.458711    0.3244933   5.97  0.002466741    1.727    0.421
        13 -10.3144     45.0524     14.2143   7.2134156000e+01   6.7902982506e+01    0.2435569    0.2145386  60.49  0.001326892    1.878    0.468
        14 -10.2764     43.4917      8.5672   6.9982203172e+01   6.8820822324e+01    0.2407423       0.1984  -8.79  0.001012827    1.184    0.155
        15  -9.9355     34.4490      7.4649   7.3579157147e+01   7.0254678466e+01    0.3169464    0.1416398  20.21 0.0007639243    2.840    0.648
        16 -11.5031     39.9771     12.4396   7.3534129479e+01   6.8866894468e+01    0.5500065    0.2202867 -39.34  0.002580968    2.758    0.637
        17 -11.3565     34.8649     15.1092   7.7269659377e+01   6.9213097089e+01    0.5790804    0.2467531  18.53  0.002354219    3.597    0.722
        18 -10.9493     31.0552     12.7553   7.7961694389e+01   7.0020269397e+01    0.3606895    0.1442119 -35.51  0.001789994    2.305    0.566
        19 -11.4435      9.9178     15.4725   9.0567408520e+01   7.1816347774e+01    0.2516342    0.1560754 -18.29 0.0005056607    1.360    0.264
        20 -11.8766      3.8351     17.8619   9.5068776518e+01   7.1880555548e+01    0.3348238    0.3286164  -2.44  0.001797958    1.572    0.364
        21 -10.4032      5.0351     13.3114   9.2386764937e+01   7.2540744317e+01     0.181025    0.1586413 -15.32 0.0007930089    1.329    0.248
        22  -9.9012    229.0707     16.3702   3.5257210341e+01   2.6390877936e+01    0.2385568    0.1801494 -10.45 0.0008703407    1.912    0.477
        23 -11.2113     80.9647      4.3143   5.4446580303e+01   6.2472914607e+01    0.4687179     0.270609 -18.08  0.002086082    1.839    0.456
        24 -11.1463     73.8363      2.3514   5.5652907550e+01   6.4081103027e+01    0.5765096    0.2680112 -19.13  0.002868581    2.280    0.561
        25 -11.0991     74.1977     16.1183   6.1835062766e+01   6.2668601394e+01    0.4920712    0.3954589  75.74  0.002597952    1.878    0.468
        26 -11.0579     79.2138     10.5947   5.7765337190e+01   6.2254261059e+01    0.3333492    0.2036975  28.59  0.001216258    1.555    0.357
        27 -11.3432     75.5417     10.4816   5.8855879614e+01   6.2997041932e+01    0.3579419    0.3105256  55.88  0.001562478    1.350    0.259
        28 -10.3428     60.2564     16.9833   6.7215773531e+01   6.5115170259e+01    0.3181537    0.1952856  -1.68  0.001055185    1.797    0.444
        29 -10.6134     64.2420     14.3990   6.4513557877e+01   6.4714541588e+01    0.3669664    0.2160257  -6.52  0.001770177    1.882    0.469
        30 -12.0129    233.5451     12.3595   3.4023522009e+01   2.5862564003e+01    0.4002464    0.1891142 -27.50  0.001960317    2.427    0.588
        31 -11.7683    241.2407      9.8240   3.2917677703e+01   2.4494463497e+01    0.2552871    0.1520274 -54.03   0.00105105    1.403    0.287
        32 -10.4432    155.0508     14.9806   4.3128941860e+01   4.4249718605e+01    0.3486092    0.1905804  20.83  0.001423369    3.079    0.675
        33 -10.0097    158.5255     13.5095   4.2180323076e+01   4.3531915969e+01    0.2404173    0.1499514 -53.14  0.001151633    1.762    0.433
        34 -10.0402    156.8112      9.3704   4.1177981537e+01   4.4351851074e+01    0.2406297    0.1266356 -32.57 0.0008555846    2.022    0.505
        35 -10.3576     50.4448     14.8752   7.0142461380e+01   6.6991679287e+01      0.26918    0.2209234 -30.48  0.001773466    1.432    0.302
        36 -10.5952     99.2448     13.1342   5.3296631214e+01   5.7763262403e+01    0.3622227    0.2584271  41.49   0.00206802    1.221    0.181
        37 -10.8198     91.9193      6.2497   5.2322679736e+01   5.9993982466e+01    0.4765739    0.2034476  34.28  0.001428202    2.496    0.599
        38  -9.7766     97.2435     10.3396   5.2666024047e+01   5.8468129055e+01    0.2192732    0.1613795  44.38  0.000716991    1.165    0.142
        39 -10.7391     97.2597      5.0760   5.0513090761e+01   5.8923927714e+01    0.4224845     0.227463  14.69  0.001981939    2.370    0.578
        40 -10.9447    117.8933     10.5130   4.8075470195e+01   5.3729746148e+01    0.4518583    0.2100912 -43.60  0.001965946    2.676    0.626
        41  -9.4712     55.2021      9.8275   6.5738008117e+01   6.6799800033e+01    0.1696118    0.1332094  -1.33 0.0004618808    1.124    0.110
        42 -10.8258    226.1109     10.5791   3.4216985790e+01   2.7691219611e+01    0.2554686    0.1593851 -29.12  0.001446286    1.784    0.440
        43 -10.7587    175.8349     11.5090   3.9354327135e+01   3.9446210412e+01    0.2299792    0.2176034  80.82 0.0005785598    1.116    0.104
        44 -11.1206    249.4154      9.2789   3.2243785245e+01   2.2851045500e+01    0.2061493    0.1095038 -29.57  0.001122782    2.075    0.518
        45  -9.6576    164.9977      9.7037   4.0186986427e+01   4.2294923780e+01    0.1970128     0.158018  79.51  0.001165211    1.107    0.097
        46  -9.6478     59.3918      9.7670   6.4099109590e+01   6.6083902403e+01    0.1631232    0.1054449  -8.78 0.0009358625    1.524    0.344
        47 -10.9321      8.1133      9.0222   8.8554122711e+01   7.2962739509e+01    0.3849002    0.1981334  39.22  0.002091778    3.090    0.676
        48 -11.7310    216.5269      6.9658   3.4180035037e+01   3.0229485687e+01    0.3087035    0.2591106  -4.17  0.001977137    1.675    0.403
        49 -10.0653    127.0835      8.0964   4.5454131479e+01   5.1751642042e+01    0.2023506    0.1561511  40.20  0.000345111    1.243    0.195
        50  -9.6157    130.5118      6.0376   4.4142085976e+01   5.1100085514e+01    0.1781642    0.1670227  42.68 0.0006181841    1.103    0.094
        51 -10.2571    126.8565      3.5652   4.3917286074e+01   5.2183630424e+01    0.2920032    0.1459546 -41.11 0.0009871142    2.317    0.568
        52 -10.2017     67.1606      7.7743   6.0357553952e+01   6.4876122811e+01    0.2120265    0.1373742  20.34 0.0003126927    1.459    0.315
        53 -11.3544     67.8974      3.6475   5.8145514988e+01   6.5124389546e+01    0.3739169    0.1993205  44.41  0.001470154    1.593    0.372
        54 -10.3365    245.6373      7.3029   3.2096125313e+01   2.3849552944e+01    0.1315587   0.06799455 -64.72 9.524107e-05    1.729    0.422
        55 -10.5282    191.4432      6.2555   3.6268265627e+01   3.6169215074e+01    0.2972368    0.1523923 -31.31  0.001488888    2.046    0.511
        56  -9.2715      2.2719      7.3276   9.1224549995e+01   7.3679549147e+01    0.1157995    0.0614248 -23.27 -0.000275831    1.582    0.368
        57 -10.6602    164.8370      5.3576   3.8956573585e+01   4.2735658119e+01    0.2132413    0.1653129 -51.17 0.0005434602    1.350    0.259
        58 -12.2099    178.7304      4.2318   3.7050341369e+01   3.9434000581e+01    0.3837201    0.2234608  74.35 0.0003195406    1.504    0.335
        59  -9.5906    155.1798      5.4005   4.0206622361e+01   4.5112527126e+01     0.189089    0.1129533  84.87 0.0004085303    1.693    0.410
        60 -10.5556    203.2618      3.3700   3.4460543279e+01   3.3652078336e+01    0.2031877    0.1987902 -58.52  0.000688399    1.263    0.208
        61 -11.0549    146.3903      6.5981   4.1809191363e+01   4.7174020853e+01    0.3230881    0.2548443  18.65  0.001892023    1.508    0.337
        62 -10.8196    243.2493      3.2197   3.1423002248e+01   2.4786970921e+01    0.1736696    0.1077524 -65.06 0.0008535053    1.340    0.254
        63  -9.5153    161.2967      6.9392   3.9859682538e+01   4.3465901867e+01    0.1720491    0.1594805  79.95 0.0003396774    1.072    0.067
        64 -10.9287     88.6852      1.7047   5.1220683832e+01   6.1064431508e+01     0.235733    0.1461952  49.45  0.001322199    1.347    0.258
        65 -11.6555    237.4142      3.0811   3.1780079049e+01   2.6033250548e+01    0.2980789    0.2396001  -6.71   0.00193931    1.871    0.466
        66 -10.7686     36.9453    157.9178   1.1368394565e+02   3.7919777000e+01    0.2693351    0.1940678  79.51 0.0003808741    1.329    0.248
        67 -10.7298     88.4937    249.8748   1.1204022000e+02   1.1234549927e+01    0.3057433    0.1669305  36.52  0.001001952    1.663    0.399
        68 -10.0476     72.6231    249.9581   1.1507251674e+02   1.3407908220e+01    0.1882826    0.1705647 -37.29  0.001350852    1.626    0.385
        69 -12.1810     29.0231    248.3603   1.2291537923e+02   1.9068918716e+01    0.5950351     0.285557  67.47  0.003516074    1.801    0.445
        70 -12.4515     19.9261    238.1027   1.2395229464e+02   2.1994413917e+01     0.604291    0.2671036  53.92  0.003539827    1.760    0.432
        71 -11.6183      4.0368    237.2390   1.2669215997e+02   2.3756451709e+01    0.4325217    0.2627165 -59.39  0.002752879    2.138    0.532
        72 -13.3118      6.2316    244.9650   1.2666145020e+02   2.2087083744e+01    0.8820633    0.6350236  42.13  0.004789624    1.492    0.330
        73 -12.2012     21.9404    248.7868   1.2417001467e+02   1.9763905058e+01    0.4121419    0.2415121  47.28  0.001656326    1.414    0.293
        74 -11.1751     17.2737    247.4132   1.2490176556e+02   2.0512747260e+01    0.2151981    0.1414496  58.13 0.0007409326    1.158    0.136
        75 -11.7639     50.7952    162.4143   1.1067657584e+02   3.5258494923e+01    0.6373079    0.4121388  78.33  0.002441218    1.659    0.397
        76 -11.7588     44.2308    162.5016   1.1237391224e+02   3.6004122513e+01    0.5191425    0.3555806  31.96  0.002863926    1.641    0.391
        77 -11.0773     35.7951    163.1676   1.1459278817e+02   3.6763116561e+01    0.3667298    0.2968462   1.89  0.001478612    1.733    0.423
        78  -9.3694      4.6712    168.6920   1.2258953219e+02   3.8282611078e+01    0.1164365    0.0789723 -52.98 0.0004550308    1.659    0.397
        79 -11.4941     36.4004    166.8960   1.1486177702e+02   3.5798549178e+01    0.5245011    0.2837403  46.68   0.00208603    1.838    0.456
        80  -9.7758     99.1792    164.9093   9.8483959069e+01   2.7629344680e+01    0.2157384    0.1874902  78.80 0.0003523665    1.164    0.141
        81  -9.7653     67.2523    165.3783   1.0683739218e+02   3.2411532680e+01    0.1994258     0.117832  47.24 0.0009451648    1.693    0.409
        82  -8.9707    200.3214    162.6658   7.4285220299e+01   8.6731345255e+00    0.1413593    0.1183145 -79.91 0.0007049965    1.704    0.413
        83  -9.4654      7.9575    162.0000   1.2129619854e+02   3.9586207077e+01    0.1707309   0.06940089  24.89 0.0008047667    2.959    0.662
        84 -12.1892     21.7288    157.2875   1.1749213089e+02   3.9553130876e+01    0.5069724    0.4763011 -24.40  0.003489902    1.391    0.281
        85  -9.4323    157.2940    155.3993   8.2054927660e+01   1.8780349098e+01    0.1624455    0.1198578  -9.77 0.0001128945    1.804    0.446
        86 -10.1365     11.4013    153.4847   1.1970609023e+02   4.1334084378e+01    0.2242236    0.1241688  24.80  0.001221338    2.204    0.546
        87 -10.1535    177.7198    151.1415   7.6466788838e+01   1.5464396923e+01     0.291378    0.2574598  61.79  0.001274252    1.282    0.220
        88  -9.1819    216.3184    155.2703   6.9567704764e+01   6.9818844273e+00    0.1422466    0.1056762   3.15 0.0002093777    1.561    0.360
        89  -9.6134     32.8947    148.1410   1.1354512818e+02   4.0732040481e+01    0.1759387    0.1375696 -55.80 0.0003932697    1.275    0.216
        90 -10.5302     18.1934    146.9171   1.1730581789e+02   4.2367184188e+01    0.2713254     0.204834 -17.10 0.0009206373    1.866    0.464
        91 -10.0465    207.0921    146.3366   6.9327998575e+01   1.0416935938e+01    0.2004941    0.1857062  30.38  0.000753828    1.135    0.119
        92  -9.8825     41.1569    146.1820   1.1104208788e+02   4.0363864761e+01    0.1874802    0.1637247 -65.88 0.0002490681    1.109    0.098
        93  -9.5158    220.4650    143.9615   6.6297638103e+01   8.2311867851e+00    0.2191701    0.1303132 -37.41  0.000648489    1.537    0.350
        94  -9.8251     49.1711    142.0809   1.0820908702e+02   4.0487647757e+01    0.2030447    0.1676707 -51.39 0.0002334267    1.228    0.185
        95  -9.5525    239.6992    140.6703   6.2264378780e+01   5.2091124947e+00     0.139847    0.1006243  -5.13 0.0004788219    1.645    0.392
        96  -9.6290     14.9654    140.0000   1.1740718693e+02   4.4306300717e+01    0.1812923   0.07347717  22.84 0.0008125205    3.013    0.668
        97 -10.3881      9.2912    137.0557   1.1861880693e+02   4.5441038181e+01    0.2235938     0.120414 -70.82 0.0007895019    1.467    0.319
        98 -10.9041      2.7840    137.3278   1.2038572942e+02   4.5817117681e+01    0.2743739     0.129435 -74.89 0.0009379291    1.661    0.398
        99  -9.8200     20.9516    135.4734   1.1523232462e+02   4.4931181609e+01     0.212762     0.140156 -72.87 0.0007359122    1.249    0.200
       100  -9.7162     13.9721    135.9926   1.1722809186e+02   4.5356000138e+01    0.1895164    0.1263149  71.50  0.001079818    1.544    0.352
       101  -9.4713    122.7117    135.3264   8.6151589387e+01   3.0388210054e+01    0.1574286    0.1241016  87.88 0.0003398864    1.612    0.380
       102 -10.0513    249.6711    134.0614   5.9252749592e+01   4.5329681631e+00    0.1961863    0.1535618 -32.21 0.0006694657    1.087    0.080
       103 -10.4266     55.5447    132.9763   1.0486481285e+02   4.2000638755e+01    0.2974884    0.2180661  82.81 0.0008929286    1.528    0.346
       104  -9.9394    111.2247    130.9823   8.8268083076e+01   3.3661518132e+01    0.2150629     0.125382 -51.60 0.0008785716    1.672    0.402
       105 -11.4603     37.1893    129.5913   1.0973378928e+02   4.4902293504e+01    0.4439259    0.2716206 -54.86  0.001845733    1.453    0.312
       106 -11.5201     73.4607    129.1718   9.8812252571e+01   4.0525945811e+01    0.4768541    0.2812097  54.62  0.002064614    2.052    0.513
       107  -9.7914      9.6921    129.1172   1.1763359836e+02   4.7332366203e+01    0.1757933    0.1305943 -72.02  0.000361149    1.078    0.072
       108 -11.8373     21.8732    121.1723   1.1305221265e+02   4.8364011995e+01    0.5091214    0.2387446 -40.09            0    2.484    0.597
       109 -11.2736     13.2952    126.0453   1.1623918994e+02   4.7824706420e+01    0.3294956     0.233705  23.92 0.0003341887    1.729    0.422
       110 -11.0829     10.7968    122.6071   1.1653943996e+02   4.8833553723e+01    0.2914092    0.2120185 -88.82  0.001329517    1.260    0.206
       111  -9.6016    220.4266    124.4747   6.1844657707e+01   1.1758039976e+01    0.1453644    0.1303851 -31.58 0.0001481076    1.012    0.012
       112 -10.9377      2.5731    122.9162   1.1895531987e+02   4.9282137574e+01    0.3678112    0.1362821 -56.92  0.001120159    2.139    0.533
       113  -9.5203      1.2744    118.6810   1.1885633975e+02   5.0370892914e+01    0.2079529     0.104338 -79.42 0.0004712611    1.672    0.402
       114  -9.3371     32.4804    121.5651   1.0988395129e+02   4.7347962565e+01    0.1343947    0.1130603 -62.80 4.633327e-05    1.046    0.044
       115 -10.3685     72.1189    117.8472   9.6807338626e+01   4.3526585628e+01    0.4165838    0.1777726 -58.84  0.001075724    2.234    0.552
       116 -11.1761     17.1427    115.3163   1.1365262834e+02   5.0156191914e+01    0.3245479    0.2218581 -33.52  0.001865145    1.663    0.399
       117 -10.1501    249.5427    118.4917   5.5874963226e+01   7.1337343976e+00    0.1368045    0.1160831 -35.29 4.044851e-05    1.004    0.004
       118 -10.2041     86.0247    116.4857   9.2190167121e+01   4.1680425448e+01    0.2291509    0.1915408 -53.02  0.000320766    1.125    0.111
       119  -9.2504    220.2818    116.6748   6.0039146942e+01   1.3189414349e+01    0.1451774    0.1078362 -63.04 0.0002586677    1.596    0.374
       120  -9.9695    213.9694    115.5499   6.0854866066e+01   1.4717813756e+01    0.2061369    0.1457666  48.79 0.0005231057    1.533    0.348
       121 -10.4803     35.0655    114.5281   1.0789364021e+02   4.8838677741e+01     0.177255    0.1347961  26.68 0.0006022556    1.535    0.349
       122 -10.8834    249.2910    112.2970   5.4545924742e+01   8.2024338941e+00    0.2543306    0.2017311 -46.43 0.0006292764    1.150    0.130
       123  -9.6386     94.8291    112.7835   8.8595232328e+01   4.1049875611e+01    0.2116754    0.1818354 -87.30 0.0007706573    1.347    0.258
       124 -12.5741     14.5078    109.1927   1.1357979229e+02   5.1825975214e+01     0.535835    0.3492548 -42.14  0.002532936    1.530    0.346
       125 -11.3352      2.8406    105.6818   1.1678568800e+02   5.3382602805e+01    0.3639689    0.2388116  42.52  0.001409672    1.826    0.452
       126 -12.0379     55.3164    110.2682   1.0051092818e+02   4.7664902370e+01    0.3586067    0.2648453 -46.80 0.0007125323    1.246    0.198
       127 -11.3433     36.4693    109.4425   1.0651652535e+02   4.9949955333e+01    0.4381241    0.2689616  68.08  0.002056344    2.283    0.562
       128  -9.9108     82.5442    109.1858   9.1486626085e+01   4.4011128962e+01    0.2737497    0.1422494 -57.41 0.0006716826    1.924    0.480
       129 -11.4079     25.3502    106.7643   1.0968140972e+02   5.1597767036e+01    0.5510527    0.2446734 -77.40  0.002282219    2.542    0.607
       130  -9.7524     70.8083    108.1588   9.4986683835e+01   4.6079598511e+01    0.2195092    0.1891225 -77.01 0.0006400343    1.245    0.197
       131 -10.3484    243.9578    104.6836   5.3602177527e+01   1.0478566472e+01    0.1836784    0.1730191 -44.25 0.0005998687    1.091    0.084
       132 -10.4610    247.1390    102.1489   5.2591593200e+01   1.0277301293e+01    0.1865836    0.1752339 -43.60  0.000711977    1.096    0.087
       133 -10.0614    119.5867    102.4816   7.8572317657e+01   3.8575755328e+01    0.4545051    0.1875295 -37.84  0.001494395    2.706    0.631
       134 -10.8154     35.7878    102.8337   1.0546718765e+02   5.1621676117e+01    0.4527401    0.2523232 -14.51  0.001962251    2.828    0.646
       135 -10.3510      1.2565    109.3332   1.1774997609e+02   5.2600480054e+01    0.3918134    0.1689769  85.71  0.001635199    3.044    0.671
       136  -9.0129    223.2962    103.7013   5.6467604344e+01   1.4848123273e+01    0.1433892    0.1056644 -65.03 0.0003546943    1.571    0.364
       137 -11.6155      3.0481     99.6814   1.1589421143e+02   5.4791638871e+01    0.2692911     0.220745 -84.94  0.000281662    1.188    0.159
       138 -11.2927      1.4036     96.1662   1.1593396660e+02   5.5702793627e+01     0.293895    0.1403363 -66.12 0.0002573385    1.579    0.367
       139 -11.2590    144.2172     98.2577   7.0861827444e+01   3.4012433259e+01     0.539569    0.4071828  57.89  0.002489317    1.416    0.294
       140 -10.8057     57.4964     96.6253   9.6629170936e+01   5.0671471028e+01    0.2416497     0.223561 -65.35 0.0002268332    1.121    0.108
       141 -10.6073     66.2454     98.1731   9.4027944553e+01   4.9119788575e+01    0.2679373    0.2470513   4.79 0.0006090154    1.163    0.140
       142  -9.4913     50.9622     99.3099   9.9523033382e+01   5.0842914148e+01    0.1788254    0.1721113 -33.46 0.0004143264    1.102    0.093
       143 -11.4798     14.8082     97.7949   1.1167055284e+02   5.4535294201e+01    0.4265302    0.1947691 -74.15  0.001973229    2.074    0.518
       144 -11.2310     11.0606     90.9981   1.1180033019e+02   5.6377984944e+01    0.3436963    0.2136459  18.78  0.001065935    1.955    0.488
       145 -10.1337     40.8464     97.8274   1.0268716353e+02   5.2320155669e+01    0.2141752    0.1590329 -42.36 0.0006352796    1.239    0.193
       146 -10.2331     27.8913     95.8579   1.0679662556e+02   5.4006886402e+01    0.1926378    0.1615857 -60.39  0.001195181    1.042    0.041
       147 -11.3108     25.8497     91.9945   1.0674149616e+02   5.5091057291e+01    0.7297816    0.3921188  77.43  0.002809546    3.819    0.738
       148  -9.5991    249.8536     95.8245   5.0820294935e+01   1.0776233224e+01    0.1858984    0.1405025 -57.64 0.0004237124    1.311    0.237
       149 -10.8822     20.7594     93.5344   1.0884758684e+02   5.5124518178e+01    0.5023062   0.08800966 -57.62  0.001732632    3.331    0.700
       150 -10.8800     22.1547     87.1705   1.0708857819e+02   5.6512180940e+01    0.4047077    0.2182978 -34.77  0.002036611    1.921    0.480
       151  -9.4870    173.4865     83.4960   6.0124854563e+01   2.9891289073e+01    0.1513746    0.1481504 -62.35 0.0008105015    1.012    0.011
       152 -11.4503    157.1957     82.2473   6.3196403598e+01   3.4068892064e+01    0.7224311    0.4332491  24.94  0.002636687    2.705    0.630
       153 -12.0556    162.0997     93.1071   6.5214297956e+01   3.0834482888e+01    0.6076938    0.3896928  -6.62  0.002203698    2.787    0.641
       154 -12.6785    158.6573     89.5387   6.4971634607e+01   3.2344128151e+01    0.6855823    0.5400813  25.81  0.002740909    1.491    0.329
       155 -12.0287    165.4455     83.2875   6.1715446615e+01   3.1878819359e+01    0.8601549    0.5611891  70.98  0.002989927    1.887    0.470
       156 -10.9673     61.9328     98.8337   9.5656583713e+01   4.9562654265e+01    0.3238329    0.2712612 -48.11 0.0008158511    1.071    0.066
       157 -10.0549    135.4558     92.2509   7.1345213845e+01   3.7255563336e+01    0.3005636    0.1533154 -36.17 0.0009462165    2.052    0.513
       158  -9.5138     83.1527     93.3946   8.7094255015e+01   4.7590520476e+01    0.2157875    0.1348858  49.87 0.0009455316    1.889    0.471
       159 -10.0927     31.4043     92.9536   1.0496067363e+02   5.4389442257e+01    0.1937727    0.1377485 -58.68 0.0004238651    1.187    0.157
       160  -9.5212     46.9956     92.5341   9.9310190164e+01   5.2907473087e+01    0.1850183    0.1357018  28.75 0.0004916326    1.532    0.347
       161 -10.6554     35.7717     91.1423   1.0300255864e+02   5.4410310084e+01    0.2358292    0.2122772  66.69  0.000535182    1.329    0.248
       162 -11.2889    166.2198     88.2146   6.2946072548e+01   3.0778901990e+01    0.4931062    0.2851923  74.84  0.001751207    2.793    0.642
       163 -10.0864    108.8035     91.4025   7.8483552206e+01   4.3225335222e+01    0.2131168    0.1455267  30.65 0.0006663868    1.616    0.381
       164 -10.9208     97.0686     89.3288   8.1443442782e+01   4.5988511556e+01    0.4061693    0.2859903  -3.97  0.001758734    2.003    0.501
       165  -9.9164     83.1296     88.9997   8.5841513016e+01   4.8579130305e+01     0.225863    0.1852673 -22.70 0.0005453924    1.256    0.204
       166 -10.6425     78.8139     88.1353   8.7032588784e+01   4.9494520391e+01    0.3204316    0.1960751 -45.68  0.001076781    1.520    0.342
       167 -10.3712     46.5142     87.5363   9.8252941646e+01   5.4125433914e+01    0.2609426    0.2151706 -66.54  0.001507411    1.252    0.201
       168 -10.5809     45.1332     83.8523   9.7819345581e+01   5.5126132985e+01    0.4409384    0.2281519  43.86  0.001987461    2.440    0.590
       169  -9.4913    139.0261     87.5365   6.9045638777e+01   3.7378747995e+01    0.2280785    0.1534465  49.29 0.0009974162    1.494    0.331
       170  -8.7472    120.6752     87.3023   7.3835354821e+01   4.1573908855e+01    0.1544001    0.1249931 -86.69 0.0007030531    1.638    0.389
       171 -10.2221     64.8560     87.1725   9.1573714313e+01   5.1857587403e+01    0.2330715    0.2080386  20.63 0.0008436426    1.202    0.168
       172  -9.9144     67.8122     84.0254   8.9636621444e+01   5.2131483248e+01    0.2435554    0.1660298 -19.51  0.001150327    1.760    0.432
       173 -10.9546      7.0839     41.1167   1.0178881552e+02   6.7442552967e+01    0.2426647    0.1269249 -43.03 0.0006064476    1.446    0.309
       174 -11.9664      6.0024     83.7538   1.1233740494e+02   5.8348614517e+01    0.7022381    0.4726404 -72.96  0.004265796    1.329    0.247
       175 -12.5910      8.1284     51.2876   1.0427245898e+02   6.5340980853e+01    0.5445459    0.3915521  27.77  0.001560173    1.720    0.419
       176 -10.8799     11.0358     44.6301   1.0098298383e+02   6.6502828245e+01    0.4074104    0.1917506 -53.60  0.001266594    1.722    0.419
       177 -13.6629     16.8893     67.0348   1.0458748539e+02   6.1441776991e+01    0.6748955    0.4505324 -45.63  0.001710533    1.195    0.163
       178 -11.3229     10.5334     63.5740   1.0638077286e+02   6.2605874192e+01    0.3272813    0.2166179 -58.76  0.001997892    1.265    0.209
       179 -12.3635      4.0794     64.8202   1.0934845420e+02   6.2691848201e+01    0.7182023    0.3449372 -60.58  0.003580366    1.612    0.380
       180 -11.6314      5.1886     58.8203   1.0750616704e+02   6.3927288478e+01    0.2958606    0.2620373  62.88 0.0006840791    1.519    0.342
       181 -11.8590      8.4554     73.9762   1.0953907706e+02   6.0434731490e+01    0.6405905    0.3158113  -0.59  0.003230866    2.656    0.623
       182 -11.4014     12.8597     77.8234   1.0863232597e+02   5.9305036323e+01    0.3573635    0.2317363 -54.67  0.001051115    1.207    0.172
       183 -11.1610     13.9792     74.2977   1.0744651956e+02   6.0028935935e+01    0.2039846    0.1780209 -18.62 0.0008196384    1.235    0.190
       184  -8.7401     83.2643     85.3270   8.4711703676e+01   4.9363251915e+01    0.1490923    0.1091405 -19.36 0.0003492068    1.568    0.362
       185  -9.9406    116.2825     83.9981   7.4063451076e+01   4.3200129940e+01    0.3292181      0.15577  36.05  0.001175698    2.463    0.594
       186  -9.9084    145.7285     81.7368   6.5677560028e+01   3.6919335140e+01    0.2758665    0.1910712 -34.47  0.001237237    1.474    0.321
       187 -11.6712     31.2485     81.0621   1.0233430987e+02   5.7165140811e+01    0.5848383    0.3116106 -23.47  0.001543506    2.423    0.587
       188 -10.1799     86.3202     80.6908   8.2279133028e+01   4.9821326520e+01    0.2713301    0.2385665  10.29  0.001317868    1.167    0.143
       189 -10.9532     22.1593     75.3803   1.0448606743e+02   5.9208962512e+01    0.5547872    0.2208353 -70.99   0.00211971    3.286    0.696
       190 -10.0982     21.4416     81.4592   1.0614152625e+02   5.7884889577e+01    0.2076202    0.1694727 -19.54 0.0007024888    1.299    0.230
       191 -10.5217     18.8054     79.1719   1.0664407500e+02   5.8600204817e+01    0.3768627    0.1531925 -50.12  0.001189167    1.897    0.473
       192  -8.7706    112.2744     79.6795   7.3869451471e+01   4.4926120087e+01    0.1478528    0.1217765 -76.88 0.0001844446    1.573    0.364
       193  -9.8654     71.0869     79.3789   8.7099857183e+01   5.2649760032e+01    0.1886119    0.1753112  13.39 0.0004365519    1.123    0.109
       194 -10.3198     54.0132     73.8317   9.1683980451e+01   5.6280358076e+01    0.2392236    0.2091455 -35.51  0.000713031    1.029    0.028
       195 -10.2973     58.0117     74.2188   9.0292632735e+01   5.5666508370e+01    0.2879914    0.2377275 -64.13 0.0009293531    1.396    0.284
       196 -12.1642     62.1186     71.7299   8.7987482251e+01   5.5619584584e+01    0.6418222    0.2560643 -41.72 0.0003414147    2.347    0.574
       197 -10.3912     23.7307     41.7894   9.4020872496e+01   6.6063682780e+01    0.2571728    0.2186761 -84.40   0.00164285    1.861    0.463
       198 -12.6118     44.7228     75.2841   9.5661715334e+01   5.7091684068e+01    0.2753176    0.2556751 -47.87 0.0004560288    1.142    0.124
       199 -10.8676     31.6697     68.0484   9.8802944625e+01   6.0018383346e+01     0.254504    0.1899597  -6.15 0.0002937962    1.440    0.306
       200 -11.9106     37.1224     66.9810   9.6284358757e+01   5.9712138069e+01    0.7376328    0.5341625  62.14  0.002582375    2.178    0.541
       201 -11.2316     29.1876     60.5805   9.7687528501e+01   6.1834675422e+01    0.5530437    0.3080812  24.46  0.002760228    1.996    0.499
       202 -10.6918    249.5204    247.4189   8.1087857487e+01  -1.1968421207e+01     0.352229    0.1809187  -5.60  0.001888517    2.285    0.562
       203 -11.8704    234.8116    248.8115   8.3860334916e+01  -1.0257164188e+01    0.3068094    0.2156948  11.15  0.002094826    1.117    0.105
       204 -12.3578     24.4953     35.0417   9.1148647810e+01   6.7229304741e+01    0.6870385    0.3030614   6.04  0.002819319    3.681    0.728
       205  -9.1421    153.6711     77.2584   6.2511904188e+01   3.5834658553e+01    0.1520999    0.1203199 -84.06 0.0003322506    1.561    0.360
       206 -10.6418     91.0016     75.3203   7.9032400791e+01   5.0073797365e+01    0.2944265    0.2161869 -48.19 0.0009339577    1.393    0.282
       207 -10.5785     74.4598     75.5436   8.4719961683e+01   5.2928444267e+01    0.2748441    0.1884045 -35.54 0.0007834364    1.388    0.280
       208  -9.0336    121.9618     76.0000   6.9970338568e+01   4.3523604403e+01    0.2516181   0.08625495  48.47 0.0007983305    2.914    0.657
       209 -10.2893    144.5930     74.0974   6.3634354682e+01   3.8598248932e+01    0.3329808    0.2203482  46.27  0.001487842    1.504    0.335
       210  -9.6630    137.4241     74.0569   6.5344487628e+01   4.0316170729e+01    0.2252069    0.1494352 -36.29 0.0004015568    1.525    0.344
       211 -11.8952    167.7924     69.9782   5.7413443884e+01   3.3644382400e+01    0.2925918    0.2671664  -3.09 0.0002809409    1.232    0.188
       212  -9.4235    121.2417     70.9746   6.8552731473e+01   4.4625722874e+01    0.1987863    0.1844588 -30.68            0    1.081    0.075
       213 -10.2068    102.7576     73.2798   7.4648846580e+01   4.8171904937e+01    0.2584025    0.1832654  46.06  0.001016669    1.450    0.310
       214 -10.8201     77.3995     64.4151   8.0006779392e+01   5.4678182799e+01    0.3445069    0.3112352  31.99  0.001997305    1.184    0.156
       215 -10.8818     79.9135     69.6586   8.0902529985e+01   5.3215070274e+01    0.4161659     0.248077  25.80  0.001467644    1.932    0.482
       216 -10.8002     76.0000     68.9979   8.2052878044e+01   5.4015234181e+01    0.3386687    0.1752697 -40.10 0.0009787889    1.833    0.454
       217 -11.8040     50.1104     68.6219   9.1602045283e+01   5.7885831425e+01    0.4152282    0.2727515   6.28 0.0003451648    1.827    0.453
       218  -9.7486     46.9919     57.0246   8.9087951751e+01   6.0639092027e+01    0.1822574    0.1734599 -49.38  0.001172351    1.287    0.223
       219 -11.1476     51.7499     62.6945   8.9064601427e+01   5.8901800616e+01    0.3354271    0.2566235 -39.65 0.0006974519    1.164    0.141
       220 -10.0531     48.7195     60.3239   8.9494334287e+01   5.9767101866e+01    0.2043767    0.1541575 -40.89 0.0003984849    1.185    0.156
       221  -9.2810    189.3107     68.7127   5.3146745749e+01   2.8577792022e+01    0.1503891    0.1091695 -71.15 0.0002147598    1.578    0.366
       222 -10.5190     95.1045     65.4691   7.4420449490e+01   5.1198512259e+01    0.3871483    0.2509269  11.57  0.001640578    2.200    0.545
       223  -9.4958     99.4826     65.5024   7.3054347249e+01   5.0313997455e+01    0.1479549    0.1368828   0.61 7.808317e-05    1.027    0.026
       224  -9.3597    109.4508     63.4656   6.9365994875e+01   4.8588739156e+01    0.1454162    0.1413669   5.58 1.757239e-05    1.049    0.046
       225  -9.1844    202.5231     62.4223   4.9401635724e+01   2.6396305921e+01    0.1415744    0.1311566 -71.91 8.562908e-05    1.015    0.014
       226 -10.5768     84.7736     61.8052   7.6545617070e+01   5.3856130257e+01    0.3123647    0.2444164   2.79  0.001633956    1.382    0.276
       227  -9.7766    167.0556     61.0185   5.4946628681e+01   3.5289859849e+01    0.2243427    0.1700886 -71.70 0.0003284396    1.524    0.344
       228 -10.3269    155.7894     61.0065   5.7164824092e+01   3.8087894279e+01    0.2375969    0.2007132 -64.70  0.001222443    1.276    0.216
       229 -10.1194    121.6779     61.4176   6.5282072309e+01   4.6217495189e+01      0.35802    0.1378949  49.17  0.001059887    2.495    0.599
       230  -9.8370     98.3876     60.2776   7.1583512286e+01   5.1481970927e+01    0.2517394    0.1365779 -33.51 0.0002922848    1.879    0.468
       231  -9.1398    214.7757     60.3726   4.7162373578e+01   2.3838650103e+01    0.1458617   0.09156214 -56.81 0.0006874665    1.594    0.373
       232 -11.2515     63.9286     59.5211   8.3243212431e+01   5.7808251711e+01    0.2679835    0.2137575  23.39  0.001058243    1.276    0.216
       233 -10.9394     59.3367     59.1999   8.4897200998e+01   5.8552709563e+01    0.3167244    0.2333285  11.66  0.001734304    1.436    0.304
       234 -10.4651     55.7867     55.1341   8.4862420461e+01   5.9839863022e+01    0.3129045    0.2411249  78.64  0.001561697    2.477    0.596
       235 -12.8188    147.0839     56.8729   5.7716580989e+01   4.0892019340e+01    0.3349424    0.3026555 -28.11 0.0005273522    1.155    0.134
       236 -10.6989     74.7595     51.1040   7.6156356586e+01   5.7576344216e+01    0.5407782    0.2322466  33.30  0.001762345    2.577    0.612
       237 -10.9101     78.7698     47.2703   7.3273453730e+01   5.7508041552e+01    0.2613344    0.1951057 -29.96 0.0005256763    1.296    0.229
       238 -10.6355     98.5070     55.8984   6.9992216412e+01   5.2217337256e+01    0.3005248    0.1970177  35.64 0.0005332927    1.527    0.345
       239  -9.3040     70.3191     56.3241   7.9705982618e+01   5.7396393998e+01    0.1448321    0.1007075  -6.42  0.000704522    1.674    0.403
       240 -12.1556    130.6430     50.1790   5.9250307661e+01   4.5914745194e+01    0.6321884    0.4623239 -48.21  0.001359658    1.510    0.338
       241 -10.3429    120.3062     52.5233   6.2614843632e+01   4.7986120010e+01    0.3098257     0.205799  22.22    0.0007784    1.898    0.473
       242 -11.1218    104.5886     52.3768   6.6899116095e+01   5.1519643508e+01    0.3290462    0.2286715  49.62  0.001456754    1.439    0.305
       243 -10.7608     87.6628     51.8177   7.1965641897e+01   5.5076813392e+01    0.2771952    0.2357865 -26.25 0.0007700876    1.151    0.131
       244  -9.8296     61.9489     52.9650   8.1649681702e+01   5.9341259724e+01     0.204102    0.1814851 -16.08 0.0005895827    1.055    0.053
       245 -12.1201     28.9581     37.8633   9.0099817335e+01   6.6284126461e+01    0.4394191     0.274768   2.17  0.001265411    1.715    0.417
       246  -9.4384    237.6740     50.6869   4.2130468295e+01   2.0137154597e+01    0.1212383    0.1029943  23.74 0.0007042029    1.665    0.399
       247  -9.4473    181.5942     49.7903   4.9209427217e+01   3.3368455086e+01    0.1963688    0.1245639 -47.17 0.0002954875    1.572    0.364
       248  -9.2156    114.3090     49.3219   6.3078931805e+01   4.9853761443e+01    0.1963733    0.1766283 -75.54 0.0007450908    1.346    0.257
       249 -10.2316    111.8927     46.4074   6.2690019425e+01   5.0840465386e+01    0.4283276    0.1978883  47.66  0.001751745    2.026    0.506
       250  -9.4903    166.9276     48.7489   5.1360989875e+01   3.7171660966e+01    0.1859682    0.1181374  59.84 0.0004728535    1.499    0.333
       251 -11.6378     75.1480     56.1540   7.7884563705e+01   5.6612929644e+01    0.2401007    0.2034223 -30.61 0.0002879816    1.137    0.121
       252 -10.7701    143.1110     45.8570   5.5043048831e+01   4.3514933054e+01    0.3283607    0.2607275 -59.50 0.0007737913    1.419    0.295
       253 -10.2962     57.5341     46.4765   8.0950099404e+01   6.1169459188e+01    0.2565042    0.1256713  35.17  0.001102354    2.097    0.523
       254 -11.1476     93.0640     42.7252   6.6793613572e+01   5.5447346153e+01    0.5866518    0.3939521  35.14  0.002162046    1.438    0.304
       255 -11.3103    100.8333     37.3187   6.2398600192e+01   5.4587394686e+01    0.5058438    0.2975853  28.62  0.000749386    1.934    0.483
       256 -10.7856     96.3663     33.2630   6.2119593826e+01   5.6093533340e+01    0.6025509    0.3722458   3.80   0.00273613    2.190    0.543
       257 -11.5036    101.2497     28.2885   5.8790467096e+01   5.5668958107e+01    0.2899924    0.2628401 -73.39            0    1.402    0.287
       258 -12.3592    226.3370    245.6010   8.4851611113e+01  -8.7283935481e+00    0.5887803    0.3129151  -3.49  0.002930359    2.547    0.607
       259 -10.4502     51.1296     44.8792   8.2954409495e+01   6.2369063775e+01    0.2179633    0.1651678 -31.08 0.0003818048    1.181    0.153
       260 -11.6513     51.7212     39.8882   8.0736888135e+01   6.3146338265e+01    0.5829499    0.3429418  35.88  0.001760552    1.780    0.438
       261  -9.6016    173.8376     44.1410   4.8852363083e+01   3.6090864898e+01    0.2011444    0.1649955  41.34  0.001075112    1.337    0.252
       262  -9.8156     73.8293     44.3083   7.3880691424e+01   5.8881033658e+01      0.26206    0.1196808  48.35  0.001083409    2.529    0.605
       263 -10.5591    123.3047     41.4576   5.8010147658e+01   4.8919051224e+01    0.4333555    0.3228371 -33.51  0.002251377    1.410    0.291
       264 -10.1693     82.8259     40.8628   6.9381878875e+01   5.7761848414e+01    0.2125059    0.1786079 -20.68 0.0002747836    1.162    0.139
       265 -11.9506     75.0165    240.5030   1.1378447231e+02   1.4838833389e+01    0.5496228    0.4403003 -22.96  0.003411349    2.098    0.523
       266 -11.4696     81.5537     34.9380   6.7431083950e+01   5.8875925719e+01    0.4787439    0.2750209 -24.84  0.001023396    1.802    0.445
       267 -11.0942     73.5046     37.4000   7.1229719244e+01   6.0019581085e+01    0.4253894     0.230723 -18.59  0.001347826    2.234    0.552
       268 -11.1236     78.3150     32.1418   6.7374682361e+01   5.9887795440e+01     0.609292    0.3051541 -10.21  0.002278819    3.418    0.707
       269  -9.3748    163.3820     42.1665   5.0024203054e+01   3.8975702873e+01    0.1886947    0.1285926 -44.32 0.0003666954    1.508    0.337
       270  -9.8299    138.2709     41.0525   5.4489271823e+01   4.5370037798e+01     0.192619    0.1891501  63.37 0.0005856783    1.047    0.045
       271  -9.1354    188.4276     39.5010   4.5366609799e+01   3.3098263013e+01    0.1390537    0.1262465 -79.40 9.397732e-05    1.015    0.015
       272 -10.1318    223.0063     38.1202   4.0798440469e+01   2.5085091043e+01    0.3015538    0.1702734  81.29  0.001479878    1.876    0.467
       273 -10.0344      2.1437     36.9651   1.0293008441e+02   6.8529205133e+01    0.2288182    0.1059499 -25.98  0.001219283    2.093    0.522
       274  -9.3739    137.3489     36.3048   5.3103909671e+01   4.6222190895e+01    0.1515104    0.1013978  31.95 0.0007041448    1.699    0.412
       275 -12.3369     57.5873     34.7644   7.6205847962e+01   6.3099770869e+01    0.2908805    0.2529539  -7.10 0.0001951727    1.081    0.075
       276 -10.1811     54.7113     30.2992   7.5467443255e+01   6.4225262269e+01    0.1797099    0.1652055   2.30  0.001188586    1.229    0.186
       277 -11.3561      9.0674     33.7332   9.8356064950e+01   6.8722982516e+01    0.4938921    0.3208733  24.87  0.002518861    1.806    0.446
       278 -10.4719     26.3668     14.1320   8.1019004496e+01   7.0394576138e+01    0.1794483    0.1257563  -2.10 0.0002663813    1.217    0.178
       279 -10.1962    109.6123    242.9761   1.0717840637e+02   9.3804958666e+00    0.2789557    0.1495732  58.46  0.001013647    2.024    0.506
       280 -10.4730     88.8918    241.2213   1.1112026144e+02   1.2757169046e+01    0.2080923    0.1540322 -34.45  0.001223958    2.091    0.522
       281 -10.9250     17.7074     31.2852   9.3055928473e+01   6.8509174696e+01    0.3383449    0.2267103  16.46  0.002167693    1.561    0.360
       282  -9.8452    149.6637    240.6866   9.8828985718e+01   3.5327243825e+00     0.126799   0.09245387   8.24 0.0007046282    1.690    0.408
       283 -10.2915     16.3462     18.7971   8.8526603468e+01   7.0730088435e+01    0.2299078    0.1165642 -34.90 0.0002655547    1.613    0.380
       284 -10.1481    195.5173    238.6388   8.9470981562e+01  -3.3346998576e+00    0.2714836    0.1804228  13.23  0.001563538    1.504    0.335
       285  -9.6813    135.2531    238.4751   1.0144772328e+02   6.1957302524e+00    0.2488562   0.08747631 -41.18 0.0008992217    4.428    0.774
       286 -10.2613    243.7026    237.5957   8.0462537918e+01  -1.0047071465e+01       0.1738    0.1373298 -38.73 0.0008241747    1.769    0.435
       287 -11.6995     29.9234    233.8930   1.2188766703e+02   2.1733473499e+01    0.4412059    0.1865916  79.85  0.002166182    2.577    0.612
       288  -9.7126    201.8258     34.1337   4.2222198374e+01   3.0541028228e+01    0.1687567     0.159616  29.19 0.0003024325    1.304    0.233
       289 -10.7343    165.8987     32.2191   4.6647737224e+01   3.9626533418e+01    0.3482105    0.2532248  57.13  0.001771692    1.297    0.229
       290 -11.0750    247.2415     33.0456   3.7337194519e+01   2.0468723779e+01    0.2158283    0.1544665 -41.18  0.000387658    1.300    0.231
       291 -10.1002    232.9946     33.0247   3.8621856111e+01   2.3517313902e+01    0.1589745    0.1534127 -22.81 0.0007821005    1.329    0.247
       292 -11.0929    236.1407     29.9085   3.7636627708e+01   2.3224464492e+01    0.3109878    0.1795617  58.88  0.001106094    1.897    0.473
       293 -10.1083    183.9151     33.4960   4.4358439154e+01   3.4982181542e+01    0.2124948    0.1277993  68.06  0.001024356    1.564    0.361
       294  -9.6505    225.3170     32.6551   3.9285769323e+01   2.5268781638e+01    0.1430843   0.08239927 -63.13 0.0003903917    1.720    0.419
       295 -11.2975     47.7548     31.7713   7.9046925785e+01   6.5025978844e+01    0.3442895     0.210924  33.62            0    1.660    0.398
       296 -10.2356     50.4654     27.5418   7.6032012641e+01   6.5276239169e+01     0.243838    0.1983068   9.95  0.001566601    1.092    0.085
       297  -9.2773    139.2084     30.9316   5.0940782717e+01   4.6433683554e+01    0.1682333     0.112896 -29.78 0.0003879614    1.600    0.375
       298 -10.0380     89.1881     31.3115   6.3500064850e+01   5.7850603971e+01    0.2037562    0.1625127  25.58 0.0008682581    1.152    0.132
       299 -11.9390    194.6122     25.7801   4.0936998473e+01   3.3302008663e+01     0.536503     0.316762  89.17    0.0026018    1.801    0.445
       300 -11.2254     70.1620     26.2368   6.7717807346e+01   6.2199011088e+01     0.488153    0.2847656  16.63  0.002342516    2.066    0.516
       301 -11.0612     67.7317     21.9207   6.6688957308e+01   6.3192585920e+01    0.9734024    0.1746845  49.65  0.002577134    6.795    0.853
       302 -10.2761     60.4675     27.4636   7.1905512357e+01   6.3715301048e+01    0.5870349    0.1971242 -44.40   0.00204597    4.350    0.770
       303 -10.6431     62.2141     23.9984   6.9683310312e+01   6.3893721347e+01    0.2316799    0.1733087 -15.01  0.001393898    1.245    0.197
       304 -10.4102    213.8011     26.1546   3.8920988543e+01   2.8703910170e+01    0.2326542    0.1955792 -75.30 0.0008004135    1.027    0.027
       305 -10.8256    131.8662     26.0539   5.0757092709e+01   4.8800257921e+01    0.3687519      0.20539  51.26 0.0006728724    1.606    0.377
       306  -9.8239    128.4907     24.0007   5.0734337621e+01   4.9847949986e+01    0.1893094    0.1792653 -22.09  0.001153186    1.155    0.134
       307  -9.8329    218.8128     25.9322   3.8365283180e+01   2.7576308010e+01    0.1749499    0.1640294  82.85 0.0003022346    1.198    0.166
       308 -10.2230    146.2797     26.5294   4.8180427739e+01   4.5200369522e+01    0.3747165    0.1134378  59.85  0.001325013    2.778    0.640
       309 -10.1390    118.9446     25.7055   5.3403340286e+01   5.1935487639e+01    0.2110851    0.1775278  10.84 0.0003742795    1.260    0.206
       310 -10.2722    120.1412     21.5499   5.1627920138e+01   5.2111825416e+01     0.318633    0.1896431  34.24   0.00152369    1.791    0.442
       311  -9.6731      1.4300     25.7633   9.9511845611e+01   7.0657227695e+01    0.1552785   0.07787353 -42.09 0.0002715023    1.476    0.323
       312 -10.5679     90.2238     20.6630   5.8820990966e+01   5.8932087980e+01    0.3609662    0.2568961  59.41  0.001532404    1.517    0.341
       313 -10.7300     92.2300     24.3442   5.9754166108e+01   5.8086176340e+01    0.6150661    0.2496614  31.04  0.002001947    3.665    0.727
       314 -10.2534     97.2470     23.6637   5.8058668251e+01   5.7090847862e+01    0.2963994    0.1657951  52.47 0.0009806845    1.647    0.393
       315 -11.1177      9.3744     24.8386   9.4862144123e+01   7.0299692775e+01    0.4619863    0.1618959  18.57  0.002156822    3.127    0.680
       316 -10.7854    111.8860     26.2709   5.5273585646e+01   5.3514393213e+01    0.5107519    0.1884556 -27.04  0.001972964    2.914    0.657
       317  -9.1586    164.7354     23.3230   4.4199628184e+01   4.0957465743e+01    0.1379584   0.09664386 -64.59 0.0001757784    1.560    0.359
       318  -9.7375     55.6063     23.1742   7.1921494635e+01   6.5098140749e+01    0.1860423    0.1068547 -19.77 0.0009635897    1.761    0.432
       319  -9.8412    238.0000     19.9508   3.5306764262e+01   2.4030736043e+01    0.1980827   0.06386118 -32.37 0.0008083255    2.983    0.665
       320  -9.6699    140.0020     19.7075   4.7076941065e+01   4.7497316566e+01    0.1935739     0.154616  59.67 0.0003563345    1.119    0.106
       321 -11.1645    129.4649     19.1170   4.8841068298e+01   5.0133035179e+01    0.2572695    0.2358679  17.20 0.0005016644    1.156    0.135
       322 -10.0425     23.9976    232.4897   1.2289504191e+02   2.2655863811e+01    0.1850206    0.1583601 -75.02 0.0006557314    1.423    0.297
       323 -10.3016    159.9672    236.0147   9.6088290092e+01   2.6557474782e+00    0.2013995    0.1446593   6.61 0.0005293032    1.685    0.406
       324  -8.9274    115.6554    244.6976   1.0616743520e+02   8.1592044429e+00    0.1183125   0.09378585   8.96 0.0007039288    1.683    0.406
       325 -11.8985     36.9394    243.3212   1.2119889466e+02   1.9116760065e+01     0.611119    0.2952496  86.00  0.003263276    2.100    0.524
       326 -11.0253     41.5671     19.2446   7.6132965040e+01   6.7741166102e+01    0.4469383     0.223068  36.99  0.002090109    2.020    0.505
       327  -9.8724    177.4058    234.8013   9.2409966686e+01   6.1269058599e-02     0.167273    0.1155613 -25.45 0.0009482597    1.660    0.397
       328 -11.5389    153.4971    232.8100   9.6936139994e+01   4.2359236849e+00    0.3783532     0.224966 -65.44  0.001166819    2.645    0.622
       329  -9.6467     38.3551    232.8517   1.2023962024e+02   2.0981782856e+01    0.1561965    0.1199272  82.62 0.0007480095    1.131    0.116
       330 -12.2971     73.9981    236.8269   1.1364725352e+02   1.5680979057e+01    0.5509327     0.328898 -72.21  0.003202596    1.784    0.440
       331  -9.3592    169.7694    229.0337   9.3047354982e+01   2.2170418954e+00    0.1523473    0.1091213 -42.87 0.0005757135    1.597    0.374
       332  -9.8232    190.4511    226.3144   8.8463765749e+01  -6.8981891806e-01    0.2155807    0.1208078 -34.02 0.0006396385    1.951    0.487
       333 -10.1259    247.9928     19.7427   3.4482501361e+01   2.1945519996e+01    0.1501603   0.09440213  80.26 0.0004252255    1.544    0.352
       334 -10.1671    203.9819     17.7551   3.7883609215e+01   3.1978792571e+01    0.1939599    0.1859689  23.69  0.001273127    1.333    0.250
       335 -10.9584    120.3848    226.2735   1.0292323692e+02   1.0784161733e+01    0.2120276    0.1697492 -80.04 0.0008245384    1.453    0.312
       336  -9.3508    142.9847     17.0027   4.5675273461e+01   4.7038509644e+01     0.159913    0.1442515  63.95 0.0003224876    1.010    0.010
       337 -10.0331     65.9968    226.2089   1.1426606603e+02   1.8864566797e+01    0.1974877    0.1627651 -88.76  0.000653743    1.184    0.155
       338 -10.6411      4.4424    226.1465   1.2610402371e+02   2.5879217114e+01    0.2632716    0.1165365  53.76  0.001561693    1.777    0.437
       339 -11.3007     20.9564    222.1975   1.2283943235e+02   2.5042745298e+01    0.2697435    0.1446209 -85.55  0.001219079    1.637    0.389
       340  -9.5892     77.6462     15.1818   6.0294414494e+01   6.2097631501e+01    0.1804823    0.1598492  12.95 0.0002296957    1.087    0.080
       341  -9.8985    123.6004    222.1892   1.0169012434e+02   1.1044056241e+01    0.2754341    0.1706332 -26.24  0.001231319    2.805    0.644
       342 -10.2549    142.4026    220.8837   9.7490473193e+01   8.1813265397e+00    0.2832109     0.164013  24.45  0.001312924    2.018    0.505
       343  -9.3370     41.6788    220.6997   1.1869932969e+02   2.3056637825e+01    0.1045926    0.0919847 -44.84 0.0007025129    1.626    0.385
       344 -10.7319     86.5952    233.2387   1.1076757989e+02   1.4603578698e+01     0.248977     0.121958  48.42  0.001148896    1.732    0.423
       345 -10.1814    186.0364     15.9034   3.9347339218e+01   3.6494889464e+01    0.3945841    0.1575745  67.44  0.001685535    2.206    0.547
       346 -11.5099      9.8052    217.1906   1.2465369512e+02   2.7181729078e+01    0.2950324    0.1806612  62.87  0.001631968    1.301    0.232
       347  -9.6947     37.9789    217.5000   1.1919183808e+02   2.4154488755e+01     0.169995    0.1061097  40.44 0.0006881701    1.550    0.355
       348 -11.5380     30.1230    215.9384   1.2064382655e+02   2.5362868706e+01    0.3458577    0.2617171  13.78  0.002188791    2.044    0.511
       349 -11.0561    241.5205    211.7074   7.6300397945e+01  -6.3183770376e+00    0.3079666    0.2590956   7.16  0.002082462    1.143    0.125
       350 -11.5240    235.9893    214.7010   7.7826279461e+01  -5.9439770562e+00    0.3972962    0.2478954   6.49  0.001481706    1.672    0.402
       351  -9.5441    137.1594    215.6334   9.7825818613e+01   1.0051506215e+01    0.2004842    0.1178539  29.66 0.0009475751    1.747    0.428
       352  -9.7778     66.8012    215.4299   1.1305202838e+02   2.0988910688e+01    0.1614647    0.1180135  30.19 0.0005069844    1.571    0.364
       353 -10.7440     21.6404    212.6378   1.2209507040e+02   2.6957444169e+01    0.2870352    0.1469661  54.95  0.001652346    1.653    0.395
       354 -10.0920    208.9516    212.0488   8.2371964153e+01  -1.4181979396e+00    0.2014874    0.1652106   5.10 0.0005107144    1.064    0.060
       355  -9.5918     76.3157    212.3112   1.1068015172e+02   2.0334526802e+01    0.1179406     0.102468 -24.44 0.0004033221    1.637    0.389
       356 -12.2351      4.2079    208.5571   1.2524146966e+02   2.9496044751e+01    0.5541278    0.3097048 -80.28  0.003482905    1.503    0.335
       357  -9.0874     54.7094     13.3137   6.7638383963e+01   6.6487826379e+01    0.1629195   0.09500017 -24.81  0.000229028    1.665    0.399
       358  -9.4307    185.0056    208.4512   8.6491052241e+01   3.1441439316e+00    0.1934208    0.1080101  17.24 0.0004800849    2.440    0.590
       359 -11.0561     19.7556    202.1409   1.2175714596e+02   2.9399255553e+01    0.4564473    0.1543926 -73.26  0.002111926    2.528    0.604
       360 -10.3369    175.5126    202.7773   8.7447901879e+01   5.7950732141e+00    0.2481131    0.2048588  45.58 0.0005469658    1.262    0.208
       361  -9.4391    243.3266    202.2954   7.4236562045e+01  -5.2341332104e+00    0.1305663   0.08382311   0.82 0.0002720108    1.627    0.385
       362 -10.1647     10.7532    208.6186   1.2397823837e+02   2.8880383547e+01    0.1991225    0.1533895 -53.51 0.0007127668    1.725    0.420
       363  -9.1209    223.4843    201.5025   7.7663999470e+01  -2.0875673601e+00    0.1287861    0.1136791  -0.27 0.0004613301    1.111    0.100
       364  -9.1598     34.4456    201.4190   1.1863536391e+02   2.8016425507e+01    0.1204582    0.1008686  81.93 0.0004100102    1.078    0.073
       365  -9.3126    238.6461    200.7191   7.4761791541e+01  -4.3086674251e+00    0.1328066   0.08554691   3.41   0.00070144    1.656    0.396
       366  -9.8842    206.3147    199.3088   8.0528561321e+01   1.0721052221e+00    0.1396049   0.09615511   1.82 0.0004325431    1.630    0.386
       367  -9.5561    215.5034    194.5320   7.7834989750e+01   3.2274604709e-01    0.1378896    0.1144935   0.62 -1.165801e-05    1.071    0.067
       368 -10.7809     16.2596    193.2364   1.2185148866e+02   3.1699055343e+01    0.2293207    0.2079518  23.45 0.0009158863    1.513    0.339
       369  -9.4991    211.4886    188.4776   7.7423050007e+01   2.0120163469e+00    0.2459139    0.1197947 -28.16  0.001030605    2.294    0.564
       370  -9.2229      1.6249    188.1889   1.2457625499e+02   3.4112686585e+01    0.1607137   0.08535977 -72.24 0.0006200434    1.604    0.377
       371 -11.3757     15.9612    182.6614   1.2112507045e+02   3.4110998622e+01    0.4562616    0.2195355  82.27  0.002285037    2.025    0.506
       372  -9.9642    167.4926    183.4947   8.5564024206e+01   1.0924031578e+01     0.145563    0.1354466  14.46 9.323196e-05    1.018    0.017
       373  -9.5696     58.7044    182.0213   1.1118636493e+02   2.9552819946e+01    0.1921671    0.1585537 -82.63 0.0008944734    1.100    0.091
       374  -9.3149      1.5463    180.4841   1.2410539114e+02   3.5837646927e+01    0.1193315   0.09028314  85.27 0.0001596406    1.004    0.004
       375 -10.0816    244.2842    178.5509   6.9449699325e+01  -1.7908550686e+00    0.2366274    0.1376783 -17.80  0.001163927    1.832    0.454
       376  -9.4022     69.6333    178.1448   1.0803640165e+02   2.9003010307e+01    0.1880094    0.1140554 -54.98 0.0004964473    1.675    0.403
       377 -10.4330     46.5125    177.7047   1.1360658822e+02   3.2079898874e+01    0.2595338    0.2215718  76.67  0.001217821    1.050    0.047
       378  -9.5372    200.7577    176.3921   7.7099860051e+01   6.0487707130e+00    0.1989124    0.1277997  28.96 0.0007198384    1.612    0.380
       379 -11.5822     34.1226    174.2354   1.1619855736e+02   3.4285861951e+01    0.2433128    0.1764342 -75.91 0.0004346229    1.201    0.168
       380 -10.9381     18.0327    173.2196   1.1988428514e+02   3.6103170006e+01    0.3458158    0.1972331  64.03  0.001908605    1.680    0.405
       381  -9.3369     74.5292    171.4639   1.0587088520e+02   2.9908407575e+01    0.1391912    0.1274695  89.42 6.995434e-05    1.032    0.031
