#   1 NUMBER                 Running object number                                     
#   2 MAG_AUTO               Kron-like elliptical aperture magnitude                    [mag]
#   3 X_IMAGE                Object position along x                                    [pixel]
#   4 Y_IMAGE                Object position along y                                    [pixel]
#   5 X_WORLD                Barycenter position along world x axis                     [deg]
#   6 Y_WORLD                Barycenter position along world y axis                     [deg]
#   7 A_WORLD                Profile RMS along major axis (world units)                 [deg]
#   8 B_WORLD                Profile RMS along minor axis (world units)                 [deg]
#   9 THETA_WORLD            Position angle (CCW/world-x)                               [deg]
#  10 FWHM_WORLD             FWHM assuming a gaussian core                              [deg]
#  11 ELONGATION             A_IMAGE/B_IMAGE                                           
#  12 ELLIPTICITY            1 - B_IMAGE/A_IMAGE                                       
         1 -11.6716     79.9137     23.5346   8.0145124023e+01   6.1344385184e+01    0.7852968    0.3235253  37.15  0.003093597    2.910    0.656
         2  -9.1246    144.6389     23.6941   6.3278055451e+01   4.6688277681e+01    0.3931136    0.2412812 -15.12   0.00171998    1.784    0.440
         3 -10.3234     77.3377     13.3133   7.6180134965e+01   6.3330719440e+01    0.7520878    0.2984523  43.39  0.002777535    2.600    0.615
         4  -9.6143     63.9719     14.3363   8.1522078729e+01   6.5550561263e+01    0.3974551    0.2454294  12.72  0.001654572    2.151    0.535
         5  -9.6795    133.9941     13.5628   6.1402916799e+01   5.0608594716e+01    0.3251878    0.2450491  34.33 0.0001674442    1.339    0.253
         6 -10.0831    130.2406     10.1390   6.0749043938e+01   5.1928463442e+01    0.4741928    0.2983956 -16.92 0.0002914033    1.632    0.387
         7  -8.7148     96.9875     12.2281   6.9581736765e+01   5.9497083600e+01    0.3310777    0.1910437  36.19  0.001136632    1.806    0.446
         8  -9.4006     31.6982     10.8643   9.3947732221e+01   7.0607034044e+01    0.4324684    0.2639275   0.81 0.0004809866    2.183    0.542
         9  -9.0869     32.0188      6.0452   9.1304079381e+01   7.1370115529e+01    0.2348974    0.1571788 -27.44 0.0003309493    1.248    0.199
        10  -9.0165    108.2337     10.7409   6.5925270342e+01   5.7165762758e+01    0.2475152    0.1758699  60.03 0.0009918943    1.483    0.326
        11  -9.3980     71.3154      8.6046   7.5889844915e+01   6.5082991733e+01    0.3611248    0.2344952  14.96  0.001878501    1.769    0.435
        12  -8.4969    125.0870     10.3069   6.1876899134e+01   5.3192308703e+01    0.2487723    0.1980793  37.75 0.0004195633    1.215    0.177
        13  -8.9125     40.8608      6.2310   8.7105122109e+01   7.0237455611e+01    0.3958467    0.1987436 -23.20  0.001326522    2.193    0.544
        14  -9.2065     46.6862      6.2939   8.4475419528e+01   6.9423833748e+01    0.2612153    0.2256162 -13.42 0.0004021946    1.095    0.087
        15  -9.0964    119.2919      6.9158   6.1653645258e+01   5.4970479592e+01    0.2693453    0.2073656  27.20   0.00020073    1.290    0.225
        16  -9.9841      7.5702      5.5445   1.0437514497e+02   7.3743669780e+01    0.4507799     0.226692  -3.77  0.002417119    2.884    0.653
        17  -8.0903    156.0376      7.2932   5.5103963193e+01   4.5536145316e+01     0.202929    0.1795884  61.92 0.0004136508    1.093    0.085
        18  -8.3009    100.2066      6.3640   6.5938464880e+01   5.9477801452e+01    0.2520339    0.1992428 -62.96  0.000788656    1.677    0.404
        19  -9.0774     77.6447      6.6097   7.2693824988e+01   6.4151731449e+01    0.3076252    0.1715912  42.11  0.001538622    1.794    0.443
        20  -8.5290     76.3229      3.6928   7.1607658197e+01   6.4760825403e+01    0.3233866    0.1792915 -24.53  0.001089526    1.667    0.400
        21  -9.7557     84.8339      5.4034   6.9799243431e+01   6.2869846513e+01    0.2940285     0.218309 -17.02  0.001665522    1.249    0.199
        22  -7.1507    180.0000      5.0205   5.1032375035e+01   3.9343124871e+01    0.2303291   0.08196063 -20.47 0.0006402908    2.893    0.654
        23  -9.0717     92.5809      5.0949   6.7384668524e+01   6.1285207398e+01    0.4100544    0.1953702  55.44  0.001835048    2.123    0.529
        24  -7.9956    104.8510      1.9568   6.2685769980e+01   5.8888476906e+01    0.2259054    0.1693734  24.02  0.001223101    1.302    0.232
        25  -7.8550    111.4875      4.5283   6.2324132851e+01   5.7083643029e+01    0.2287468    0.1320122  58.90  0.001070758    1.708    0.415
        26  -8.6134    110.0011      1.7757   6.1400727570e+01   5.7708152713e+01    0.3255273    0.1843576  61.34   0.00152894    1.774    0.436
        27  -7.7602    153.0284      3.2137   5.4035312028e+01   4.6722296454e+01    0.1996792    0.1118769  67.37 0.0008728416    1.713    0.416
        28  -7.7020    134.4507      3.0694   5.7032119413e+01   5.1571822036e+01    0.1998815    0.1384957 -16.24 0.0003280714    1.476    0.323
        29  -8.6548     57.5488      3.1329   7.8130854389e+01   6.8194138651e+01    0.2960672    0.1677545  30.66  0.001553333    1.908    0.476
        30  -8.0923    143.0852      2.0764   5.5155126797e+01   4.9436958062e+01    0.2066955    0.1954618  41.13 0.0003305633    1.007    0.007
        31  -7.9463      3.0234      1.4563   1.0517663471e+02   7.4788321235e+01    0.1398934    0.1007287  -0.56   0.00057354    1.559    0.359
        32  -7.2441    131.3803    113.3017   9.4679127744e+01   3.3761581676e+01    0.1477587    0.1172795   5.95 0.0007023868    1.772    0.436
        33  -8.8935    241.4670    250.4931   9.8322502486e+01  -5.6908564179e+00    0.2139906   0.07482081  41.00 0.0009470404    2.142    0.533
        34 -11.4728    232.0378    250.5500   9.9719838248e+01  -4.4013611333e+00    0.2314397   0.09242119  40.10  0.001381524    1.838    0.456
        35 -10.1021    198.4919    249.2034   1.0463577569e+02   5.0692861783e-01    0.3510858    0.1929578  32.05  0.002335608    1.490    0.329
        36  -7.6929    142.0501    111.8153   9.1812870825e+01   3.1858149750e+01    0.2434717    0.1713767  19.80 0.0009666814    2.036    0.509
        37  -8.3502    133.8027    108.2630   9.2886591458e+01   3.4302415433e+01    0.5860313    0.1808306 -51.10  0.001766017    3.710    0.730
        38  -8.3443      2.4643    109.3680   1.2797390774e+02   5.1864814060e+01    0.2965313    0.1280749 -36.12  0.001282491    4.697    0.787
        39  -8.9156    249.3386    106.1714   7.0303779298e+01   9.1551685730e+00    0.2842664    0.1216218 -20.82  0.001094555    2.591    0.614
        40  -7.7463    123.9801    107.0915   9.4992496549e+01   3.6539542508e+01    0.2225885    0.1819387  -0.33 0.0009398584    1.677    0.404
        41  -7.7276    108.6947    106.9037   9.8817492583e+01   3.9505824021e+01    0.2386342     0.162422 -12.44 0.0009608956    2.880    0.653
        42  -9.3019     14.4891    105.2602   1.2436687023e+02   5.1944378428e+01    0.3473098    0.1815804 -36.17   0.00177702    3.016    0.668
        43  -7.6124     69.5219    104.4171   1.0886230971e+02   4.6373156909e+01    0.1319092     0.116674 -73.97 -5.704036e-05    1.033    0.032
        44  -7.6845     93.4643    103.3651   1.0203522836e+02   4.2958119236e+01    0.2546303    0.1321238  25.88 0.0009466137    3.307    0.698
        45  -9.0043    243.6315     97.1817   6.8953576686e+01   1.1568432493e+01    0.2033158    0.1233856 -16.97 0.0007359532    1.691    0.409
        46 -10.2444     11.6432     94.5759   1.2392867960e+02   5.4541183612e+01    0.4219759    0.2235826 -38.92  0.002133951    2.534    0.605
        47  -7.4384     39.2327    110.0154   1.1821720123e+02   4.8703335850e+01    0.1652235    0.0863731 -69.73 0.0005267049    1.587    0.370
        48  -7.6070     83.1376     93.6045   1.0265455685e+02   4.6813815667e+01    0.1795602    0.1352438  23.30 0.0008867384    1.717    0.417
        49  -8.6009     43.6298     92.1664   1.1405881273e+02   5.2324501162e+01    0.2863857    0.1902494 -17.37  0.001478573    2.522    0.604
        50  -8.3886     96.5594     90.4293   9.8052990483e+01   4.5283633291e+01     0.376924    0.2673867  -8.16  0.001670656    2.435    0.589
        51  -9.3509    225.1693     90.1472   6.9950593255e+01   1.6640242906e+01    0.2459693    0.2328918 -14.94 0.0003625925    1.028    0.027
        52  -8.0959    109.8735     90.6744   9.4453600678e+01   4.2783392551e+01    0.2844288    0.1335665  36.98  0.001080926    2.574    0.611
        53  -8.1029     62.5186     88.9660   1.0768457159e+02   5.0830119718e+01    0.1947839   0.09160384 -42.30 0.0007592766    2.506    0.601
        54  -8.2422    229.8389     85.9093   6.8137550217e+01   1.6194322064e+01    0.2192609    0.1870446  10.50  0.000485025    1.219    0.179
        55 -10.2958     37.3507     81.2229   1.1394787515e+02   5.5459559339e+01    0.6307284    0.3485949 -27.25  0.002895688    3.085    0.676
        56  -8.6432      1.5986     84.6317   1.2572854524e+02   5.7388238686e+01    0.3302096   0.05506218 -62.09  0.001313061    3.387    0.705
        57  -9.6928      8.1450     77.7046   1.2279465552e+02   5.8553157421e+01    0.4734006    0.2164931 -39.49  0.002294545    2.742    0.635
        58  -8.0288    126.2923     83.8718   8.8241899708e+01   4.0872242255e+01    0.2845806     0.194911  21.12  0.001213704    2.114    0.527
        59  -7.9329     66.0278     84.3222   1.0554879574e+02   5.1414349104e+01    0.1762257    0.1703181 -78.35 0.0005674539    1.124    0.111
        60  -7.9497    234.6659     80.2893   6.5970470652e+01   1.5896873052e+01    0.1441241    0.1073407 -60.94 0.0003338589    1.630    0.387
        61  -8.8883     88.0782     78.9732   9.7446698453e+01   4.9242965920e+01    0.4621592    0.2791288  20.56  0.001685898    2.721    0.632
        62  -7.9272    184.1715     78.1264   7.3692532694e+01   2.8338916149e+01    0.2351548     0.205269   6.49  0.000599033    1.245    0.197
        63  -9.1447     48.9027     77.1107   1.0931996425e+02   5.5179330192e+01    0.4876277    0.2888512   5.89  0.002234977    3.106    0.678
        64  -8.2200    105.7995     76.6269   9.1617970615e+01   4.6533700632e+01     0.349212    0.1787568  32.56  0.001336316    2.680    0.627
        65 -10.1475     23.9802     73.5892   1.1689621656e+02   5.8371025271e+01    0.8136025    0.2879062 -39.75  0.003030933    4.375    0.771
        66  -8.0769     23.4706     69.4706   1.1628597698e+02   5.9338523340e+01    0.2206315    0.1638017 -71.21 2.982172e-05    1.102    0.093
        67  -7.9972     75.0292     74.3150   1.0016707718e+02   5.2349113762e+01    0.1788978    0.1745433  36.48 0.0004225174    1.161    0.138
        68  -8.0072     48.4019     70.8871   1.0801799179e+02   5.6635739353e+01    0.2913807    0.1709506  39.77  0.001551531    1.971    0.493
        69  -7.3672    116.2820     68.3730   8.6161221548e+01   4.6090759742e+01    0.1520974    0.1164609  -7.11 0.0007013607    1.704    0.413
        70  -8.2096    106.1642     67.0227   8.8546090917e+01   4.8427020410e+01    0.2598926    0.2190311  41.78 0.0009890093    1.266    0.210
        71  -8.7327     83.2332     64.7385   9.4740550458e+01   5.3096034391e+01    0.4682311    0.2918433 -10.35  0.001791317    3.343    0.701
        72  -9.0961     15.6769     64.3869   1.1805123036e+02   6.1047714594e+01     0.647773    0.2624234  54.09  0.002753018    3.972    0.748
        73  -8.8481     19.0581     61.4707   1.1625228644e+02   6.1458839524e+01    0.2655227    0.1437731 -26.20  0.001365931    2.655    0.623
        74  -7.0423    138.6781     62.6648   7.8573905251e+01   4.2153040853e+01    0.1586754    0.1199332  11.64 0.0007050323    1.708    0.414
        75  -8.8176     97.0868     58.9472   8.8545914679e+01   5.1798293535e+01    0.6293957    0.3244533 -19.37  0.001757231    5.429    0.816
        76  -9.6568     62.3343     61.4197   1.0065924522e+02   5.6978455748e+01    0.7405001     0.306071  26.20  0.002740875    3.940    0.746
        77  -8.2028     25.0000     62.0232   1.1419940455e+02   6.0881380137e+01    0.2775618    0.1371426 -68.06  0.001256209    1.708    0.415
        78  -9.0292     27.5020     60.5117   1.1294179984e+02   6.1010558022e+01    0.1820335    0.1238724  24.46 0.0009976347    1.842    0.457
        79  -9.7663     36.1256     59.7379   1.0957728598e+02   6.0401177928e+01     0.568143    0.3133795 -13.79  0.002475607    3.568    0.720
        80  -8.1571    111.1904     58.5811   8.4315785966e+01   4.9051211469e+01    0.2874602    0.2169153  13.31  0.001295474    1.717    0.418
        81  -8.3520     49.7891     58.5807   1.0426843576e+02   5.9187670144e+01     0.164329     0.120678  48.59 0.0007388609    1.646    0.393
        82 -10.1162     74.7045     50.5555   9.2845711764e+01   5.7395987726e+01    0.4972737    0.3224734 -26.23 0.0004663054    1.786    0.440
        83  -7.0467    136.7096     53.2855   7.5864974477e+01   4.4261724745e+01    0.1492037    0.1180642 -68.84 0.0001995031    1.536    0.349
        84  -8.3455    118.3551     51.0303   7.9693926783e+01   4.8891532084e+01    0.2406143    0.2077112  47.39 0.0004075997    1.206    0.171
        85  -9.4223     45.2392     48.7254   1.0300412487e+02   6.1818196166e+01    0.3546574    0.2662404   2.95  0.001368481    1.700    0.412
        86  -8.3200    106.8798     48.6266   8.1993024727e+01   5.1792894032e+01    0.2980522    0.2180556  -0.15  0.001402597    1.786    0.440
        87  -8.8834     10.6027     47.2430   1.1642873743e+02   6.5142677406e+01    0.3362088    0.1463993 -58.76 0.0007298969    1.657    0.396
        88  -9.0793     13.7182     45.6768   1.1478791582e+02   6.5283554268e+01    0.4243397    0.1568868 -45.88  0.001621528    2.323    0.570
        89  -8.8953      2.0930     30.5074   1.1602427865e+02   6.9165013611e+01    0.4014018    0.2084525 -64.62  0.001942345    1.477    0.323
        90  -7.6608      2.8550     25.1917   1.1417522871e+02   7.0219987342e+01    0.1594506    0.1165459 -50.84 0.0003950566    1.051    0.049
        91  -8.8727      6.3006     34.0965   1.1504474797e+02   6.8193175722e+01    0.3831778    0.1901431 -27.31  0.002092494    2.459    0.593
        92  -8.7103      2.2440     44.5915   1.1926723171e+02   6.6176316971e+01    0.4215415    0.2267934  79.96    0.0022176    2.616    0.618
        93  -8.6339      3.6949     40.4759   1.1776060449e+02   6.6984708167e+01    0.2801336     0.113419 -64.07   0.00148875    1.784    0.440
        94  -9.7182     57.1431     42.2449   9.6218534903e+01   6.1657734302e+01    0.6194212    0.3173419 -23.18   0.00233986    3.607    0.723
        95 -10.9477     83.1376     39.9988   8.6039051580e+01   5.7972813039e+01    0.3970685    0.2599486 -24.26  0.001950834    1.640    0.390
        96  -9.0814     87.7862     38.1346   8.3769135483e+01   5.7451165750e+01    0.3035357    0.2625119   8.05 0.0007013505    1.213    0.176
        97  -8.1179    113.0294     42.3354   7.7903992941e+01   5.1567732573e+01    0.2712218    0.2027535  -1.04  0.001304934    1.615    0.381
        98  -8.5984    221.0511     41.6353   5.7247792736e+01   2.4411713006e+01    0.3838899    0.2074251 -22.59  0.001277263    1.862    0.463
        99  -7.8108    123.9135     39.8297   7.4095539100e+01   4.9506141282e+01    0.2237201    0.1899531   8.38 0.0005125678    1.261    0.207
       100  -9.1430     35.5034     37.9898   1.0340861217e+02   6.5090860957e+01    0.3424576    0.1778119 -52.27   0.00160035    1.556    0.357
       101  -8.8361     38.7434     35.4077   1.0113175678e+02   6.5271271445e+01    0.2686159    0.1906741  12.63   0.00128788    1.735    0.424
       102  -9.6898     68.8304     37.1625   8.9905483750e+01   6.0912574530e+01    0.3965099    0.2913601   8.51   0.00214838    1.685    0.407
       103  -8.3982     73.8026     34.3929   8.6989656352e+01   6.0604261940e+01    0.2534441    0.2006828  -5.06 0.0006931262    1.376    0.274
       104  -8.3423     92.0064     36.9870   8.1959832125e+01   5.6842966173e+01    0.2140016    0.2004122 -19.37 0.0005442099    1.039    0.038
       105  -9.0122     54.8658     36.5105   9.4949260046e+01   6.3088467448e+01    0.3820531    0.2351652  -6.54  0.001162063    2.680    0.627
       106  -8.2440    106.3371     36.1933   7.7359031905e+01   5.4036739237e+01    0.2460354    0.1896706  33.91 0.0006701285    1.361    0.265
       107  -9.0495     21.5313     32.0136   1.0750872990e+02   6.7585078995e+01    0.2629252    0.2122965 -11.12 0.0005563099    1.406    0.289
       108  -8.4422     23.5168     35.5180   1.0776063362e+02   6.6704646840e+01    0.2222372     0.196288 -47.99  0.001601325    1.124    0.111
       109  -8.9645     19.0576     35.7843   1.0981312364e+02   6.7002814031e+01    0.2077198    0.1561793  44.79 0.0007734997    1.738    0.425
       110  -9.0804    191.3272    248.9846   1.0572082105e+02   1.5772939415e+00    0.1906711    0.1242516  53.41 0.0008916676    1.607    0.378
       111  -8.5627     61.8718     26.9319   8.8244499087e+01   6.3838020690e+01    0.2006276    0.1556063 -13.26 0.0004216089    1.302    0.232
       112  -8.4286     25.5236     24.9962   1.0315504526e+02   6.8641246456e+01    0.3108223    0.1294682 -40.67  0.001521427    2.079    0.519
       113  -8.3965     28.7825     21.3970   1.0016956274e+02   6.9021489043e+01    0.2294594    0.1698736 -22.19 0.0007859617    1.323    0.244
       114  -8.7788     42.3087     27.7944   9.6666395754e+01   6.6345206106e+01    0.2473442    0.1758601 -18.28 0.0006159132    1.511    0.338
       115  -8.9430     63.8582     22.9298   8.5680136334e+01   6.4208796949e+01    0.2505145    0.1741847  31.43  0.001113311    1.572    0.364
       116  -7.8535    129.0069     22.4814   6.6063352163e+01   5.0780072204e+01    0.2209181     0.139165  54.90 0.0006817107    1.559    0.359
       117  -8.6821     45.8140     20.6918   9.2063165350e+01   6.7203145284e+01    0.3271201    0.1991135 -55.29   0.00120928    1.948    0.487
       118  -9.0859     92.4956     20.5296   7.4732194563e+01   5.9336611990e+01    0.2658921    0.2140734   4.99 0.0007092233    1.256    0.204
       119  -8.2671    140.1891     20.0008   6.2731957330e+01   4.8284191372e+01    0.2147872     0.200672  18.78  0.000442536    1.052    0.049
       120  -7.9151     14.4103     16.8267   1.0544724432e+02   7.1141826423e+01    0.2476386   0.09896248 -44.86  0.001283784    1.892    0.472
       121  -8.6519      9.4684     19.9828   1.0917664832e+02   7.0876711989e+01    0.2538096    0.1550819  -5.72  0.001012051    2.064    0.515
       122  -8.0685      5.4553     18.9469   1.1087472228e+02   7.1330282729e+01    0.1637924    0.1399059 -64.31 0.0003595559    1.246    0.197
       123  -7.7658    110.0000     27.0029   7.2573761422e+01   5.4643049974e+01    0.2381536   0.07855599 -30.61 0.0006350772    2.918    0.657
       124  -8.2061    127.5342     16.8643   6.4094839045e+01   5.1840267674e+01    0.2412631    0.1980205  56.62 0.0004843472    1.220    0.180
       125 -10.1412    186.7827    247.9371   1.0630621049e+02   2.3552261514e+00    0.2479413    0.2074003 -34.03  0.002046462    1.612    0.380
       126  -9.7495    178.8848    248.2297   1.0758012427e+02   3.4898910296e+00    0.2495176    0.1347143  24.02  0.001438946    2.392    0.582
       127 -10.0175    172.5051    247.7791   1.0853547190e+02   4.4829925380e+00    0.2185334    0.1912965 -48.98  0.001832185    1.581    0.367
       128  -9.7931    205.9759    250.0660   1.0358974856e+02  -6.6397540087e-01    0.3574167    0.1114148  42.10  0.001837843    2.340    0.573
       129  -7.9906    164.3301    250.3183   1.1010555863e+02   5.4005641993e+00    0.1033788   0.06918371  24.58 0.0007047388    1.686    0.407
       130  -9.1391    249.9403    240.2207   9.5666168493e+01  -6.0024898780e+00    0.1685621    0.1300774  21.94  0.000327216    1.155    0.134
       131  -8.2075     87.8630     13.1136   7.2680855265e+01   6.1297740948e+01    0.1980105    0.1829269 -35.01 0.0006428736    1.209    0.173
       132 -10.1131    187.4392    234.2809   1.0452776282e+02   3.7502890319e+00    0.2731759    0.2025774  23.27  0.001521308    1.313    0.238
       133  -9.5125    144.0640    227.4681   1.1090600634e+02   1.1311624584e+01    0.1643586    0.1518358  63.96 0.0001684314    1.221    0.181
       134  -7.6901    145.6103    213.1820   1.0894637184e+02   1.3090694349e+01    0.2245403   0.07089695  45.35 0.0006283633    2.527    0.604
       135  -7.2086      8.3441    212.3133   1.3273442319e+02   3.1039693089e+01   0.08120353   0.06975708 -71.63 0.0007046987    1.708    0.415
       136  -8.3281     11.1546    207.1299   1.3206717383e+02   3.1668743458e+01    0.1498588   0.07951893  66.45 0.0006136501    1.348    0.258
       137  -8.9031    250.0441    179.1914   8.5711422272e+01  -1.0785177981e-01    0.2440029    0.1926182 -46.27  0.001553571    1.877    0.467
       138  -7.2613    163.7927    178.9736   1.0067855764e+02   1.5240181645e+01    0.1469427    0.1045959 -44.34 0.0004426804    1.612    0.380
       139  -7.7638     21.4643    177.7081   1.2874197542e+02   3.6080454277e+01    0.1413888   0.08145781 -71.21  0.000912904    1.658    0.397
       140  -7.3550    101.1735    176.1163   1.1268565577e+02   2.6414365463e+01    0.1650973    0.1182837  67.79            0    1.297    0.229
       141  -7.0859     20.3445    168.3054   1.2836580024e+02   3.8025317626e+01   0.09675329   0.07672779 -57.34 0.0007041809    1.690    0.408
       142  -8.7479    238.4588    174.4209   8.6652756483e+01   2.3891644710e+00    0.2312052    0.1882424  38.99  0.001004434    1.271    0.213
       143  -8.3087    239.6066    164.8615   8.4631269748e+01   3.3475107223e+00    0.2029974    0.1463302  29.32 0.0004324503    1.233    0.189
       144  -7.4289    157.5092    153.4555   9.7403142843e+01   2.0749570158e+01    0.1363059    0.1252923  43.75 0.0002230761    1.033    0.032
       145  -8.2434    205.2209    152.5583   8.8020403137e+01   1.1462341391e+01    0.1963989    0.1154565  35.77 0.0009477445    1.653    0.395
       146  -7.6508    133.4175    147.7842   1.0142521547e+02   2.6408466897e+01    0.1866379    0.1289612 -39.60 0.0009484882    1.697    0.411
       147  -9.0588     67.3591    144.6054   1.1591899456e+02   3.7708147159e+01    0.4036396    0.2256545  66.78  0.002062617    1.937    0.484
       148  -7.8775    132.5860    125.1902   9.7085340883e+01   3.1081157786e+01    0.1977751    0.1347006 -38.20 0.0009436439    1.649    0.394
       149  -7.5054    153.0074    124.4799   9.2323014258e+01   2.7058775984e+01    0.2104425    0.1232551  26.56 0.0008101659    2.581    0.613
       150  -7.5867     85.9366    121.7638   1.0778880622e+02   4.0070186108e+01    0.1707724     0.111492  41.06 0.0008792491    1.624    0.384
       151  -7.2146    180.7229    120.6642   8.5622633293e+01   2.1779412623e+01    0.1471481    0.1133377   6.71 0.0002804099    1.609    0.379
       152  -9.1276    244.0572    119.3414   7.4180995475e+01   8.4412539769e+00    0.1860631    0.1667957  30.61 0.0006256835    1.154    0.134
       153  -7.7258    119.2650    118.7918   9.8852271379e+01   3.4985294102e+01     0.216405    0.1115813  34.95 0.0006748956    2.380    0.580
       154  -7.3155     15.6930    117.6650   1.2535006925e+02   4.9096276177e+01    0.1138364   0.07297592 -54.38 0.0004928856    1.672    0.402
