#   1 NUMBER                 Running object number                                     
#   2 MAG_AUTO               Kron-like elliptical aperture magnitude                    [mag]
#   3 X_IMAGE                Object position along x                                    [pixel]
#   4 Y_IMAGE                Object position along y                                    [pixel]
#   5 X_WORLD                Barycenter position along world x axis                     [deg]
#   6 Y_WORLD                Barycenter position along world y axis                     [deg]
#   7 A_WORLD                Profile RMS along major axis (world units)                 [deg]
#   8 B_WORLD                Profile RMS along minor axis (world units)                 [deg]
#   9 THETA_WORLD            Position angle (CCW/world-x)                               [deg]
#  10 FWHM_WORLD             FWHM assuming a gaussian core                              [deg]
#  11 ELONGATION             A_IMAGE/B_IMAGE                                           
#  12 ELLIPTICITY            1 - B_IMAGE/A_IMAGE                                       
         1 -14.4700    161.5437     52.2638   7.7741763017e+01   3.8021765231e+01     1.698217      1.36525  22.28   0.00607614    1.505    0.335
         2 -14.2116    174.2460     37.3828   7.1315267839e+01   3.6897089818e+01    0.9456024    0.8581879  80.86   0.00309067    1.036    0.035
         3 -12.8372    189.8781     14.7263   6.3226681855e+01   3.5692386261e+01    0.4385962    0.3058068  69.48  0.001593649    1.222    0.181
         4 -14.3302    192.3432      5.2277   6.0647868564e+01   3.6068321029e+01     1.133683      0.71142  65.32  0.004283141    1.363    0.266
         5 -10.3718    198.8763    222.4195   1.1001014971e+02  -2.7746728593e+00    0.1963527    0.1853382 -36.43 0.0004480194    1.246    0.198
         6 -18.6967     64.8556    239.5423   1.3955589827e+02   1.6915405402e+01     8.216572     6.334633 -83.19   0.05511901    1.257    0.204
         7 -10.1552    175.0186    193.4753   1.0964792292e+02   7.0258428586e+00    0.2675529    0.2054975 -66.47  0.000670847    1.632    0.387
         8  -9.8390    180.2899    192.6286   1.0833946513e+02   6.1418060921e+00     0.225659    0.1763031  77.64  0.001088387    1.751    0.429
         9 -11.9982    167.0473    188.4426   1.1042700523e+02   9.6460892323e+00    0.4545341    0.4118795  -4.04  0.001672142    1.215    0.177
        10 -12.5799    151.8143    183.3035   1.1287637567e+02   1.3820052939e+01    0.5497774    0.3637583 -80.97  0.002226476    2.402    0.584
        11 -10.7505    175.6750    186.6021   1.0815577048e+02   8.2715463889e+00    0.5118577    0.2655956 -62.41   0.00177706    3.266    0.694
        12 -12.1684     33.8807    184.2246   1.4037507130e+02   3.2736917902e+01    0.2297719    0.1958716 -70.57 0.0005465798    1.235    0.191
        13  99.0000      4.7723    208.7241   1.4820431083e+02   3.0331147756e+01     0.159981    0.1150707  13.38  0.001038543    2.449    0.592
        14 -11.1933    205.9324    179.9692   1.0037356092e+02   3.4700862866e+00    0.3823982    0.2970469  75.52  0.001727965    1.865    0.464
        15 -10.3617    209.6814    176.6427   9.8916937580e+01   3.3544364115e+00    0.3861112    0.2913604  -3.66  0.001173189    1.579    0.367
        16 -10.3440      3.2865    176.2785   1.4610965678e+02   3.7435666257e+01    0.1063566   0.07455657 -57.97 0.0003925944    1.516    0.340
        17 -12.2926    195.7465    170.0407   1.0038739389e+02   7.4640128262e+00    0.5991486    0.4006335 -44.27  0.002102536    1.524    0.344
        18 -11.2981    193.7269    164.4962   9.9613191360e+01   8.9976445203e+00    0.4217218    0.3448755 -33.76   0.00148038    1.240    0.194
        19  -9.8556    203.0070    171.9980   9.9293964312e+01   5.5843915629e+00    0.2215377    0.1857233 -85.03 0.0005827643    1.596    0.374
        20 -12.0867     11.3384    206.1332   1.4681895501e+02   3.0248775627e+01     0.276491    0.2092882  43.23  0.001684893    1.531    0.347
        21 -10.5537    164.6340    171.3158   1.0750755234e+02   1.3752557149e+01    0.4196217    0.2599805 -82.66  0.001374501    3.627    0.724
        22 -11.9109    231.2456    169.9672   9.3318310889e+01   4.0114116786e-01    0.3091758    0.1836911 -42.08  0.001453155    1.640    0.390
        23 -12.7074    192.8960    192.9866   1.0572315350e+02   3.5790408343e+00     1.101947    0.5559747 -56.90  0.004120924    2.986    0.665
        24 -12.0883    120.9526    164.6389   1.1660775825e+02   2.4195946577e+01    0.6594416     0.279497  52.20  0.001223996    2.738    0.635
        25 -11.6305    113.5218    160.0800   1.1757249005e+02   2.6686939712e+01    0.5031006    0.3049582 -71.60  0.002058385    2.067    0.516
        26  -9.8654     25.6912    165.3790   1.4017700274e+02   3.7910832647e+01    0.2966852    0.1311897  21.42  0.001334512    3.404    0.706
        27  -9.9578    222.5408    162.0343   9.3264507544e+01   3.5393023464e+00    0.3459356    0.1191999 -50.26  0.001017766    4.122    0.757
        28 -10.2166    201.0301    162.3016   9.7602894575e+01   7.8958664648e+00    0.3428809    0.2361887  21.89  0.001270265    1.800    0.444
        29 -10.8544    120.7921    156.7956   1.1506358137e+02   2.6071357667e+01    0.2230981    0.2154594 -11.84 0.0006362421    1.163    0.140
        30 -13.2770    134.1652    146.0988   1.0935722565e+02   2.5869784035e+01     1.548879    0.4157069 -55.12  0.003601983    5.606    0.822
        31 -19.1705     46.0509    101.8437   1.2451625306e+02   5.0636337337e+01      16.8808    0.9376619 -58.25   0.02686677   15.890    0.937
        32 -11.1587    174.3071    148.4173   1.0025237391e+02   1.6582337909e+01    0.4335873    0.3064499 -63.54  0.001588281    1.710    0.415
        33 -12.4877    144.5184    146.2963   1.0681331133e+02   2.3625433413e+01    0.5837457     0.403038 -78.38  0.002369958    2.070    0.517
        34 -11.8286    142.3542    139.4873   1.0577252729e+02   2.5643266970e+01    0.4693111     0.233566 -54.99  0.001699443    2.245    0.555
        35 -11.4595    163.1681    203.6265   1.1413345873e+02   7.3474508684e+00    0.3360514    0.2246522 -47.20 0.0003712018    1.633    0.388
        36 -12.8327    135.6167    125.6987   1.0415002229e+02   3.0228850652e+01     1.607822    0.2868863 -49.86  0.003229978    7.182    0.861
        37 -12.6930    106.5664    131.0382   1.1320159290e+02   3.4886650150e+01    0.5573654    0.4104707  64.99  0.001794627    1.614    0.380
        38 -11.4735    107.0137    125.4524   1.1176944111e+02   3.6108760103e+01    0.3487936    0.2784857 -30.44 0.0006694778    1.388    0.280
        39 -11.9970    118.5952    129.7155   1.0962058214e+02   3.2866734017e+01    0.3881142    0.3000396 -34.32 0.0008615581    1.410    0.291
        40 -11.4418    160.2969    127.7343   9.8546194717e+01   2.4238983598e+01     0.475162    0.3126239 -53.10  0.001422344    1.606    0.377
        41 -11.8925    122.0622    123.7853   1.0724755511e+02   3.3527254482e+01    0.4903262     0.273545 -28.00  0.001715208    2.789    0.642
        42 -12.0820     92.4184    123.6566   1.1546165601e+02   3.9149923696e+01    0.3264969    0.2556406 -60.70  0.001126236    1.261    0.207
        43 -11.0145    113.4387    118.7045   1.0833642856e+02   3.6420798692e+01    0.3103465    0.2649195  45.47 0.0005879822    1.194    0.163
        44 -11.0449    168.3117    113.1506   9.2994451632e+01   2.5449828610e+01    0.4168822     0.304753 -78.50  0.001154088    1.843    0.457
        45  -9.8415    168.2915    134.6502   9.8373070188e+01   2.0906945186e+01    0.2476479    0.1890425  89.76 0.0007739977    1.747    0.427
        46 -11.3023    134.6327    105.1002   9.9053874421e+01   3.4946912334e+01    0.4707748    0.1530726 -44.97  0.001442212    3.105    0.678
        47 -10.8695    205.2530    110.4626   8.4681463567e+01   1.7207940722e+01     0.362801    0.2690102  39.66 0.0009193161    1.499    0.333
        48 -10.5883     94.2247    111.1928   1.1193275784e+02   4.1707028858e+01    0.1980248    0.1749457  83.86 0.0004740429    1.313    0.238
        49  -9.7898      9.7252    214.2807   1.4767970451e+02   2.8702878490e+01    0.1142702   0.06343532  71.33 0.0003657244    1.500    0.333
        50 -10.9747    118.4790    106.4859   1.0376905710e+02   3.8117850667e+01    0.2370398    0.1444858 -36.10 6.274052e-05    1.763    0.433
        51  -9.6933    147.2674    108.3908   9.6729528189e+01   3.1387440401e+01    0.2142405    0.1493111  58.46 0.0003420582    1.534    0.348
        52 -10.3709     70.0287     99.4359   1.1634264561e+02   4.8175732461e+01    0.1938452    0.1370732  29.39 0.0003545046    1.539    0.350
        53 -11.0275    156.7747    202.1206   1.1526579791e+02   8.8938375581e+00    0.2957767    0.2248543 -80.92 0.0009121525    1.735    0.423
        54 -10.0011    148.4168     79.7669   8.8506521857e+01   3.6736511520e+01    0.2024982    0.1497859 -24.76 0.0004156898    1.547    0.354
        55 -11.1681    112.4862     76.1437   9.6751552291e+01   4.5473855098e+01    0.6853679    0.2916381  55.89  0.002293897    3.285    0.696
        56 -12.1689    154.1348    195.9637   1.1473740650e+02   1.0673206233e+01    0.4152117    0.2982269  78.97   0.00168933    1.934    0.483
        57 -10.7850    168.7571    234.2924   1.1813264150e+02   6.2259231391e-01    0.2265621    0.1935735  74.30 0.0006437294    1.421    0.296
        58 -13.3468    178.6186     30.0079   6.8656355657e+01   3.6727796002e+01    0.5159695    0.4351815  35.46   0.00160657    1.390    0.281
        59 -10.4295     13.5005     59.8148   1.2584736496e+02   6.2157955145e+01    0.1755808     0.146085 -14.25  0.000361824    1.215    0.177
        60 -11.5470    188.4392     30.5712   6.7367879969e+01   3.4229497174e+01    0.2904701    0.2304126  46.72  0.001195561    1.385    0.278
        61 -11.9973    203.9449    198.6858   1.0455590058e+02   4.0172804030e-01      0.31167    0.2681062  31.02  0.001770215    1.093    0.085
        62 -11.6944    207.8330    196.4598   1.0332940991e+02   6.8171653059e-02    0.3153826    0.2222304 -21.03  0.001048622    1.573    0.364
