#   1 NUMBER                 Running object number                                     
#   2 MAG_AUTO               Kron-like elliptical aperture magnitude                    [mag]
#   3 X_IMAGE                Object position along x                                    [pixel]
#   4 Y_IMAGE                Object position along y                                    [pixel]
#   5 X_WORLD                Barycenter position along world x axis                     [deg]
#   6 Y_WORLD                Barycenter position along world y axis                     [deg]
#   7 A_WORLD                Profile RMS along major axis (world units)                 [deg]
#   8 B_WORLD                Profile RMS along minor axis (world units)                 [deg]
#   9 THETA_WORLD            Position angle (CCW/world-x)                               [deg]
#  10 FWHM_WORLD             FWHM assuming a gaussian core                              [deg]
#  11 ELONGATION             A_IMAGE/B_IMAGE                                           
#  12 ELLIPTICITY            1 - B_IMAGE/A_IMAGE                                       
         1 -13.9923      2.6213    134.1281   1.4647451616e+02   4.6429418619e+01     4.404248    0.2630487 -73.48   0.01006019   10.806    0.907
         2 -13.7259    195.8410     23.9632   7.1111176799e+01   3.2777566152e+01     1.826408     1.474451  20.60  0.007768431    1.439    0.305
         3 -13.4357    210.3822      6.0557   6.4432026759e+01   3.0958187900e+01    0.9687694    0.7889338  66.35  0.005119736    1.191    0.160
         4 -12.0231      3.1619     20.4128   1.2519947433e+02   7.0066777786e+01    0.4272896    0.1971338 -48.22  0.002559354    1.564    0.361
         5 -11.3975      3.3276      5.0238   1.1881177973e+02   7.2652857904e+01     0.517606    0.1632408 -40.72  0.002653145    2.274    0.560
         6 -13.0935     49.5801    218.4297   1.4421476766e+02   2.5013297347e+01     1.391259    0.7451772  55.23  0.008076253    1.511    0.338
         7 -11.2560    191.4079    247.6932   1.2287149658e+02  -3.7021841395e-01    0.3217657     0.230602 -68.75  0.001982697    2.659    0.624
         8 -12.2184    173.0804    248.5599   1.2604720323e+02   2.3954837997e+00     0.467992    0.2567104  49.14  0.002818422    1.575    0.365
         9 -14.3239    129.8164    247.2989   1.3317505905e+02   9.2625679675e+00     2.627178    0.4974148  43.15  0.009712949    4.028    0.752
        10 -12.5874    140.9836    248.5201   1.3143316920e+02   7.3921438305e+00    0.4943605    0.3470327  57.00  0.003436987    1.274    0.215
        11  -9.9195     22.8288    239.3000   1.4982720681e+02   2.4402390299e+01    0.1684143     0.123405  67.06 0.0004953787    1.128    0.113
        12 -10.4390     29.8620    249.0254   1.4927135405e+02   2.2094827259e+01     0.225579     0.146859  77.20  0.001847897    1.170    0.145
        13 -12.2951     88.8467    226.8714   1.3813131485e+02   1.8454601794e+01      1.15083    0.1555434  49.15  0.003334641    6.795    0.853
        14 -13.6037    119.4407    232.0731   1.3330648801e+02   1.3113007271e+01      1.65105    0.2707697  41.43   0.00523282    5.283    0.811
        15 -14.0454     40.0688    230.3766   1.4662599464e+02   2.4031272477e+01    0.7312219    0.4654766  57.84  0.002668783    1.218    0.179
        16 -12.5898    103.0795    230.1929   1.3597215955e+02   1.5863511524e+01    0.9216391    0.1448825  43.38  0.003156602    4.659    0.785
        17 -11.2697     57.6063    211.9650   1.4229749735e+02   2.5208454631e+01    0.4375326    0.1746362  59.83  0.002067784    2.488    0.598
        18  -9.4516     18.3375    212.3389   1.4907674867e+02   2.9497847573e+01    0.1539665   0.08487098 -79.04 0.0007262868    1.570    0.363
        19  -9.5093     21.5113    211.4878   1.4849844529e+02   2.9335315559e+01    0.1804806    0.1379202  39.90 0.0007810918    1.623    0.384
        20 -12.1239     10.3433    206.7115   1.5008551856e+02   3.1285143978e+01    0.4855962    0.3317448  33.04  0.003129966    1.928    0.481
        21 -11.0739     49.0895    206.5509   1.4336863355e+02   2.7234095285e+01    0.3791881    0.1649772  68.39  0.001920594    2.548    0.607
        22 -13.0851     35.3575    237.0020   1.4777803647e+02   2.3443476461e+01    0.2791721     0.219664 -87.55 0.0007663713    1.330    0.248
        23 -11.7816     61.5177    201.9914   1.4070045889e+02   2.6571645336e+01     0.221297    0.1930459  87.62 0.0005488137    1.205    0.170
        24 -12.0830     67.8466    193.2397   1.3863346378e+02   2.7435236709e+01    0.2323491    0.1982447 -82.60 0.0004050841    1.190    0.160
        25  -9.2814    192.4828    193.9863   1.1435710134e+02   6.5986616255e+00     0.170455    0.1149877 -65.71 0.0008104283    2.629    0.620
        26 -13.2537     64.7796    178.1612   1.3759735892e+02   3.0843249560e+01    0.4469053    0.2541344 -47.30  0.001973726    2.330    0.571
        27 -13.7763      3.3787    111.4413   1.4398629016e+02   5.1272140877e+01     1.789042    0.7760591  77.86  0.008184131    3.207    0.688
        28 -10.9832      2.3288    153.4807   1.4813836601e+02   4.2380464522e+01    0.5492295    0.2107238 -76.75  0.002334935    2.010    0.503
        29 -14.1504      8.6814    153.3707   1.4681249471e+02   4.1908745283e+01     2.524518     0.859642 -80.96    0.0120644    2.592    0.614
        30 -10.5016     97.7271    154.0154   1.2700891417e+02   3.1150398200e+01    0.2932043    0.2784305 -60.91 0.0008284679    1.161    0.139
        31 -10.1312    104.5402    154.4579   1.2552581951e+02   2.9941986476e+01    0.2480302    0.2144431  76.36 0.0006303867    1.118    0.106
        32 -10.7347    101.1818    151.4310   1.2576925321e+02   3.1141090190e+01    0.3586876    0.2590975 -79.76  0.001301864    1.514    0.340
        33 -11.9741     86.4724    153.2515   1.2947016244e+02   3.3064242760e+01    0.2646925    0.2369784 -47.49 0.0007917237    1.286    0.222
        34  -9.3761    134.0000    144.9884   1.1698243473e+02   2.6612426559e+01    0.2928086    0.1158442 -48.25  0.001088415    2.574    0.612
        35 -11.8397    183.9856    236.8148   1.2263941874e+02   2.1322252414e+00      0.35952    0.2744798 -81.79  0.002230869    2.303    0.566
        36 -12.2765     67.2222    143.5061   1.3245313144e+02   3.7915658843e+01    0.6324939    0.3897515  65.99  0.003290868    1.852    0.460
        37 -10.5373     96.7067    135.7638   1.2395381236e+02   3.5271020803e+01    0.2326006    0.2226717 -43.39 0.0004130937    1.162    0.140
        38  -8.9534     81.5081    133.0411   1.2720216600e+02   3.8240659392e+01     0.189412    0.1226204 -62.00 0.0003632665    1.434    0.302
        39 -11.9007     85.3256    170.3764   1.3228393261e+02   2.9609797896e+01     0.566369     0.512094 -56.48  0.002151312    1.285    0.222
        40 -10.0744    109.3328    138.5126   1.2143153520e+02   3.2533028288e+01    0.4417751    0.2949805 -21.98  0.001521706    2.509    0.601
        41  -9.2990    116.7062    129.1604   1.1769148585e+02   3.3216407530e+01    0.4919034    0.2928953 -15.10  0.001487977    5.085    0.803
        42  -9.1450    106.8375    124.6392   1.1914628312e+02   3.5982463515e+01    0.1853079    0.1680524  54.09 0.0004479604    1.133    0.117
        43  -9.0739     46.6693    124.3197   1.3456475691e+02   4.4685026667e+01    0.1293991   0.08618116  76.58 0.0007048388    1.691    0.409
        44 -11.0678     15.3642     92.6432   1.3812818959e+02   5.4583169704e+01     0.243274    0.1729975 -54.85  0.001622243    1.211    0.174
        45 -10.1829    157.1229     75.8211   9.3784275170e+01   3.5181914746e+01     0.233559    0.2128446 -72.87 0.0005899944    1.231    0.188
        46 -10.8405     78.1229    179.7015   1.3503102617e+02   2.8731723425e+01    0.2102608    0.1841108  83.99 0.0003328554    1.069    0.064
        47 -10.6845     13.6236     54.7089   1.3110231463e+02   6.2805681933e+01    0.2329184    0.1513549  64.29  0.001329553    2.516    0.603
        48  -9.4699     27.0376    241.9241   1.4932657162e+02   2.3533737548e+01    0.1485124   0.09982383  68.77 0.0003468392    1.027    0.026
        49 -10.3532     19.8636    247.6059   1.5067089110e+02   2.3367804013e+01    0.3024231    0.1785234  37.82  0.002276316    1.970    0.492
        50  -8.9175    102.2904    178.8480   1.2988223674e+02   2.5290144893e+01    0.2058226    0.1173223  74.50  0.000600215    2.535    0.606
        51 -10.8897    238.1017    247.6667   1.1525342929e+02  -7.4429091903e+00     0.166928    0.1447271  -2.64  0.001329159    1.360    0.265
