#   1 NUMBER                 Running object number                                     
#   2 MAG_AUTO               Kron-like elliptical aperture magnitude                    [mag]
#   3 X_IMAGE                Object position along x                                    [pixel]
#   4 Y_IMAGE                Object position along y                                    [pixel]
#   5 X_WORLD                Barycenter position along world x axis                     [deg]
#   6 Y_WORLD                Barycenter position along world y axis                     [deg]
#   7 A_WORLD                Profile RMS along major axis (world units)                 [deg]
#   8 B_WORLD                Profile RMS along minor axis (world units)                 [deg]
#   9 THETA_WORLD            Position angle (CCW/world-x)                               [deg]
#  10 FWHM_WORLD             FWHM assuming a gaussian core                              [deg]
#  11 ELONGATION             A_IMAGE/B_IMAGE                                           
#  12 ELLIPTICITY            1 - B_IMAGE/A_IMAGE                                       
         1 -13.1886    167.0736     42.2107   6.9823181901e+01   3.8243542345e+01     1.385491     1.079233   0.76  0.004165569    1.413    0.293
         2 -13.3955    183.7793      9.1721   5.6398472041e+01   3.7600209631e+01     1.803036     1.181366  64.72  0.006456025    1.427    0.299
         3  -9.9468    175.8511    231.7832   1.1143159698e+02   5.6921247248e+00    0.2200478    0.1675807 -33.95 0.0009376031    1.660    0.397
         4 -18.8271     63.0619    230.8816   1.3229948261e+02   2.1311010489e+01     4.352198      3.23593  46.22   0.02345987    1.146    0.128
         5  -9.6932      7.4477    222.0564   1.4160013354e+02   2.8320777747e+01    0.1363902    0.1136025  50.77 0.0004136584    1.322    0.244
         6 -10.8019    187.7623    240.9257   1.1049234280e+02   2.8463960346e+00    0.2768138     0.189375 -35.95 0.0006415201    1.900    0.474
         7 -11.9738    243.5364    240.1941   1.0088658608e+02  -4.8492225869e+00    0.2058074    0.1508978  21.32 0.0003204679    1.202    0.168
         8  -8.9731    154.2230    240.8487   1.1650861071e+02   7.7184917827e+00    0.1879137    0.1310349 -46.74  0.001298741    1.925    0.480
         9  -8.5825    136.5217    180.4825   1.1190925978e+02   1.9746789295e+01    0.1327281    0.1156569  33.24 1.279442e-05    1.039    0.038
        10  -9.6542    205.0045    179.0290   9.7474017259e+01   8.0367194275e+00    0.2924792     0.186254  16.79 0.0009893997    1.577    0.366
        11  -9.9083    203.7905    175.6054   9.7059438150e+01   8.7341946335e+00    0.2840891    0.2442298  61.08  0.001169999    1.690    0.408
        12 -10.2218    202.4526    170.4998   9.6333532194e+01   9.7100849804e+00    0.3837561    0.3367536 -68.49   0.00179612    1.825    0.452
        13 -10.0108    204.7754    167.7073   9.5334012491e+01   9.7001516608e+00    0.4815325    0.3938334 -64.45  0.002649472    2.055    0.513
        14  -8.8953    198.9364    179.1367   9.8664757272e+01   9.0793711940e+00    0.1879103    0.1706828  34.01 0.0004942046    1.290    0.225
        15 -11.1462    142.0979    175.0065   1.0979405495e+02   1.9781209844e+01     0.539745    0.3977525  61.46   0.00293051    1.614    0.380
        16 -10.4368    126.6583    173.6219   1.1302800028e+02   2.2647211913e+01    0.4986379    0.2430982  46.89  0.001670089    1.939    0.484
        17 -10.8649    134.0568    169.8286   1.1073266330e+02   2.2111665640e+01    0.6038739    0.3432193  52.05  0.002846696    1.873    0.466
        18 -11.6298    194.1619    168.5374   9.7583180357e+01   1.1502755824e+01    0.6240082    0.4258047 -49.65   0.00226272    2.006    0.502
        19 -10.2783    157.1119    200.0979   1.1057698528e+02   1.3058778566e+01     0.256108    0.2375675  80.39  0.001729763    1.395    0.283
        20  -9.2204     34.4500    152.4906   1.3226513035e+02   3.9283609350e+01    0.2328015    0.1534393  76.86 0.0005515342    1.402    0.287
        21 -10.9253     35.1016    157.7761   1.3256822533e+02   3.8089139795e+01    0.5522841    0.3553604  74.09  0.002391874    1.438    0.305
        22  -9.1900     32.3969    163.7500   1.3367782743e+02   3.7081551514e+01    0.2344175    0.2081007  59.84   0.00115793    1.164    0.141
        23 -11.2533     28.8639    159.1467   1.3412958808e+02   3.8369087355e+01    0.6899699    0.3719372  62.84  0.003333981    1.746    0.427
        24 -10.3720     22.8048    156.9398   1.3536020872e+02   3.9357263227e+01    0.2824965    0.2248284  80.90 0.0004218323    1.024    0.023
        25  -9.4623    248.3391    162.1402   8.6381760829e+01   2.8812738797e+00    0.2148936    0.1659492  29.81 0.0003280455    1.289    0.224
        26 -10.6196    163.4546    203.3770   1.0979361695e+02   1.1524823221e+01    0.3515415    0.2600764  79.62 0.0008842696    2.446    0.591
        27  -9.0813    249.1141    157.2724   8.5258090749e+01   3.3572373252e+00    0.2091113    0.1549993 -12.19 0.0003787347    1.172    0.147
        28  -9.8631     16.6882    157.0350   1.3676361759e+02   3.9832163833e+01    0.1688465    0.1619997  83.62 0.0004033089    1.276    0.216
        29 -10.1940     13.3058    155.6772   1.3744384910e+02   4.0377120532e+01     0.233106    0.1316448  60.98 0.0007062413    1.570    0.363
        30  -9.5727    121.9646    166.5105   1.1296746017e+02   2.4786011986e+01    0.4136159    0.1847326  47.46   0.00174932    2.197    0.545
        31 -10.8287    133.8355    145.9746   1.0644608844e+02   2.6771729950e+01     1.098046    0.3273645 -55.39  0.003009541    5.460    0.817
        32  -8.4201    249.0826    152.5012   8.4272031395e+01   3.9615788509e+00    0.1761489    0.1158731  34.87 0.0003660686    1.466    0.318
        33 -10.3093    217.3104    150.7775   8.9455728158e+01   9.8633169417e+00    0.2366682    0.2015858  13.42 0.0003198797    1.048    0.045
        34  -8.8885    170.8294    155.8470   9.9913947245e+01   1.7935180312e+01    0.2115213    0.1738887  13.49 0.0003236441    1.186    0.156
        35  -8.8983    153.1275    202.6884   1.1176583243e+02   1.3303967973e+01    0.1920544    0.1754074 -82.75  0.001293856    1.444    0.307
        36  -8.9611    140.4411    241.9131   1.1913313707e+02   9.5507504424e+00    0.2855482    0.1193333  40.69  0.001553971    1.774    0.436
        37  -9.4873     27.4473    145.3037   1.3334253139e+02   4.1468328037e+01    0.2266883    0.1764285 -64.65 0.0008788636    1.296    0.229
        38  -9.6816    103.3497    145.1030   1.1390712281e+02   3.2216063802e+01    0.2402309    0.1826746  45.29 0.0001800149    1.255    0.203
        39 -10.9315      5.9682    138.1280   1.3806034233e+02   4.4633379558e+01    0.3793497     0.213293 -79.63  0.002358601    1.457    0.313
        40  -9.2825    121.6868    199.3997   1.1778737099e+02   1.8797399000e+01    0.2082951     0.182075  34.38 0.0003822141    1.104    0.094
        41  -8.9608     27.5204    140.6410   1.3291567511e+02   4.2487436507e+01    0.2073262    0.1454092  21.02  0.001305227    1.744    0.427
        42 -10.9250    115.7296    137.3099   1.0927505355e+02   3.1808114580e+01    0.4799525    0.2835287 -40.44  0.002181815    1.896    0.472
        43 -10.9602    105.8035    136.9757   1.1179694899e+02   3.3567587620e+01    0.2858832     0.249602  38.34  0.000513959    1.122    0.109
        44 -10.6310     45.4798    135.5065   1.2772503470e+02   4.1975711353e+01    0.2359611    0.1712422  50.19  0.001238139    1.362    0.266
        45  -8.8975    236.0829    132.9353   8.2183362224e+01   8.8719718989e+00    0.2035765     0.170097   2.91 0.0003110671    1.013    0.013
        46 -10.2613    136.0000    131.4109   1.0287476013e+02   2.9303569563e+01    0.6781558    0.1150699 -46.29  0.001628147    6.103    0.836
        47  -9.9329    135.0000    124.0175   1.0146185495e+02   3.1010259710e+01    0.4134214    0.1588274 -45.95  0.001463107    2.693    0.629
        48 -10.5563     44.0708    130.0695   1.2744687432e+02   4.3353608001e+01    0.2735245    0.2156015  58.51 0.0009464011    1.253    0.202
        49 -11.0110     39.5070    125.7934   1.2818026188e+02   4.4774229034e+01    0.3576018    0.2567346  49.76  0.001214115    1.415    0.294
        50 -11.8106     46.7212    124.0842   1.2593766129e+02   4.4462757514e+01    0.6033239    0.2817887  29.81  0.002908641    2.293    0.564
        51  -9.6688    160.2888    128.6140   9.6356884806e+01   2.4974090487e+01    0.3122157     0.258231 -86.80  0.001538263    1.732    0.423
        52  -8.9651     17.7113    130.0568   1.3450333092e+02   4.5609756485e+01     0.191281    0.1434505 -46.62 0.0006866878    1.541    0.351
        53  -9.1153    100.0999    127.4460   1.1148498603e+02   3.6596418645e+01    0.2360867     0.191183 -42.24 0.0005029556    1.293    0.227
        54 -10.5065     25.6962    125.6727   1.3196642284e+02   4.5994560179e+01    0.3994582    0.2157285  83.21   0.00210697    1.902    0.474
        55  -9.1742    153.7934    193.6989   1.1028475798e+02   1.4616996687e+01    0.2836945    0.1593189 -30.00  0.001375539    2.449    0.592
        56  -9.8813    108.9520    124.6398   1.0848947776e+02   3.5723366865e+01    0.2680689    0.2440507  27.77 0.0005732938    1.116    0.104
        57 -10.0224      4.9852    120.8712   1.3712185045e+02   4.8490431953e+01    0.2882851    0.1680996  -0.47  0.001674129    2.561    0.610
        58  -9.1677    113.9907    118.4334   1.0575166727e+02   3.6182631781e+01    0.2454546    0.2047713 -73.63 0.0003797182    1.379    0.275
        59 -10.1843     29.5253    119.0077   1.3018236971e+02   4.7212867235e+01    0.2074511    0.1799974  32.47 0.0005547826    1.330    0.248
        60 -10.3995     74.3867    118.1707   1.1700046273e+02   4.2559023727e+01    0.3921723    0.1882243  35.30  0.001493794    2.128    0.530
        61 -10.0872    120.2785    128.8937   1.0636367162e+02   3.2785878960e+01    0.2837684    0.2424288 -28.71 0.0006404496    1.265    0.209
        62 -10.1097      5.5559    112.1744   1.3628342059e+02   5.0412928818e+01    0.2304329    0.1928128  38.57  0.001459264    1.389    0.280
        63 -10.6505     95.9353    111.9482   1.0941338075e+02   4.0752444698e+01    0.3809504    0.3119513 -34.57  0.001096688    1.294    0.227
        64 -11.4549     70.5189    112.5166   1.1709472728e+02   4.4388193449e+01    0.6830161    0.3509391  55.90  0.002853691    2.583    0.613
        65 -11.5501     61.9243    108.9946   1.1905743143e+02   4.6296805156e+01    0.4914334    0.4133703  -4.85  0.001788774    1.447    0.309
        66 -11.3799     66.0136    105.2724   1.1708294951e+02   4.6662622658e+01    0.6400888     0.470668 -57.26  0.002788788    1.252    0.201
        67  -8.6342    167.4845    113.1408   9.0905860265e+01   2.6327013319e+01    0.2718931    0.1879442  70.11 0.0009900811    2.204    0.546
        68  -9.7304    170.2041    183.9161   1.0529311479e+02   1.3388256043e+01    0.3441234    0.2397998  47.75  0.001240415    1.459    0.315
        69 -11.1137    172.5120    189.4780   1.0576408108e+02   1.2122750992e+01    0.4356772    0.3240638  -8.36  0.002521376    1.549    0.355
        70  -9.8660    176.0000    187.0313   1.0464215177e+02   1.1899190735e+01    0.2839173    0.2674112  75.57  0.001077491    1.444    0.307
        71  -9.1229    113.1954     95.3214   1.0024551401e+02   4.1343554491e+01    0.2562693    0.2007409 -32.14 0.0006422565    1.308    0.235
        72  -7.5945    139.3002     87.2694   9.0700280274e+01   3.7532896110e+01    0.1546262    0.1188448  10.64 0.0001483893    1.525    0.344
        73  -8.5735    176.8478     86.5279   8.1605073283e+01   2.8913483777e+01    0.2175058    0.1495962  47.76 0.0005116254    1.440    0.306
        74  -9.6905    232.5180     77.3055   6.9237513102e+01   1.7375722203e+01    0.2483599    0.2229936   8.39 0.0005655867    1.096    0.088
        75  -9.4427    150.4216    246.3461   1.1781503903e+02   7.5585317199e+00    0.1900509    0.1478481  41.67 0.0005853837    1.136    0.120
        76  -8.7933    118.9571     69.9939   9.0969276442e+01   4.5370180597e+01     0.225885     0.209691  -4.24  0.001198109    1.030    0.029
        77 -12.6429    155.4476     57.1807   7.7230070650e+01   3.9023777948e+01     1.169853     1.139495 -17.07  0.003994199    1.072    0.067
        78 -10.4839    133.5273    248.0067   1.2101216061e+02   9.7075739241e+00    0.1900069    0.1612793  41.50 0.0004977802    1.156    0.135
        79 -11.3978    171.4093     34.5234   6.6475840738e+01   3.8110759132e+01    0.4320711    0.3684328   5.89   0.00094613    1.236    0.191
        80  -9.6058     99.9877     61.3058   9.3925249668e+01   5.0975175084e+01    0.5447599    0.2618642  54.98  0.001932814    3.011    0.668
        81 -10.3286    131.0860     47.5373   7.9755914196e+01   4.6573464059e+01    0.2641264    0.2316325 -16.18 0.0001316517    1.127    0.112
        82  -9.2646    226.4868     28.9412   5.7224300511e+01   2.4803608491e+01    0.3455492    0.1291876 -24.37  0.001327843    2.595    0.615
