#   1 NUMBER                 Running object number                                     
#   2 MAG_AUTO               Kron-like elliptical aperture magnitude                    [mag]
#   3 X_IMAGE                Object position along x                                    [pixel]
#   4 Y_IMAGE                Object position along y                                    [pixel]
#   5 X_WORLD                Barycenter position along world x axis                     [deg]
#   6 Y_WORLD                Barycenter position along world y axis                     [deg]
#   7 A_WORLD                Profile RMS along major axis (world units)                 [deg]
#   8 B_WORLD                Profile RMS along minor axis (world units)                 [deg]
#   9 THETA_WORLD            Position angle (CCW/world-x)                               [deg]
#  10 FWHM_WORLD             FWHM assuming a gaussian core                              [deg]
#  11 ELONGATION             A_IMAGE/B_IMAGE                                           
#  12 ELLIPTICITY            1 - B_IMAGE/A_IMAGE                                       
         1 -12.7626    239.5535     16.9261   2.0262053632e+01   2.6770386862e+01    0.7023345    0.5252022 -59.19  0.004366876    1.110    0.099
         2 -11.5178      2.5599     10.5871   7.6155593554e+01   7.4367709905e+01    0.4734726    0.1875459 -39.53  0.002414617    2.352    0.575
         3  -8.3599    158.2856      8.6768   2.4999801994e+01   4.3601634065e+01    0.1218389   0.07500739 -68.54 0.0003437026    1.600    0.375
         4  -9.1687     61.7813    244.1737   9.9046455291e+01   1.3869785143e+01    0.4275666   0.08540538 -63.88  0.001408025    4.807    0.792
         5 -10.6817    140.2929    249.9353   8.1066463201e+01   3.2533790684e+00    0.2812591    0.1952222  34.78  0.001612297    1.448    0.310
         6 -10.7680    125.0000    246.0017   8.4060361867e+01   5.8614467643e+00     0.391847    0.1419162 -50.00  0.001627188    2.928    0.658
         7 -10.5159     74.3214    244.3325   9.6027431837e+01   1.2400126526e+01    0.3297833    0.3021155  35.50  0.001502774    1.069    0.065
         8 -11.0963     71.2570    241.1454   9.6455248323e+01   1.3424737090e+01    0.8865606     0.456548  82.49  0.003471812    3.656    0.726
         9  -9.4769     41.6125    249.7532   1.0427123153e+02   1.4866816023e+01    0.2301033    0.1617783   7.40  0.001323939    1.623    0.384
        10 -13.0598     51.4429    181.2377   9.5070470227e+01   2.9956136205e+01     1.464831    0.9992561  76.15  0.006850744    1.765    0.433
        11 -16.0977     35.8245    188.9016   1.0054868251e+02   2.9632760106e+01      11.7949     5.329536  46.79   0.04831226    2.270    0.560
        12  -9.4977    167.4559    225.0517   7.1274225507e+01   4.3674568857e+00    0.1954118    0.1213848 -40.86  0.001029197    1.592    0.372
        13 -10.9740    117.8259    196.3699   7.8459720612e+01   1.7215811729e+01    0.2356763    0.1836935 -58.30 0.0005204709    1.438    0.305
        14 -16.0900      5.8968    151.1812   1.0597196902e+02   4.1923082878e+01     17.15934     2.958951 -79.70    0.0354818    8.913    0.888
        15 -10.0260    142.6377    217.8055   7.5769314683e+01   9.0566997496e+00    0.2230927    0.1773171 -53.01 0.0008229461    1.480    0.324
        16 -10.2790    163.4810    191.9711   6.6468684559e+01   1.1295370722e+01    0.3105496    0.1792182 -57.11  0.001362217    2.238    0.553
        17  -9.3004     90.1620    238.3539   9.1502892716e+01   1.1738829144e+01    0.2203011    0.1691978 -45.14 0.0007025733    1.438    0.305
        18  -9.1729    227.4970    189.9633   5.3555860088e+01   2.9807291615e+00    0.3033391    0.1024142 -50.53  0.001040934    4.558    0.781
        19  -9.2588     72.7256    186.7404   8.9513723453e+01   2.5941648097e+01    0.1962463     0.162888  59.20  0.000403618    1.309    0.236
        20  -9.0074     77.3461    184.3234   8.7805610304e+01   2.5937380337e+01    0.2269587    0.1918427  23.94  0.001089428    1.143    0.125
        21  -9.4698     75.3644    181.6971   8.7991074318e+01   2.6868417846e+01    0.3111279    0.2069041  82.79  0.001098426    2.125    0.529
        22 -11.0099     98.9898    180.9452   8.0996212604e+01   2.3684639453e+01    0.3270547    0.3006557  15.23 0.0006622752    1.036    0.035
        23 -10.4463    180.6974    177.9713   6.0099473100e+01   1.1491834450e+01    0.3012824    0.2340088 -53.63  0.001021034    1.487    0.328
        24 -11.4641    148.6531    228.6721   7.6068693210e+01   6.1256684682e+00    0.5199431    0.2225941 -46.21  0.002266256    2.372    0.578
        25  -9.2173    199.8368    173.8792   5.5530023401e+01   9.4355167411e+00    0.1771344    0.1503199 -51.26 0.0005963565    1.366    0.268
        26 -10.6864     68.9773    172.3688   8.8481129991e+01   3.0112802650e+01    0.4388023    0.2569654  38.09  0.001811211    1.675    0.403
        27 -10.8675     45.8213    127.8194   8.8686977448e+01   4.4751037711e+01    0.3596996    0.2836802 -19.25 0.0009561879    1.321    0.243
        28 -13.0750     57.8399    131.7493   8.5057028557e+01   4.2247373409e+01     1.825714      1.53574 -63.69  0.009356738    1.224    0.183
        29 -13.9537     68.0013    147.5007   8.4560176999e+01   3.6750472865e+01     1.890187     1.151003 -75.22  0.002411288    2.063    0.515
        30 -11.9505     78.5754    154.6614   8.2443522185e+01   3.3374764095e+01    0.7039147    0.6378425 -21.45  0.001092108    1.104    0.094
        31 -13.9512     82.6674    148.7558   7.9999753651e+01   3.4281331531e+01     2.896229      1.74313  81.64  0.006151772    3.513    0.715
        32 -11.1895     66.4872    165.9513   8.8240108897e+01   3.2112034774e+01    0.4671425    0.2905481 -29.42  0.001963674    1.942    0.485
        33 -11.5327     71.0296    161.6763   8.6097483879e+01   3.2621347583e+01    0.4335342    0.3697039 -39.10 0.0008028544    1.175    0.149
        34 -10.8539    155.0535    230.3185   7.4864258778e+01   4.9870972879e+00     0.270015    0.2291292  -2.97  0.001074192    1.044    0.042
        35  -9.4600    247.3120    169.6835   4.6917186739e+01   3.8913105722e+00     0.107963   0.08435518 -56.70 0.0005213151    1.641    0.390
        36 -11.2747     31.8873    166.2277   9.9243355627e+01   3.5928005312e+01    0.6909164    0.3779384 -44.42  0.003030057    1.906    0.475
        37 -10.0849    230.2053    167.1878   4.9051098211e+01   6.4299129429e+00    0.2853212    0.1374667 -57.83   0.00107674    4.202    0.762
        38 -10.4780    110.6005    167.2966   7.5207426089e+01   2.5190837205e+01    0.3039018    0.2739282 -77.32 0.0006645456    1.300    0.231
        39  -8.8092     53.7770    166.6191   9.2359271203e+01   3.3516968505e+01    0.2133302    0.1269434  37.17 0.0007586144    1.658    0.397
        40  -9.8078     56.6193    163.6327   9.1009638601e+01   3.3967403027e+01    0.4275678    0.2058328  50.83  0.001562301    2.585    0.613
        41  -9.6869     76.6443    231.0784   9.4055563953e+01   1.4949043876e+01    0.2593705    0.1860797  13.71  0.001040434    1.388    0.280
        42 -10.0702     70.5432    227.3765   9.5201948476e+01   1.6500807713e+01    0.5081411    0.3366285 -18.07  0.002477788    1.970    0.493
        43 -10.3559     29.4199    155.9309   9.8791580819e+01   3.8898479958e+01    0.6696082    0.2362746 -74.94  0.002257006    3.088    0.676
        44 -10.5101    134.4783    148.4938   6.4823277829e+01   2.5480619437e+01    0.4709978     0.261889 -58.25  0.001859211    2.166    0.538
        45 -10.4834    133.1089    141.6212   6.3665137953e+01   2.7280490722e+01    0.8160444     0.271781 -56.61  0.002106315    4.976    0.799
        46 -10.3735     23.3650    148.7404   9.9919583943e+01   4.1340986952e+01    0.4647414    0.2533245  15.35  0.001447799    1.977    0.494
        47  -9.4344     35.4609    144.7515   9.5233983636e+01   4.1333188361e+01    0.3072292     0.187195 -33.00  0.001102627    1.807    0.446
        48  -9.8573     32.2495    143.7342   9.6203106068e+01   4.1911056393e+01    0.3767122    0.2889302 -59.80  0.001945836    1.221    0.181
        49  -9.7893     29.0437    147.0199   9.7765900781e+01   4.1320182738e+01    0.4543492    0.2609248  52.01  0.001746082    2.018    0.504
        50 -10.2149     24.5024    144.5197   9.8997346611e+01   4.2378708128e+01    0.4046727    0.2175562  28.75   0.00122274    1.885    0.469
        51 -10.4106     54.6844    146.9868   8.8963563739e+01   3.8623546101e+01    0.4962246    0.3350509  11.21  0.002254792    1.619    0.382
        52 -10.3168    192.6469    193.9753   6.0642998381e+01   6.7505896333e+00    0.6369454     0.304815 -60.67  0.001842069    6.595    0.848
        53 -10.5339    100.8074    136.2029   7.1620312673e+01   3.4433055351e+01    0.4335403    0.2982387 -15.22  0.001813531    1.903    0.475
        54 -10.2468    105.3754    130.7331   6.8972973179e+01   3.4930892379e+01    0.4958606    0.3403926 -39.93  0.002221562    1.479    0.324
        55 -11.5444     88.7148    134.4942   7.5057528076e+01   3.6923757431e+01    0.3048219    0.2721547 -31.15 0.0002948172    1.107    0.097
        56 -15.5344      8.3749    207.5156   1.0951109188e+02   2.7415818150e+01     1.432612     1.053563 -12.41  0.004835994    1.717    0.418
        57  -9.5558    136.2013    130.6168   6.0352991155e+01   2.9135216955e+01    0.2919558    0.1188452 -49.43  0.001017213    2.515    0.602
        58  -9.4827    110.8065    127.6470   6.6623984177e+01   3.4653783819e+01    0.2921992    0.2252485   2.96   0.00102453    1.545    0.353
        59 -10.1798     97.9354    122.9454   6.9422957930e+01   3.8131419107e+01    0.3190965    0.2441933  -1.13 0.0008981012    1.555    0.357
        60  -9.1685    107.3074    117.0202   6.5069611787e+01   3.7759801725e+01    0.2117917    0.1907913 -40.71 0.0002840456    1.118    0.105
        61 -10.5222    111.9833    119.4755   6.4293507526e+01   3.6304971713e+01    0.5677643    0.3606388  82.14  0.001815307    3.920    0.745
        62  -9.5787     43.4616    122.2859   8.8521930451e+01   4.6467625948e+01     0.281876     0.130521 -56.41 0.0006636919    1.970    0.492
        63 -15.7741     12.0957    240.3809   1.1046524341e+02   1.9640760958e+01     1.002455    0.5440714 -55.92  0.004771878    2.122    0.529
        64  -9.8320    120.5044    119.4968   6.1866119529e+01   3.4640873424e+01    0.2652061    0.1412652 -36.89  0.000771002    2.071    0.517
        65 -10.3299     24.5528    119.3224   9.5292320364e+01   4.9078662446e+01    0.3250855    0.2564943  32.89  0.001375209    1.364    0.267
        66  -9.1233     72.0989    118.8269   7.7144468061e+01   4.3507510958e+01    0.2206423    0.2081719  72.41 0.0004565768    1.214    0.177
        67 -10.7083     32.2114    118.3499   9.2131130354e+01   4.8657460372e+01    0.2691073    0.2476946  23.83 0.0003504935    1.153    0.133
        68  -8.4170    183.4825    116.4777   4.6836529137e+01   2.2865507509e+01    0.1362367    0.1250894 -41.66  0.000199291    1.018    0.018
        69  -9.2479    106.3531    112.6769   6.4256857707e+01   3.8923106799e+01    0.3276191    0.2219625  80.43  0.001225667    2.781    0.640
        70  -9.7479     39.2483    112.9542   8.8316329467e+01   4.9345416767e+01    0.2050605    0.1822821 -42.44 0.0003567219    1.056    0.053
        71  -9.6808    205.5957    110.2365   4.1826237448e+01   1.9945518926e+01    0.2089439    0.2069371 -62.07  0.000561971    1.142    0.124
        72 -11.0632     53.3375    110.5072   8.2224647844e+01   4.8283026063e+01    0.3589042    0.2780466  24.92 0.0009392769    1.288    0.223
        73 -10.5730     33.3246    109.4751   9.0003498324e+01   5.0845277432e+01    0.3231509    0.2393346  86.52 0.0005385384    1.738    0.425
        74 -10.3945    115.6623    108.2584   6.0382447997e+01   3.8053335159e+01    0.2779267    0.2266536  35.57   0.00138744    1.212    0.175
        75 -10.6413     24.1111    105.1861   9.2977394289e+01   5.2773700219e+01     0.289724    0.1877448  -8.10 0.0009173081    1.667    0.400
        76 -10.0065    105.1405    102.6339   6.1988565112e+01   4.1366423868e+01    0.3263424    0.2497243 -87.57 0.0009457232    1.927    0.481
        77 -10.0399     38.2864    101.5642   8.6280658364e+01   5.2327450979e+01    0.3211814    0.2041957  48.45  0.001446897    1.956    0.489
        78 -10.7818     21.1396     98.4267   9.2943526469e+01   5.4721050861e+01    0.3055741    0.2738847  47.00  0.001097998    1.305    0.233
        79  -9.2616     32.8608     96.8305   8.7526534467e+01   5.4067132002e+01    0.1885908    0.1702498  52.90 0.0004773197    1.316    0.240
        80  -8.5427     73.6489     90.3241   6.9173650355e+01   4.9945403302e+01    0.1514224    0.1193678  68.48  0.000704828    1.754    0.430
        81 -17.0122      6.0214    234.6264   1.1155673052e+02   2.1395909473e+01     2.171609     1.475294  -4.05   0.01081095    1.968    0.492
        82  -9.5197     59.9789     79.4871   7.1329080522e+01   5.4555394676e+01    0.2874307    0.1926064  82.04  0.001048133    3.610    0.723
        83  -8.6167    184.5220     77.4604   3.7921722040e+01   2.9313625295e+01    0.1273215    0.1181414 -66.15 5.011682e-05    1.053    0.051
        84 -10.0016     84.3732     71.8979   5.9714720780e+01   5.1706992557e+01    0.2482806    0.1903188  48.99 0.0005824834    1.330    0.248
        85 -10.7576     30.4517     67.9334   8.1179383429e+01   6.1015950962e+01    0.4000821    0.2221605  29.76  0.001049116    1.785    0.440
        86  -9.7504     26.4553     66.4258   8.2727882085e+01   6.1762474995e+01      0.23613    0.1955835  14.72 -1.639815e-06    1.193    0.162
        87  -8.7423     82.6990     61.3257   5.6830007556e+01   5.3940690007e+01    0.1363135    0.1144577  84.41 0.0005205576    1.637    0.389
        88 -11.0453     13.4978     60.0128   8.7657305797e+01   6.4301609681e+01    0.2736903    0.2349157 -54.80 0.0006576339    1.298    0.230
        89 -12.8080    203.0726     48.8829   2.9305141264e+01   2.9689766441e+01    0.7994243    0.6904017 -77.55  0.003386005    1.068    0.063
        90 -12.9807    212.5038     40.8963   2.6739129979e+01   2.8887505861e+01    0.5775194     0.510559  85.66   0.00121157    1.226    0.184
        91 -11.6002    190.9032     57.2405   3.2509334596e+01   3.0991528927e+01    0.3454621    0.3151631  75.10 0.0008177074    1.187    0.157
        92 -11.0149    102.4127    243.1020   8.9072670506e+01   9.2479887312e+00    0.3964277    0.2879328 -21.67  0.002195062    1.543    0.352
        93  -8.9636     93.8468    244.3979   9.1297783366e+01   1.0045622589e+01    0.1998017    0.1537288 -49.07 0.0008008202    1.461    0.315
        94 -10.1424     32.1082     34.5008   6.8431315865e+01   6.7177332984e+01    0.1907276    0.1792499  15.28 0.0006719904    1.333    0.250
        95 -11.0985      2.2514     23.4020   8.2185289665e+01   7.2298791572e+01    0.3091544    0.1687897 -37.16  0.001300884    1.596    0.373
        96 -11.4170    119.2583    242.2006   8.4914928513e+01   7.3094117417e+00     0.592022    0.2620536 -61.78  0.001594823    3.147    0.682
        97  -9.4451     60.3474     21.1149   4.9614159919e+01   6.4212000129e+01    0.2161676    0.1473318  36.92 0.0003972341    1.229    0.186
        98 -10.2950     31.1418     19.7760   6.2349794300e+01   6.9523131877e+01    0.3565401    0.1400613  43.20  0.001552586    2.659    0.624
        99 -10.6973    111.7359    245.3520   8.7111122176e+01   7.6417566500e+00    0.3020306    0.2052581 -24.70  0.001621208    1.656    0.396
