#   1 NUMBER                 Running object number                                     
#   2 MAG_AUTO               Kron-like elliptical aperture magnitude                    [mag]
#   3 X_IMAGE                Object position along x                                    [pixel]
#   4 Y_IMAGE                Object position along y                                    [pixel]
#   5 X_WORLD                Barycenter position along world x axis                     [deg]
#   6 Y_WORLD                Barycenter position along world y axis                     [deg]
#   7 A_WORLD                Profile RMS along major axis (world units)                 [deg]
#   8 B_WORLD                Profile RMS along minor axis (world units)                 [deg]
#   9 THETA_WORLD            Position angle (CCW/world-x)                               [deg]
#  10 FWHM_WORLD             FWHM assuming a gaussian core                              [deg]
#  11 ELONGATION             A_IMAGE/B_IMAGE                                           
#  12 ELLIPTICITY            1 - B_IMAGE/A_IMAGE                                       
         1 -15.2331    247.7831     61.9904   3.8936449842e+01   1.7507853541e+01     5.755252      1.41233 -38.68   0.02155254    3.277    0.695
         2 -14.7426    248.8415    187.6271   6.4632863768e+01  -3.1837544692e+00     6.016712    0.8974734 -37.52   0.01618811    6.128    0.837
         3 -15.3361    247.6299    146.1558   5.6549928107e+01   3.8823550612e+00     8.395646      1.89759 -37.38   0.02637789    3.975    0.748
         4  -9.6931     40.8510     14.1380   6.9085514476e+01   6.8451023869e+01    0.1699055    0.1388899   9.47 0.0002525609    1.107    0.097
         5 -11.6884    163.8083    226.3271   8.8522350074e+01   3.1092209551e+00    0.8006327    0.5185413  -0.97  0.003473655    2.024    0.506
         6 -12.4452    166.0715    248.6301   9.1481014483e+01  -1.0525073476e+00    0.5582607    0.3474143  20.66  0.002792642    1.508    0.337
         7 -13.3829    159.3571    246.7859   9.2610118976e+01   2.3981723943e-01     1.259893    0.8712021  11.63  0.007144519    1.495    0.331
         8  -9.1843    143.6299    217.1532   9.1522144726e+01   8.0937589365e+00    0.1909487    0.1254752 -37.05 0.0006568544    1.690    0.408
         9  -9.3166     89.3387    199.7098   1.0179256601e+02   2.0552529610e+01    0.1484793    0.1000729  63.12 0.0003103487    1.642    0.391
        10  -9.2432    126.8108    197.1696   9.2177626367e+01   1.5101721412e+01    0.1961201    0.1670779 -16.81  0.001038071    1.316    0.240
        11  -9.6929    172.9895    195.6081   8.1085025157e+01   7.4221550272e+00    0.2096747    0.2022901 -43.10 0.0007177755    1.212    0.175
        12  -9.7958     68.9659    196.2196   1.0635865453e+02   2.4283683847e+01    0.1876629    0.1075615  34.64 0.0008828942    1.717    0.418
        13  -9.8500     46.0137    195.0000   1.1182214330e+02   2.7459393526e+01    0.2101962   0.07302636  29.60 0.0008089195    2.988    0.665
        14 -10.4952     96.5845    187.8414   9.8205484737e+01   2.2238835625e+01      0.45458      0.16202  38.99  0.001623252    2.602    0.616
        15  -9.5858     57.0104    188.5015   1.0838885745e+02   2.7701926803e+01    0.2104998   0.08796728  51.84  0.000810629    2.622    0.619
        16 -12.1375    230.5486    185.0018   6.7322574512e+01  -9.1050779657e-02    0.5638521    0.3115542 -37.00  0.002831282    1.608    0.378
        17  -9.1670      7.2642    185.0112   1.2009374155e+02   3.3656714344e+01    0.1589374    0.0901311 -79.73 0.0005468233    1.474    0.321
        18  -9.4834     17.2541    185.1102   1.1777263717e+02   3.2783431665e+01    0.1863588    0.1489121 -64.28  0.001171479    1.277    0.217
        19  -9.2185    211.9936    182.5188   7.0322293880e+01   3.2836828792e+00    0.1929753    0.1327209  32.95   0.00091999    1.503    0.335
        20 -10.2404     62.9542    178.0000   1.0551247304e+02   2.9532595866e+01    0.3782835   0.07942011  29.96  0.001054035    4.959    0.798
        21  -9.8775     45.4526    183.0000   1.1065961543e+02   3.0433718053e+01    0.2783361   0.07580972  28.23 0.0009317269    3.910    0.744
        22  -8.9708    206.6680    170.3019   6.8858607259e+01   6.4491450160e+00    0.1328222    0.1160757 -81.63 0.0007034661    1.653    0.395
        23  -9.7002     56.4239    170.6161   1.0624409905e+02   3.2220586858e+01    0.2842357   0.08465098  43.17 0.0009530212    3.342    0.701
        24  -9.3450     38.6405    165.3015   1.1036037016e+02   3.5604274309e+01    0.1459013   0.09196588  64.61 0.0007037208    1.718    0.418
        25 -10.8252    235.5337    240.1400   7.6504145679e+01  -9.2795466494e+00    0.2775451    0.1223242  33.87  0.001431991    2.222    0.550
        26 -10.1771     81.1713    165.3514   9.8638277074e+01   3.0167953033e+01    0.3353654    0.1543633  54.56  0.001160125    2.960    0.662
        27 -10.0648     72.2129    163.7527   1.0087091363e+02   3.1875981816e+01    0.2271459    0.1287382  15.22 0.0008969251    2.517    0.603
        28 -11.1325    165.9214    233.5208   8.9217877144e+01   1.5047865168e+00    0.4403567    0.2345987  25.14  0.002087106    1.841    0.457
        29 -10.9782     51.9388    156.4466   1.0547065551e+02   3.6382708524e+01    0.5044587    0.1662358  41.55  0.001799162    3.079    0.675
        30  -9.6323    218.7939    155.9472   6.3496729260e+01   7.0071690189e+00    0.1980361    0.1670403 -30.33  0.000451434    1.052    0.049
        31 -10.7319     84.6368    155.9657   9.5997645415e+01   3.2025426113e+01    0.6282313    0.1422304  41.02  0.001730308    4.290    0.767
        32 -11.1310     70.7889    154.9643   9.9807540845e+01   3.4327078300e+01    0.5483848    0.2130946  29.88  0.001975071    2.778    0.640
        33 -10.0580    189.2711    148.9666   6.7757625504e+01   1.3870450578e+01    0.3995276    0.2081971 -49.07  0.001397795    2.002    0.500
        34 -10.5588     41.3654    148.8611   1.0741708740e+02   3.9520587130e+01    0.4970954     0.180452  43.06  0.001873828    2.960    0.662
        35 -11.4042     58.1414    147.0644   1.0217984259e+02   3.8047840963e+01    0.6305757    0.2602801  50.88  0.002188426    3.231    0.691
        36 -11.5417    239.3616    231.0625   7.4262250798e+01  -8.4917593108e+00    0.3520782    0.2266692   6.76  0.001819757    1.403    0.287
        37  -9.8576     89.4562    144.7408   9.2407124362e+01   3.4118391946e+01     0.340481   0.09084758  44.39 0.0009013099    4.421    0.774
        38 -10.5651    197.1118    142.8179   6.4755580448e+01   1.3565679433e+01    0.2342118    0.2255177  22.92  0.000525727    1.115    0.103
        39 -10.4603     73.0978    142.3532   9.6829476628e+01   3.7246505899e+01    0.4385201    0.2393838  36.07  0.001864337    1.895    0.472
        40 -10.1270     24.3484    139.0339   1.1108499835e+02   4.3650200059e+01    0.3429519    0.1714571  53.78  0.001514904    2.423    0.587
        41  -9.3156    197.6261    136.7411   6.3260517685e+01   1.4666389256e+01    0.2172647    0.1304147 -48.20 0.0009476016    1.658    0.397
        42 -10.1052     40.1745    136.7437   1.0594901788e+02   4.2767393451e+01    0.2383491    0.1724129  32.93  0.001263679    1.525    0.344
        43 -11.2270     85.6624    132.7907   9.1014313033e+01   3.7766585217e+01     0.777672    0.2298412  42.33   0.00231675    3.642    0.725
        44  -9.4163     99.6943    217.3304   1.0171144284e+02   1.5036922561e+01    0.1425067    0.0977126  65.24 0.0003961465    1.658    0.397
        45  -9.5046     13.4663    129.9906   1.1320123034e+02   4.6770798915e+01    0.2739893    0.1139113  56.78  0.001039157    3.506    0.715
        46  -9.8057    100.1339    128.9035   8.5713595418e+01   3.6263592644e+01     0.351246    0.2368888  75.05  0.001360731    2.408    0.585
        47 -12.0619     62.0939    126.1171   9.7057053452e+01   4.2937518979e+01    0.7184103     0.302824  48.45  0.002493441    3.190    0.687
        48 -11.5170     45.9265    124.8825   1.0209231409e+02   4.5206066290e+01    0.6501486    0.3250218  58.45  0.002407095    3.203    0.688
        49 -10.7499    129.4631    227.1748   9.6257763361e+01   8.3873715556e+00    0.3949658    0.2339414  77.92  0.001413322    4.229    0.764
        50 -10.9069     30.0476    124.1702   1.0714774748e+02   4.6953546681e+01    0.4509515    0.2442514  67.77  0.001861575    2.773    0.639
        51 -10.1151     72.4335    121.1123   9.2607148146e+01   4.2761618371e+01    0.3084942    0.1873654  48.85  0.001323869    1.937    0.484
        52  -9.3549      3.5217    118.0197   1.1480120050e+02   5.0367838896e+01    0.1872633   0.09258229  80.11 0.0008102679    2.592    0.614
        53 -10.7063     81.1439    114.4634   8.8181831107e+01   4.3068201390e+01      0.51148    0.2900189  57.66   0.00190477    2.699    0.629
        54 -10.4536     94.7666    113.8896   8.3654369451e+01   4.0884770192e+01    0.5874279    0.2379743  44.86  0.001994737    2.742    0.635
        55 -10.6314     68.4033    111.9980   9.1833803975e+01   4.5618792033e+01    0.4020618    0.1859663  42.36  0.001549399    2.429    0.588
        56 -10.1589     14.4235    110.4112   1.1016403096e+02   5.1607151940e+01    0.3085429    0.2169192  80.43   0.00169878    1.641    0.391
        57 -11.8118     46.7192    103.4622   9.7442079426e+01   5.0495734114e+01    0.7991922    0.4367269  65.18  0.002783166    3.962    0.748
        58 -11.1974     23.3847    102.9739   1.0576962676e+02   5.2810055807e+01    0.6582432    0.3518502  66.30   0.00264437    3.295    0.697
        59 -10.2302    114.2445    102.1252   7.4505740078e+01   3.9839284419e+01    0.4077131    0.2059737  56.16  0.001396366    2.777    0.640
        60  -9.6088     84.4968    101.7456   8.3767106212e+01   4.5556336753e+01    0.3327557    0.1011738  46.08 0.0009011187    4.511    0.778
        61 -11.3991     65.6865     97.4815   8.9133889061e+01   4.9513987463e+01    0.6333164    0.3551253  56.58  0.002401889    2.974    0.664
        62 -10.8770     35.4226     90.3499   9.8630619076e+01   5.4826767339e+01    0.4345459    0.2484926 -81.13  0.001813445    2.720    0.632
        63  -9.9580     87.5203     87.6882   7.8713541158e+01   4.8189468330e+01    0.4260044    0.2382525  64.61   0.00127408    4.639    0.784
        64 -11.2582     49.9576     85.5680   9.1788223253e+01   5.4363761239e+01    0.5113946    0.3082671  61.43  0.002034961    3.199    0.687
        65 -10.5097    117.6092    227.8464   9.9021076413e+01   1.0102126394e+01    0.3632796     0.135467  46.15  0.001135503    2.694    0.629
        66 -10.3621     25.0032     81.2954   1.0061197828e+02   5.7856177118e+01    0.3192677    0.2271544  74.47  0.001654739    2.142    0.533
        67 -10.9963     99.3689    225.7141   1.0286701864e+02   1.3307010245e+01    0.3727532    0.2625968  25.44  0.001548742    1.487    0.327
        68 -10.2792     89.0000    222.9826   1.0488714303e+02   1.5404020314e+01    0.2642063    0.1420292 -70.15  0.001236871    2.139    0.532
        69 -10.0364     83.5526     74.1451   7.5825695456e+01   5.1725339634e+01    0.4131494    0.2767326  79.56  0.001460608    3.858    0.741
        70  -9.5133     95.6868     72.3349   7.1155137199e+01   4.9776143341e+01    0.1441094     0.121184 -86.35 0.0007045786    1.686    0.407
        71 -11.5664    211.3774    245.9161   8.1979739267e+01  -7.0002537664e+00    0.2946598    0.1689044  31.77  0.001675344    1.595    0.373
        72 -10.8158     51.7881     70.1580   8.6543332771e+01   5.7511109147e+01    0.3360848    0.2246511 -70.32  0.001551231    2.334    0.572
        73  -9.4384     16.4351     70.2367   1.0152221609e+02   6.0989310994e+01    0.1750334    0.1144043 -70.72 0.0009461447    1.691    0.409
        74  -9.5474    107.5019    248.9398   1.0386569969e+02   7.5420242866e+00    0.1673294    0.1266026 -61.60 0.0008184623    1.544    0.352
        75 -10.1407     37.8097     64.9789   9.0780972578e+01   6.0257491114e+01    0.2035817    0.1601753 -87.76  0.001088309    2.047    0.512
        76 -10.4865     73.8254     60.3222   7.4614095382e+01   5.6094601389e+01    0.2410084    0.1942277 -46.44  0.001312936    1.393    0.282
        77  -9.4049    171.0658    225.5345   8.6827287433e+01   2.1107996622e+00    0.1958059    0.1193845  32.98 3.107081e-05    1.477    0.323
        78  -9.9696     63.1624     55.1783   7.6845437787e+01   5.8797720979e+01    0.1747402    0.1673928 -44.96 0.0007241173    1.329    0.247
        79 -10.2629     54.4410     54.7502   8.0233984535e+01   6.0191992204e+01    0.2536373    0.1265591 -48.29  0.001133748    2.129    0.530
        80  -9.6699      7.3935     57.2224   1.0226883418e+02   6.4363643414e+01    0.1691757    0.1074655 -68.84 0.0009497997    1.723    0.420
        81  -9.9058     31.1289     51.6733   8.9446509528e+01   6.3637462982e+01    0.2181828    0.1647443 -50.61 0.0008024843    1.408    0.290
        82 -10.2254     45.1541     49.1485   8.2165648426e+01   6.2488703644e+01    0.2046679    0.1522823 -12.28 0.0003822602    1.229    0.186
        83  -9.8884     44.4956     55.9931   8.4917823332e+01   6.1289193142e+01    0.1721615    0.1205154 -72.00 0.0008105735    2.567    0.610
        84  -9.1161     16.6615     45.3048   9.4258460760e+01   6.6168314649e+01    0.1075054   0.09711833  57.37 0.0007040226    1.675    0.403
        85  -9.7700     58.6698     43.3495   7.4159187854e+01   6.1544783519e+01    0.1213412    0.1103568  88.71  0.000704852    1.767    0.434
        86  -9.8426      5.1633     41.4435   9.8842297504e+01   6.7693462975e+01     0.323248   0.09209987 -62.49  0.001131117    4.534    0.779
        87  -9.5606    131.1642    214.7908   9.4010875548e+01   1.0607428611e+01    0.1925109    0.1611573  -1.49 0.0006383852    1.334    0.250
        88  -9.7234     69.3081     41.6551   6.9296308347e+01   6.0034667590e+01    0.1228371    0.1110395 -80.48 0.0007043871    1.698    0.411
        89  -9.5389     37.1571     41.1680   8.2771893200e+01   6.4909075693e+01    0.1600496    0.1500157 -15.33  0.000682454    1.324    0.245
        90 -10.8584    123.4519    224.7533   9.7267884288e+01   9.8132404470e+00    0.2665793    0.1967371 -61.19  0.001012023    1.556    0.357
        91 -11.1172    126.1378    220.8104   9.6083105801e+01   1.0185278917e+01    0.2982201    0.2609941  59.10 0.0006934545    1.211    0.175
        92  -9.6773     88.5018    226.9733   1.0547084651e+02   1.4630019457e+01    0.1811295    0.1226245 -52.87 0.0005989167    1.661    0.398
        93  -9.5785     64.0071    223.4759   1.1056252901e+02   1.8729119053e+01      0.19359    0.1162878  36.16 0.0005998045    1.563    0.360
        94  -9.3816     60.6722     33.3058   6.9241848736e+01   6.2764497946e+01    0.1149944    0.1077624  80.38 0.0003942215    1.652    0.395
        95  -8.6639    113.6995     41.3079   5.5216758028e+01   5.0979403200e+01    0.1343724    0.1101342 -77.31 0.0003467935    1.598    0.374
        96  -9.6002    185.6225    213.0277   8.1565094832e+01   2.0431860138e+00     0.275193    0.1257495 -42.10  0.001191721    2.237    0.553
        97  -9.0026     40.8157     21.3753   7.2558982939e+01   6.7517446579e+01    0.1619081   0.09846515  21.59 0.0001548517    1.505    0.335
        98  -8.9416    114.9649    220.9865   9.8674363260e+01   1.1912469714e+01     0.166616    0.1450201  38.77 0.0004676041    1.039    0.038
