#   1 NUMBER                 Running object number                                     
#   2 MAG_AUTO               Kron-like elliptical aperture magnitude                    [mag]
#   3 X_IMAGE                Object position along x                                    [pixel]
#   4 Y_IMAGE                Object position along y                                    [pixel]
#   5 X_WORLD                Barycenter position along world x axis                     [deg]
#   6 Y_WORLD                Barycenter position along world y axis                     [deg]
#   7 A_WORLD                Profile RMS along major axis (world units)                 [deg]
#   8 B_WORLD                Profile RMS along minor axis (world units)                 [deg]
#   9 THETA_WORLD            Position angle (CCW/world-x)                               [deg]
#  10 FWHM_WORLD             FWHM assuming a gaussian core                              [deg]
#  11 ELONGATION             A_IMAGE/B_IMAGE                                           
#  12 ELLIPTICITY            1 - B_IMAGE/A_IMAGE                                       
         1 -10.9654      6.1070     35.6119   9.3884298671e+01   6.8696232665e+01    0.8833563    0.4977301 -40.83   0.00530481    1.405    0.288
         2 -11.0824     14.5962     39.1905   9.0716936522e+01   6.7403717967e+01    0.5634173    0.4444889 -60.92  0.003642135    1.672    0.402
         3 -11.5727     24.6187     55.6899   9.1423467973e+01   6.3382452192e+01     1.255107    0.2532661 -47.56  0.003168241    3.550    0.718
         4 -10.3798    131.6174     21.9491   4.3483302949e+01   4.8771123959e+01    0.4361576    0.2877092  -1.54  0.002240163    2.100    0.524
         5  -9.9892     77.3817     11.9606   5.2490151362e+01   6.1803783971e+01    0.4752373    0.1717617  47.84 0.0008074957    2.220    0.549
         6  -9.6527     82.3130      2.0478   4.7025172070e+01   6.1633014648e+01    0.5144702    0.1439037  41.63  0.001955887    3.260    0.693
         7  -9.1020     69.7068      2.0534   5.0538078835e+01   6.4203156633e+01    0.1859887    0.1343246  28.95  0.000642141    1.196    0.164
         8 -11.2792     74.2067      4.5847   5.0306799096e+01   6.3098430307e+01    0.5850504    0.3176502 -13.04  0.003154617    2.114    0.527
         9 -11.6851     77.2791     30.1765   5.9985040860e+01   5.9816091124e+01     1.026528    0.5597379  61.02  0.004249578    2.560    0.609
        10 -10.4228     70.2649     19.9097   5.8093825597e+01   6.2390400272e+01    0.4286154    0.2241523 -33.06  0.001989015    2.096    0.523
        11 -11.8664     62.0125     17.0956   5.9759927804e+01   6.4242158448e+01    0.6756438     0.325578  30.68 0.0003504604    2.095    0.523
        12 -11.2386     69.7766     11.2476   5.4536883242e+01   6.3381368645e+01    0.2535249    0.1926528  29.63  0.000227506    1.104    0.094
        13 -12.7320    105.1875     20.7856   4.8568265667e+01   5.4988849161e+01    0.3104354    0.2668682  57.03 0.0004696084    1.095    0.087
        14 -12.4367    107.6947     29.0854   5.0926062676e+01   5.3519220552e+01    0.4650838    0.3688585  21.59  0.002644344    1.330    0.248
        15  -9.3753     50.2288     22.3163   6.6684077879e+01   6.5649134209e+01    0.6099747    0.3392403   0.80  0.002891888    2.458    0.593
        16 -10.9621     29.2830     27.2285   7.8472610138e+01   6.7924209751e+01     1.404911    0.6006075 -22.64  0.005823892    3.226    0.690
        17 -11.1647     41.0840     21.4922   7.0284751573e+01   6.7164727978e+01    0.3863834    0.3256116 -69.42  0.001601402    2.362    0.577
        18  -9.9372     16.6220     18.8074   8.1328818279e+01   7.0601333145e+01    0.4556456    0.3387959 -11.71  0.002298385    1.037    0.035
        19 -11.2731    175.7479     11.8712   3.4333980775e+01   3.9404341774e+01    0.7699386    0.4385117 -57.02  0.003446016    1.793    0.442
        20  -9.8827    183.0408      7.2829   3.2449287296e+01   3.8187202544e+01    0.2376488     0.158953 -53.95 0.0002179261    1.444    0.307
        21 -10.9463    174.7030     22.9361   3.7254077151e+01   3.8480799762e+01    0.6692241    0.3949401  66.31  0.002860371    1.515    0.340
        22 -10.6294    182.2852     18.3915   3.5218947634e+01   3.7223578964e+01    0.2739654    0.2131105  62.04 0.0005033935    1.288    0.224
        23 -10.2203    185.0654     13.6799   3.3775367912e+01   3.7085919582e+01    0.4025064    0.2873067 -55.32  0.002206876    1.342    0.255
        24 -10.3357    230.6625     14.5298   2.9945628957e+01   2.7164080491e+01    0.3200935    0.1968938 -60.29 0.0008887684    1.348    0.258
        25 -10.4358    146.3164     12.4968   3.8234128189e+01   4.6234067650e+01    0.4479488    0.2527603  66.80  0.001402467    1.514    0.340
        26 -10.7310    218.5742     18.8873   3.1793225245e+01   2.9162693326e+01    0.4490709    0.2451867 -73.23  0.002455371    1.798    0.444
        27  -9.9459    225.3700     17.8280   3.1015348918e+01   2.7869898106e+01    0.3350833    0.1908529 -30.42   0.00126195    2.030    0.507
        28 -10.9821    166.1055     18.4203   3.7168652280e+01   4.0979723442e+01    0.3445852    0.2731782   1.24   0.00126503    1.741    0.426
        29 -10.5470      6.7594      8.9247   8.2309126152e+01   7.2988439144e+01    0.3070885    0.1746288 -22.46  0.001396656    1.477    0.323
        30 -11.5589     14.1184     10.7210   7.8872267615e+01   7.2015493673e+01    0.3008373    0.1878759  -3.97 0.0002282269    1.413    0.292
        31 -11.0743     16.0932      3.5727   7.4054889133e+01   7.2720300689e+01     0.471078    0.2501474  -1.18  0.002001596    2.100    0.524
        32  -9.9914      5.6301     16.2090   8.6427472663e+01   7.2009598016e+01    0.2693927    0.1776142 -30.28 0.0008417882    1.238    0.192
        33 -10.2998      9.1451     14.8318   8.3729499168e+01   7.1914887240e+01     0.296618    0.1695903 -17.40 0.0003771243    1.553    0.356
        34 -11.0067     24.9020      7.1023   7.1133652819e+01   7.1210545389e+01    0.2465534    0.1941798 -33.56  0.001509313    1.638    0.389
        35 -11.3664     20.9980      6.2240   7.2745844599e+01   7.1810486286e+01    0.2743202    0.1837736  -9.32 0.0005424028    1.264    0.209
        36 -11.0955    133.0324     12.5297   4.0298395952e+01   4.9361870802e+01    0.2431525    0.2199837 -56.43 0.0003129411    1.228    0.186
        37 -10.3318    127.3495      8.5985   4.0012056201e+01   5.1042536645e+01    0.7110875     0.308992 -30.66  0.001165448    2.523    0.604
        38  -9.8399    218.7015     10.6996   3.0080237390e+01   3.0042159601e+01    0.4675758    0.1596199 -60.89  0.001913266    3.379    0.704
        39 -10.7779    208.8373      3.9339   2.9433589580e+01   3.2829009768e+01    0.4483085    0.2549865 -56.34  0.001237495    1.559    0.358
        40 -10.4179    210.8472     14.0477   3.1424245426e+01   3.1342633801e+01    0.3627864    0.1856073 -40.42  0.001135391    1.838    0.456
        41  -9.1860    213.0197     10.2052   3.0426896312e+01   3.1291963870e+01    0.2176951    0.1365267  80.63  0.000924798    1.412    0.292
        42  -9.8056    116.6764     14.9225   4.4036106145e+01   5.2951404303e+01    0.2516283    0.2294122   3.90 0.0009146665    1.235    0.190
        43 -10.2516    243.1971     14.3631   2.9023638438e+01   2.4706663636e+01    0.1970949    0.1743692  56.68  0.000874109    1.596    0.373
        44  -9.3433     51.8212     13.1102   6.1818962941e+01   6.6472926143e+01    0.3063648    0.1462143 -35.14 0.0007952088    2.365    0.577
        45  -8.2181     86.4979      9.5931   4.8978084378e+01   6.0130819754e+01    0.1268834    0.1036943  41.85 8.242067e-05    1.018    0.018
        46  -9.4046     87.7835      6.1199   4.7269468934e+01   6.0153186472e+01    0.2344417    0.1624664  54.15 0.0008789496    1.234    0.189
        47 -11.4090     97.0173     11.4152   4.7056036854e+01   5.7701190166e+01    0.6484317    0.4932843  79.43  0.001776153    1.545    0.353
        48 -10.4755    106.2410      6.2387   4.3128288547e+01   5.6088853907e+01     0.445852    0.3475004  43.28  0.001424259    1.149    0.129
        49  -8.6071    109.0090      1.0000   4.0741620963e+01   5.5869686959e+01    0.1961423    0.1232071  60.86  0.000359617    1.309    0.236
        50 -10.0120     30.8644     12.2259   7.0706609542e+01   6.9795326243e+01     0.295346    0.1692146  30.89 0.0009388225    1.569    0.363
        51 -10.3170    202.0104      7.8796   3.0840459852e+01   3.3903949671e+01    0.4838296    0.2601186  76.74  0.001381109    1.640    0.390
        52 -10.5177    191.4373      9.6657   3.2195596492e+01   3.6059032435e+01    0.4065393    0.2843168 -33.58  0.001926727    1.598    0.374
        53 -10.7924    195.7886      3.4600   3.0392492961e+01   3.5706501906e+01    0.4966321    0.2422886  73.03  0.001829521    1.772    0.436
        54  -9.4558    224.4314      9.8218   2.9467730348e+01   2.8949763724e+01    0.2966822     0.109259 -39.38   0.00115785    2.366    0.577
        55 -10.2087    166.2305      9.0942   3.4708373968e+01   4.1879664021e+01    0.3039539    0.2468123 -40.13  0.001292787    1.362    0.266
        56  -9.1826     56.0661     10.6651   5.9041731783e+01   6.5992617258e+01    0.2128797    0.1532209  -2.03 0.0007727745    1.353    0.261
        57  -9.8021    231.9864      6.0141   2.8186057283e+01   2.7826431901e+01    0.2547122    0.1731598 -24.55  0.001223611    1.996    0.499
        58 -10.9646    236.6097      7.9656   2.8252670107e+01   2.6700242993e+01     0.324819    0.2562429 -43.78  0.002362668    1.373    0.272
        59 -10.5781    237.0824      3.2024   2.7319906639e+01   2.7114151542e+01    0.4031086    0.1843812  83.64  0.002273283    2.018    0.505
        60  -9.3101     43.9280     10.0519   6.3618299613e+01   6.8108795059e+01    0.2686524    0.1224581  26.34  0.001224394    2.333    0.571
        61  -8.6701      1.3598      9.7630   8.6035859397e+01   7.3327720091e+01    0.1510908    0.0796456 -33.03 0.0005404306    1.537    0.349
        62  -8.8257    120.0629      8.4827   4.1242344276e+01   5.2745194447e+01    0.1747271    0.1678061  18.20 0.0005659012    1.183    0.154
        63  -8.1430    113.6126      9.2946   4.2724304169e+01   5.4159986086e+01     0.128746   0.09216829 -78.63  0.000701384    1.772    0.436
        64  -9.9307    153.0227      5.8223   3.5439745779e+01   4.5263629060e+01    0.2950894    0.1697762  44.05  0.000656135    1.935    0.483
        65 -11.2285    160.5484      2.8509   3.3731041945e+01   4.3766928562e+01    0.4885708     0.292049  66.68  0.002151121    1.414    0.293
        66  -9.8450     61.9776      6.3981   5.4962896705e+01   6.5323431372e+01    0.3118701    0.2117898  58.88  0.001270359    1.688    0.408
        67 -10.3973    248.1295      4.8448   2.6951556561e+01   2.4813381700e+01    0.2363087    0.1485477  89.61 0.0007517607    1.392    0.282
        68 -10.8040    249.9732      1.4316   2.6231727645e+01   2.4829552323e+01      0.30032    0.1870358  67.17 0.0003230561    1.775    0.437
        69 -10.7196     30.9514      3.1889   6.6049855780e+01   7.0821520778e+01    0.2794082    0.1971115 -40.56  0.001071006    2.064    0.516
        70  -9.7951     37.3963      3.5908   6.3252414841e+01   6.9815539674e+01    0.3331558    0.3075644  36.25  0.002464926    1.535    0.349
        71 -10.1201    217.7635      2.7078   2.8514881787e+01   3.1070502679e+01    0.2830195    0.2112598 -75.01   0.00145035    1.056    0.053
        72 -10.1396    127.5356      1.6821   3.7801058167e+01   5.1564222011e+01    0.3721443    0.1546577  51.58 0.0009002826    2.052    0.513
        73  -9.3713    135.6740      1.7693   3.6613494063e+01   4.9662479620e+01    0.2049163    0.1800803 -86.59  0.001378402    1.143    0.125
        74 -10.5955     90.9206      2.0275   4.4906772303e+01   5.9801938182e+01    0.3071349    0.1881597  66.16  0.001079347    1.573    0.364
        75  -8.4830    143.9670      1.9728   3.5531088330e+01   4.7708759472e+01    0.1908696    0.1215009  40.49  0.001065807    1.754    0.430
        76 -10.3160    115.6825      1.9111   3.9838183256e+01   5.4281889601e+01    0.2148087    0.1529488  62.93  0.000320505    1.171    0.146
        77  -9.3627     50.2084      1.9375   5.7101248882e+01   6.7857133433e+01    0.2312646    0.1396414  36.19   0.00128549    1.344    0.256
        78 -11.5087    178.8666      2.4370   3.1695436200e+01   3.9590780763e+01     0.416844    0.1781475  64.46  0.002079461    1.993    0.498
        79  -8.2735    103.0272      1.1917   4.1972103148e+01   5.7201036239e+01    0.1537945   0.08137488  61.55            0    1.567    0.362
        80 -10.4427     20.4893    109.0079   1.0581881714e+02   5.1603477958e+01    0.3664638    0.2508767 -41.91  0.002019683    1.354    0.262
        81  -9.5149    201.5010    249.5597   8.2750878444e+01  -6.4096592137e+00    0.2212508    0.1661706  13.97 0.0006139711    1.096    0.088
        82 -10.9473     12.9902    114.1040   1.0922349105e+02   5.0874910856e+01    0.5108282    0.2795691 -36.78  0.001403987    1.901    0.474
        83  -9.6602    221.4329    119.3645   5.3582309737e+01   1.3312756482e+01    0.2816859    0.2551093   9.69 0.0006903709    1.292    0.226
        84  -9.2679     49.0000    111.9694   9.6419701966e+01   4.8100971866e+01    0.3131693    0.1913562 -62.21 0.0007021783    1.547    0.354
        85 -10.5390     45.1710    119.1768   9.9223636389e+01   4.6731390675e+01    0.4254602    0.2933594  13.19  0.001955343    1.707    0.414
        86  -9.9156     48.4137    115.5493   9.7383783643e+01   4.7275145139e+01    0.4647106    0.2734019  55.23  0.001094824    2.319    0.569
        87  -8.5885    103.9618    119.0594   8.0180858556e+01   3.7784758434e+01    0.1867404    0.1825247 -25.83 0.0004034691    1.015    0.014
        88  -9.1407     93.5234    119.0421   8.3355668276e+01   3.9707210113e+01    0.2791454    0.2192599  13.14 0.0007815954    1.471    0.320
        89  -9.2221     67.9560    118.4702   9.1435667604e+01   4.3985812645e+01    0.2249299    0.1472149  33.52  0.001035609    1.620    0.383
        90  -8.8524     70.3138    116.0408   9.0090063469e+01   4.4243848849e+01    0.2087899    0.1801195 -56.08 0.0003252657    1.114    0.102
        91 -11.4789     21.2929    119.7518   1.0733064660e+02   4.8855137197e+01    0.5365286     0.417903  63.43  0.003077872    1.485    0.327
        92  -9.0608     80.1960    116.1860   8.6879372735e+01   4.2671920299e+01    0.2057529    0.1813909  89.66  0.001054786    1.321    0.243
        93  -9.9845    129.8518    113.7530   7.1454013224e+01   3.3783245472e+01    0.2689318    0.2551656 -74.77 0.0002239612    1.121    0.108
        94 -10.8370     32.4563    113.0422   1.0238460616e+02   4.9582106354e+01    0.4036589    0.2946338  69.74   0.00132704    1.729    0.422
        95 -10.0217     62.6270    111.3544   9.1577295065e+01   4.6504432145e+01     0.379224    0.2080446 -39.97  0.000737828    1.851    0.460
        96  -9.4107     53.2794    113.0928   9.5185177323e+01   4.7302758463e+01    0.2437292     0.208127  33.05 0.0003774996    1.283    0.220
        97  -8.6821    121.7880    112.2104   7.3241263544e+01   3.5823399519e+01    0.2125993    0.1808322 -14.59 0.0003151773    1.306    0.234
        98  -8.2747     76.3048    112.6619   8.7287519780e+01   4.4155019703e+01     0.151153    0.1197877  80.48 0.0007040123    1.674    0.403
        99 -11.1567      4.6299    108.7362   1.1125520191e+02   5.2712288726e+01    0.6063292    0.3940821 -35.31  0.003442022    1.557    0.358
       100  -9.5125    102.6390    108.4080   7.7791158341e+01   4.0532631450e+01    0.4077886    0.2550889  -6.46   0.00140874    3.074    0.675
       101  -9.8468     66.9452    107.4957   8.9163179428e+01   4.6831817585e+01    0.2335722     0.185123 -49.30 0.0006050764    1.171    0.146
       102  -9.6907     57.9530    108.0542   9.2413310250e+01   4.7947020966e+01     0.213102    0.1957328 -46.13  0.001201712    1.030    0.029
       103 -10.4644     51.5226    100.9458   9.2996986384e+01   5.0493959924e+01     0.407755    0.3007024 -73.68  0.001343668    1.582    0.368
       104 -10.5533     35.3016    104.1558   9.9606892975e+01   5.1511772091e+01    0.4800271    0.3480526  68.07   0.00245787    1.852    0.460
       105  -9.2775     39.9223    102.6913   9.7614969110e+01   5.1399931425e+01     0.277972    0.1985463 -27.52 0.0006306226    1.457    0.314
       106 -10.4763     41.8427     98.9947   9.6074022688e+01   5.2089056769e+01    0.7029459    0.2486141  33.70   0.00218454    2.970    0.663
       107  -9.3746     91.1724    105.3274   8.0536363832e+01   4.3382993523e+01    0.4421141     0.299356 -87.46  0.001300372    2.734    0.634
       108  -9.4169     84.8351    102.5276   8.1834228779e+01   4.5151758610e+01    0.4471147    0.2345804 -38.17  0.001768386    2.009    0.502
       109  -9.7669     71.5336    104.3086   8.6781118633e+01   4.6909068574e+01     0.569654    0.1537005  41.74  0.001653013    4.210    0.762
       110 -10.4190     62.4100    105.0304   9.0123922789e+01   4.8075210734e+01    0.3187729    0.2062798  14.91 0.0007003911    1.845    0.458
       111  -9.6662    132.0530    104.0229   6.8250503109e+01   3.5429119050e+01    0.2266873    0.2215371 -22.59            0    1.013    0.013
       112  -9.4412    108.0382    104.2886   7.5041963867e+01   4.0408650328e+01    0.2050213    0.2022853  12.22 0.0004628928    1.040    0.038
       113 -10.9689    101.5307    102.7690   7.6586443980e+01   4.2029683805e+01    0.4156279    0.3067161  20.73  0.001001335    1.551    0.355
       114 -10.0181    118.8671    102.9420   7.1533809873e+01   3.8486200100e+01    0.2342064    0.2082169  -9.25 0.0003424839    1.207    0.171
       115 -10.8265    110.0311     99.0017   7.2970214604e+01   4.1172673291e+01    0.4713878    0.4079875  30.98  0.002153451    1.172    0.147
       116 -10.7957     58.8322    100.9581   9.0370954306e+01   4.9543853645e+01    0.3941253    0.3341438 -60.82  0.001252645    1.208    0.172
       117  -8.7848     59.2680     96.9743   8.9193218274e+01   5.0426870310e+01    0.2002679      0.16947 -39.48 0.0002370091    1.074    0.069
       118  -9.5086    126.9898    102.1689   6.9083231064e+01   3.6922768730e+01    0.3296126    0.2081931  36.39 0.0007842329    1.690    0.408
       119  -9.2830     77.8308     98.8219   8.3166603513e+01   4.7191064681e+01    0.2987262    0.1942552  48.87  0.001336644    1.805    0.446
       120  -9.6987     22.8383     94.6768   1.0224014906e+02   5.4913458240e+01    0.3078351    0.2054277 -63.67 0.0007144284    1.353    0.261
       121  -9.4796     16.4480     99.2167   1.0551029355e+02   5.4297694432e+01    0.3869445    0.2054841 -39.65  0.001908032    1.766    0.434
       122  -9.2353     20.5892     98.8001   1.0390640310e+02   5.4096248949e+01    0.2526678    0.1677825 -74.90 0.0008856694    1.540    0.351
       123 -11.3219     31.4141     92.7478   9.8556806483e+01   5.4633276676e+01    0.4944303    0.4070745 -33.54  0.001754494    1.113    0.102
       124 -10.9519     28.8014     85.7611   9.7943698353e+01   5.6507822176e+01    0.8178317    0.4073659 -30.00  0.003039826    2.247    0.555
       125 -11.5917    117.6973     97.9109   7.0448300207e+01   3.9815690297e+01     0.297436    0.2781208  10.52 0.0003709589    1.092    0.084
       126  -8.9388     13.3312     96.0678   1.0608141155e+02   5.5267763231e+01    0.3406354     0.133879 -40.61  0.001449113    2.397    0.583
       127 -10.3727      2.4306     80.1795   1.0730436151e+02   5.9619903795e+01    0.4741904    0.2241028 -64.50  0.001935293    1.746    0.427
       128 -10.1098      2.0920     92.2899   1.0960575009e+02   5.6812923334e+01    0.4122804     0.258947  44.46 0.0003523389    2.033    0.508
       129  -9.9551      2.4297     86.3946   1.0845862967e+02   5.8182634305e+01    0.4684798    0.1082309 -53.66  0.001850253    2.683    0.627
       130  -9.5596      8.2907     98.4426   1.0835589096e+02   5.5008349229e+01     0.383869     0.218915 -80.93  0.001916408    1.867    0.464
       131  -8.7020      4.0328     97.7802   1.0979263417e+02   5.5404281219e+01    0.2766865    0.2174111 -24.08 0.0008565148    1.348    0.258
       132  -8.7467    184.1147     96.7300   5.4712218879e+01   2.5214068864e+01    0.1985818    0.1916108  80.40 0.0005426685    1.072    0.068
       133  -8.7648    171.0425     96.9709   5.7312446727e+01   2.8098888006e+01    0.2195176    0.1813325   0.66            0    1.547    0.353
       134  -9.1277    150.1099     97.1482   6.1905090067e+01   3.2817202250e+01    0.2214535    0.2066112   4.99 0.0002525345    1.165    0.142
       135  -9.2321    125.8515     97.0769   6.7961775538e+01   3.8243502458e+01    0.2419483     0.217904 -75.73  0.001212271    1.249    0.199
       136  -9.2578     86.7077     96.2214   7.9463574706e+01   4.6259365418e+01    0.3146212    0.2446444  32.32 0.0009515244    1.317    0.241
       137  -8.9782     80.5937     94.9861   8.1158257090e+01   4.7601710669e+01    0.3939267    0.2598209  68.47  0.001559978    2.684    0.627
       138  -8.9351    155.1279     95.8589   6.0411269349e+01   3.1930155386e+01    0.2108039    0.1814918  22.34 0.0008108957    1.326    0.246
       139  -9.6792    140.5464     95.7567   6.3806578150e+01   3.5257495240e+01    0.3726869    0.2390982  85.28  0.001313698    3.058    0.673
       140  -9.0985    165.6199     94.1618   5.7691908603e+01   2.9863707955e+01    0.2407068    0.2013896  67.61  0.000463745    1.263    0.208
       141  -9.3788     39.3368     88.1262   9.4391439656e+01   5.4923814580e+01    0.2936548    0.1967818  12.12 0.0007548108    1.661    0.398
       142  -9.7740     46.9830     92.0735   9.2467375054e+01   5.3144887634e+01    0.3809186    0.2438991 -54.91   0.00133261    1.443    0.307
       143  -9.3249     44.0365     88.3245   9.2624970609e+01   5.4357283299e+01     0.220594    0.2078585 -40.30 0.0005366863    1.114    0.102
       144 -10.3540    104.4671     92.5935   7.2783723330e+01   4.3676704949e+01    0.3481766    0.1479191 -43.98  0.001252131    2.327    0.570
       145  -8.8422    161.6471     90.0196   5.7421113645e+01   3.1554189928e+01    0.2067505    0.1905123 -45.40 0.0006998801    1.069    0.065
       146 -10.5958     86.5407     88.5589   7.7289717062e+01   4.7971543791e+01     0.393885    0.3376186  -6.54 0.0007838764    1.205    0.170
       147  -9.5214     86.9489     83.5279   7.5632611648e+01   4.8961541599e+01    0.2706659    0.2329647 -37.71 0.0005438414    1.139    0.122
       148 -10.5258     71.2836     88.5618   8.2550397546e+01   5.0567979363e+01    0.5538946    0.2498169 -48.00 0.0005529416    2.093    0.522
       149  -9.9658     66.0933     85.7136   8.3592613729e+01   5.2002743757e+01    0.4319049    0.2642238  16.67   0.00130303    1.968    0.492
       150 -11.1884     80.6565     83.6044   7.7787894501e+01   5.0074396554e+01    0.4503494    0.3135896  15.74  0.002115503    1.669    0.401
       151 -10.3274     73.5772     79.4192   7.8983538282e+01   5.2160429200e+01    0.5477417    0.3632194 -47.35  0.001554623    1.500    0.333
       152  -9.9695     68.6905     75.8446   7.9637010615e+01   5.3698657589e+01    0.4604336    0.2360415 -52.39  0.001936898    2.130    0.531
       153  -9.7973     14.0218     88.0657   1.0427298406e+02   5.7122404735e+01    0.3030845    0.2836062 -23.28  0.002032617    1.171    0.146
       154  -8.6990     17.3123     88.3229   1.0304244724e+02   5.6835638110e+01    0.2420878    0.1233616 -67.30 0.0007515188    1.864    0.463
       155  -9.8549      7.2302     89.3114   1.0714014730e+02   5.7245417476e+01    0.3152612    0.1953919  35.55  0.001012871    1.968    0.492
       156  -8.9043     58.7255     88.2984   8.7049816110e+01   5.2498961083e+01    0.3301726    0.2260391 -85.82  0.001404867    2.607    0.616
       157 -10.3811    139.9005     82.8982   6.0318521807e+01   3.7898880010e+01    0.8109919    0.3779706  32.15  0.002495422    3.794    0.736
       158 -10.8493    123.2185     87.3984   6.5875528805e+01   4.0788266270e+01    0.3823435    0.3117561 -22.58 0.0008649356    1.329    0.247
       159 -10.5825    118.6035     84.4562   6.6262042974e+01   4.2377028578e+01    0.5399255    0.2614153  41.80  0.002083708    2.094    0.522
       160  -9.3216    132.8517     82.8075   6.2017427634e+01   3.9525154324e+01     0.254972    0.2173555 -36.28 0.0005450542    1.189    0.159
       161  -9.1544     52.4094     90.2813   8.9954493634e+01   5.2890769636e+01    0.2327681    0.1668269 -59.14 0.0005509018    1.428    0.300
       162 -10.1388    155.2156     84.8238   5.7379742338e+01   3.4003529288e+01    0.2782935     0.256888  30.24 0.0005668954    1.166    0.143
       163 -10.3976    151.4703     80.2869   5.6930584928e+01   3.5699212299e+01    0.5052395    0.2860271  63.41  0.002073005    2.036    0.509
       164 -10.6166     51.5516     82.8470   8.8234138241e+01   5.4680617417e+01    0.3570037    0.3182017  19.01 0.0005900616    1.193    0.162
       165 -11.0178     44.0478     81.4210   9.0768711002e+01   5.5920276417e+01    0.9877967    0.4168018  28.67  0.004144226    2.497    0.600
       166 -13.2073     52.8425     74.3769   8.5230025318e+01   5.6343859177e+01    0.7626364    0.3959797 -57.24  0.001662301    2.209    0.547
       167 -11.3857     45.2259     68.7619   8.6564833356e+01   5.8500560864e+01    0.3342902    0.2226299 -33.97 0.0002226842    1.366    0.268
       168  -8.5902     17.9602     72.2080   9.9080225974e+01   6.0461506773e+01     0.286369      0.15246 -37.19  0.001396022    1.653    0.395
       169  -8.6887     12.8034     78.4168   1.0271384652e+02   5.9431046929e+01    0.2334607    0.1151148 -40.03 0.0008516122    1.750    0.429
       170  -9.9858     18.8236     80.5597   1.0073242272e+02   5.8523068092e+01    0.4187068    0.3247666  23.37  0.002546298    1.480    0.324
       171  -8.4595     18.4237     76.5717   9.9957383302e+01   5.9455763674e+01    0.1966118    0.1179244 -70.26 7.764606e-05    1.845    0.458
       172 -10.4437    128.4601     85.4293   6.3908044632e+01   4.0012595087e+01    0.4411035    0.3489857  26.96  0.001248983    1.398    0.284
       173 -10.0052    126.3133     76.0632   6.1667797221e+01   4.2257366755e+01    0.2983958    0.1383517 -32.25  0.001090965    2.498    0.600
       174  -9.6522    167.9806     78.4687   5.3043397516e+01   3.2171395688e+01    0.2701511    0.2099036 -43.97  0.000331008    1.264    0.209
       175  -9.4874    136.9940     78.9884   5.9879153039e+01   3.9288929741e+01    0.2260793    0.2191847  80.27 0.0005382134    1.050    0.048
       176  -8.7589     83.1288     61.6022   6.9762978727e+01   5.3909334400e+01    0.2628433    0.1894225  -5.95 0.0009691206    1.627    0.386
       177  -9.4769     93.9247     78.9087   7.1913041726e+01   4.8580890283e+01    0.2733822    0.2280372   9.69   0.00041477    1.262    0.207
       178  -9.5437     83.5284     65.3210   7.0902345423e+01   5.3164038723e+01    0.2881966    0.2293668 -36.85  0.001547342    1.267    0.211
       179  -9.4202     86.9652     68.2424   7.0729815255e+01   5.1975594963e+01    0.2883742    0.2592027  55.48 0.0002072558    1.290    0.225
       180  -8.9882     90.1883     65.5615   6.8770276770e+01   5.1844125427e+01    0.2666554    0.1946003  18.53 0.0006224351    1.507    0.336
       181  -9.2485     89.1849     78.1323   7.3208985002e+01   4.9645436151e+01    0.2700734     0.229894  72.17 0.0005943327    1.537    0.350
       182 -10.2455     89.3194     74.1243   7.1882496292e+01   5.0408828528e+01    0.4684513    0.3606817  -8.40  0.001636958    1.464    0.317
       183 -10.6356     93.7485     70.0617   6.9122096187e+01   5.0317928220e+01    0.5665614    0.3996832 -46.02  0.001787025    1.507    0.337
       184  -8.9614    231.3332     77.8547   4.3072038093e+01   1.8450050245e+01    0.1785476    0.1426165 -46.91 0.0003547062    1.112    0.101
       185 -11.0347    178.3464     75.2743   5.0292888540e+01   3.0314617094e+01    0.5669972    0.3377529  58.29  0.002624878    1.695    0.410
       186  -9.9135    141.1927     60.7542   5.3509095085e+01   4.1415542868e+01    0.3706434    0.2928233  11.75 0.0009065063    1.615    0.381
       187 -10.5919    142.9144     66.9419   5.4968283691e+01   4.0010192417e+01    0.4323135    0.3327649  26.34  0.001387775    1.553    0.356
       188  -9.5280    126.5605     57.2480   5.5771591992e+01   4.5383797233e+01    0.5707234    0.2390234  62.91  0.001803251    3.137    0.681
       189 -10.1083    133.0103     58.8422   5.4754933131e+01   4.3636638053e+01    0.4612007    0.3076361  25.21  0.002082709    1.986    0.496
       190  -9.5428    136.5315     55.4459   5.2922039594e+01   4.3333415278e+01    0.3483086    0.2223189 -27.84  0.001303355    1.759    0.432
       191  -9.4454    141.5135     75.4646   5.7783398717e+01   3.8877839039e+01    0.2428852    0.2303402   7.21 0.0006325797    1.129    0.114
       192 -10.3028    145.1519     74.6930   5.6733178845e+01   3.8165971706e+01    0.4017762    0.2841953 -36.72 0.0009983284    1.450    0.311
       193  -9.1324    145.8052     70.5995   5.5402894275e+01   3.8718377888e+01    0.3064842    0.2352395  80.42  0.001042024    1.523    0.343
       194  -8.8691    111.5869     70.4955   6.3905840670e+01   4.6527364566e+01    0.2558546    0.2119302 -21.19 0.0007941255    1.273    0.215
       195  -9.4235    110.7499     76.9798   6.6189952772e+01   4.5511729891e+01    0.2831748    0.2195301  35.30  0.000793374    1.287    0.223
       196  -8.4474    110.6683     73.6719   6.5174772565e+01   4.6147359460e+01     0.246847    0.1512001 -35.60 0.0006826015    1.685    0.407
       197  -9.6666     28.3252     76.2028   9.5739639692e+01   5.8717611914e+01    0.3688314    0.2214803 -44.91 0.0007838162    1.397    0.284
       198  -9.8058     63.3748     74.9822   8.1347684488e+01   5.4706874728e+01    0.3463688    0.2602645  43.11  0.001820384    1.517    0.341
       199  -8.8551     37.6832     75.7745   9.1756181120e+01   5.7880870705e+01    0.2101711    0.1336795 -37.18  0.000482611    1.404    0.288
       200 -10.7859    135.5591     64.7162   5.5962690989e+01   4.2099446788e+01    0.4909407    0.3979455  70.11  0.001424163    1.308    0.236
       201  -9.3727    117.8688     75.0841   6.3606109339e+01   4.4320330098e+01    0.2261131    0.2034037 -84.17 0.0005824548    1.303    0.232
       202 -10.7935    168.9843     73.2225   5.1448157699e+01   3.2831823117e+01    0.5058351    0.2933182  57.16   0.00159634    1.716    0.417
       203 -10.1911    173.4969     68.8312   4.9460881186e+01   3.2501521868e+01    0.2956443    0.2492229  47.09 0.0003019021    1.273    0.214
       204 -10.0532     15.6822     60.0565   9.6847761995e+01   6.3236813279e+01    0.2710737    0.2192653 -60.17 0.0004844593    1.349    0.259
       205 -10.8211     12.0751     67.2414   1.0038263069e+02   6.1961132811e+01    0.9079369    0.3422032 -25.23  0.002590858    3.596    0.722
       206 -12.2372      2.4637     66.2344   1.0436983374e+02   6.2737302378e+01    0.3597932     0.229301 -56.25 0.0001324484    1.283    0.220
       207 -10.2473      9.3404     62.6058   1.0042210542e+02   6.3132795674e+01    0.3242645    0.2316429  -0.76  0.001118318    1.460    0.315
       208 -10.8494      4.5547     59.3298   1.0176573587e+02   6.4108026084e+01    0.6274541    0.3279011 -38.90   0.00346334    1.544    0.352
       209 -10.6915      6.1250     52.0165   9.9058400082e+01   6.5530435072e+01     0.372238    0.2543739 -23.46  0.001120331    1.282    0.220
       210 -10.0181     10.5005     50.9550   9.6632916084e+01   6.5462667392e+01    0.4196469    0.1806018 -53.65  0.001666191    1.950    0.487
       211 -10.0485    103.0657     68.8159   6.5837282601e+01   4.8645677767e+01    0.6352523    0.3924103  10.85  0.002443948    2.762    0.638
       212 -10.7076     80.1297     70.1457   7.3689162135e+01   5.2883430467e+01    0.3006189    0.2481176  46.55 0.0004297523    1.339    0.253
       213  -9.6124     37.1424     69.6489   9.0206625800e+01   5.9256381662e+01    0.3854801    0.2319451 -35.35  0.001799526    1.509    0.337
       214 -10.0471     43.3305     54.3700   8.2584579198e+01   6.1575461111e+01     0.685437    0.2142797  37.50  0.002568664    3.461    0.711
       215 -10.4794    116.0059    248.2437   1.0026274175e+02   6.0879932744e+00     0.284043     0.233809  25.88 0.0009126274    1.159    0.137
       216  -9.8827     37.1580     47.4611   8.2831042553e+01   6.3610577257e+01    0.3578962    0.2136614  -5.18  0.001792016    1.972    0.493
       217  -9.2178     30.4717    247.5030   1.1788583785e+02   1.7452516168e+01    0.1188035   0.09188066  65.21 9.571893e-05    1.013    0.013
       218 -10.5098     44.6238     48.1656   7.9770286386e+01   6.2534537598e+01    0.7479665    0.3318935  19.79  0.003035778    2.938    0.660
       219  -9.7703     42.3769     44.0703   7.9207856458e+01   6.3546074200e+01    0.2454319    0.1818917   8.27 0.0009481524    1.255    0.203
       220 -10.4953     16.3439     46.7503   9.2450854702e+01   6.5847619717e+01     0.280655    0.2009288   8.08 0.0002697152    1.391    0.281
       221  -9.2529    162.6954    246.6754   9.0141321267e+01  -5.2465488828e-01    0.1303723   0.09058074  -1.68 0.0002415461    1.642    0.391
       222 -11.0298     31.1487     53.1361   8.7582332583e+01   6.3234328358e+01    0.5499398    0.3378123  28.07  0.002915718    1.719    0.418
       223 -11.3326     32.2405     63.3051   9.0387621655e+01   6.1097922701e+01    0.8344928    0.2652001 -51.34  0.001922137    2.713    0.631
       224 -11.4440     28.0076     63.4599   9.2295574317e+01   6.1485237654e+01    0.5312757    0.2276896 -53.60 0.0003120043    2.108    0.526
       225 -11.5587     22.9506     47.1695   8.9380877173e+01   6.5188712296e+01    0.3483337    0.3065432  31.26  0.001060251    1.466    0.318
       226 -10.5161     27.3144     44.5244   8.6345780062e+01   6.5247160531e+01    0.3426905    0.1859874 -42.13 0.0009880498    1.621    0.383
       227  -8.4381    215.4880     70.4635   4.3457696204e+01   2.2850849872e+01    0.1341238    0.1170102 -63.19 0.0001160822    1.007    0.007
       228  -8.3354    129.4576     70.3944   5.9148916970e+01   4.2551472551e+01    0.1458374    0.1387974  45.45  7.49874e-05    1.020    0.019
       229  -9.4572    119.1859     67.8459   6.0986985751e+01   4.5320293041e+01    0.3375613    0.2723496 -18.41  0.001534511    1.365    0.268
       230  -9.0473     75.0624     65.8784   7.4048088574e+01   5.4594167069e+01    0.2400866    0.1950035 -38.20 0.0006244077    1.241    0.194
       231  -9.0423     77.1672     62.0814   7.1995680973e+01   5.4921366242e+01    0.2140293    0.1755495  -4.67 0.0003502205    1.212    0.175
       232  -9.0856     97.0427     63.5607   6.5924699207e+01   5.0825162181e+01    0.2440704    0.1990326 -54.11  6.26697e-05    1.445    0.308
       233  -9.4442    110.3451     62.8980   6.1798518004e+01   4.8120253511e+01    0.2507153    0.1937131  43.64 0.0004640082    1.236    0.191
       234  -8.9488    114.4587     60.9057   6.0021853015e+01   4.7545333544e+01    0.2211543    0.1876244  46.87 0.0006000396    1.129    0.115
       235  -9.6560     64.6380     62.3487   7.6698604047e+01   5.7005032889e+01    0.3457559    0.2541598  30.22  0.001868088    1.345    0.257
       236  -9.9038    193.5646     60.9711   4.4244013897e+01   2.9111540175e+01     0.408485    0.2776096 -35.57  0.001467331    1.509    0.337
       237 -10.4659     53.9841     61.1341   8.0474706688e+01   5.8852150960e+01    0.2846963    0.2547626 -59.14  0.000313882    1.427    0.299
       238  -9.4396     56.4155     56.7895   7.7974581436e+01   5.9310843604e+01    0.2396633    0.1765603  17.12 0.0005850395    1.327    0.247
       239  -8.8311     48.9020     57.4777   8.1303150759e+01   6.0256366489e+01    0.2407797    0.1234938  35.43 0.0003720948    2.026    0.506
       240  -9.5193     52.8385     53.7153   7.8328451639e+01   6.0397370282e+01    0.3537257    0.2009103 -36.98  0.001251947    1.663    0.399
       241  -9.5110     61.4972     53.0763   7.4613472544e+01   5.9188086820e+01    0.4312874    0.2228064 -25.85  0.001865642    2.292    0.564
       242 -10.9287    161.5824     58.8587   4.8899385108e+01   3.6875050641e+01    0.6646196     0.389764 -16.28  0.002726209    2.669    0.625
       243  -9.5793    152.0824     60.6562   5.1217849481e+01   3.8853263122e+01    0.4138746    0.2041287  39.89  0.001323097    2.543    0.607
       244 -10.2052     71.8342     60.0158   7.3193090624e+01   5.6235004737e+01    0.4337662    0.2794756  30.42  0.002165289    1.533    0.348
       245  -9.5152     39.9639     59.7399   8.5881364202e+01   6.0959360100e+01     0.333761    0.1952576 -26.29  0.001658878    1.741    0.426
       246 -10.5395     92.6334     42.7483   5.9958703616e+01   5.5032900212e+01      0.74305    0.5819948  64.00    0.0040753    1.514    0.339
       247 -10.1209     87.1199     33.9577   5.8343714170e+01   5.7362728903e+01    0.4359032    0.2778172  -0.07  0.002125547    2.037    0.509
       248 -10.2573    105.0015     43.3660   5.6648485272e+01   5.2299440175e+01    0.5880488    0.2851694  47.35  0.002585446    1.869    0.465
       249 -10.9733    103.7034     38.5534   5.5301195773e+01   5.3236269242e+01    0.2927215    0.2332203 -25.44 0.0002569737    1.348    0.258
       250 -10.6865     87.8213     49.0190   6.3741429598e+01   5.5085771669e+01    0.4755594    0.3895572  47.48  0.002691208    1.251    0.201
       251 -10.4752     98.5617     54.9928   6.2537575936e+01   5.1943957865e+01    0.5661081    0.2466232 -41.84  0.000642035    2.466    0.595
       252 -10.1069     94.2281     54.7664   6.3775246950e+01   5.2879685388e+01    0.4827741    0.2466557  32.48  0.001982968    2.243    0.554
       253 -11.1032     92.8401     51.0366   6.2887606043e+01   5.3756024012e+01    0.3122343    0.2570203  10.62 0.0002870402    1.237    0.191
       254 -10.6440    168.3388     57.3856   4.7299674222e+01   3.5498113344e+01    0.4268539      0.35452 -79.39   0.00115718    1.225    0.184
       255  -9.4398     65.0345     56.5474   7.4504522216e+01   5.8002420378e+01    0.2458516    0.1869292 -33.74  0.000302509    1.280    0.219
       256  -9.1220    131.9336     44.8439   5.0635066379e+01   4.5941744355e+01    0.2924432    0.1642751  46.50 0.0005908427    1.710    0.415
       257 -11.1700    126.6360     46.8954   5.2458202782e+01   4.6898079354e+01    0.5992545    0.4441915 -77.43  0.001583788    1.794    0.442
       258  -9.8439    118.2067     54.1409   5.6834300312e+01   4.7775865795e+01    0.4297471    0.2780724 -29.44  0.002069257    1.675    0.403
       259 -10.6245    122.0778     50.8455   5.4802010198e+01   4.7385767074e+01    0.5570554    0.3572619  34.89  0.002636982    1.704    0.413
       260  -9.2466     79.7127     54.3312   6.8364112000e+01   5.5803091482e+01    0.2437468    0.2191688 -74.51 0.0009155232    1.525    0.344
       261 -10.9674     68.1679     48.6971   7.0432623363e+01   5.8815434058e+01    0.7206563    0.5992844 -84.12  0.003249155    2.038    0.509
       262 -12.1512     61.9375     44.4139   7.1173373288e+01   6.0563710771e+01    0.4784511    0.2974499  35.75 0.0004828793    1.539    0.350
       263  -9.2369    192.5621     52.9598   4.2422472291e+01   3.0518725181e+01    0.2522771    0.1742871  50.59 0.0009205088    1.602    0.376
       264  -9.1535    107.2360     52.6356   5.9236003689e+01   5.0452994975e+01    0.3745021    0.1498322  44.36  0.001025381    2.379    0.580
       265  -9.8588    174.8362     50.1200   4.4300663041e+01   3.5023968132e+01    0.2997805     0.250818   4.38  0.001672557    1.610    0.379
       266  -9.8572    163.1595     47.6200   4.5514746821e+01   3.8134509638e+01    0.5778818    0.3256709  27.66  0.002197347    3.395    0.705
       267 -10.7661    153.7710     48.1053   4.7293058462e+01   4.0303922250e+01    0.3766294    0.3111146  89.79 0.0006445973    1.246    0.197
       268  -9.8217    145.4053     51.6106   4.9909934742e+01   4.1799639312e+01     0.381511    0.2633471 -69.70  0.001824946    1.838    0.456
       269  -9.4921    182.3208     48.6497   4.2796161582e+01   3.3482043382e+01     0.247115     0.231911  48.42  0.001528928    1.232    0.188
       270 -10.2015    114.7181     46.5517   5.5202539531e+01   4.9684927970e+01    0.3583631    0.2578574 -14.70 0.0007295427    1.637    0.389
       271  -9.8159    112.9475     41.2870   5.3866155596e+01   5.0811756374e+01    0.2306575    0.1995832 -24.04 0.0002115846    1.244    0.196
       272  -8.8310    198.8660     58.6033   4.2922649102e+01   2.8274295439e+01    0.2168401    0.1767216 -33.76 0.0005356894    1.332    0.249
       273 -10.1281    202.6638     46.6453   3.9596252084e+01   2.9134519230e+01    0.2385641    0.2300981 -69.65 0.0003332896    1.198    0.165
       274  -7.9837    196.6546     48.6768   4.0835025617e+01   3.0197565331e+01    0.1290096    0.1020246  32.41 0.0007050115    1.737    0.424
       275  -8.7987     79.3847     48.2070   6.6236872447e+01   5.6856729295e+01     0.264379    0.1200611 -43.36  0.001096733    2.480    0.597
       276 -10.4898     79.3647     42.9916   6.4286181890e+01   5.7655126347e+01    0.4145018    0.3132043  49.24  0.001414692    1.399    0.285
       277  -9.2886    234.9516     46.9805   3.6149178850e+01   2.2269474238e+01    0.1824215    0.1496548 -65.32 0.0003806314    1.020    0.020
       278  -9.6552    145.8583     46.1801   4.8212257067e+01   4.2457773547e+01    0.2285427     0.205325  88.06 0.0004816204    1.111    0.100
       279  -9.9729    245.2113     44.1291   3.4621617443e+01   2.0643600894e+01    0.2355886    0.1580154 -30.96  0.001402011    1.723    0.420
       280  -9.3648    186.1171     44.2759   4.1159264564e+01   3.3203048901e+01    0.2371296    0.1482004  63.29 0.0009194428    1.531    0.347
       281  -9.7571    178.1013     44.2179   4.2272038749e+01   3.5072326138e+01    0.3536129    0.1830209  72.44  0.001596972    2.002    0.501
       282  -8.9734     71.3944     42.5931   6.6918048607e+01   5.9203333534e+01    0.2799926    0.1747008   9.25 0.0009674691    2.065    0.516
       283  -9.4661    223.5422     34.8050   3.4701956961e+01   2.6202841174e+01    0.2178702    0.1543473 -86.94 0.0002706241    1.303    0.232
       284  -9.2794    227.2812     33.2681   3.4031194266e+01   2.5623942677e+01    0.2481603    0.1237358 -65.96   0.00105358    2.085    0.520
       285  -9.9250    227.6771     41.3085   3.5676008366e+01   2.4504285226e+01    0.2376623    0.1866351 -67.66 0.0009497314    1.058    0.055
       286 -10.2027    228.6521     38.3210   3.4956510999e+01   2.4696044905e+01     0.327356    0.1718901 -53.40  0.001177244    1.659    0.397
       287  -8.5690    191.4091     42.2274   3.9952816127e+01   3.2263622153e+01    0.1791432    0.1111569 -48.78 0.0005473138    1.533    0.348
       288  -8.8614    143.9812     41.9979   4.7326697693e+01   4.3468133211e+01    0.2222723    0.1574498  34.87 0.0005343128    1.627    0.385
       289  -9.3210     34.5229     41.6418   8.1852051853e+01   6.4953298015e+01    0.3837585    0.1964745   8.91  0.001381454    2.549    0.608
       290 -10.6836     40.8566     38.8966   7.7859157005e+01   6.4614681424e+01    0.3545945    0.2062454  -2.69 0.0009090971    2.156    0.536
       291  -9.7184    222.5361     40.7347   3.6063868620e+01   2.5644883664e+01    0.2343478    0.1762412 -71.83 0.0005665861    1.161    0.139
       292  -9.6707    158.2633     39.4949   4.4071100426e+01   4.0386078877e+01    0.2902176    0.2605686 -82.57 0.0004608319    1.077    0.072
       293  -9.6968     31.8052     47.6495   8.5359285826e+01   6.4194755097e+01     0.203666    0.1513267 -30.90 0.0008182653    1.159    0.138
       294  -9.3159    206.6143    245.2126   8.1065897196e+01  -6.4426821515e+00    0.1707743    0.1005737 -25.41 0.0009489281    1.678    0.404
       295  -8.9606    146.3300     34.0713   4.4542450881e+01   4.3911220784e+01    0.2080087    0.1692526 -78.75 0.0009699442    1.305    0.234
       296  -9.5806    127.5012     39.4901   4.9890090256e+01   4.7694047824e+01    0.2815427     0.240672  61.20  0.001055914    1.092    0.084
       297 -10.2965    130.7267     34.6448   4.7667458438e+01   4.7545100440e+01    0.4983262    0.3065201 -44.84  0.001300661    1.808    0.447
       298 -10.1246    146.4821     29.0307   4.3031150791e+01   4.4469926093e+01    0.2945937    0.2342626  41.42 0.0008332343    1.338    0.252
       299 -10.3240    137.1144     37.2511   4.7209508830e+01   4.5712087314e+01    0.4217604    0.3177276  19.30 0.0009381632    1.672    0.402
       300 -10.2387    142.0016     33.3274   4.5093870295e+01   4.5032445014e+01    0.4096334    0.2897655  -0.13  0.001418532    1.970    0.493
       301  -9.5839    120.7378     38.9331   5.1213641647e+01   4.9339698259e+01     0.287101    0.2274573 -65.13  0.001565952    1.540    0.351
       302  -8.7161     49.2005     40.0146   7.4638074613e+01   6.3262866916e+01    0.2315874    0.1332826 -13.43  0.001094626    2.146    0.534
       303  -8.0346    215.4844     39.4448   3.6508429052e+01   2.7304750961e+01     0.127458    0.1050639 -72.06 0.0001615691    1.019    0.019
       304  -8.9934    165.0346     37.3015   4.2388248969e+01   3.9054889817e+01    0.4158628    0.2894329 -65.74  0.002208889    1.551    0.355
       305  -7.6669     24.6394     39.1456   8.5643559989e+01   6.6483758139e+01    0.1786542     0.129028 -29.74            0    1.168    0.144
       306 -10.5763    178.4181     37.0531   4.0383796765e+01   3.5934586996e+01    0.3413095    0.2646309  58.91 0.0004351242    1.290    0.225
       307  -8.3677    148.4051     38.5408   4.5489206197e+01   4.2860701507e+01    0.1340882      0.12376  63.16 7.560971e-05    1.051    0.049
       308 -10.0269     73.1788     36.8936   6.4053908977e+01   5.9704940830e+01       0.3719    0.2642689  39.05   0.00100623    1.301    0.232
       309 -10.2562    249.4411     35.7751   3.2637534228e+01   2.0928072376e+01    0.2349626    0.2052128  53.88  0.001686232    1.596    0.373
       310  -9.0731    238.6513     37.1385   3.3806874412e+01   2.2839244232e+01    0.1983024    0.1414117 -81.73 0.0006738708    1.274    0.215
       311  -8.8971    183.0249     27.3187   3.7334472528e+01   3.6050929604e+01    0.2488504    0.1543065 -61.33  0.001321525    1.638    0.389
       312  -9.3867    186.1142     36.4631   3.9216087304e+01   3.4224958953e+01    0.3261182    0.1683346 -56.77  0.001517922    2.072    0.517
       313  -9.7681    183.8510     31.9135   3.8373718010e+01   3.5311942811e+01     0.299016    0.1812246  75.06 0.0008748458    1.556    0.357
       314 -10.3754    114.7946     35.6428   5.1494768194e+01   5.1122743443e+01    0.3422418    0.2344564  64.85  0.001776303    1.486    0.327
       315  -9.9023    117.2489     32.9827   5.0023222534e+01   5.0886869749e+01    0.2467124    0.2121288   3.60 0.0003170541    1.292    0.226
       316  -8.3469    198.4808     36.5154   3.7719640094e+01   3.1408084190e+01    0.1315619    0.1090884 -75.41 0.0006255875    1.054    0.051
       317 -10.4425     56.2494     35.1465   6.9727248428e+01   6.2916751121e+01    0.3405221    0.2479579 -46.83  0.001417186    1.778    0.437
       318  -8.5978     60.9868     34.2906   6.7500188342e+01   6.2251682126e+01    0.2535381     0.174871  31.39 0.0006290226    1.317    0.241
       319  -9.4151     62.7977     31.0467   6.5464113039e+01   6.2388856114e+01    0.4447027    0.2905713  42.22  0.002475593    1.483    0.326
       320  -9.5669     95.7658     34.8338   5.6135216446e+01   5.5438932608e+01    0.4061613    0.2219404  49.50  0.001956401    1.645    0.392
       321  -9.4609    208.8097     32.8792   3.5748259627e+01   2.9584537715e+01    0.3090083    0.1721678 -50.85  0.001655504    1.628    0.386
       322  -8.2870    125.3016     34.3055   4.8687356883e+01   4.8859469441e+01    0.1385366    0.0970402  31.35  0.000484326    1.595    0.373
       323  -8.5955      1.3743    244.2177   1.2318892751e+02   2.1077907554e+01    0.1529389   0.08180162  81.77 0.0004251081    1.587    0.370
       324  -8.3286    244.9525    242.0147   7.3483854071e+01  -1.0723961470e+01     0.142079    0.1047703   2.88 0.0007558789    1.095    0.087
       325  -8.7506    128.1457    240.7866   9.6682332232e+01   5.6777174784e+00     0.306131   0.07612586  40.19  0.001035097    3.396    0.706
       326  -8.9518    188.9923    239.7351   8.3660424492e+01  -3.1826155897e+00    0.1665791   0.09771391  29.52 0.0008860799    1.520    0.342
       327  -8.7179    221.5838    237.1534   7.6889642752e+01  -7.2022242766e+00    0.3075347    0.1435444  15.84  0.001383232    2.670    0.625
       328  -9.1142     75.0235     23.1934   5.7888841745e+01   6.1098988677e+01    0.2006426    0.1657141  -7.71 0.0003600105    1.226    0.184
       329 -10.9588     62.0622     22.7714   6.2225701141e+01   6.3578036478e+01    0.4639882    0.2515884  31.71  0.001436898    1.725    0.420
       330  -8.8264    221.9813    233.5076   7.6197998847e+01  -6.7126093172e+00    0.1810064    0.1509234  30.22 0.0007283404    1.457    0.314
       331  -8.4140    139.9993    236.7575   9.3534129701e+01   4.6300713508e+00    0.1756279    0.1004482  33.84 0.0004781777    1.541    0.351
       332  -9.7844     72.1454     15.1025   5.5431941052e+01   6.2538349097e+01    0.2133958    0.2009087  56.09  0.001454017    1.316    0.240
       333  -9.0587     32.0617    232.3592   1.1653911202e+02   2.0405442196e+01    0.1703572    0.1310438  57.69 0.0004891413    1.103    0.094
       334  -9.3678     49.2283     33.6494   7.2021329646e+01   6.4241051288e+01    0.4060844    0.1883141  22.92  0.001535586    2.654    0.623
       335  -8.4559    189.3341     33.7335   3.8143349794e+01   3.3828623051e+01    0.1341114   0.08735394 -73.65 0.0001925455    1.586    0.369
       336 -10.1551    187.0814    230.7686   8.2577679694e+01  -1.4348428633e+00    0.2555199    0.1648981  12.43  0.001036613    1.590    0.371
       337  -9.1388    177.7795    231.3565   8.4599249961e+01  -1.5493608874e-01    0.1952875    0.1103149  23.96  0.000953367    1.719    0.418
       338  -9.7633    100.7783     26.4676   5.1710489520e+01   5.5355733907e+01     0.368282    0.1512524  56.74  0.001017285    2.224    0.550
       339  -8.9349     43.2423     32.5982   7.4194734519e+01   6.5277952569e+01    0.1935626    0.1584302 -23.92 0.0005085078    1.222    0.182
       340  -8.8720     42.2129     29.0401   7.3135604323e+01   6.5952078786e+01    0.2208871    0.1514406 -30.35  0.001321761    1.415    0.293
       341  -9.8500    248.3601     30.6586   3.1742718141e+01   2.1778597259e+01    0.2246957    0.2067194 -30.01  0.001145446    1.508    0.337
       342  -9.2624    168.8600     31.6881   4.0315048649e+01   3.8840751453e+01    0.2250912    0.1715457 -47.72 0.0006656104    1.335    0.251
       343  -9.3456    153.5976     31.6145   4.2604958389e+01   4.2472637962e+01    0.3759981    0.2258273 -88.73  0.001748819    2.083    0.520
       344  -9.2616    162.8979    226.1012   8.6904032987e+01   3.0573820598e+00     0.372881    0.2691902  81.48  0.001720951    2.791    0.642
       345  -9.9496     34.6415     31.5348   7.7714169695e+01   6.6598543584e+01    0.2675544    0.2059851  22.81  0.001574485    1.290    0.225
       346 -10.4240     37.2974     26.4568   7.4264215652e+01   6.7011753696e+01     0.317251    0.2110432  -7.62 0.0008628048    1.440    0.306
       347  -9.0055    224.0052    225.0137   7.4352608556e+01  -5.6895733861e+00    0.1917996    0.1527873  -2.28 0.0006018316    1.026    0.025
       348  -8.8165    132.1341    225.2028   9.3581926136e+01   8.0795699581e+00    0.1861406    0.1533467  56.55 0.0004941677    1.325    0.245
       349 -11.2077     42.4487     15.5064   6.6884125252e+01   6.7716424345e+01    0.3251449    0.1820226  31.83  0.000148492    1.572    0.364
       350 -10.0474    234.1170     30.2986   3.2822227433e+01   2.4607006488e+01     0.360459    0.2058298  56.91  0.001578781    2.063    0.515
       351  -9.2846     93.4629     29.9684   5.4972386596e+01   5.6532791051e+01     0.416659    0.1825513  56.61  0.001772438    2.270    0.559
       352 -11.1076     19.1198     28.7021   8.4304150841e+01   6.8806831756e+01    0.3233621    0.1992382 -44.79 0.0005550429    1.653    0.395
       353  -8.0082      1.7016    224.2940   1.2215227738e+02   2.5169341356e+01    0.1221958   0.06548028  63.73 0.0002182757    1.566    0.362
       354  -9.2733    189.6510     28.7773   3.6904031496e+01   3.4359339479e+01    0.2077115    0.1531016  67.33 0.0004528972    1.291    0.225
       355  -9.8875    134.0962     28.7581   4.5156263674e+01   4.7443431315e+01    0.3339614    0.2834428  15.96  0.001269334    1.374    0.272
       356  -9.6160    222.8757     26.6340   3.3043385561e+01   2.7353769025e+01    0.2357125    0.2203264  -2.37  0.001653199    1.553    0.356
       357  -8.5949    116.1890     27.8708   4.8531172975e+01   5.1726994668e+01    0.1810491    0.1384461  35.67 0.0002426431    1.296    0.228
       358  -9.3804    212.1021     26.1747   3.3936504412e+01   2.9689992320e+01    0.2938531    0.1833672 -18.15  0.001540912    2.428    0.588
       359  -8.5636    196.4986    222.0224   7.9166356341e+01  -1.3461717960e+00    0.1914376   0.09939879 -20.63 0.0008100804    2.542    0.607
       360  -9.4476     89.1072    220.7071   1.0284102106e+02   1.5615234979e+01    0.2621403    0.2287169  19.38  0.000836147    1.276    0.217
       361  -8.4319    206.9702    217.9741   7.6364885007e+01  -2.1974873976e+00    0.1586525    0.1315799  -0.18 0.0004338553    1.022    0.021
       362  -9.1713    242.5696    210.1292   6.8344468341e+01  -5.8281648601e+00    0.2031559    0.1848203 -31.95 0.0007922824    1.452    0.311
       363  -8.3828    230.5413    209.5209   7.0371402743e+01  -4.1362777435e+00    0.1317472    0.1013364 -10.26  0.000148546    1.090    0.082
       364  -9.3005    161.3707     26.8766   4.0091176514e+01   4.1174313771e+01    0.2568458    0.1691019  58.18 0.0008521177    1.406    0.289
       365  -8.4935    141.1197     27.1746   4.3397793272e+01   4.5956394620e+01    0.1786127    0.1458683 -68.79  0.000580036    1.326    0.246
       366  -9.7510     26.7712     21.1423   7.7018613802e+01   6.9127767757e+01    0.3387578    0.2078738 -22.29  0.002036064    1.467    0.319
       367  -8.8193    241.1817     25.8248   3.1364979281e+01   2.3756265146e+01    0.1457573     0.127052  79.87 0.0005465246    1.325    0.245
       368  -9.9745    205.9328     24.5908   3.4185276795e+01   3.1215800810e+01     0.400576    0.2817196 -70.75  0.001139679    1.274    0.215
       369 -10.8765      2.0787     25.2966   9.2303056451e+01   7.0792883180e+01    0.2082965    0.1464562 -34.81 0.0003140815    1.160    0.138
       370  -9.8629    232.7248     23.4379   3.1559514463e+01   2.5719872435e+01    0.3689654    0.1935155 -81.35  0.001801925    1.964    0.491
       371  -9.5997    233.5355     18.5023   3.0515529800e+01   2.6134877980e+01     0.227123    0.1498796 -67.93 0.0007371289    1.255    0.203
       372  -8.6890    194.4796    209.4904   7.7336060838e+01   1.1408599020e+00    0.1385266     0.116645  -3.41 0.0008098224    1.046    0.044
       373 -10.4186    153.6390     23.0082   4.0155818809e+01   4.3437517000e+01    0.2323321    0.2172121  66.27 0.0003348695    1.108    0.098
       374 -10.5708    150.2835     17.7626   3.9165435169e+01   4.4781851414e+01    0.6516556    0.2343464  64.57  0.002727699    2.346    0.574
       375  -8.6406    124.0051    206.0035   9.2486645215e+01   1.3405849861e+01    0.2047249    0.1644808  -8.01            0    1.494    0.331
       376  -8.0084    124.5220     23.5031   4.5329050777e+01   5.0272864915e+01    0.1339586    0.1156691  51.43 -4.181453e-05    1.053    0.051
       377 -10.2465    117.1962     21.8137   4.6260446966e+01   5.2151000678e+01    0.3182262    0.2158755   7.50 0.0005886108    1.928    0.481
       378  -9.1229     10.6087     22.6923   8.6397890014e+01   7.0569290247e+01    0.1702993    0.1241469  32.30 0.0009913793    1.775    0.437
       379  -8.1131     95.3227    205.3206   9.9313802855e+01   1.8136053830e+01    0.1403215    0.1101235 -19.01 0.0004548958    1.674    0.403
       380  -9.1195     35.4585    201.4930   1.1327159140e+02   2.6974600824e+01    0.1311853    0.1104701  78.69 0.0008091431    1.014    0.014
       381  -9.9023     84.6915     20.7316   5.3912215413e+01   5.9423898658e+01    0.3468528    0.2436157 -51.04  0.001113687    1.979    0.495
       382  -8.7098      9.6631    196.3053   1.1876240234e+02   3.0741366231e+01    0.1336028   0.07440072  63.84 0.0007040199    1.672    0.402
       383  -9.4740    199.8777     18.6975   3.3451975043e+01   3.3221121344e+01    0.2608421    0.2492193  42.12  0.001838151    1.387    0.279
       384  -8.7729    193.1875     20.0189   3.4431055615e+01   3.4567110148e+01    0.1715134    0.1511133  61.05 0.0003259745    1.293    0.227
       385  -8.6544    144.1900     16.4223   3.9694635628e+01   4.6358595331e+01    0.1946891    0.1144319  68.95 0.0003989757    1.501    0.334
       386  -8.4421     96.4531    195.5204   9.7588959719e+01   2.0243599513e+01    0.1427583    0.1356883  64.16 0.0001540373    1.005    0.005
       387  -8.9615      6.4879    194.5360   1.1935086510e+02   3.1429556327e+01    0.2261066   0.08294876 -65.01   0.00102761    2.351    0.575
       388  -8.7183    242.0069    193.7401   6.5404976770e+01  -3.1632157888e+00    0.1723925    0.1419268  -3.82   0.00037801    1.113    0.102
       389  -8.4398     55.4428    181.4544   1.0612452604e+02   2.9521017451e+01    0.1395238     0.125502  86.89 0.0001344868    1.008    0.008
       390  -9.8984     18.3295    174.3095   1.1488579120e+02   3.5283850659e+01    0.2640466    0.1851401 -43.91 0.0008501674    1.666    0.400
       391  -9.3396      4.2806    173.9466   1.1834364726e+02   3.6530171951e+01    0.2998733     0.115545  46.09  0.001362375    2.549    0.608
       392 -10.3229     10.1113    158.2351   1.1547588943e+02   3.9968871286e+01    0.3311757     0.209531  71.14  0.001788888    1.604    0.377
       393 -10.0588     15.1533    165.0209   1.1480814688e+02   3.7869513755e+01    0.2341689    0.2276908 -13.23 0.0002471795    1.282    0.220
       394  -9.8937     11.5529    164.0048   1.1564979343e+02   3.8415515819e+01    0.4186303    0.1075572 -73.43  0.001308449    3.229    0.690
       395 -10.3603      7.4948    165.9195   1.1687107504e+02   3.8255436070e+01    0.2623519    0.2336992  39.31 0.0008598577    1.308    0.235
       396 -10.2713      8.1634    161.8377   1.1633071174e+02   3.9217281123e+01    0.3168732    0.2043495  60.03  0.001440066    1.575    0.365
       397  -9.9576     24.3623    162.8869   1.1213923507e+02   3.7602606877e+01    0.2360161    0.1968049  18.48 0.0004856092    1.451    0.311
       398  -9.8624     20.5751    162.6628   1.1313216723e+02   3.7998993248e+01    0.3531012    0.1403459 -62.47  0.001535552    2.079    0.519
       399  -8.6701    196.0204     16.3152   3.3285537935e+01   3.4339050056e+01    0.1795351    0.1395559 -89.61  0.001151834    1.097    0.089
       400 -12.7185     34.4241    157.1900   1.0868027140e+02   3.8086749894e+01     1.404086    0.6457341  53.71  0.005756544    2.606    0.616
       401 -10.4860      2.0078    155.6305   1.1738276697e+02   4.1198645343e+01    0.5004243    0.1523848 -75.14   0.00197776    2.672    0.626
       402  -8.7055    111.8102     15.1694   4.5113553639e+01   5.4043864737e+01    0.1834938    0.1604215  67.90 0.0006543144    1.124    0.110
       403  -9.3959    249.0085    153.9798   5.6509786718e+01   2.4627974159e+00    0.2079303    0.1414137 -14.24 0.0006872364    1.673    0.402
       404  -9.8728     19.8537    151.6587   1.1210453953e+02   4.0850803205e+01    0.2704268    0.1520343 -56.69 0.0005809568    1.587    0.370
       405 -10.3051      4.2544    146.1846   1.1588083897e+02   4.3402972638e+01    0.4620752    0.2017328  62.52  0.001931945    2.929    0.659
       406 -10.4980     14.8035    143.7759   1.1262466228e+02   4.3259792917e+01    0.5240639    0.2380328 -42.48 0.0009793062    2.478    0.596
       407 -11.3404     12.4258    150.7301   1.1407888667e+02   4.1680095481e+01    0.4852453    0.3312544  -3.09   0.00263878    1.999    0.500
       408  -8.4532      9.4648    147.5065   1.1456174886e+02   4.2711817856e+01    0.1638985    0.1266547 -11.90 4.544717e-05    1.672    0.402
       409  -8.7896     84.9934     14.4188   5.1310204607e+01   6.0002778632e+01    0.2442289    0.1007134  51.89 0.0005419636    2.011    0.503
       410  -9.2182     88.6638     13.6796   5.0021916798e+01   5.9299151670e+01    0.4654837     0.110273  59.04  0.001501702    4.212    0.763
       411  -8.7419    206.0072     12.9965   3.1615535211e+01   3.2499747217e+01    0.2028998    0.1135931 -66.92  0.000690848    1.701    0.412
       412  -8.8115     45.9137    151.4961   1.0458048868e+02   3.8323417692e+01    0.1862837    0.1422002  28.82 0.0003370081    1.452    0.311
       413  -9.2681     63.0538    149.0166   9.9109936129e+01   3.6845419422e+01    0.2113255    0.1983891 -76.91            0    1.025    0.024
       414  -8.7307     38.1741    143.3761   1.0565397750e+02   4.1266370210e+01    0.1847907    0.1229879  42.29 0.0003363114    1.625    0.385
       415  -9.8112     22.0838    139.8064   1.0998586525e+02   4.3689497729e+01    0.3946958    0.1997133 -45.52  0.001633965    1.999    0.500
       416  -9.8019      7.9808    133.1965   1.1338673099e+02   4.6419508204e+01    0.2882504     0.183098 -11.03  0.001513161    2.100    0.524
       417  -9.6031      1.4981    138.5051   1.1587907752e+02   4.5497521482e+01    0.3482305    0.1262569 -72.11  0.001301685    2.172    0.540
       418 -11.0127      3.0320    134.0400   1.1495652272e+02   4.6520465719e+01    0.5700491    0.2716095 -79.53  0.001677096    1.851    0.460
       419 -10.5657     41.4427    138.1278   1.0383313093e+02   4.2279513005e+01      0.32242    0.2782774  78.57 0.0009101996    1.215    0.177
       420  -9.4212    230.8322    137.1081   5.5905129791e+01   8.3903775624e+00    0.2048829    0.1730786 -50.93 0.0006771053    1.186    0.157
       421 -10.1727     34.7061    135.8914   1.0556672182e+02   4.3548651980e+01    0.4029969    0.2187177 -43.42 0.0007865872    1.891    0.471
       422  -9.7535     15.4668    135.5160   1.1141782085e+02   4.5307087434e+01    0.2339246     0.193853 -66.88 0.0006781311    1.034    0.033
       423  -8.9255    248.6549    134.1745   5.2568937471e+01   5.8978481174e+00    0.1909607    0.1031401 -33.25 0.0004515589    1.667    0.400
       424 -10.4676     60.8434    131.3257   9.6493160295e+01   4.1712196352e+01    0.4253875    0.3511039   0.82  0.001102948    1.409    0.290
       425  -9.2325     28.9255    132.2135   1.0680586892e+02   4.5039483124e+01    0.1983962    0.1701683  77.37 0.0004779825    1.233    0.189
       426  -9.1439     20.4910    131.0643   1.0927840801e+02   4.6050916008e+01    0.2050656     0.115175 -68.36 0.0007525192    1.503    0.335
       427 -10.7006     44.2808    129.1634   1.0140202306e+02   4.4282385217e+01    0.5562581    0.2833705 -46.44  0.002416629    1.872    0.466
       428 -10.0758     34.0403    126.4980   1.0425375346e+02   4.6025007615e+01    0.3119582    0.1904247 -86.27  0.001413238    1.919    0.479
       429  -8.1078     65.3017    127.3064   9.4241984498e+01   4.2133645962e+01    0.1530199    0.1086301 -29.58 0.0002562274    1.597    0.374
       430  -8.9953     12.7874    126.7915   1.1110196801e+02   4.7708623625e+01    0.1810673    0.1379141  83.51 0.0005281718    1.353    0.261
       431  -9.9112     18.2514    127.2594   1.0944321370e+02   4.7192259221e+01    0.4902487    0.1609229 -51.37  0.001926327    2.545    0.607
       432 -11.0721      7.9481    122.7816   1.1209795038e+02   4.9035690610e+01    0.4300079    0.2768829 -57.33   0.00160086    1.291    0.226
       433 -10.5104      3.4943    116.9018   1.1275585058e+02   5.0763232534e+01    0.4077513    0.2914146 -67.34   0.00243419    1.131    0.116
       434  -9.9322     59.5046    124.9242   9.5626346392e+01   4.3525691477e+01    0.2676711    0.2083913  -7.15 0.0009849486    1.535    0.349
       435 -10.1374     61.8632    121.0855   9.4035761960e+01   4.4183226896e+01    0.2784676    0.2311576 -65.46 0.0003490831    1.185    0.156
       436  -8.4988     66.7113    123.2950   9.2924061123e+01   4.2952724460e+01    0.1448723    0.1153057  76.01            0    1.550    0.355
       437  -8.8006     39.4002    123.2147   1.0191975029e+02   4.6327060935e+01    0.1973066    0.1264915 -75.62 0.0006289334    1.610    0.379
       438  -9.9061    236.9233    121.8341   5.1728385924e+01   1.0025402709e+01    0.2094833    0.1765787 -18.92   0.00125462    1.280    0.219
       439 -10.6186     19.7050    104.8177   1.0535280869e+02   5.2696063214e+01    0.4704914    0.2684529  25.65  0.002400439    1.990    0.497
       440  -9.9737     20.5005    112.5239   1.0641757211e+02   5.0728976036e+01    0.2408593     0.220032 -71.33 0.0007803488    1.107    0.097
