#   1 NUMBER                 Running object number                                     
#   2 MAG_AUTO               Kron-like elliptical aperture magnitude                    [mag]
#   3 X_IMAGE                Object position along x                                    [pixel]
#   4 Y_IMAGE                Object position along y                                    [pixel]
#   5 X_WORLD                Barycenter position along world x axis                     [deg]
#   6 Y_WORLD                Barycenter position along world y axis                     [deg]
#   7 A_WORLD                Profile RMS along major axis (world units)                 [deg]
#   8 B_WORLD                Profile RMS along minor axis (world units)                 [deg]
#   9 THETA_WORLD            Position angle (CCW/world-x)                               [deg]
#  10 FWHM_WORLD             FWHM assuming a gaussian core                              [deg]
#  11 ELONGATION             A_IMAGE/B_IMAGE                                           
#  12 ELLIPTICITY            1 - B_IMAGE/A_IMAGE                                       
         1 -13.4805      4.2773     14.2849   1.3654080469e+02   7.5482514580e+01     2.737157     0.851334 -61.01    0.0123891    2.336    0.572
         2 -13.3019    190.5115     27.3538   7.3346619597e+01   3.3394489568e+01     1.403191     1.295969  73.25  0.006908099    1.087    0.080
         3 -13.5529    204.7231      8.7478   6.6365898508e+01   3.1627269976e+01     1.579041     1.153477  42.67  0.008371154    1.596    0.373
         4  -9.3339     32.1327     61.9946   1.3299222118e+02   6.2500456301e+01    0.1957706    0.1784321 -76.95   0.00047897    1.052    0.049
         5 -10.5634    139.0887    250.1667   1.3031304254e+02   9.6252843125e+00      0.27126     0.102508  41.45  0.001486139    1.868    0.465
         6 -10.8938    124.0110    250.0031   1.3303553640e+02   1.1676751383e+01    0.4517413   0.09101012  36.05  0.001754474    3.678    0.728
         7 -12.1345     22.2972    201.2831   1.4991718182e+02   3.1831372200e+01    0.6989231    0.0857503  42.75  0.003002396    3.196    0.687
         8 -13.6574      7.7207    208.2189   1.5312767012e+02   3.1895293644e+01     1.486798    0.7401792 -80.18  0.006579793    2.073    0.518
         9 -14.8129     11.7503    156.7616   1.5047682170e+02   4.1689692675e+01      9.48841     3.269965  63.54   0.04388711    2.580    0.612
        10  -9.8021    173.2285    248.6259   1.2409430739e+02   5.1561181048e+00    0.1608243   0.07391796  31.24  0.000947319    1.633    0.388
        11  -9.9679    198.7564    245.0058   1.1930747604e+02   2.0950513252e+00    0.1157217   0.08580584 -20.08 0.0008938289    1.633    0.388
        12  -9.5960     82.1253    243.6185   1.4031076480e+02   1.7994289227e+01    0.1762088    0.1215999  60.30 0.0009510441    1.312    0.238
        13  -8.9904     74.0265    242.9866   1.4179137489e+02   1.9081202100e+01    0.1742923   0.08695618  54.33 0.0004589153    1.617    0.382
        14 -11.1450     12.6520    241.1842   1.5299786914e+02   2.5924284052e+01    0.2887868     0.113955  57.57  0.001242976    1.728    0.421
        15 -10.7090    140.4801    230.8098   1.2805320714e+02   1.1914582365e+01    0.2372415    0.1272454  37.44  0.001428375    1.360    0.265
        16  -9.6525     33.0453    228.6278   1.4884365074e+02   2.5966024044e+01    0.1713226    0.1066843  64.56 0.0006521927    1.290    0.225
        17 -12.7608      3.1996    177.4084   1.5326202324e+02   3.8094117230e+01     1.836623    0.4785899 -83.80  0.006559354    3.510    0.715
        18  -9.1269    177.4250    227.1960   1.2075223037e+02   6.9981663441e+00    0.1214532    0.1129385 -57.23 0.0006203734    1.660    0.398
        19 -10.5710    173.1503    222.0159   1.2085582803e+02   8.2531997361e+00    0.3050172    0.2215509  40.04  0.002098299    1.233    0.189
        20  -8.6923    152.6714    213.0000   1.2356631236e+02   1.2542841054e+01    0.1555445    0.1294213  31.41 0.0004542457    1.094    0.086
        21  -9.2509     31.9821    206.8350   1.4812690943e+02   2.9854015803e+01    0.2843814   0.08765815  50.36  0.001267305    2.245    0.555
        22 -11.2342     65.9845    199.7692   1.4038769854e+02   2.7275493622e+01    0.2781311    0.2277859 -44.98  0.001405083    1.745    0.427
        23  -9.7642    192.2959    193.6076   1.1315654996e+02   8.8857463983e+00    0.4021025    0.2515435 -64.88  0.001623388    5.220    0.808
        24  -9.0062     51.8075    197.6328   1.4335502403e+02   2.9390172390e+01     0.165172      0.11127  50.78 0.0007652771    1.129    0.114
        25  -9.7647     43.8855    192.4198   1.4477576822e+02   3.1282012814e+01     0.275546    0.2179004  16.41  0.001063152    1.675    0.403
        26 -11.7662      2.3658    153.3785   1.5271625823e+02   4.3122382351e+01    0.6548216    0.2197904 -86.68  0.003099873    2.635    0.621
        27 -11.5323     71.5700    191.7213   1.3846169099e+02   2.8063284036e+01    0.2316903    0.2287062 -73.71 0.0007093353    1.352    0.260
        28  -8.7661    104.1215    180.2970   1.2970042973e+02   2.5553063193e+01    0.1782158    0.1339058  48.31 0.0003425286    1.106    0.096
        29 -13.0215     68.1890    176.7123   1.3785289931e+02   3.1448841584e+01    0.4502644    0.2894356 -43.07  0.001902158    2.278    0.561
        30 -10.5977     80.9288    178.7616   1.3499880964e+02   2.9301556338e+01    0.2278548     0.187537  45.12 0.0003781957    1.102    0.092
        31 -11.3834     87.7304    169.3498   1.3225047497e+02   3.0200139877e+01    0.5218679    0.4856501  77.43  0.003439115    1.155    0.134
        32 -13.6056     56.1356    214.4483   1.4352415393e+02   2.5839708526e+01      4.09958          nan  41.81     0.014095    4.554    0.780
        33 -10.0682    192.3732    155.9113   1.0642496591e+02   1.4090020198e+01    0.4208515    0.3083423 -83.29  0.001921994    3.085    0.676
        34 -13.7370     47.3656    227.4793   1.4602121261e+02   2.4627338113e+01    0.9239117    0.5585115  58.76  0.004904688    1.286    0.222
        35  -9.6404     99.7997    152.9646   1.2691024613e+02   3.1686846911e+01    0.2591064    0.2434765 -70.28 0.0007249077    1.191    0.160
        36  -8.6855    102.5232    148.8643   1.2554916088e+02   3.2092480947e+01     0.187379    0.1377804 -58.32 0.0004212065    1.496    0.332
        37 -11.7223     88.6449    152.4129   1.2974390498e+02   3.3595181504e+01    0.2643383    0.2541125   2.10  0.000755632    1.277    0.217
        38 -12.2092     67.2666    144.0620   1.3441061402e+02   3.8571684713e+01    0.7483408    0.4544414  64.04  0.003757085    1.692    0.409
        39 -11.1216      2.9364    249.1140   1.5484092483e+02   2.5573156691e+01    0.4237355    0.2278662  51.26   0.00336121    1.161    0.139
        40  -8.3471    192.0473    144.0098   1.0407904770e+02   1.5930558300e+01    0.1624542    0.1431125  18.20 0.0003935896    1.005    0.005
        41  -8.8539    181.4825    144.3647   1.0622953542e+02   1.7938514000e+01    0.2142107    0.1602606  61.28  0.001107926    1.668    0.400
        42 -10.7223      2.0052    240.9695   1.5486879882e+02   2.6906711572e+01    0.3318607    0.1484338  86.13   0.00209505    2.155    0.536
        43  -9.5235    110.6969    137.8301   1.2146376758e+02   3.2992525281e+01    0.3409574    0.2301694 -26.83  0.001224308    2.239    0.553
        44  -9.7194     81.7356    248.8327   1.4072944957e+02   1.7285962463e+01     0.188957    0.1146517  62.59  0.001184892    1.583    0.368
        45  -8.0581     87.6798    137.2988   1.2767247106e+02   3.7059828150e+01    0.1469582   0.09827083  65.49 0.0003750499    1.620    0.383
        46 -10.3389     98.2236    135.1385   1.2435627990e+02   3.5784132051e+01      0.25025    0.2290214 -35.10 0.0004771648    1.294    0.227
        47 -11.0568     57.3010    133.5805   1.3591832303e+02   4.2291239404e+01    0.5755794    0.2810766  68.06  0.002375901    2.618    0.618
        48  -9.1492     46.6992    249.1765   1.4715585305e+02   2.1286224328e+01     0.212982   0.07257959  48.96 0.0008653988    1.896    0.473
        49  -8.9516    166.0377    130.0575   1.0637718167e+02   2.3472792070e+01    0.2310138    0.1815213  88.42  0.001121866    1.876    0.467
        50  -9.1228    107.7258    124.2179   1.1959888464e+02   3.6477455021e+01    0.1972073    0.1807476  63.21 0.0003413952    1.036    0.035
        51  -8.4186     69.7879    124.1415   1.3077065633e+02   4.2817359095e+01    0.1722234    0.1608329 -31.91 0.0002677322    1.298    0.230
        52  -9.5645     53.3156    119.9976   1.3529237322e+02   4.6002373552e+01    0.1972446    0.1684279  87.26  0.001173805    1.075    0.069
        53 -10.2290    168.0587    113.2092   1.0198612867e+02   2.6000698278e+01     0.327872    0.2830296  84.72 0.0007429543    1.430    0.300
        54  -9.2190    203.4027    111.7901   9.4753718027e+01   1.8499519620e+01    0.1977417    0.1293268 -17.15  0.000517892    1.667    0.400
        55  -9.8104     35.0087     93.3190   1.3767207312e+02   5.4530812002e+01    0.3715535    0.1699334  43.61  0.001634175    2.183    0.542
        56  -9.2607    156.0387     75.9788   9.4444906544e+01   3.5445716106e+01    0.1890643    0.1828642  53.48 0.0005465298    1.011    0.011
        57 -10.8607     14.9346     65.8427   1.4176870350e+02   6.2872080263e+01    0.3321386    0.2309074  38.49 0.0008462148    1.569    0.363
        58 -11.5497      5.6633     62.4617   1.4559392356e+02   6.4171461977e+01    0.5078657     0.324474  43.07  0.001314599    1.709    0.415
        59 -11.8382      2.4752     50.9390   1.4565774910e+02   6.7068660242e+01    0.6824299    0.2943212 -84.80  0.003232332    2.141    0.533
        60  -9.4993    249.6071    249.2071   1.1183904524e+02  -4.6231088857e+00     0.129364    0.0726646  -4.79 0.0009237587    1.683    0.406
        61 -12.6107     40.9395    234.6834   1.4759353916e+02   2.4152265777e+01    0.4994354    0.2976806 -50.15 0.0007727143    2.862    0.651
        62 -10.5482     98.9206    248.9073   1.3755881483e+02   1.5117098706e+01    0.2339433    0.1973922 -22.30  0.001619722    1.856    0.461
