#   1 NUMBER                 Running object number                                     
#   2 MAG_AUTO               Kron-like elliptical aperture magnitude                    [mag]
#   3 X_IMAGE                Object position along x                                    [pixel]
#   4 Y_IMAGE                Object position along y                                    [pixel]
#   5 X_WORLD                Barycenter position along world x axis                     [deg]
#   6 Y_WORLD                Barycenter position along world y axis                     [deg]
#   7 A_WORLD                Profile RMS along major axis (world units)                 [deg]
#   8 B_WORLD                Profile RMS along minor axis (world units)                 [deg]
#   9 THETA_WORLD            Position angle (CCW/world-x)                               [deg]
#  10 FWHM_WORLD             FWHM assuming a gaussian core                              [deg]
#  11 ELONGATION             A_IMAGE/B_IMAGE                                           
#  12 ELLIPTICITY            1 - B_IMAGE/A_IMAGE                                       
         1  -9.8742     40.5583     13.1058   7.8344028142e+01   6.8818637112e+01    0.1817697    0.1029672 -32.01  0.001032327    1.617    0.382
         2  -9.9249     56.7638      9.6419   6.9618597504e+01   6.6815049720e+01    0.2081945     0.152852  44.06  0.001284681    1.509    0.337
         3  -9.9002     71.4572      6.6309   6.2752414699e+01   6.4533180633e+01    0.2303131    0.1185368  65.38 0.0009538551    3.421    0.708
         4 -10.4705    169.0145      2.2446   4.0846232152e+01   4.2294383816e+01    0.1863661    0.1003148  71.17 0.0008935516    1.628    0.386
         5  -9.9801    237.3504    239.8419   8.5939288376e+01  -9.2156981165e+00    0.2298571     0.110224  26.34 0.0007092232    1.865    0.464
         6 -11.2232     87.1335    228.0896   1.1333100660e+02   1.6043895701e+01    0.2721827    0.1643236  30.46  0.001469575    1.907    0.476
         7 -10.6558    162.7161    225.6238   9.7742078480e+01   4.4189395731e+00    0.4223193    0.2214867  35.20   0.00208691    1.687    0.407
         8  -9.3180    171.4060    225.5210   9.5989590512e+01   2.9818930918e+00    0.1280577    0.1101893  30.53 7.668691e-05    1.022    0.022
         9 -10.4544     99.4269    226.1545   1.1066192284e+02   1.4590868435e+01    0.2879849    0.1734774  33.22  0.001546582    1.723    0.420
        10 -10.9710    126.0951    220.8217   1.0454209413e+02   1.1376254989e+01     0.203481    0.1804887  82.29 0.0005472027    1.204    0.169
        11  -9.2209     74.9885    220.0000   1.1495054709e+02   1.9350890346e+01    0.1988858   0.06211364  37.43  0.000798276    2.914    0.657
        12  -9.6803    131.4752    214.4811   1.0254159307e+02   1.1669025102e+01    0.1327636    0.1172569  42.65 0.0001543364    1.054    0.052
        13  -9.6951    123.9859    205.9598   1.0291664824e+02   1.4586052930e+01    0.1927246    0.1673898  56.27            0    1.044    0.042
        14  -9.7124     56.3750    205.6900   1.1738496735e+02   2.4783463774e+01    0.1377513   0.07458897  64.66 0.0007030696    1.781    0.439
        15  -9.7679     89.1931    199.6817   1.0968722172e+02   2.1497548079e+01    0.1876422    0.1510318  76.65 0.0005945457    1.159    0.137
        16 -12.0037    173.3166    196.1540   9.0691174436e+01   7.6860993796e+00    0.9100956    0.3832298  55.59  0.002797215    4.540    0.780
        17  -9.8667    149.9786    199.4998   9.6261322632e+01   1.1301504628e+01    0.2038505      0.10824  58.07 0.0008101065    2.547    0.607
        18  -9.8845    126.8586    197.4261   1.0100350183e+02   1.5813915577e+01    0.2154284    0.1936526 -25.98  0.001261484    1.336    0.251
        19  -9.6636     44.6507    194.3546   1.1880362824e+02   2.8663840349e+01    0.1391833    0.0743174  67.37 9.186829e-05    1.838    0.456
        20 -10.0922    139.1871    190.1670   9.7066486656e+01   1.5104488104e+01    0.1990324    0.1626419  68.16 0.0008390091    1.339    0.253
        21 -10.2574    156.8801    188.1982   9.2786211262e+01   1.2232744906e+01    0.2193467    0.1893485  55.56  0.001110452    1.194    0.163
        22 -11.4657     96.9994    187.8463   1.0634160816e+02   2.2860734710e+01    0.5443809    0.1975616  46.22  0.002089268    2.584    0.613
        23 -10.1262     55.9854    187.9854   1.1570258404e+02   2.8700893904e+01    0.2791989    0.1111588  66.54 0.0009537466    4.090    0.755
        24  -9.6784    121.2006    187.2790   1.0067364906e+02   1.8925589902e+01    0.2101001    0.1114472 -66.58 0.0007959475    2.370    0.578
        25 -10.3922    110.2772    186.9825   1.0314538450e+02   2.0869799598e+01    0.3110506    0.1510845  59.56  0.001177194    2.762    0.638
        26 -10.3265     12.7072    184.6314   1.2475107103e+02   3.4108141529e+01    0.2540454    0.1687508  58.48  0.001197401    1.339    0.253
        27  -9.9827    212.5130    182.5219   8.0135447657e+01   2.9253019593e+00    0.1399974     0.121032   3.81 0.0008097895    1.042    0.040
        28  -9.3858     44.3547    182.6802   1.1775517417e+02   3.1304754069e+01    0.1386591   0.07818909  67.04 0.0007046352    1.753    0.429
        29  -9.8579    173.9845    191.9915   8.9790626399e+01   8.3252029420e+00    0.2007314     0.183386  25.39 0.0005599894    1.008    0.008
        30 -10.7222     78.3858    176.6053   1.0913443749e+02   2.8257925717e+01    0.5494787    0.1650423  50.11  0.001786607    3.844    0.740
        31  -9.8863     61.1787    177.7962   1.1336302262e+02   3.0358653131e+01    0.2849337   0.07104319  40.82  0.001016268    3.426    0.708
        32  -9.8859    204.5855    176.2336   8.0413158942e+01   5.4533230110e+00    0.2016932    0.1275136 -25.90 0.0009520613    1.684    0.406
        33  -9.7707    160.9720    176.4836   8.9674688417e+01   1.3786016309e+01    0.2136791    0.1217043  61.11 0.0008103444    2.603    0.616
        34  -9.3546    135.3212    172.6463   9.4829659921e+01   1.9516654618e+01    0.1537323    0.1136967  78.26 0.0006981468    1.754    0.430
        35 -10.1906    122.7556    170.5486   9.7439098512e+01   2.2314849504e+01    0.3902279     0.179388  55.50  0.001382222    2.822    0.646
        36  -9.6933    208.0034    170.4754   7.8546975690e+01   5.8241782996e+00    0.2160414    0.1341528  38.67 0.0008169733    1.591    0.372
        37  -9.8988     55.8105    170.2309   1.1372105041e+02   3.2808022697e+01    0.2382907    0.1128095  67.05  0.000954661    2.806    0.644
        38  -9.9685    100.5614    167.0914   1.0226501284e+02   2.6999441220e+01    0.4567213    0.1387031  49.83  0.001342892    4.130    0.758
        39 -10.0677    140.2160    165.9408   9.2382633565e+01   2.0040266056e+01    0.3203962     0.180235  63.36   0.00117568    2.716    0.632
        40 -10.1746     80.9231    165.1333   1.0684702675e+02   3.0574211474e+01    0.4097977    0.1992253  65.06   0.00147907    3.200    0.687
        41  -9.6147     38.6410    165.3110   1.1727452481e+02   3.5960615820e+01    0.1385422   0.08094095  67.57 0.0007042353    1.741    0.426
        42  -9.5919     47.8180    164.6131   1.1497861745e+02   3.5098639005e+01    0.1868189    0.1048525  48.21  0.000949304    1.756    0.431
        43 -10.0862     94.2463    161.3280   1.0287249703e+02   2.9397148663e+01    0.3128678      0.16614  45.64  0.001307157    1.857    0.462
        44  -9.8797      9.5053    160.8616   1.2368924721e+02   3.9717758159e+01    0.3038372      0.10336  67.91  0.001103487    4.208    0.762
        45  -9.6806     23.4237    159.8053   1.2034555590e+02   3.8769666743e+01    0.2716825   0.08286352  55.65 0.0009602737    4.218    0.763
        46 -10.2836    106.8660    158.8949   9.9237617300e+01   2.7839349850e+01    0.4698398       0.2049  54.82  0.001608572    3.035    0.671
        47  -9.6417    168.9704    158.4767   8.4179358178e+01   1.5857465627e+01    0.2188697    0.1307472  64.53 0.0008101875    2.634    0.620
        48 -10.1357    120.5130    156.5173   9.5335549043e+01   2.5923490510e+01    0.3504778    0.2239256  75.94  0.001385032    2.432    0.589
        49  -9.9441    218.9522    156.1217   7.3368845634e+01   6.2649301270e+00    0.2007043     0.193452 -64.51 0.0004530336    1.271    0.213
        50 -10.5297     50.4979    155.7640   1.1320564066e+02   3.6900826791e+01    0.3516153    0.1594439  55.85  0.001487255    2.549    0.608
        51 -10.3592     83.4719    156.0752   1.0475102313e+02   3.2356253175e+01    0.3976397    0.1603252  50.57  0.001451243    2.833    0.647
        52 -10.2869     69.2224    154.6669   1.0822693496e+02   3.4771091782e+01     0.402918    0.1952562  52.88  0.001702419    2.289    0.563
        53 -10.0812    134.4201    154.1280   9.1386986202e+01   2.3797964563e+01    0.2953328    0.1978523  75.37  0.001195158    2.247    0.555
        54  -9.3342     92.3158    152.6482   1.0185213013e+02   3.1785633172e+01     0.154675    0.1077132  77.06 0.0006665217    1.734    0.423
        55  -9.7880     29.2604    150.6917   1.1797331761e+02   4.0379755100e+01    0.3214191    0.1268918  65.85   0.00114806    3.977    0.749
        56 -10.5757     40.2530    148.2157   1.1486488702e+02   3.9871539106e+01    0.4385496    0.1994803  56.43  0.001902621    2.582    0.613
        57 -11.1641    109.5280    146.8466   9.6223030209e+01   3.0214105154e+01    0.7548186    0.3314463  57.55   0.00232244    3.764    0.734
        58 -10.9782     57.2363    146.6041   1.1016172802e+02   3.8309493222e+01    0.5818917    0.2588991  57.79  0.002231717    3.032    0.670
        59 -11.1304    150.2139    146.1559   8.5807973902e+01   2.2366030078e+01     0.514856    0.3151451  67.74  0.001913916    2.588    0.614
        60  -9.7474     78.9814    147.4982   1.0447691017e+02   3.5115368465e+01    0.2075899    0.1058043  57.68 0.0006819483    2.484    0.597
        61 -10.0984     13.9238    146.4543   1.2137191877e+02   4.2717594993e+01    0.2368487    0.1217617  50.30  0.001077262    2.010    0.502
        62 -10.6516    127.0901    144.5942   9.1196349766e+01   2.7420377272e+01     0.463127    0.2504682  58.01  0.001724353    2.404    0.584
        63 -10.3848     89.4515    144.8884   1.0118790756e+02   3.4126968789e+01    0.4429893    0.2063193  52.02  0.001684483    2.522    0.603
        64 -10.4986    197.1041    143.2429   7.4727330448e+01   1.3021465331e+01    0.2700071    0.2108923 -36.46 0.0007647524    1.241    0.194
        65  -9.7253      2.7202    141.9106   1.2373183999e+02   4.4598499654e+01    0.2747321    0.1093765  77.65  0.001164296    3.013    0.668
        66  -9.7859    214.9812    140.9979   7.0723170086e+01   9.7459384891e+00    0.2241902    0.2128569 -21.21  0.001243573    1.063    0.059
        67 -10.8375     24.0409    138.7196   1.1795621210e+02   4.3722892657e+01    0.5025818    0.2290583  67.36  0.002135142    2.921    0.658
        68 -10.1370     39.6635    136.2495   1.1342014951e+02   4.2843322712e+01    0.3069553    0.1435879  46.81  0.001406544    2.321    0.569
        69 -10.6636    114.8779    134.4380   9.2154041804e+01   3.2165509818e+01    0.4828762     0.171441  50.08  0.001456378    3.505    0.715
        70 -11.0424     84.5115    132.7036   1.0018379535e+02   3.7889583367e+01    0.5144662    0.2872179  58.47  0.002092494    2.321    0.569
        71 -11.0281    133.9340    132.6637   8.6732574902e+01   2.8782298381e+01    0.5297909     0.280837  52.56  0.002019436    2.111    0.526
        72 -10.3411    144.2421    132.5630   8.4104754318e+01   2.6636890877e+01    0.3039595    0.1506786  49.18  0.001125453    2.109    0.526
        73 -10.3143    154.1273    130.6247   8.1218559409e+01   2.4927620617e+01     0.334356    0.2301247  72.72  0.001351098    2.099    0.524
        74 -10.6184     74.3897    130.2546   1.0258762720e+02   4.0023623038e+01    0.4129744    0.1930121  55.43  0.001510402    2.995    0.666
        75 -10.5302     13.5750    130.0360   1.1976167739e+02   4.6637283850e+01    0.3618325    0.1872389  70.17  0.001792091    2.234    0.552
        76 -10.2184    170.6327    130.8287   7.7427127783e+01   2.1243107684e+01    0.4504687    0.1165719  50.59  0.001140978    4.616    0.783
        77 -10.9777    100.4849    129.0852   9.4910550751e+01   3.6094733055e+01    0.5953019    0.3586565  64.75  0.002345698    2.386    0.581
        78 -10.6163    120.2985    126.9688   8.8964695166e+01   3.2867584555e+01     0.618564     0.296227  59.32  0.001929573    3.485    0.713
        79 -10.9943     60.2840    125.0652   1.0571104604e+02   4.3225695413e+01    0.6282616    0.3437536  70.43  0.002429875    3.025    0.669
        80 -11.2098     44.9933    124.0895   1.1004465493e+02   4.5261908765e+01    0.7155526    0.3640964  66.56  0.002847965    3.080    0.675
        81 -11.3994     29.2614    123.0322   1.1447619120e+02   4.7060795900e+01    0.7556557    0.3400864  71.64  0.002690988    4.132    0.758
        82 -10.2331    181.2696    125.7219   7.3827807863e+01   1.9914485133e+01    0.4835165    0.1397586  54.13  0.001205913    5.003    0.800
        83 -10.0790    174.5926    122.1959   7.4394928966e+01   2.2136462143e+01    0.3088287    0.1244406  50.69  0.001029595    2.628    0.619
        84 -11.3907    143.8108    120.3835   8.1191641906e+01   2.9435642637e+01      0.66583    0.3173363  49.14  0.002428405    2.188    0.543
        85 -10.2311     72.1426    120.7523   1.0133898751e+02   4.2682146613e+01    0.3361701    0.2105126  58.24   0.00152394    1.971    0.493
        86 -10.6449    132.3404    119.8083   8.3990930641e+01   3.2040725692e+01    0.5087945    0.2769137  61.84  0.001760171    2.757    0.637
        87 -10.6192      3.6745    118.0077   1.2115827484e+02   5.0143361735e+01    0.3796616    0.1861163  71.84  0.001852383    2.451    0.592
        88 -10.6978    110.7790    115.8829   8.8879187428e+01   3.7327237980e+01     0.543346    0.3562368  85.97  0.002013802    2.772    0.639
        89 -10.4187    159.8437    122.5750   7.7851012307e+01   2.5392765613e+01    0.3692499    0.1502673  55.03  0.001138759    3.139    0.681
        90 -10.9420     80.6065    113.9438   9.7294909279e+01   4.3075079297e+01    0.6669586     0.388852  69.42  0.002455011    3.112    0.679
        91 -11.2565     95.3584    113.9263   9.2860584072e+01   4.0635070840e+01    0.7995582    0.3167059  46.17  0.002790869    2.815    0.645
        92 -10.4309    124.4006    113.4660   8.4476944162e+01   3.5147574444e+01    0.5042489    0.2208981  49.70   0.00174808    2.516    0.603
        93 -10.9554     67.6724    111.5802   1.0074820905e+02   4.5549073613e+01     0.494246    0.2611693  53.10  0.002044574    2.470    0.595
        94 -10.7201     14.8509    111.1651   1.1706320563e+02   5.1051416186e+01    0.3590409    0.2278029  75.37  0.002004547    1.767    0.434
        95  -9.8326    134.4326    110.4925   8.1009441869e+01   3.3674639581e+01    0.2917127    0.1493404  56.19  0.001031575    2.413    0.586
        96 -11.7372     46.6047    103.3489   1.0572212045e+02   5.0141228873e+01    0.8357311    0.4382581  68.68  0.003007868    3.968    0.748
        97 -10.9037    141.8874    105.9926   7.7863352074e+01   3.3001531701e+01    0.5874554    0.2139991  51.18  0.001818022    3.043    0.671
        98 -11.5595     23.5987    103.0390   1.1311972423e+02   5.2351185853e+01    0.7726793     0.375984  66.12  0.003120809    3.525    0.716
        99 -10.4352    151.0957    104.3898   7.5133216189e+01   3.1237917576e+01    0.3251766    0.2102639  64.44  0.001306625    1.941    0.485
       100 -10.9065    130.6345    103.4275   8.0088629994e+01   3.6055083930e+01    0.5377246    0.2586119  52.45  0.001932195    2.338    0.572
       101 -10.4115      7.3484    103.6939   1.1833441438e+02   5.3298883247e+01    0.2621555    0.1686415  69.56  0.001268847    1.789    0.441
       102 -11.5592    112.2314    100.9027   8.4505595274e+01   4.0477748534e+01    0.9593444    0.4592194  59.85  0.002921037    3.828    0.739
       103 -10.2534     83.2728    100.9323   9.3296343231e+01   4.5750666614e+01    0.4033624    0.2308977  58.08  0.001601083    2.543    0.607
       104 -11.2728     65.5956     97.3555   9.8114920662e+01   4.9242144195e+01    0.6806276    0.3503217  55.52   0.00261894    3.058    0.673
       105 -10.5655     96.9426     98.0649   8.8272394195e+01   4.4053471147e+01    0.5859303    0.2317781  45.56  0.002049123    2.782    0.641
       106 -10.5924    140.9702     93.6112   7.4601260675e+01   3.5816109336e+01    0.4115128    0.2739615  75.04  0.001602282    2.278    0.561
       107 -10.9419    127.5044     92.4415   7.7795950838e+01   3.9098976723e+01    0.7453586    0.3393936  54.91  0.002549044    2.688    0.628
       108 -11.2238     35.7459     90.8391   1.0676366836e+02   5.4210935103e+01    0.4655162    0.2971002  85.27  0.002201132    2.225    0.551
       109 -10.7564      7.3129     92.7443   1.1678115776e+02   5.5861853887e+01    0.5028379    0.1862005  34.65  0.002366457    3.145    0.682
       110  -9.4477    152.6684     90.3424   7.0780626590e+01   3.3729768216e+01    0.1653857    0.1253488 -77.55 0.0007051065    1.751    0.429
       111 -11.1421     88.5829     88.0518   8.8071172822e+01   4.7798305192e+01    0.7062303    0.3551663  56.67  0.002468307    3.295    0.697
       112 -11.1088     50.3987     86.1147   1.0052732122e+02   5.3784492102e+01    0.6423891    0.3560242  59.81  0.002592725    3.249    0.692
       113  -9.4126     20.2970     88.6158   1.1168517441e+02   5.5999762327e+01    0.1270212   0.08850732  79.38 0.0007018232    1.770    0.435
       114 -11.0381    107.7597     85.1202   8.1234257934e+01   4.4822126235e+01     0.708712    0.3594838  55.64  0.002594928    2.625    0.619
       115 -10.2112    143.1317     84.4216   7.1344299597e+01   3.7158049210e+01    0.3991905    0.1555793  52.97  0.001306994    2.720    0.632
       116 -10.9818     25.6394     81.5056   1.0836275119e+02   5.7243312431e+01    0.4992267    0.3006288  61.05  0.002341902    2.518    0.603
       117 -10.3332     75.8513     81.7930   9.0462027607e+01   5.1292087671e+01    0.3152042     0.220263  70.04  0.001408549    2.321    0.569
       118 -10.7703     10.9336     81.8082   1.1372565862e+02   5.8178210878e+01    0.4539925    0.1483075  35.04  0.001974256    3.620    0.724
       119  -9.6527    152.2028     81.4185   6.8260659139e+01   3.5568027279e+01     0.228541    0.1518715  64.88 0.0009585405    1.739    0.425
       120  -9.6541    120.7582     81.6008   7.6384314922e+01   4.2817405125e+01    0.2218892    0.1473732  57.84 0.0009522676    1.734    0.423
       121  -9.9935     62.2095     77.8097   9.4073791747e+01   5.4171890684e+01    0.2244773    0.1527016  81.89 0.0009505139    2.836    0.647
       122  -9.4505    158.9735     77.2549   6.5477173589e+01   3.4689474354e+01    0.2104639    0.1335162  54.56 0.0008929096    1.583    0.368
       123 -10.5789    130.6370     77.0783   7.2282543802e+01   4.1496477182e+01     0.583581    0.2595307  57.80   0.00195989    2.846    0.649
       124  -9.9238    142.4518     76.5054   6.9098600211e+01   3.8837068773e+01    0.3343511    0.1538323  52.55  0.001217698    2.202    0.546
       125 -10.8891     83.9516     74.1038   8.5358182902e+01   5.1604646487e+01    0.5302502    0.3463482  66.89  0.002189194    2.705    0.630
       126  -9.8482     43.5401     73.8538   9.9846995670e+01   5.7318084648e+01    0.2461268    0.1653528  47.74  0.001085516    1.930    0.482
       127  -9.4141      8.0826     73.5919   1.1323361276e+02   6.0198193482e+01    0.3489942     0.112139  42.08  0.001338608    4.814    0.792
       128 -10.0678    107.3914     72.9567   7.7510022780e+01   4.7383407455e+01    0.4025413     0.205082  55.53  0.001514048    2.504    0.601
       129 -10.2334     96.4916     72.6915   8.0794255598e+01   4.9607358118e+01    0.3423916    0.2622657  66.62  0.001649856    1.757    0.431
       130 -10.8208     52.4095     70.6128   9.5578932636e+01   5.7009866759e+01    0.4853159    0.3492405 -89.21  0.002379309    2.302    0.566
       131 -10.7152     17.4288     70.7415   1.0908721412e+02   6.0271347051e+01    0.3019361     0.195024  45.74  0.001644096    2.048    0.512
       132 -10.0313    148.9611     69.3532   6.5327629652e+01   3.8564904180e+01    0.3737696    0.1440807  53.82  0.001264126    2.576    0.612
       133  -9.7371    140.4799     67.3793   6.6709239138e+01   4.0972323417e+01    0.2777832    0.1454106  52.82  0.001096651    1.896    0.472
       134  -9.9000    123.4355     67.2598   7.1045026989e+01   4.4984355100e+01    0.3211053    0.1933225  63.80   0.00128987    2.161    0.537
       135 -10.4968     38.7679     65.4769   9.9359810405e+01   5.9640538630e+01    0.4105533    0.2365446  50.63  0.001948643    2.668    0.625
       136  -9.7037     10.9965     66.4941   1.1065859881e+02   6.1611081431e+01    0.1561663   0.08754749  48.08 0.0008105714    2.570    0.611
       137 -10.1568    112.4840     65.1848   7.3421555495e+01   4.7789652594e+01    0.4746647    0.2020108  56.19  0.001596917    3.087    0.676
       138 -10.0353    101.8939     61.8426   7.5441125852e+01   5.0627733893e+01    0.3246051    0.2375209  84.82   0.00141335    2.370    0.578
       139 -10.9278     75.5041     60.7145   8.3837001986e+01   5.5725740263e+01    0.5750088    0.2897235  50.21  0.002353431    2.674    0.626
       140 -10.3599     26.3949     60.1369   1.0285718467e+02   6.1914926520e+01    0.3911559    0.1774286  41.45  0.001793088    3.070    0.674
       141  -9.5291     90.0156     60.4957   7.8765434334e+01   5.3205240349e+01    0.1971405    0.1289213  66.61 0.0008103428    2.615    0.618
       142  -9.7600    132.9990     59.2147   6.5882290756e+01   4.4171279483e+01    0.2119157     0.119983  52.57 0.0008806461    1.735    0.424
       143 -11.0435      9.0858     58.3009   1.0956810659e+02   6.3495438076e+01    0.4132544    0.2223958  41.52  0.002238149    2.578    0.612
       144  -9.4447    140.9753     57.4885   6.3387565920e+01   4.2534667717e+01    0.2160621    0.1359899  83.29 0.0008104313    2.605    0.616
       145 -10.1409    121.4076     57.3037   6.8232991772e+01   4.7198284971e+01    0.4102567    0.2128454  63.09  0.001523264    2.607    0.616
       146 -10.6191     55.3070     55.5518   8.9641399968e+01   5.9749536469e+01    0.3727662    0.2774023 -77.37  0.001877115    2.250    0.556
       147 -10.4655     45.5469     56.5736   9.3899497853e+01   6.0762006984e+01    0.3260969    0.2522811  64.60  0.001805602    2.052    0.513
       148 -10.4556     64.0908     55.7220   8.6294895826e+01   5.8479110702e+01    0.3717623     0.253195  49.69  0.001872574    1.921    0.479
       149  -9.7750    107.9517     54.9666   7.1193694612e+01   5.0578022218e+01     0.338382    0.1933341  62.72  0.001348655    2.458    0.593
       150 -10.6615     32.7224     52.7771   9.8014721924e+01   6.2883259050e+01    0.4047908     0.257891  52.69  0.002081148    2.575    0.612
       151 -10.1817     21.5253     53.2443   1.0296229499e+02   6.3745230337e+01    0.3333759    0.1527984  34.04  0.001666713    2.663    0.624
       152 -10.6448     94.1143     51.8350   7.4305873130e+01   5.3968233520e+01    0.4742708    0.2652619  56.53  0.002001943    2.320    0.569
       153 -10.2335     83.8087     47.9373   7.6262714846e+01   5.6603935828e+01    0.3809257    0.2183245  58.80  0.001585073    2.711    0.631
       154  -9.3293     74.7502     48.4251   7.9643335007e+01   5.8125451004e+01    0.1935247    0.1244091  26.06 0.0009560089    1.653    0.395
       155  -9.7444    124.5178     47.3025   6.3931191251e+01   4.8087222022e+01    0.2738642    0.1288038  53.55  0.001081907    2.060    0.515
       156 -10.4177     46.4123     45.5183   8.9690096658e+01   6.2809398529e+01    0.2717984    0.2143248  36.78   0.00165569    1.526    0.345
       157 -10.5334     18.1265     45.7355   1.0222476187e+02   6.5526184595e+01    0.3401296     0.193297  31.45  0.001946411    2.143    0.533
       158 -10.2405     59.1558     43.3601   8.3630994560e+01   6.1484880727e+01    0.3182278     0.246455 -77.61  0.001632673    2.418    0.587
       159 -10.6369      5.7832     42.7543   1.0699844105e+02   6.6901345323e+01    0.3214836    0.2253444 -88.79   0.00174959    2.131    0.531
       160  -9.2820    134.9712     44.0000   6.0252411526e+01   4.6078250119e+01    0.2469937    0.0805267  56.67 0.0008021246    2.940    0.660
       161  -9.9868    107.6378     42.5270   6.6730929132e+01   5.2643420541e+01    0.3362048    0.2374644  69.16  0.001601648    1.866    0.464
       162 -10.2563     37.9633     41.5018   9.1853842963e+01   6.4538991415e+01    0.2891043    0.1857654  49.55  0.001508847    2.490    0.598
       163 -10.1135     97.3030     39.3928   6.8581002194e+01   5.5317698513e+01     0.326863    0.2461234  78.41  0.001600057    2.051    0.512
       164  -9.8710     82.4556     37.9811   7.2823845498e+01   5.8468050276e+01    0.2602019    0.1958217  58.22   0.00138328    1.707    0.414
       165 -10.7704     27.6529     36.6634   9.4746435836e+01   6.6483460853e+01    0.2918855     0.195959  46.15  0.001667008    2.277    0.561
       166  -9.9241    113.2511     35.9879   6.2731298027e+01   5.2331049353e+01     0.289732    0.1890633  85.71  0.001184959    2.768    0.639
       167 -10.5190     71.1543     42.6187   7.8714596214e+01   5.9729013808e+01    0.4744062    0.2418351  51.80  0.002008403    2.765    0.638
       168 -10.4655     62.3566     33.6960   7.8440834113e+01   6.2612051969e+01    0.3822007    0.2199225  50.59  0.001835456    2.380    0.580
       169 -10.5459     51.2070     33.6464   8.2981695560e+01   6.4273760102e+01    0.3295262    0.2152381  50.66  0.001720805    2.306    0.566
       170 -10.3432     74.2170     32.3808   7.3407801202e+01   6.0819065083e+01    0.3797411    0.2026128  55.83  0.001642206    2.739    0.635
       171 -10.5044     13.8892     31.3866   9.9461344200e+01   6.8597617351e+01    0.2503859    0.2110536  64.66  0.001539713    1.965    0.491
       172  -9.8099    103.1456     30.2948   6.3291789677e+01   5.5345581979e+01    0.2643179     0.166929  55.10  0.000993875    1.601    0.375
       173  -9.3709    120.9888     34.0000   6.0020174203e+01   5.0809922495e+01    0.2420028    0.0770331  56.37  0.000807632    2.979    0.664
       174 -10.2734     83.1321     28.7625   6.8789818572e+01   5.9677421046e+01    0.3722924    0.2498065  74.81  0.001642034    2.964    0.663
       175 -10.3223      4.8658     28.4582   1.0299516332e+02   6.9722562097e+01    0.2406519    0.1849037  48.64    0.0016252    2.049    0.512
       176 -10.1273     93.0441     27.6375   6.5169898126e+01   5.7841152743e+01     0.327325    0.2395406  83.26  0.001590434    2.310    0.567
       177 -10.4598     64.4631     21.3320   7.2185515905e+01   6.4069140854e+01     0.338448    0.2574181  64.67   0.00187667    2.141    0.533
       178 -10.6648     50.7657     22.1418   7.8115004310e+01   6.6119102425e+01    0.4508174    0.1924107  45.28  0.002010713    2.921    0.658
       179  -9.5794     20.4847     21.9894   9.2416209816e+01   6.9726907666e+01    0.1428445    0.1017053 -66.82 0.0008094662    2.463    0.594
       180 -10.3935     75.6107     20.5473   6.7773261648e+01   6.2182426671e+01    0.4094591    0.2218236  56.18  0.001920415    2.322    0.569
       181  -9.2462     12.4713     21.5241   9.6412416937e+01   7.0467758173e+01    0.1168715   0.08755174 -27.80 0.0001376842    1.006    0.006
       182  -9.7355     40.4533     19.2990   8.1387496027e+01   6.7955729883e+01    0.2115266    0.1948014  54.76  0.001438626    1.761    0.432
       183 -10.0018     89.5496     18.1864   6.2247621040e+01   5.9716487954e+01    0.3195801     0.173346  55.70  0.001530777    1.902    0.474
       184 -10.0533     31.6271     17.0974   8.4570214303e+01   6.9364306455e+01    0.1996259    0.1596486  47.18  0.001285162    1.990    0.498
       185  -9.9400     98.5287     16.0148   5.8773265783e+01   5.8048487602e+01    0.2706964    0.1738668  78.33  0.001253076    2.414    0.586
       186  -9.0355      8.3443     15.6771   9.6207790326e+01   7.1764598525e+01   0.09346864   0.09007483  79.19 0.0007050282    1.733    0.423
       187  -9.4387     18.0067     14.5105   9.0386952234e+01   7.1168798867e+01    0.1374426   0.09357666  45.25 0.0008102569    2.527    0.604
       188 -10.0209    165.6789    249.3305   1.0052301215e+02   2.6278858333e-01    0.1183064    0.0859509  59.99 -2.641559e-05    1.694    0.410
       189 -10.0480    246.2669    247.5553   8.5650394639e+01  -1.1306389328e+01    0.2132611   0.09203152  37.82   0.00115187    2.137    0.532
       190  -9.3385     29.0195     10.0000   8.2397444601e+01   7.0697694507e+01    0.1743065   0.06065822  32.85 0.0008012844    2.934    0.659
       191 -10.3282    173.7570    244.0051   9.8258607646e+01  -2.3075572049e-01    0.1399364    0.1052939 -40.16  0.000885833    1.608    0.378
       192  -9.6120     84.7915     11.5671   6.0781913872e+01   6.1412284877e+01    0.1761046    0.1220222  63.44 0.0009484397    1.737    0.424
