#   1 NUMBER                 Running object number                                     
#   2 MAG_AUTO               Kron-like elliptical aperture magnitude                    [mag]
#   3 X_IMAGE                Object position along x                                    [pixel]
#   4 Y_IMAGE                Object position along y                                    [pixel]
#   5 X_WORLD                Barycenter position along world x axis                     [deg]
#   6 Y_WORLD                Barycenter position along world y axis                     [deg]
#   7 A_WORLD                Profile RMS along major axis (world units)                 [deg]
#   8 B_WORLD                Profile RMS along minor axis (world units)                 [deg]
#   9 THETA_WORLD            Position angle (CCW/world-x)                               [deg]
#  10 FWHM_WORLD             FWHM assuming a gaussian core                              [deg]
#  11 ELONGATION             A_IMAGE/B_IMAGE                                           
#  12 ELLIPTICITY            1 - B_IMAGE/A_IMAGE                                       
         1 -14.9696     11.5058    155.9771   1.4619981999e+02   4.0611057732e+01     5.993121       1.9076 -86.44    0.0242454    3.735    0.732
         2 -13.3486      2.2991      5.7277   1.2051351755e+02   7.2193303788e+01      1.91442     1.054151 -54.85    0.0118829    1.930    0.482
         3 -13.1746    190.5844     28.1228   7.2437237020e+01   3.3750157496e+01     1.314319     1.149145  56.86  0.006017542    1.111    0.100
         4 -13.5617    204.5975      9.3898   6.5346378141e+01   3.2232225256e+01     1.666109     1.069235  38.27  0.008354028    1.812    0.448
         5  -9.1625     31.6921     61.7744   1.2640118014e+02   5.9508129160e+01    0.2055551    0.1596644  36.53 0.0007252917    1.600    0.375
         6 -11.0663    139.2745    249.7401   1.3122257632e+02   7.2474984103e+00    0.3575194    0.1531592  46.82   0.00194296    1.839    0.456
         7  -9.3680     67.0981    250.5060   1.4326216855e+02   1.7118701535e+01    0.1517559   0.07900351  46.29 0.0008454964    1.518    0.341
         8 -10.8567     28.3648    248.7779   1.4913417085e+02   2.1803515977e+01    0.3554454    0.1556219  53.34  0.002381864    1.661    0.398
         9 -11.0842     34.8450    245.8551   1.4800292139e+02   2.1582331769e+01    0.4835034    0.3413813 -73.43  0.003967917    1.591    0.372
        10 -11.6538     11.4754    239.9023   1.5123205554e+02   2.4917859775e+01     0.579007    0.1789304  65.52  0.003103102    2.993    0.666
        11 -10.6964      9.4635    249.5218   1.5193058687e+02   2.3571229142e+01    0.3746594     0.108379  38.84  0.002180169    3.011    0.668
        12 -10.4206      2.0715    248.9788   1.5295916866e+02   2.4346612275e+01    0.4233218     0.147142 -81.79  0.002722132    2.537    0.606
        13 -11.4869      4.0758    240.6533   1.5235219653e+02   2.5488409070e+01    0.3897368    0.2082153  65.65   0.00153404    1.328    0.247
        14  -9.7795    161.7949    248.6065   1.2723507888e+02   3.9681529744e+00     0.168902   0.08420586  47.96 0.0006540844    1.689    0.408
        15  -9.1939    152.3199    248.3269   1.2882861915e+02   5.4605853084e+00    0.1096054   0.07948513  18.76 0.0003452707    1.683    0.406
        16 -10.6572    126.2876    249.9049   1.3344878532e+02   9.1550899970e+00    0.3435844    0.1060354  44.63  0.001620389    2.461    0.594
        17  -9.8369     82.1341    242.9013   1.4023557566e+02   1.6397094962e+01    0.1784255    0.1127784  63.12  0.001231211    1.328    0.247
        18  -9.3341    183.2998    238.6719   1.2221471046e+02   1.8837529406e+00    0.1091104   0.08455844  61.70 0.0002872912    1.639    0.390
        19  -8.9023    233.5580    237.0220   1.1337378480e+02  -5.7128164776e+00    0.1265655    0.1003917 -56.45 0.0005062573    2.444    0.591
        20 -13.9311      7.7681    207.3840   1.5025655420e+02   3.0864364629e+01     6.419014    0.8098595  40.62   0.02942461    4.138    0.758
        21  -9.4536    249.5153    249.5109   1.1269936517e+02  -9.2492597127e+00    0.1106404   0.07964394  19.80 4.191854e-05    1.030    0.029
        22 -14.5592     46.9765    226.5196   1.4487113590e+02   2.3458635197e+01     3.587028     1.444372  37.63  0.007705897    2.435    0.589
        23 -10.5229    173.5964    222.2867   1.2161837272e+02   5.6749859523e+00    0.3913104    0.2768296  59.02   0.00233807    1.654    0.396
        24 -10.3071    196.1102    240.4766   1.2024326441e+02  -3.6081338124e-01     0.232194    0.1623299 -57.84  0.001426841    2.395    0.583
        25  -8.6846    152.4765    212.9591   1.2420009476e+02   1.0618065382e+01    0.1548033    0.1253565 -49.21 0.0003496125    1.460    0.315
        26 -12.3872      2.5786    182.5747   1.4978383816e+02   3.5969810134e+01     1.317729    0.3854687 -75.36  0.005260163    2.689    0.628
        27 -12.0295     22.8442    201.2724   1.4731852514e+02   3.0585749042e+01    0.5010123    0.2435976  74.19  0.003037679    1.890    0.471
        28 -11.2009     15.9458    198.7737   1.4837280218e+02   3.1711411549e+01    0.3711731    0.2003024  77.38  0.001641477    1.558    0.358
        29 -11.2636     65.8561    199.1935   1.3922104430e+02   2.6167474979e+01    0.2959231    0.2115872 -49.89  0.001041124    1.815    0.449
        30  -8.9358     51.3680    197.1253   1.4178715078e+02   2.8326873577e+01    0.1544233    0.1155558  81.92 0.0005351374    1.115    0.103
        31  -9.7807    192.1564    193.3961   1.1345012434e+02   6.7261897693e+00     0.349691    0.2092571 -62.26   0.00148028    3.404    0.706
        32 -11.5515     71.3964    191.2401   1.3731985415e+02   2.6994670405e+01    0.2374903    0.2140092 -63.06 0.0005422754    1.332    0.249
        33  -8.4876    103.9122    180.0107   1.2920197170e+02   2.4546066880e+01    0.1458217    0.1312299  75.71 0.0002747825    1.028    0.027
        34 -13.0916     68.0061    176.3351   1.3633136117e+02   3.0433491488e+01    0.4635281    0.2629636 -45.36  0.001758951    2.355    0.575
        35 -10.7420     80.7517    178.4165   1.3389668765e+02   2.8296936192e+01    0.2196376    0.1928574 -76.16 0.0003346445    1.150    0.130
        36  -8.5338    171.4852    173.4467   1.1384765572e+02   1.3833501239e+01    0.1381301    0.1255425  32.51 0.0001141907    1.011    0.011
        37 -11.6035     87.8937    168.8267   1.3106586116e+02   2.9255217780e+01    0.5844253    0.5328422  70.68  0.003850775    1.062    0.058
        38 -11.7915      2.2971    152.2437   1.4782792151e+02   4.2090483299e+01    0.6020488    0.2121121 -78.46  0.003094572    2.268    0.559
        39  -9.5904    233.7625    158.0121   9.8764242192e+01   4.3332781314e+00    0.1792768    0.1068542 -30.10 0.0008830793    1.624    0.384
        40 -10.5425    190.5433    154.0176   1.0602621841e+02   1.3459870183e+01    0.4712664     0.330575 -78.87  0.001748863    2.843    0.648
        41 -11.2670     32.7689    155.9682   1.4164782761e+02   3.8726839182e+01    0.3238395    0.1762556 -70.37  0.001580929    1.548    0.354
        42  -8.8544    102.7268    148.4314   1.2439437784e+02   3.1294477470e+01    0.1842995    0.1610198 -26.81  0.001028003    1.379    0.275
        43 -11.8613     88.5243    152.0904   1.2837766038e+02   3.2722053342e+01    0.2628698    0.2373499 -39.46 0.0006521521    1.289    0.224
        44 -12.3728     67.2038    144.0806   1.3219977945e+02   3.7444373417e+01    0.7388674    0.4893344  82.41  0.003809269    1.732    0.422
        45 -11.4011     57.6561    131.9085   1.3268233458e+02   4.1339248796e+01    0.8901627    0.3005517 -73.98  0.002558466    5.680    0.824
        46  -9.2957    184.3445    147.6877   1.0590464680e+02   1.5839884618e+01    0.2857396    0.2325935 -88.06  0.001064041    1.776    0.437
        47  -8.3228    191.9931    144.0102   1.0353035622e+02   1.4901728297e+01    0.1727228    0.1601343  -5.05 0.0004416644    1.046    0.044
        48  -9.1156    180.5330    143.3386   1.0572442216e+02   1.7414985061e+01    0.2455209    0.2071762 -63.60 0.0006593191    1.456    0.313
        49  -9.5011    110.6656    137.5769   1.2041808496e+02   3.2300887846e+01    0.3007432    0.2252016 -16.36  0.001128459    1.908    0.476
        50 -11.5089     25.6729    137.7487   1.4130362451e+02   4.3323654271e+01    0.3339924    0.1634594  56.11   0.00177128    2.261    0.558
        51 -10.4643     98.1464    134.8611   1.2297634636e+02   3.4993545631e+01    0.2681108    0.2201024 -35.71 0.0004147829    1.366    0.268
        52  -9.3698     87.0940    136.8638   1.2611208889e+02   3.6274742716e+01    0.2032444    0.1661039  77.75 0.0005353673    1.292    0.226
        53  -9.4063    107.6065    124.1539   1.1837134931e+02   3.5751495302e+01    0.2042314    0.1848686  56.83 0.0003509448    1.139    0.122
        54 -10.2078    163.2635    127.6873   1.0581097898e+02   2.4019160148e+01    0.6260768    0.3998117  86.51  0.002074329    3.903    0.744
        55  -9.8839     99.7889    152.5578   1.2581118154e+02   3.0882357778e+01    0.2795114    0.2743083 -76.11 0.0007735622    1.114    0.102
        56 -12.5357     40.7913    233.9019   1.4637290567e+02   2.2895128645e+01    0.2703112    0.2094139 -71.74 0.0008008548    1.521    0.343
        57 -10.2346    167.9864    113.1263   1.0114888193e+02   2.5780149937e+01    0.3425889    0.2942502 -82.26  0.000839565    1.458    0.314
        58  -9.1696    203.4844    111.5062   9.3476150682e+01   1.8048666071e+01    0.1515033    0.1392774   2.28 3.087797e-05    1.050    0.048
        59  -9.7722     35.1898     93.2702   1.3223416578e+02   5.2383430658e+01    0.2781684     0.181859  50.46  0.001245643    1.874    0.466
        60 -10.9515     14.8721     65.7141   1.3329183161e+02   5.9958757819e+01    0.2815265    0.2277727  47.90 0.0008845842    1.600    0.375
        61 -11.5904      5.6909     62.4865   1.3583815732e+02   6.1184277213e+01    0.4431595    0.3176773  49.98  0.001345809    1.868    0.465
        62 -12.8328      1.8766     52.3118   1.3510389698e+02   6.3493039931e+01     1.161108    0.1542136 -60.38  0.004361392    3.704    0.730
        63 -10.9991    102.3464    247.7282   1.3727552161e+02   1.2908155271e+01    0.2294338    0.1832882  59.01 0.0008463228    1.056    0.053
        64 -10.5541     11.4663     54.7362   1.3206741669e+02   6.2467118140e+01    0.3692753    0.1097404  26.46  0.001698059    3.834    0.739
        65 -10.2900     81.3810    248.5184   1.4081281278e+02   1.5615852329e+01    0.2311447    0.1384322  68.46 0.0009467442    1.545    0.353
        66  -9.5501     46.9327    248.9788   1.4632427150e+02   1.9748062726e+01    0.2188847   0.08911648  65.59  0.001139582    2.355    0.575
