#   1 NUMBER                 Running object number                                     
#   2 MAG_AUTO               Kron-like elliptical aperture magnitude                    [mag]
#   3 X_IMAGE                Object position along x                                    [pixel]
#   4 Y_IMAGE                Object position along y                                    [pixel]
#   5 X_WORLD                Barycenter position along world x axis                     [deg]
#   6 Y_WORLD                Barycenter position along world y axis                     [deg]
#   7 A_WORLD                Profile RMS along major axis (world units)                 [deg]
#   8 B_WORLD                Profile RMS along minor axis (world units)                 [deg]
#   9 THETA_WORLD            Position angle (CCW/world-x)                               [deg]
#  10 FWHM_WORLD             FWHM assuming a gaussian core                              [deg]
#  11 ELONGATION             A_IMAGE/B_IMAGE                                           
#  12 ELLIPTICITY            1 - B_IMAGE/A_IMAGE                                       
         1  -9.1147    246.9401      3.9712   2.5453408130e+01   2.5724549667e+01    0.2283743    0.1494809  78.99  0.000902853    1.477    0.323
         2  -8.3316     61.6155    247.8600   1.0959534381e+02   1.3428358030e+01    0.1860591    0.1568653  38.82 0.0004713247    1.184    0.156
         3  -7.4269     25.3105    250.3130   1.1724435220e+02   1.7201118364e+01    0.1033271   0.08980674 -43.45 0.0007029296    1.630    0.386
         4  -9.1373     33.4685    246.4641   1.1535758384e+02   1.7096010638e+01    0.1987044    0.1954939 -80.14 0.0005583765    1.347    0.258
         5  -7.5692     15.9905    247.7484   1.1892524208e+02   1.8707328574e+01    0.1421219   0.08722524  38.30 0.0006634166    1.516    0.340
         6  -8.1448    150.0520    245.8598   9.0064357145e+01   1.3305767900e+00    0.2270905    0.1245996 -26.05  0.001014233    2.564    0.610
         7  -7.3809    119.4759    246.5022   9.6821868178e+01   5.6896926252e+00    0.1312036    0.1150919  29.77 0.0001632185    1.032    0.031
         8  -8.1695    104.2395    245.7561   1.0009143695e+02   8.0437245561e+00    0.1759489    0.1435138  12.08  0.001040363    1.368    0.269
         9  -7.9405     81.7607    246.2057   1.0508786050e+02   1.1107709517e+01    0.1568099    0.1455995 -16.23 0.0003915696    1.338    0.253
        10  -7.2184     75.3599    245.2890   1.0639174713e+02   1.2160970406e+01    0.1211739   0.09918208  -8.48 0.0007025605    1.689    0.408
        11  -8.2205     50.3498    245.1624   1.1175493709e+02   1.5390961143e+01    0.1885068     0.153643  36.84  0.000469473    1.253    0.202
        12  -8.3060     42.7204    245.0144   1.1334483481e+02   1.6334889147e+01    0.1663807    0.1373858  77.44 0.0003761071    1.103    0.093
        13  -8.1019     58.1369    243.6110   1.0996407446e+02   1.4751073430e+01    0.1708058    0.1396957  45.08 0.0004908767    1.127    0.113
        14  -7.9434    113.0883    243.0042   9.7789020100e+01   7.3034143151e+00    0.2007875    0.1533881  -4.37 0.0007472874    1.666    0.400
        15  -8.0093     71.8288    242.8116   1.0691730654e+02   1.3145469771e+01    0.1773348    0.1622255  27.49 0.0004066477    1.228    0.186
        16  -8.6444     27.5077    241.9822   1.1627324278e+02   1.8694573072e+01    0.1918497    0.1670569  15.99 0.0007558982    1.529    0.346
        17  -7.6570      4.2962    242.6835   1.2092937949e+02   2.0909053999e+01    0.1242522   0.06387164  62.72 0.0003973919    1.607    0.378
        18  -7.7547     83.5268    240.9868   1.0414419860e+02   1.1938991737e+01    0.1622509     0.104242 -36.26 0.0004117153    2.201    0.546
        19  -7.8171     10.9977    243.0000   1.1964234982e+02   2.0193770402e+01     0.169108   0.05952953  30.46            0    2.786    0.641
        20  -8.3875    201.0613    239.9749   7.8589289710e+01  -4.8341969312e+00    0.1877646    0.1555683   0.89 0.0004952713    1.041    0.040
        21  -8.2081     31.4678    240.5407   1.1535975741e+02   1.8565619906e+01    0.1222033    0.1000558  66.63  9.70109e-05    1.022    0.021
        22  -7.2182    118.3076    239.3186   9.6142969434e+01   7.2623305193e+00    0.1316219    0.1009481  -8.17 0.0002519275    1.636    0.389
        23  -7.7506     67.9700    239.2944   1.0741960595e+02   1.4396262356e+01    0.1724214    0.1490273  48.76 0.0003772643    1.071    0.066
        24  -7.9043     56.8413    239.2036   1.0985240200e+02   1.5847369216e+01    0.1518563    0.1491646 -39.83  0.000357401    1.291    0.225
        25  -8.0992     51.8067    239.2238   1.1094677233e+02   1.6468713696e+01    0.1519929    0.1476343   6.25 0.0003617257    1.322    0.244
        26  -7.9939     35.7997    239.1965   1.1435900995e+02   1.8366650450e+01    0.1507525    0.1434334 -57.65 0.0008282715    1.358    0.264
        27  -7.4838    111.5409    238.4923   9.7557228185e+01   8.4308669196e+00    0.1326923    0.1198291  28.21 0.0001633059    1.067    0.062
        28  -8.2366     77.3492    238.1923   1.0522269967e+02   1.3374016993e+01    0.2064716    0.1639977  28.04 0.0005035432    1.303    0.232
        29  -7.5178    104.5210    237.4810   9.9014664912e+01   9.6698263155e+00    0.1328895     0.119903  35.85 4.425478e-05    1.044    0.042
        30  -7.5844     41.5438    237.4837   1.1301054830e+02   1.8073380656e+01     0.123022    0.1065669  67.54 0.0001781981    1.067    0.063
        31  -7.3592     17.5121    237.4833   1.1802692984e+02   2.0705174338e+01    0.1188353   0.09783091  71.94 0.0002895593    1.061    0.058
        32  -7.5350    146.2460    236.0115   8.9441504721e+01   3.7061857358e+00    0.1542735    0.1140407 -46.16 0.0004050008    1.482    0.325
        33  -8.1697     95.4686    235.9522   1.0088034038e+02   1.1302964049e+01    0.1802647    0.1312053 -61.35 0.0004683678    1.506    0.336
        34  -9.0886    169.6741    234.8776   8.4185038408e+01   4.2060107910e-01    0.2272715    0.1627493 -24.71 0.0005680175    1.443    0.307
        35  -8.0830    170.5947    230.8268   8.3334447869e+01   1.0125645400e+00    0.2426893    0.1653669 -48.73  0.001306007    1.658    0.397
        36  -7.5567    130.4879    235.4284   9.2868134899e+01   6.2027182218e+00    0.1353038     0.119479  21.76 0.0001590675    1.049    0.046
        37  -8.1471     90.8155    234.1319   1.0172265361e+02   1.2355072740e+01    0.2200849    0.1706515 -41.14 0.0006323804    1.544    0.352
        38  -7.8863     49.1387    234.8338   1.1114922457e+02   1.7743132977e+01     0.193489    0.1445693  62.57 0.0005335353    1.169    0.145
        39  -7.7927     36.8310    235.2445   1.1384424823e+02   1.9102487540e+01    0.1459662     0.139136 -72.38 0.0002702746    1.295    0.228
        40  -9.6085     31.2164    233.9455   1.1494353498e+02   2.0015153369e+01    0.2177762      0.21068  53.51 0.0005412345    1.287    0.223
        41  -7.6188     20.8202    235.3595   1.1721714159e+02   2.0821238459e+01    0.1435463    0.1102847  26.58 0.0001211306    1.544    0.352
        42  -7.7330    139.6669    233.7357   9.0562415938e+01   5.1391344786e+00    0.1673505     0.128685 -59.67 0.0009247368    1.546    0.353
        43  -7.6239    125.4930    234.4904   9.3861983820e+01   7.1453581922e+00    0.1358011    0.1212392  17.22 0.0008090212    1.089    0.082
        44  -7.4094    162.2909    233.4009   8.5531935432e+01   1.7812916185e+00    0.1415319   0.09491046 -11.47 0.0006995586    1.799    0.444
        45  -9.0932    114.7869    232.2934   9.5996306989e+01   9.2105779096e+00    0.2346919    0.2056213  12.13 0.0003060276    1.195    0.163
        46  -8.0978     99.5313    233.5192   9.9654275406e+01   1.1223695063e+01    0.1333022    0.1218681  38.15 0.0004905528    1.051    0.048
        47  -8.1504     77.1762    233.2340   1.0472878250e+02   1.4459367434e+01    0.1817994     0.171575  26.97 0.0007684416    1.187    0.158
        48  -8.0236     84.2178    231.7735   1.0295663897e+02   1.3796795670e+01    0.1658891    0.1542693  -9.98 0.0003530972    1.292    0.226
        49  -7.8432     72.5961    232.2384   1.0566246143e+02   1.5298918189e+01    0.1700429    0.1186109 -55.49 0.0004306923    1.591    0.371
        50  -7.5288    107.5080    233.4690   9.7820644702e+01   1.0057424509e+01    0.1351714    0.1214814  39.80 0.0002798364    1.006    0.006
        51  -7.7219     54.5753    231.2332   1.0962550050e+02   1.7863791473e+01    0.1649789    0.1140599 -60.07 0.0004858737    1.568    0.362
        52  -7.9350    146.4463    230.2831   8.8523677311e+01   4.7718358672e+00    0.1610304    0.1355627 -61.54 0.0004317384    1.434    0.303
        53  -7.5232     66.6842    230.6579   1.0684055226e+02   1.6434858730e+01    0.1266249    0.1011987 -28.07 0.0007048229    1.710    0.415
        54  -8.5058    102.0058    228.4442   9.8433640941e+01   1.1936038971e+01    0.2314873    0.1806863 -39.62 0.0002994454    1.486    0.327
        55  -8.6993     92.5351    228.1933   1.0060534779e+02   1.3383215855e+01    0.2868192    0.2088994  13.31 0.0005946499    1.673    0.402
        56  -8.8668     36.1325    228.9827   1.1350881659e+02   2.0560295498e+01     0.243295    0.1743647  50.97 0.0004320659    1.221    0.181
        57  -8.8377    152.8744    227.5874   8.6669325133e+01   4.3036717115e+00    0.2288938    0.1707891 -32.55 0.0005971906    1.408    0.290
        58  -8.9899     71.7880    227.3306   1.0531925794e+02   1.6489535561e+01    0.2319231    0.1785497 -60.80 0.0004200175    1.395    0.283
        59  -7.9184     57.4598    226.8228   1.0855481069e+02   1.8483046139e+01    0.2361486    0.1627024 -24.72  0.001173703    2.360    0.576
        60  -7.7788    143.5268    226.4762   8.8586911449e+01   5.9691158186e+00    0.1391186    0.1228079   8.77 3.643773e-06    1.084    0.077
        61  -8.4152    126.7861    224.8374   9.2166436192e+01   8.9128020483e+00    0.1997183     0.179131  -4.79 0.0006681306    1.177    0.151
        62  -8.2806     65.8679    225.3918   1.0647909722e+02   1.7715481279e+01    0.1817272    0.1487694  37.97 0.0004840236    1.197    0.165
        63  -7.6716     42.2515    225.5918   1.1187664179e+02   2.0616533318e+01    0.1574347    0.1213468  23.44  0.000543554    1.522    0.343
        64  -7.9686    138.9354    227.8183   8.9833528999e+01   6.4156360483e+00    0.2270234    0.1516437   0.08  0.001064624    2.017    0.504
        65  -8.0182    120.0856    224.1539   9.3623003218e+01   1.0098045676e+01    0.2038391    0.1768506  -2.18 0.0004177599    1.268    0.211
        66  -8.5368     99.6467    223.7041   9.8361363434e+01   1.3314642760e+01    0.2355708    0.2011781  -9.56  0.000719326    1.415    0.293
        67  -9.1432     85.0916    223.6786   1.0179201060e+02   1.5451315963e+01    0.2283041     0.189441 -56.20 0.0004250956    1.311    0.237
        68  -7.8172     87.7399    220.3307   1.0074756069e+02   1.5820475583e+01    0.1830479    0.1620845 -27.53 0.0003105742    1.349    0.258
        69  -8.1598     89.2884    217.3239   9.9989767551e+01   1.6275370831e+01    0.2450217    0.1543787 -51.55 0.0005546592    1.709    0.415
        70  -8.0644     27.8516    223.9588   1.1493283741e+02   2.2599880307e+01    0.1790628    0.1540419 -67.64 0.0005833128    1.305    0.233
        71  -8.0540    136.8763    222.9235   8.9546581579e+01   7.7256437835e+00    0.2085756    0.1762723  -7.22 0.0004914332    1.265    0.209
        72  -8.9890    109.6679    226.4416   9.6379426247e+01   1.1212265615e+01    0.2584295    0.2121964 -19.90 0.0005267208    1.465    0.318
        73  -8.0651    105.1787    223.0911   9.6972859054e+01   1.2615487667e+01     0.195416     0.180424 -12.54 0.0003452204    1.216    0.178
        74  -7.8793     78.9697    223.4537   1.0320618066e+02   1.6368117934e+01    0.1925427    0.1246602  34.74 3.623341e-05    1.456    0.313
        75  -7.8500     14.8639    223.1816   1.1768444229e+02   2.4106822154e+01     0.152266    0.1303812 -70.00 0.0002990173    1.314    0.239
        76  -7.7943     91.7303    221.9230   1.0000187584e+02   1.4881064372e+01    0.1788069    0.1688038 -87.58 0.0003901113    1.101    0.092
        77  -8.1895     73.0980    222.1859   1.0444069958e+02   1.7467229616e+01     0.185061    0.1796936   2.09  0.000442114    1.218    0.179
        78  -8.1916     58.2953    222.3043   1.0791259145e+02   1.9399880215e+01     0.123075    0.1019908 -32.67 0.0002274427    1.580    0.367
        79  -8.2268    147.1083    221.1514   8.6927995303e+01   6.4697066290e+00    0.2081889    0.1734585  -2.83 0.0002978891    1.241    0.194
        80  -7.6805    133.5142    221.5014   9.0100209086e+01   8.5486301234e+00    0.1404848    0.1272384  11.15  1.58099e-05    1.077    0.071
        81  -7.9714    123.5781    220.4695   9.2258558783e+01   1.0332779097e+01    0.2259116     0.123634 -42.82 0.0005170259    2.043    0.510
        82  -8.3984     62.8238    221.1980   1.0674312988e+02   1.9067634645e+01    0.1907795    0.1611775  64.16 0.0003899062    1.060    0.057
        83  -7.4626     37.4915    221.5582   1.1260141191e+02   2.2082420250e+01    0.1282474    0.1095642  71.01 0.0001499722    1.021    0.021
        84  -8.2970      2.2160    221.5934   1.2024927515e+02   2.5644924224e+01     0.138099    0.1152131  16.13 0.0005629735    1.614    0.380
        85  -8.0536    140.6630    219.8240   8.8185785426e+01   7.7609907803e+00    0.2097352    0.1623247 -27.51 0.0005770184    1.408    0.290
        86  -8.3951    129.8456    220.0278   9.0724033371e+01   9.4364965902e+00    0.2559441    0.1755205   2.60 0.0006162433    1.942    0.485
        87  -8.3131    115.6479    220.1881   9.4085815934e+01   1.1635343715e+01    0.3400076    0.1291345  44.97 0.0009395368    2.668    0.625
        88  -8.4872      5.0232    217.2399   1.1941193233e+02   2.6371879965e+01    0.1549148    0.1373172 -74.18 0.0005211629    1.289    0.224
        89  -7.6951    109.0322    219.4589   9.5550556533e+01   1.2820057409e+01    0.2081874    0.1297055  33.53 0.0003897761    1.503    0.335
        90  -7.9972     81.8685    218.6631   1.0194097973e+02   1.7043524149e+01    0.1888021    0.1572479  46.68  0.000387401    1.105    0.095
        91  -8.5889     44.6063    219.1121   1.1076640858e+02   2.1819651590e+01     0.214583    0.1539492  50.09 0.0004441263    1.256    0.204
        92  -7.9498     98.5255    218.5060   9.7928194956e+01   1.4634157866e+01    0.1373899    0.1302701  37.37 9.925412e-05    1.059    0.056
        93  -7.8171     75.3365    218.0745   1.0343174906e+02   1.8097531132e+01    0.1809935    0.1639863  79.34 0.0005800287    1.064    0.060
        94  -8.1597    135.0355    216.9767   8.9032552741e+01   9.2504870718e+00    0.2133643    0.1625726 -14.05 0.0004741591    1.559    0.359
        95  -7.8225    179.5409    215.9359   7.8902390124e+01   2.4031434129e+00    0.1880607    0.1054985 -22.02 0.0008038532    2.290    0.563
        96  -7.5447     71.6424    216.7558   1.0416023189e+02   1.8911089064e+01    0.1278717    0.1062099  -9.37 0.0004521115    1.595    0.373
        97  -7.7503     65.9949    216.0130   1.0542648438e+02   1.9846388003e+01    0.1582928    0.1416103  68.47            0    1.009    0.009
        98  -7.5763     54.0597    215.9760   1.0825859735e+02   2.1397510219e+01    0.1590095    0.1358957  55.84 0.0003727588    1.076    0.070
        99  -8.5666    143.6673    214.7148   8.6659499931e+01   8.3332504532e+00    0.2243003    0.1799272  -1.82 0.0004936098    1.360    0.265
       100  -9.8161    146.9684    211.6971   8.5390450389e+01   8.4242701314e+00    0.5149223    0.2832075  22.38  0.002184925    2.097    0.523
       101  -7.7719    130.9655    214.0095   8.9511979609e+01   1.0534781404e+01    0.1645146    0.1602874  -7.86 0.0003396208    1.063    0.059
       102  -8.9187    111.5987    213.3163   9.4035998659e+01   1.3780398461e+01    0.2651755    0.2280852 -15.03 0.0001824429    1.339    0.253
       103  -8.1079    102.9623    214.3629   9.6279887312e+01   1.4890079167e+01    0.2002265    0.1676711  35.46 0.0004857724    1.133    0.117
       104  -8.5436     84.8202    214.2091   1.0066545110e+02   1.7642080107e+01    0.2175097    0.1917742  19.78 0.0003487039    1.246    0.197
       105  -8.0126     61.2455    214.2129   1.0636287442e+02   2.0893118436e+01    0.1824107    0.1376964  66.34 0.0004106982    1.267    0.211
       106  -8.3085     43.0075    214.0034   1.1066304538e+02   2.3198690859e+01    0.1878182    0.1486827 -43.28 0.0003407766    1.576    0.366
       107  -7.9717     28.9089    214.1490   1.1393240957e+02   2.4740963971e+01    0.1631297    0.1431411 -63.11 0.0004151762    1.297    0.229
       108  -8.6236    170.1610    211.3216   8.0107814177e+01   4.7531566330e+00    0.4389697    0.2398765 -17.71  0.001664601    3.041    0.671
       109  -8.2896    154.8589    212.5855   8.3737618498e+01   6.9599652891e+00    0.2346206    0.1819194 -27.48 0.0006334931    1.336    0.251
       110  -8.4895    120.0437    215.1338   9.2282826423e+01   1.2042016477e+01    0.2093743    0.1933069  21.58 0.0004050551    1.059    0.056
       111  -8.7641     92.8241    212.2022   9.8445476327e+01   1.6924571810e+01    0.2597559     0.207546 -33.49  0.000578503    1.493    0.330
       112  -7.6620     74.4678    213.4232   1.0308158390e+02   1.9296894973e+01    0.1368609    0.1251546  61.34 0.0001259765    1.018    0.018
       113  -8.8148     98.7644    211.6146   9.6909681377e+01   1.6159872924e+01    0.2513939    0.2074903 -45.53 0.0006982865    1.319    0.242
       114  -7.7259     69.4633    212.5679   1.0419360860e+02   2.0185902540e+01    0.1349936    0.1255574  65.53 8.122942e-05    1.046    0.044
       115  -8.4229     56.9755    211.7943   1.0712463506e+02   2.2013380655e+01    0.1875376      0.17926 -32.32 0.0005674516    1.273    0.214
       116  -7.9351     51.8722    212.4700   1.0841807819e+02   2.2493653376e+01    0.1826116    0.1272555  32.85 0.0003738204    1.462    0.316
       117  -7.9479     32.7942    205.6111   1.1229947566e+02   2.6345800582e+01    0.1806603    0.1521213  58.69 0.0002451264    1.112    0.101
       118  -9.4049     25.6394    209.1467   1.1427650852e+02   2.6259929926e+01    0.4681988    0.2991021  19.05  0.001883995    1.974    0.493
       119  -8.5311     31.2944    208.6859   1.1292405879e+02   2.5772990503e+01     0.247673    0.1487747 -75.41  0.000497853    1.536    0.349
       120  -7.4483    126.4983    216.5215   9.0964803907e+01   1.0713122401e+01     0.140931    0.1312655  26.79 0.0001679423    1.005    0.005
       121  -7.9925     13.0425    215.5194   1.1757564281e+02   2.6022773933e+01    0.1622227    0.1187292  30.51 0.0006296976    1.530    0.347
       122  -7.6402    134.8686    210.8636   8.8077302174e+01   1.0576236617e+01    0.2164827    0.1834407  -3.11 0.0005572142    1.269    0.212
       123  -8.3381    124.8190    210.9345   9.0481867209e+01   1.2195736755e+01     0.212783    0.1839061 -14.95  0.000488635    1.272    0.214
       124  -7.9945    119.7794    211.1907   9.1734450517e+01   1.2952062429e+01    0.1906482    0.1621987  -6.98 0.0003785669    1.330    0.248
       125  -7.9732    106.0459    210.3010   9.4936231765e+01   1.5332952934e+01    0.1937096    0.1732104  36.80  0.000280097    1.066    0.062
       126  -7.8481     89.2459    210.3980   9.9076374603e+01   1.7877103449e+01    0.1919023    0.1214797  44.29 0.0002517575    1.485    0.327
       127  -7.8757     36.8066    210.1015   1.1175714942e+02   2.4831135984e+01    0.1620298    0.1486065 -51.57  0.000394652    1.312    0.238
       128  -9.0519      1.9868    209.5832   1.1961024721e+02   2.8389072824e+01    0.2942359    0.1439671 -74.93  0.001157004    1.770    0.435
       129  -7.8479    225.3513    208.7446   6.8541518067e+01  -2.9802190802e+00    0.1825914    0.1005618 -31.19 0.0009375341    1.619    0.382
       130  -7.4038    194.2951    209.3318   7.4647405603e+01   1.3745257013e+00    0.1410852   0.09534799 -10.44  0.000325069    1.638    0.389
       131  -8.3230    114.8406    209.1871   9.2618611154e+01   1.4192198599e+01    0.2594857    0.2127941 -35.79 0.0006207243    1.338    0.252
       132  -8.1627    114.7039    205.6520   9.2096524442e+01   1.5015496311e+01    0.2457836    0.1920487 -43.44 0.0005196805    1.360    0.265
       133  -8.3966     77.8801    209.1231   1.0170920168e+02   1.9828979153e+01    0.1979629    0.1894815  52.59 0.0003976084    1.081    0.075
       134  -8.2648    156.5345    204.4705   8.1931050559e+01   8.3520137278e+00    0.2034971     0.139924 -56.93 0.0008889667    1.683    0.406
       135  -8.7414    160.5299    209.0977   8.1849302439e+01   6.7465805457e+00    0.3271699    0.2006269 -25.29  0.001058629    1.980    0.495
       136  -7.3724     88.6915    196.6681   9.7262000898e+01   2.1232609087e+01    0.2036403    0.1234058 -62.01 0.0009189877    1.672    0.402
       137  -8.3804     84.3591    206.5278   9.9759901494e+01   1.9508986114e+01    0.2290816    0.1816868 -24.98 0.0008733499    1.609    0.379
       138  -8.7487     88.6160    203.7815   9.8313276549e+01   1.9531015796e+01    0.2759892    0.2423397  12.35 0.0005784687    1.287    0.223
       139  -8.0087     88.3270    200.2760   9.7884185567e+01   2.0414375503e+01    0.2319481    0.1265273 -51.42 0.0005090354    1.897    0.473
       140  -7.5656    133.2918    206.6969   8.7757401875e+01   1.1738323820e+01    0.1410989    0.1121763  68.21 0.0004962138    1.571    0.364
       141  -8.0939    126.8106    206.2142   8.9234761167e+01   1.2913451348e+01    0.1935761    0.1642941  -8.90 0.0003144743    1.311    0.237
       142  -7.7841     64.7731    206.4360   1.0461501270e+02   2.2276423651e+01    0.1703142    0.1341633  16.14 0.0004820295    1.521    0.343
       143  -7.7844     39.1314    205.7855   1.1080273219e+02   2.5600993723e+01    0.1663756    0.1493343 -50.44 0.0003506871    1.317    0.241
       144  -8.2715    139.2048    205.1054   8.6078681858e+01   1.1103749407e+01    0.2154858    0.1837805 -15.39 0.0004614259    1.245    0.197
       145  -9.4050     12.2404    207.0314   1.1717486281e+02   2.8070776364e+01     0.396631    0.2288164  22.71  0.002131063    2.083    0.520
       146  -8.0174     70.7253    204.9005   1.0294865561e+02   2.1839099132e+01    0.1894879    0.1665438 -81.88   0.00048782    1.113    0.101
       147  -7.9958     59.6775    204.6730   1.0566894099e+02   2.3371877960e+01    0.2072538    0.1746511   5.82 0.0007249357    1.495    0.331
       148  -7.7976     62.3460    203.2722   1.0484064741e+02   2.3362871502e+01    0.1796918    0.1685223  31.81 0.0004971044    1.183    0.155
       149  -8.8907     48.5249    204.1481   1.0835920667e+02   2.4896257791e+01     0.410903    0.2109192  89.45  0.001053802    2.335    0.572
       150  -7.3938    167.3382    204.2976   7.9467082460e+01   6.6035757037e+00    0.1474869    0.1051731  -5.40 0.0007032613    1.657    0.397
       151  -8.9295    109.8144    203.1812   9.2914677495e+01   1.6371804824e+01    0.2538712    0.2396849  52.62 0.0003986342    1.035    0.034
       152  -8.4510     55.6579    203.9797   1.0658464993e+02   2.4054765204e+01    0.2107927    0.1883222 -28.05 0.0004155935    1.392    0.282
       153  -8.9011     24.0093    203.7642   1.1421540639e+02   2.7708860405e+01    0.2141335    0.1635107 -80.62 0.0004869042    1.180    0.153
       154  -8.3183    149.2065    203.1018   8.3376480219e+01   9.8623159021e+00    0.2146845    0.1810569 -10.12 0.0004056735    1.238    0.192
       155  -8.2346    120.8353    202.9408   9.0150395476e+01   1.4632595433e+01    0.2101438    0.1905553 -10.48 0.0002629683    1.182    0.154
       156  -9.3199     97.5169    202.3824   9.5869861951e+01   1.8504589493e+01    0.2509659    0.2356524  39.68 0.0003368814    1.051    0.049
       157  -7.5424    175.6897    202.6771   7.7337184649e+01   5.5633556307e+00    0.1468073    0.1032987  -9.19 0.0004140807    1.651    0.394
       158  -8.1277    129.0816    201.6632   8.7919754561e+01   1.3552738356e+01    0.2027935    0.1772031  24.66  0.000409771    1.116    0.104
       159  -8.3480     42.8783    201.4326   1.0946168233e+02   2.6226209192e+01    0.1971335    0.1697032 -56.80 0.0003578572    1.280    0.219
       160  -8.7569     29.0606    202.1637   1.1288127672e+02   2.7574652280e+01    0.1877702    0.1635314 -63.82 0.0004369422    1.251    0.201
       161  -8.6325      6.9764    202.2552   1.1803724417e+02   2.9670793981e+01    0.1637477    0.1411802  70.98 0.0003452977    1.107    0.097
       162  -8.0181    161.0098    201.2969   8.0338173089e+01   8.2645856266e+00     0.198591    0.1730328  10.59 0.0003548877    1.103    0.093
       163  -7.4056    145.4785    201.4250   8.3950941032e+01   1.0848220437e+01    0.1451026    0.1347733   8.30 0.0001270866    1.027    0.026
       164  -8.3612    134.0604    200.4744   8.6507800982e+01   1.2982721263e+01    0.2054413    0.1942423 -29.74 0.0002937315    1.076    0.071
       165  -8.0819     82.8623    201.4919   9.9443767444e+01   2.0933888146e+01    0.2000754    0.1372983  33.33 0.0004584074    1.443    0.307
       166  -8.9742     67.7683    201.0034   1.0320014784e+02   2.3189291469e+01    0.2274671    0.2007834  30.76 0.0003122302    1.212    0.175
       167  -7.7580     38.7123    198.7058   1.1021057822e+02   2.7369665566e+01    0.1942427    0.1537287 -78.50 0.0002017762    1.166    0.142
       168  -9.0420    194.2795    200.1210   7.2945352330e+01   3.0876290352e+00    0.3284341    0.1875433  37.02  0.001579431    1.811    0.448
       169  -8.4580    191.3119    197.1875   7.2999841828e+01   4.1138511746e+00    0.2675704    0.1830729 -36.34  0.001288484    1.370    0.270
       170  -7.7338    104.5998    205.5477   9.4577510921e+01   1.6653432526e+01    0.1391617     0.136706  26.51 0.0002355087    1.055    0.052
       171  -8.6680     51.9054    199.2947   1.0699078326e+02   2.5668721435e+01    0.2336082    0.1800654 -62.10 0.0004000957    1.303    0.233
       172  -7.3941     33.4252    200.2536   1.1165526828e+02   2.7573843761e+01    0.1271863   0.09828755 -29.60   0.00048841    1.763    0.433
       173  -7.5920    186.5323    199.4702   7.4425648961e+01   4.4392186143e+00    0.1428411    0.1223712  -9.26 7.120873e-05    1.072    0.067
       174  -8.7128    105.9534    198.4455   9.3130903677e+01   1.8102041183e+01    0.2530395    0.2044627 -47.26 0.0002037608    1.293    0.227
       175  -8.1971     73.8946    198.9187   1.0137327933e+02   2.2850284750e+01     0.195778    0.1875217 -31.83            0    1.193    0.162
       176  -7.3086     56.7032    199.7565   1.0583886376e+02   2.4953222831e+01    0.1248665    0.1063413 -27.57 0.0002246432    1.480    0.324
       177  -8.3298    124.0111    197.5796   8.8464622222e+01   1.5328639798e+01    0.2327916    0.1968227 -35.35 0.0005523829    1.245    0.197
       178  -8.0310    114.0385    197.9841   9.1018727608e+01   1.6894109467e+01    0.2182746    0.1729811 -13.95 0.0003459465    1.550    0.355
       179  -7.6988     92.9617    198.5059   9.6442589966e+01   2.0134944001e+01    0.2049972    0.1392855  34.44 0.0003236113    1.440    0.305
       180  -8.2184     61.3263    197.9768   1.0445577359e+02   2.4793346856e+01     0.190917    0.1646925 -80.72 0.0003831458    1.107    0.097
       181  -7.7194    180.7155    197.6628   7.5316715396e+01   5.7347862273e+00    0.1463078    0.1026809 -12.44 0.0004856725    1.627    0.385
       182  -7.7321    162.5174    197.5155   7.9298097674e+01   8.7968725916e+00    0.1455332    0.1331038  -3.75   0.00016244    1.025    0.024
       183  -8.0810    102.1565    196.8821   9.3845982024e+01   1.9082396480e+01    0.1934034    0.1714973 -15.30 0.0004137418    1.289    0.224
       184  -7.9399     48.2022    197.5898   1.0772972916e+02   2.6540378549e+01    0.1689912    0.1340764  14.41 0.0004552819    1.554    0.356
       185  -7.5808    224.6120    196.1674   6.6352041321e+01  -7.3831333826e-01    0.1937601    0.1035301 -30.39 0.0009407538    1.737    0.424
       186  -7.9200    167.5848    196.1844   7.7908759617e+01   8.2170779841e+00    0.2006986    0.1265632 -32.37 0.0004422724    1.659    0.397
       187  -8.5813    139.1617    195.9092   8.4466815526e+01   1.3131868707e+01    0.2206168    0.2105469 -13.22 0.0006477879    1.037    0.036
       188  -8.1893    109.6876    195.9971   9.1787995634e+01   1.8075382400e+01    0.2036857    0.1849799 -64.54 0.0003605923    1.136    0.119
       189  -8.3753     80.3573    196.1040   9.9326690546e+01   2.2612493166e+01     0.221146    0.1907262  25.04 0.0003099925    1.247    0.198
       190  -7.4185     12.5917    196.1497   1.1629961271e+02   3.0634673140e+01    0.1663458    0.1015349 -66.61 0.0002061595    1.515    0.340
       191  -8.1815    161.8621    193.1958   7.8634391411e+01   9.8149992327e+00    0.2917991    0.1938543  23.65 0.0007651304    1.605    0.377
       192  -8.7147    158.4496    192.4632   7.9277071179e+01   1.0558320571e+01    0.2356324    0.1870897  20.84 0.0005803625    1.272    0.214
       193  -7.3720    134.2317    195.6552   8.5616171789e+01   1.4033024473e+01    0.1405307    0.1157923  87.41 0.0003254334    1.551    0.355
       194  -8.0773    129.3154    194.6833   8.6648515822e+01   1.5093611616e+01    0.2036504    0.1681423 -12.92  0.001031374    1.376    0.273
       195  -8.3172     55.0325    195.0107   1.0570134296e+02   2.6338149918e+01    0.2058452    0.1916434  78.23 0.0004986195    1.050    0.048
       196  -8.0820     44.5808    195.1874   1.0837791281e+02   2.7565121169e+01    0.1817071     0.116242 -60.02 0.0001865272    1.531    0.347
       197  -7.5992     35.3102    195.3378   1.1071642095e+02   2.8575911760e+01    0.1396039    0.1202065  81.32 0.0008201012    1.011    0.011
       198  -8.4709     36.2526    192.1289   1.1015579852e+02   2.9269284000e+01    0.2142197    0.1881541 -66.11  0.000521603    1.181    0.153
       199  -8.0641     25.8533    194.3888   1.1296132699e+02   2.9801490049e+01    0.2076144    0.1330957   5.44 0.0003366567    2.315    0.568
       200  -7.7936    119.5161    194.4576   8.9047964256e+01   1.6806465993e+01    0.1470188     0.141619   9.16 6.241473e-05    1.048    0.046
       201  -8.2062     94.7766    193.8543   9.5264102849e+01   2.0979356178e+01    0.2106647    0.1937381 -33.93  0.000459357    1.188    0.158
       202  -8.1700     74.0939    193.9881   1.0065094287e+02   2.4036807433e+01    0.2102794    0.1987083  81.20 0.0004213744    1.023    0.023
       203  -9.0117     66.2413    193.1511   1.0257731527e+02   2.5334623715e+01    0.2188241    0.2113473  62.93 0.0004472515    1.088    0.081
       204  -8.1177      6.2474    194.5231   1.1767048480e+02   3.1579934895e+01    0.1444325    0.1249315  -3.10 0.0009302712    1.579    0.367
       205  -8.7169    185.7729    191.6301   7.3088764877e+01   6.0952035379e+00    0.2893324    0.1809432 -36.24  0.001056656    1.526    0.345
       206  -8.7760     49.8187    192.9260   1.0679090398e+02   2.7503564423e+01    0.1973837    0.1758538 -53.66 0.0003755424    1.234    0.189
       207  -7.4982    175.6335    192.2806   7.5387737596e+01   7.6586597476e+00    0.1382114    0.1151269  70.48  0.000701389    1.685    0.407
       208  -7.7661    134.5337    192.0779   8.4897014734e+01   1.4790973219e+01    0.2121485    0.1459769 -50.39 0.0003889239    1.480    0.324
       209  -8.2916    125.0782    192.1472   8.7250404624e+01   1.6401434236e+01    0.2203546    0.1927359  -8.34 0.0002950315    1.252    0.201
       210  -8.4955    115.5624    191.8868   8.9603394477e+01   1.8074834821e+01    0.2341234     0.198704  21.52 0.0003544285    1.222    0.182
       211  -8.8119     80.8377    191.5185   9.8539365954e+01   2.3674129396e+01    0.2780983    0.2153788 -27.09 0.0007225872    1.626    0.385
       212  -7.3017    199.3547    191.2973   7.0236109645e+01   3.9548855992e+00    0.1448867   0.09993756  -5.94 0.0007034852    1.696    0.410
       213  -7.9408    110.4860    190.9743   9.0743296596e+01   1.9139467020e+01     0.212469    0.1456014 -54.11 0.0003744954    1.479    0.324
       214  -8.3621     90.5010    191.1054   9.5947434478e+01   2.2316976383e+01     0.210579    0.1434727 -62.30 0.0004327747    1.479    0.324
       215  -7.4878    215.5237    190.4724   6.6945499444e+01   1.6007512132e+00    0.1363412    0.1144023 -18.28 0.0008094705    1.021    0.020
       216  -7.7082    148.5430    190.5202   8.1226122264e+01   1.2701891022e+01    0.1492457    0.1383432  -5.76 4.857828e-05    1.054    0.051
       217  -8.1537    138.2681    189.7561   8.3556350159e+01   1.4668843233e+01    0.2056417    0.1698443 -13.61 0.0005808257    1.345    0.256
       218  -8.7355    103.4232    189.1801   9.2264951188e+01   2.0734987628e+01    0.3466252    0.2054585 -38.32  0.001451412    2.020    0.505
       219  -7.8449     41.8732    190.1344   1.0851305054e+02   2.9139665662e+01    0.1751393    0.1526837 -53.10 0.0002628698    1.263    0.208
       220  -7.9794     17.5189    189.8972   1.1461070314e+02   3.1712930135e+01    0.1888383    0.1123067 -76.65 0.0005152952    1.467    0.319
       221  -7.5751     86.7018    193.0076   9.7229550550e+01   2.2429730467e+01    0.1958427     0.180773 -68.35 0.0004385634    1.089    0.082
       222  -8.0722    181.3649    188.2099   7.3358664961e+01   7.5155308373e+00    0.3355839    0.2059664 -68.44  0.001278515    3.162    0.684
       223  -8.6769    145.0738    194.9137   8.2869086589e+01   1.2336141336e+01    0.2265011    0.2033228  -5.85 0.0005582162    1.125    0.111
       224  -7.8968    130.7381    189.0525   8.5281006926e+01   1.6142458010e+01     0.199377    0.1897192 -33.39 0.0002621669    1.059    0.055
       225  -7.8071     14.1331    188.8557   1.1535254054e+02   3.2276944260e+01    0.1664294    0.1359098 -64.79 0.0002898593    1.249    0.199
       226  -7.7358    155.4708    188.5134   7.9213177760e+01   1.1928128470e+01     0.148574    0.1383589  -6.72 0.0008096533    1.028    0.027
       227  -7.7832    126.3443    188.1674   8.6217372514e+01   1.7110575807e+01    0.2011124    0.1419072 -63.82 0.0005029334    1.589    0.371
       228  -7.5028     77.7465    188.6527   9.8931840088e+01   2.4841818691e+01    0.1451205    0.1080603 -36.58 0.0002619014    1.589    0.371
       229  -7.3607     64.2621    188.6855   1.0250071374e+02   2.6721678582e+01    0.1451405    0.1020717  71.43 0.0001960326    1.540    0.351
       230  -8.5034     32.8750    187.1998   1.1050636423e+02   3.0866116194e+01    0.2595862    0.1580857 -38.32 0.0009068839    2.180    0.541
       231  -7.9174    174.2699    187.5661   7.4770593498e+01   8.8573285128e+00    0.1955412    0.1349783  20.73 0.0007148209    1.583    0.368
       232  -9.1783    120.5462    186.0871   8.7307998465e+01   1.8602753490e+01    0.2604731    0.2296052  38.16 0.0002550509    1.117    0.105
       233  -8.2165    109.3729    187.0383   9.0354015874e+01   2.0272249423e+01    0.4180816    0.1466794  47.11  0.001296934    3.350    0.702
       234  -8.3735     30.3513    192.3588   1.1165916606e+02   2.9842385768e+01    0.2053352    0.1787156 -66.06 0.0005533303    1.196    0.164
       235  -8.6140     72.8770    187.0795   9.9994546357e+01   2.5937187662e+01    0.2097349    0.1973821 -85.76 0.0003888769    1.031    0.030
       236  -7.7176     67.5315    187.6094   1.0148925886e+02   2.6549396518e+01    0.1418905    0.1318257  73.07 7.906948e-05    1.023    0.023
       237  -9.0291     56.5694    186.7415   1.0427695442e+02   2.8220447282e+01    0.3108281    0.2016467  40.85  0.001406226    1.516    0.341
       238  -7.4277    243.3224    186.3603   6.1266072655e+01  -1.6675631590e+00    0.1351005   0.08463427 -14.05 -1.524505e-05    1.775    0.437
       239  -8.6580     85.9934    185.2709   9.6224146777e+01   2.4459067613e+01    0.2347992    0.2027478 -62.41 0.0004113825    1.149    0.130
       240  -8.5395     44.4183    186.0638   1.0739207387e+02   2.9873136594e+01    0.2947333    0.2026412   0.76 0.0009858747    2.118    0.528
       241  -7.6031     27.6829    186.7474   1.1178498648e+02   3.1515274020e+01     0.123952   0.09789496 -40.50 0.0001839575    1.530    0.346
       242  -7.9032     18.8017    186.1915   1.1397118457e+02   3.2512303377e+01      0.16608    0.1373973 -58.56 0.0002194488    1.287    0.223
       243  -8.9867    223.0757    184.4548   6.4397356644e+01   1.5491386660e+00    0.3653223    0.1546838 -26.99  0.001320611    3.305    0.697
       244  -7.6184    183.3196    185.3019   7.2369535226e+01   7.7711556578e+00      0.14778    0.1065281  -7.95 0.0005145976    1.626    0.385
       245  -7.7579    166.8192    185.4341   7.6009694087e+01   1.0597674676e+01    0.1879586    0.1369487  18.52 0.0001019809    1.497    0.332
       246  -7.8868    157.9424    184.9473   7.7945695886e+01   1.2267912496e+01    0.1777922    0.1616388  19.42 0.0004267444    1.083    0.077
       247  -8.2312    151.3059    185.5343   7.9616915009e+01   1.3316575745e+01    0.1929568    0.1426519  22.11 0.0004971581    1.436    0.303
       248  -7.7406    138.4997    185.5506   8.2709504064e+01   1.5585255081e+01    0.1507375    0.1422189  -2.91 9.335813e-05    1.052    0.049
       249  -7.9870    129.2759    185.0448   8.4905064393e+01   1.7329115238e+01    0.1995528    0.1962294 -23.72 0.0004792848    1.023    0.022
       250  -8.1978     80.8906    184.8709   9.7526144594e+01   2.5329124628e+01    0.2113684    0.1947283 -31.86 0.0003614204    1.210    0.173
       251  -8.7895     63.4585    183.5637   1.0201596922e+02   2.8128188124e+01    0.4221082    0.2197716 -34.33  0.001554999    3.094    0.677
       252  -9.0610    142.7056    183.4993   8.1288278174e+01   1.5304787769e+01    0.2530616    0.2186371 -32.29   0.00027107    1.163    0.140
       253  -8.3330     36.9714    183.4462   1.0904455139e+02   3.1375263552e+01    0.3931678    0.1008804 -56.09  0.001318446    3.445    0.710
       254  -7.6695     23.2729    184.6836   1.1270632782e+02   3.2466938123e+01    0.1376611   0.08711107  69.16 0.0003606221    1.562    0.360
       255  -8.4859    178.5667    182.2749   7.2786611820e+01   9.2060698108e+00    0.4434067    0.2658819   0.76   0.00165254    3.006    0.667
       256  -7.6220    173.2887    183.3035   7.4144903229e+01   9.9129371912e+00    0.1477151    0.1092484 -10.82  0.000192301    1.566    0.361
       257  -7.7292    162.8370    183.2144   7.6475904861e+01   1.1774643560e+01    0.1998233    0.1640149 -10.88 0.0004093446    1.296    0.228
       258  -7.8755     14.7726    182.9219   1.1469343820e+02   3.3690562548e+01      0.17765    0.1441322 -87.77 0.0001997759    1.041    0.039
       259  -8.5679      8.8603    182.3028   1.1611721750e+02   3.4348822593e+01    0.2512159    0.1243812 -52.06  0.001199368    2.148    0.534
       260  -8.0546    210.8579    181.7962   6.6136949334e+01   3.9166818785e+00    0.2029742    0.1646246 -11.53 0.0003977367    1.186    0.156
       261  -8.2408    168.3577    181.9804   7.4978729524e+01   1.1059608084e+01    0.3209476    0.1505651  47.41  0.001215309    2.509    0.601
       262  -8.3194    134.8200    181.8080   8.2904625968e+01   1.7101739132e+01    0.2237922    0.1970841 -12.87 0.0005296963    1.210    0.173
       263  -7.7573     70.2950    178.3021   9.9397799507e+01   2.8536062448e+01    0.1572394    0.1372667  74.64 0.0003336003    1.135    0.119
       264  -8.1982     69.0285    182.2245   1.0032382707e+02   2.7709403382e+01    0.2019838    0.1908134 -26.30 0.0002922736    1.204    0.169
       265  -8.5387     26.0213    178.9965   1.1143806887e+02   3.3635658760e+01    0.3463922    0.1464685 -62.28  0.001135135    2.060    0.515
       266  -7.6125    199.2199    180.9737   6.8235387466e+01   5.9580338614e+00    0.1820905    0.1060108 -41.94 0.0004689009    1.585    0.369
       267  -7.5702    150.6514    181.1651   7.8917215595e+01   1.4405283415e+01    0.2100987    0.1315165 -37.23 0.0003407797    1.660    0.398
       268  -9.0163     89.7600    181.0265   9.4527264559e+01   2.4942316279e+01    0.2435776    0.2143007  20.33  0.000353344    1.232    0.188
       269  -7.8412     82.9469    181.4869   9.6443129071e+01   2.5875272432e+01    0.2102155    0.1463991  31.35 0.0003638495    1.482    0.325
       270  -8.1292     42.4768    181.1164   1.0732307735e+02   3.1355915302e+01    0.2516101    0.1579102 -71.52 0.0003858293    1.463    0.317
       271  -8.5150     42.6869    176.5901   1.0671902892e+02   3.2493751723e+01    0.4509803    0.2108269  78.99   0.00141227    3.483    0.713
       272  -8.4751     47.3676    175.0726   1.0524849389e+02   3.2342945403e+01    0.3308008    0.2041232  17.86  0.001329164    2.007    0.502
       273  -7.9492     49.9448    172.3694   1.0417686587e+02   3.2735716968e+01    0.2799559    0.1303002  34.14  0.001169647    2.154    0.536
       274  -8.2201    155.6819    179.4849   7.7392314542e+01   1.3870978544e+01    0.4101339    0.2277678 -18.52  0.001334203    3.572    0.720
       275  -7.5151     78.8011    180.3652   9.7390757686e+01   2.6780282405e+01    0.1851115    0.1421379  19.26 0.0002483415    1.492    0.330
       276  -7.4649    204.5295    179.5118   6.6899018584e+01   5.3667671265e+00    0.1406794    0.1228235 -21.80 0.0008098299    1.003    0.003
       277  -8.0656    175.4173    178.7628   7.2765542347e+01   1.0487964118e+01    0.2623476    0.1287754 -35.36 0.0007867014    2.177    0.541
       278  -7.8332    178.5840    176.2160   7.1558506015e+01   1.0458178541e+01    0.2370269    0.1703139  -5.74  0.000445319    1.733    0.423
       279  -8.6992    170.3391    178.9068   7.3917441622e+01   1.1360330167e+01    0.2895676    0.2164927  48.11  0.001430894    1.498    0.332
       280  -8.4583    170.8940    175.1330   7.3025205646e+01   1.2063924579e+01    0.3467779    0.2132521 -44.66  0.001193088    1.566    0.361
       281  -8.2844    179.4050    165.4809   6.9149408973e+01   1.2556833081e+01    0.2434011    0.1941105 -44.94  0.001250176    1.209    0.173
       282  -9.1470    172.0420    168.2346   7.1337353988e+01   1.3329358456e+01    0.3731851     0.230208 -30.56  0.001618505    1.775    0.437
       283  -9.0560    174.1586    171.9124   7.1637935666e+01   1.2157513993e+01    0.4785182    0.2180447  39.46   0.00177811    2.282    0.562
       284  -8.5958    176.4718    168.4969   7.0419097172e+01   1.2459086495e+01    0.2943204     0.139766 -45.22 0.0006509156    2.003    0.501
       285  -7.9611    145.4921    178.6502   7.9660436858e+01   1.5905433408e+01    0.2005503    0.1410917 -36.41 0.0009191977    1.467    0.318
       286  -8.7761    122.1474    178.9440   8.5573353597e+01   2.0029372836e+01    0.3056377    0.2335078 -35.78 0.0006647966    1.399    0.285
       287  -8.1029    124.4934    175.0203   8.4213583632e+01   2.0554315055e+01     0.254755    0.2089068  12.25 0.0003905625    1.368    0.269
       288  -8.2207     56.0893    178.9277   1.0337436316e+02   3.0277934129e+01    0.2134803    0.1615971 -37.41 0.0004033547    1.555    0.357
       289  -8.4413     14.4828    179.5303   1.1446922268e+02   3.4563769493e+01    0.2157469    0.1290777  -0.55  0.001028311    2.610    0.617
       290  -7.8801     21.5356    178.2496   1.1253414164e+02   3.4252433625e+01    0.1808257    0.1083989 -63.13 0.0005573145    1.512    0.339
       291  -7.6479    152.4842    177.5357   7.7756970360e+01   1.4884973022e+01    0.1520028    0.1420192 -10.58 0.0002234904    1.046    0.044
       292  -8.6381     74.6517    181.9443   9.8760159308e+01   2.6984446503e+01    0.3606874    0.2257447  60.84  0.001303297    1.846    0.458
       293  -7.4977    129.7450    177.6497   8.3378437954e+01   1.8985303389e+01    0.1552395    0.1160462 -22.75 0.0003814096    1.598    0.374
       294  -7.4333    103.2837    177.3011   9.0240675408e+01   2.3681858462e+01    0.1997242    0.1781001  58.88  0.000251785    1.148    0.129
       295  -8.2720     99.1411    175.3165   9.1002622453e+01   2.4867258550e+01    0.3529881    0.1928724  46.30  0.001432397    1.902    0.474
       296  -7.5106     75.2290    177.3548   9.7896398763e+01   2.8073381379e+01    0.1480522    0.1062193 -40.37 0.0002370313    1.567    0.362
       297  -8.9240     61.7663    175.7271   1.0136675542e+02   3.0366112386e+01    0.3720841    0.1997409 -70.29  0.001588432    1.858    0.462
       298  -8.7564     65.0878    173.0153   1.0004119766e+02   3.0621505799e+01    0.2149179    0.1995497 -48.56 0.0003952069    1.141    0.123
       299  -8.3904     36.7671    176.7905   1.0834367917e+02   3.3097142352e+01    0.2405249    0.1912876  72.46 0.0008860498    1.211    0.174
       300  -8.1700     12.0516    176.3677   1.1481097090e+02   3.5564592112e+01    0.3606721    0.1563005 -40.45 0.0009834417    3.398    0.706
       301  -8.5824     14.5432    172.5141   1.1381288542e+02   3.6327220895e+01    0.1893474    0.1703041 -12.41 0.0001105344    1.413    0.292
       302  -8.4228     15.7885    169.0374   1.1314862166e+02   3.7105138704e+01    0.1956509    0.1724521 -89.45 0.0004132433    1.050    0.048
       303  -8.4409    189.8882    176.0054   6.9126367205e+01   8.5189770961e+00    0.2135437    0.1917182 -21.70 0.0003069141    1.007    0.007
       304  -8.1589    163.7269    176.1177   7.4845573139e+01   1.3150716426e+01    0.2049039     0.179282 -28.83 0.0003515946    1.101    0.092
       305  -8.0800     87.8015    176.3657   9.4280334083e+01   2.6427741850e+01    0.1998447    0.1446624  20.02  0.000268284    1.593    0.372
       306  -7.7910     81.4912    176.4435   9.6026876640e+01   2.7378340566e+01    0.1466809    0.1427412 -75.78 0.0001144928    1.042    0.040
       307  -7.9975     18.0632    174.7366   1.1310038708e+02   3.5458321381e+01    0.3780688     0.081006 -52.74  0.001137562    4.718    0.788
       308  -8.8277    183.1294    174.9668   7.0329144895e+01   9.9118723996e+00    0.4297764    0.1881179  51.03  0.001502952    3.266    0.694
       309  -8.0635    117.7332    175.1339   8.5997845394e+01   2.1728967937e+01    0.2132063    0.1900633 -47.82 0.0004803717    1.121    0.108
       310  -7.8080    113.1813    174.7699   8.7130516673e+01   2.2616036709e+01    0.2071381    0.1781109 -16.69 0.0004043765    1.315    0.240
       311  -7.9478     30.1854    174.8820   1.0989686602e+02   3.4272915819e+01     0.178885    0.1439489 -55.73   0.00037986    1.269    0.212
       312  -8.0934    159.1353    174.0788   7.5488590680e+01   1.4436445654e+01    0.2276948     0.191575 -11.08 0.0003923246    1.269    0.212
       313  -7.7268     56.8068    174.1485   1.0251529288e+02   3.1420990981e+01     0.185764    0.1580103 -47.31 0.0003084364    1.248    0.199
       314  -7.7430    203.3008    173.6288   6.5954723108e+01   6.7028994457e+00    0.1373565    0.1109565 -72.22 0.0007030983    1.746    0.427
       315  -8.3559    153.0523    173.1521   7.6731008446e+01   1.5763927760e+01    0.2293139    0.1939668  -8.92 0.0004363898    1.280    0.219
       316  -8.3765    129.6612    173.0083   8.2487379697e+01   2.0102235733e+01    0.2121319    0.1907787 -46.57 0.0003641767    1.105    0.095
       317  -8.5006     90.9259    172.5602   9.2763710513e+01   2.6901432131e+01        0.248    0.1955574 -49.99  0.001223114    1.269    0.212
       318  -7.8967     20.7461    169.4380   1.1185587408e+02   3.6569155799e+01    0.1735089     0.135184  27.62 0.0003730131    1.467    0.318
       319  -8.6352     23.7353    172.8981   1.1141281927e+02   3.5408665000e+01    0.2360283    0.1773832 -73.97 0.0004678219    1.166    0.142
       320  -7.7412     24.2756    169.3280   1.1088714403e+02   3.6273435812e+01    0.1388676    0.1183322 -84.84 0.0003045155    1.013    0.013
       321  -7.4143      2.3249    173.2560   1.1703335031e+02   3.7107940427e+01    0.1210357   0.08738088 -47.66 0.0003645466    1.550    0.355
       322  -7.8345      1.2201    170.0277   1.1705828985e+02   3.7993232085e+01    0.2650916    0.1043746 -89.07  0.000506193    2.550    0.608
       323  -7.7831    233.3523    172.2885   6.0235994101e+01   2.1775015116e+00    0.1334991   0.09270162  -8.93 0.0004305832    1.670    0.401
       324  -7.9524    164.7817    171.7798   7.3711989585e+01   1.3902151021e+01    0.2183237     0.190524 -15.02  0.000403848    1.160    0.138
       325  -8.6796    107.0587    171.9606   8.8240141708e+01   2.4371108190e+01    0.2262986    0.2212629 -84.44 0.0004218022    1.021    0.020
       326  -9.6197     77.1092    170.9680   9.6344533426e+01   2.9441575020e+01    0.4607455    0.3322414  56.00  0.001419733    1.478    0.323
       327  -8.4716     33.9249    171.4633   1.0849188631e+02   3.4770240646e+01    0.2049759    0.1647924 -76.36 0.0004022776    1.107    0.096
       328  -8.0782    192.8389    171.1413   6.7525569183e+01   8.9839427455e+00    0.2010651    0.1555425 -18.41 0.0004391263    1.334    0.250
       329  -8.7974    181.7670    170.8307   6.9765731884e+01   1.1009504386e+01    0.4166973    0.1908187  34.92  0.001618561    2.412    0.585
       330  -7.4927    133.9654    170.9625   8.0979317936e+01   1.9799494343e+01    0.1843391    0.1695226 -44.28 0.0003615397    1.077    0.072
       331  -9.1374    119.0069    169.4935   8.4564449315e+01   2.2878411570e+01    0.3455682    0.2273719 -57.51 0.0005688635    1.560    0.359
       332  -8.4361     95.8371    170.7953   9.1090880640e+01   2.6553001317e+01    0.2228694    0.2022582 -29.44 0.0005262629    1.187    0.158
       333  -9.5594     39.0603    168.6589   1.0672686001e+02   3.4950643456e+01    0.3106341    0.1989041 -85.21 0.0008905372    1.559    0.359
       334  -9.1595     44.8115    170.4432   1.0535060507e+02   3.3842068830e+01    0.3591011    0.1887371 -45.71  0.001284868    2.111    0.526
       335  -7.6524     27.8297    171.6345   1.1017381775e+02   3.5340563161e+01    0.1738496    0.1181837  43.16 0.0003173887    1.510    0.338
       336  -8.3478    142.9109    169.9130   7.8524464172e+01   1.8386600184e+01    0.2313176    0.1971089 -11.88 0.0003127292    1.285    0.222
       337  -8.2464    112.3264    169.6755   8.6382771843e+01   2.4021950186e+01    0.4086559     0.149829 -59.63  0.001255411    3.223    0.690
       338  -8.9303    101.3832    169.4903   8.9322266842e+01   2.5957900239e+01     0.272362    0.2417516 -30.56  0.001400851    1.209    0.173
       339  -7.5587     61.2987    170.3235   1.0069958513e+02   3.1830202789e+01    0.1486621    0.1078437 -35.62 0.0007024942    1.627    0.385
       340  -9.1641     55.4621    169.1612   1.0217752058e+02   3.2889133038e+01    0.2575922    0.2352921  -8.51 0.0003440672    1.289    0.224
       341  -7.9500    158.9003    168.7807   7.4444493366e+01   1.5654016680e+01    0.2268773    0.1938126 -12.47 0.0005170603    1.240    0.194
       342  -8.7633    151.9196    167.4216   7.5811753139e+01   1.7269259208e+01    0.5136786    0.1918333 -47.82  0.001740819    2.610    0.617
       343  -9.2097     83.7097    168.9296   9.4141241137e+01   2.8967475274e+01    0.2605185    0.2406506  28.81 0.0001903753    1.142    0.124
       344  -8.0237     68.6266    167.9323   9.8248898856e+01   3.1453377930e+01    0.2047986    0.1741913 -65.02 0.0003961245    1.118    0.106
       345  -8.2283    248.0979    167.1128   5.6845559465e+01   9.2371902259e-01    0.1839608    0.1453799 -61.31 0.0006494566    1.649    0.394
       346  -7.5440    186.5165    167.4704   6.8063954771e+01   1.0849914432e+01    0.1472733    0.1334207 -22.43  4.52377e-05    1.021    0.020
       347  -7.9077    147.9837    167.0330   7.6681115312e+01   1.8099297958e+01    0.2326724    0.1807231  -9.96  0.001080191    1.558    0.358
       348  -7.5225    135.0294    166.9594   7.9889155497e+01   2.0549041495e+01    0.1834271    0.1723349 -43.25 0.0003284692    1.051    0.048
       349  -8.7562     89.0125    167.0582   9.2315706267e+01   2.8614006754e+01    0.2212648    0.2156501 -75.38 0.0003210088    1.015    0.014
       350  -8.5061    229.2621    165.4663   5.9582678046e+01   4.0223055312e+00    0.3115068    0.1791363 -28.92  0.001138875    1.709    0.415
       351  -9.2168    196.7271    158.4339   6.4087277721e+01   1.0844950820e+01    0.3361605    0.1384777  47.88   0.00125302    2.877    0.652
       352  -8.9520    192.4854    160.0198   6.5268567446e+01   1.1292729404e+01    0.4429228    0.1320428 -42.45  0.001429229    3.099    0.677
       353  -8.9278    194.0202    165.6949   6.6156156605e+01   9.8707211138e+00    0.2562873     0.227443 -25.34 0.0003946605    1.028    0.027
       354  -7.5968    165.2821    166.2997   7.2448720194e+01   1.5006234785e+01    0.1507108    0.1153222 -11.71 0.0001833519    1.547    0.353
       355  -8.5431    129.0342    165.9885   8.1227480959e+01   2.1896333670e+01    0.2238119    0.2187104 -46.03 0.0003250717    1.022    0.022
       356  -7.6315    123.9983    166.5085   8.2648285297e+01   2.2699533602e+01    0.1989316    0.1377961   2.41  0.000394629    2.121    0.529
       357  -7.8805    115.4920    166.0428   8.4815514234e+01   2.4357138464e+01    0.2274253    0.1505516 -51.23 0.0003820902    1.487    0.328
       358  -8.0732    106.8504    166.2108   8.7194831041e+01   2.5843802537e+01     0.206683    0.1784408 -16.44 0.0002282796    1.315    0.240
       359  -7.5193     49.5473    166.4754   1.0347221853e+02   3.4319914682e+01    0.1437016    0.1306395 -71.90 7.593449e-05    1.044    0.042
       360  -8.3452     30.1180    166.2358   1.0892703587e+02   3.6509460551e+01    0.1913982    0.1733754 -55.87 0.0006125076    1.169    0.144
       361  -8.1521     95.8765    164.8274   8.9973115881e+01   2.8064001298e+01    0.2304788    0.2037466 -19.26 0.0005279813    1.268    0.211
       362  -8.5266     64.8013    164.6871   9.8823480051e+01   3.2830207905e+01    0.2375339    0.1875473 -52.18 0.0005046253    1.247    0.198
       363  -8.4412    159.9225    163.1659   7.3015664376e+01   1.6710371496e+01    0.2558271    0.2123285 -30.71  0.001287687    1.196    0.164
       364  -8.1991     80.0360    164.2954   9.4372587273e+01   3.0729510365e+01    0.2080337    0.1893685  42.36 0.0003649425    1.127    0.113
       365  -8.4786     75.2243    164.1083   9.5722383703e+01   3.1499780285e+01    0.2402066    0.2054798  10.71 0.0006199101    1.346    0.257
       366  -7.8762     70.1567    163.8003   9.7131805280e+01   3.2314896447e+01    0.2020386    0.1692631 -36.46 0.0004348747    1.305    0.234
       367  -8.2513     60.5513    164.3799   1.0000123403e+02   3.3481596291e+01     0.213809    0.1717807 -11.61  0.001078415    1.569    0.363
       368  -8.5192     54.3152    163.3896   1.0165201931e+02   3.4543511053e+01    0.2570886    0.1988307 -38.91  0.001316962    1.433    0.302
       369  -8.0366    234.4041    162.6828   5.8170273081e+01   3.7244495702e+00    0.1913033    0.1071633 -32.88 0.0007054932    1.604    0.377
       370  -8.8862    100.4847    162.7009   8.8273329038e+01   2.7827239866e+01    0.2827217    0.2417356 -14.60 0.0002828468    1.352    0.261
       371  -8.2521     88.9076    163.1216   9.1623898318e+01   2.9642451739e+01     0.204379    0.1783861 -22.62 0.0003531878    1.290    0.225
       372  -7.9854     18.9412    163.3621   1.1170875943e+02   3.8288530216e+01    0.1770215    0.1607293 -78.12 0.0004576008    1.085    0.078
       373  -8.9862     22.2157    156.3430   1.0999635683e+02   3.9816585427e+01    0.4110027    0.1807429 -59.45  0.001803591    1.930    0.482
       374 -10.2611     17.2121    155.3091   1.1131314630e+02   4.0511381325e+01    0.3730362    0.3344892  62.91  0.001811307    1.175    0.149
       375  -9.3173     13.6876    163.2878   1.1314635566e+02   3.8747975006e+01    0.3170401    0.1688249  50.22  0.001537443    1.971    0.493
       376  -7.7869     15.7014    160.6951   1.1232451375e+02   3.9248074205e+01    0.2547566     0.101353 -62.83 0.0005977756    2.060    0.515
       377  -8.0011    190.6154    166.1840   6.6948758021e+01   1.0377985126e+01    0.3130253    0.1807614 -26.89    0.0010837    2.041    0.510
       378  -7.9909    171.8844    162.1425   7.0077899422e+01   1.4667622235e+01    0.2028211    0.1689133 -14.91            0    1.277    0.217
       379  -7.4041    168.2617    162.3350   7.0927948526e+01   1.5310119075e+01    0.1528006    0.1140746 -16.46  0.000245561    1.579    0.367
       380  -7.9715    146.7636    162.0435   7.5920744876e+01   1.9478301599e+01    0.2112093    0.1929553 -31.57 0.0001969784    1.073    0.068
       381  -8.1461    138.5627    148.1799   7.4914016274e+01   2.4307122416e+01    0.2944149    0.1510811 -43.07 0.0004322664    1.941    0.485
       382  -9.2494    138.6576    161.6493   7.7853662773e+01   2.1118237549e+01    0.2856351    0.2559183  -8.61 0.0004369891    1.191    0.161
       383  -8.0021    136.9634    157.5275   7.7396520553e+01   2.2415057987e+01    0.2586936    0.2245552 -47.24  0.000560391    1.130    0.115
       384  -8.3575    134.5791    154.4966   7.7345719180e+01   2.3593795258e+01    0.2771951    0.2269142 -37.45 0.0005909727    1.227    0.185
       385  -8.3890    137.8755    151.8627   7.5917401925e+01   2.3575813807e+01    0.2876744    0.2218004  17.08 0.0003114489    1.528    0.345
       386  -9.9079    133.4104    146.8607   7.5941261410e+01   2.5637169836e+01    0.7764477    0.3693044 -54.47  0.001945471    2.239    0.553
       387  -9.4800    131.8726    139.2807   7.4589721901e+01   2.7739056317e+01    0.4546025    0.2562022 -47.62 0.0007258061    1.728    0.421
       388  -7.7720     50.4167    162.4356   1.0263931945e+02   3.5273545743e+01    0.1436049    0.1304121 -73.64 7.792591e-05    1.022    0.022
       389  -8.1533    183.1064    161.1698   6.7445105904e+01   1.2776435995e+01    0.2175858    0.1876882  -9.87 0.0004777449    1.203    0.169
       390  -8.1253    177.7734    160.9463   6.8533657711e+01   1.3816577858e+01     0.274897    0.2016687  72.91  0.001229876    2.080    0.519
       391  -8.2309    153.6488    160.5006   7.3921534641e+01   1.8509728740e+01    0.2501194    0.1742381 -27.46 0.0007739466    1.635    0.388
       392  -7.5615    132.7228    161.7375   7.9386180096e+01   2.2223379972e+01    0.1497334    0.1209052 -10.93 0.0006863743    1.474    0.322
       393  -7.7300     96.4590    161.4485   8.9162488799e+01   2.8828294488e+01    0.1525999    0.1488066 -51.53  0.000158978    1.029    0.028
       394  -7.3893     92.6671    161.7008   9.0286454753e+01   2.9394988896e+01    0.1571826    0.1197712 -20.54 0.0006092947    1.649    0.394
       395  -8.4398     85.3647    160.2746   9.2110320310e+01   3.0943023697e+01    0.2487989    0.2210941 -29.57  0.001286698    1.222    0.181
       396  -9.3107     44.5908    158.2920   1.0373479640e+02   3.7046178996e+01    0.4342842    0.2386405 -69.44  0.001942256    1.684    0.406
       397  -8.8396     39.9273    156.5390   1.0485685148e+02   3.8025346190e+01    0.2328613    0.1451466  18.73 0.0004558904    1.916    0.478
       398  -9.3888     40.4780    161.0022   1.0531559112e+02   3.6794621767e+01    0.2007599    0.1700582 -70.09 0.0004698628    1.068    0.064
       399  -8.0954     32.1864    160.8066   1.0767823303e+02   3.7715364140e+01    0.3674104     0.196266  -8.29  0.001386965    3.547    0.718
       400  -9.1653     36.5053    159.9297   1.0632071089e+02   3.7501478633e+01      0.28381    0.1743158 -64.09 0.0006853805    1.440    0.306
       401  -8.8623     26.5487    160.7511   1.0928030080e+02   3.8277258014e+01    0.2786586     0.201882 -89.90   0.00114707    1.307    0.235
       402  -7.5928    164.4111    160.4803   7.1401184004e+01   1.6448555578e+01    0.1519417    0.1419667 -29.98 0.0001183606    1.016    0.016
       403  -7.9754    124.6512    160.0992   8.1148279526e+01   2.4135305213e+01    0.2155706    0.1909999 -40.65 0.0004506791    1.121    0.108
       404  -7.7854     61.8360    159.8847   9.8908416405e+01   3.4490021217e+01    0.1990177     0.163288  72.04   0.00102462    1.287    0.223
       405  -8.5313      8.1676    159.8028   1.1431590806e+02   4.0067208684e+01     0.174791    0.1325349 -56.70 0.0002917818    1.284    0.221
       406  -7.5972    207.5376    158.9093   6.2114392086e+01   8.8360704091e+00    0.2078027    0.1257776 -41.18 0.0003664353    1.471    0.320
       407  -8.0027    159.9925    158.9496   7.2088207927e+01   1.7636187023e+01    0.2346881    0.1799987 -10.77 0.0004830271    1.591    0.371
       408  -9.0763     70.2918    158.6754   9.6217830654e+01   3.3636064497e+01    0.2585973    0.2384917 -32.09 0.0004675511    1.169    0.145
       409  -9.4945    188.0987    153.5675   6.4770445531e+01   1.3421270550e+01    0.4767587    0.1797459 -41.13 0.0009483744    2.497    0.599
       410  -8.8748     91.0966    157.0187   8.9833951881e+01   3.0856357902e+01    0.2840918    0.2361341 -43.43  0.000424312    1.217    0.178
       411  -9.1903     79.5817    157.6622   9.3307728676e+01   3.2522739192e+01    0.2814274    0.2419029 -27.84  0.000583099    1.294    0.227
       412  -7.8918     75.5476    155.5249   9.4103071726e+01   3.3690879465e+01     0.211509    0.1400694  43.79 0.0001048835    1.564    0.361
       413  -7.7342      1.6153    157.7356   1.1591466958e+02   4.1056169850e+01    0.1704602    0.1052035 -85.61 0.0009103758    1.398    0.285
       414  -7.6673    246.3396    157.3293   5.5224996013e+01   2.8578680063e+00    0.1317022   0.09027985 -13.42 0.0007051731    1.738    0.425
       415  -7.3068    179.6511    157.7179   6.7434202302e+01   1.4145986710e+01    0.1512566    0.1145882  -3.06 0.0006918262    1.648    0.393
       416  -7.5201    144.6537    157.7423   7.5510576464e+01   2.0879693104e+01    0.1555197    0.1215836  -1.03 0.0002929518    1.595    0.373
       417  -8.2952    130.8970    156.9021   7.8824433251e+01   2.3727130038e+01    0.2350838    0.2049309 -17.10 0.0003732074    1.249    0.199
       418  -7.8256    108.6237    157.2806   8.4912224411e+01   2.7769867155e+01    0.2097593    0.1415343 -44.45 0.0002520368    1.491    0.329
       419  -8.2299    106.9774    150.3275   8.3910991383e+01   2.9810783359e+01    0.2415184    0.2087254 -23.63 0.0003666902    1.266    0.210
       420  -8.9767    103.4494    154.2805   8.5744420550e+01   2.9445277131e+01    0.5673694    0.2867502 -62.67  0.002077798    2.259    0.557
       421  -8.6276     99.9469    156.9541   8.7285277361e+01   2.9378890351e+01    0.2312398    0.2168601 -34.64 0.0003405478    1.093    0.085
       422  -8.0830    119.8355    162.9546   8.3024403577e+01   2.4329288663e+01    0.2287862    0.1996604 -22.12  0.000394875    1.242    0.195
       423  -8.0946    176.0589    155.5230   6.7728190082e+01   1.5293597827e+01    0.2335684    0.1898923 -42.37 0.0003564387    1.160    0.138
       424  -8.5149     62.0944    155.5396   9.8109634298e+01   3.5597440239e+01    0.2577369    0.1874466 -46.35 0.0005284623    1.387    0.279
       425  -9.0216     30.5947    155.6017   1.0747242457e+02   3.9231813617e+01    0.4068952    0.2278304 -17.23  0.001539173    2.971    0.663
       426  -7.9451    227.8099    155.2584   5.7775237484e+01   6.1091756988e+00    0.1818867    0.1404133 -17.78 0.0003724703    1.344    0.256
       427  -9.3509    193.7288    155.2664   6.4003804087e+01   1.2028884580e+01    0.3870801    0.1672574  33.87  0.001402609    2.992    0.666
       428  -8.6893    167.8674    155.1989   6.9464172800e+01   1.6940765177e+01    0.2229257    0.2088878 -80.43 0.0004647985    1.205    0.170
       429  -7.8869    153.3194    154.9473   7.2785063759e+01   1.9833420277e+01    0.2272751    0.1327847 -37.37 0.0005813699    1.782    0.439
       430  -7.5159    148.5369    147.5373   7.2278131424e+01   2.2470114238e+01     0.230888    0.1464114 -36.73  9.35036e-05    1.643    0.391
       431  -8.0415    147.1606    154.5772   7.4196696378e+01   2.1123874817e+01    0.2468094     0.199829 -45.67 0.0003568364    1.200    0.167
       432  -7.3772    146.7258    150.6657   7.3430731369e+01   2.2111450231e+01    0.2204956    0.1265327 -46.68 0.0004634636    1.689    0.408
       433  -8.6460    114.4079    157.0957   8.3276336163e+01   2.6768690895e+01    0.2661143    0.2180794  12.92 0.0004239467    1.399    0.285
       434  -7.6431    122.4382    155.5543   8.0770378889e+01   2.5657598158e+01    0.1566319    0.1501143 -24.63 0.0001121965    1.053    0.051
       435  -7.6490      6.3274    155.2657   1.1438548370e+02   4.1357514082e+01    0.1290146   0.08726035 -45.53 0.0003332461    1.571    0.363
       436  -8.0680    169.2098    158.7928   6.9949594753e+01   1.5899887945e+01     0.211653    0.1725014 -13.57 0.0005589646    1.359    0.264
       437  -8.0299    172.4736    154.3788   6.8259405678e+01   1.6227636391e+01    0.1477326    0.1411414 -18.52 0.0001275833    1.030    0.029
       438  -8.5572     95.9757    153.9856   8.7821750356e+01   3.0816520967e+01    0.2314555    0.2266947 -39.24 0.0003536138    1.037    0.036
       439  -8.5907     84.7532    153.9875   9.1093755885e+01   3.2668097492e+01    0.2360917    0.2196769  30.50 0.0003636787    1.126    0.112
       440  -9.5207     66.8250    147.5078   9.5254642484e+01   3.7057204868e+01     0.517405    0.1855343 -48.42  0.001744914    2.738    0.635
       441  -8.5799     68.1667    154.1506   9.6053103133e+01   3.5124851818e+01    0.1994513    0.1694243  80.40 0.0002939161    1.248    0.199
       442  -7.5631     57.2268    154.3869   9.9373998489e+01   3.6541179287e+01    0.1537002   0.09946956 -43.47 0.0005847432    1.626    0.385
       443  -8.6050    158.4536    152.7732   7.1086283107e+01   1.9315817411e+01    0.2778768    0.2119338 -17.66  0.001068696    1.555    0.357
       444  -8.1080    142.7099    152.4054   7.4817258547e+01   2.2500287946e+01    0.2567774    0.1772148 -30.01 0.0005103755    1.645    0.392
       445  -8.6617    116.9156    152.0995   8.1522370433e+01   2.7541358952e+01    0.4166043     0.265451 -14.51  0.001499132    2.727    0.633
       446  -8.4695    111.6785    152.8441   8.3129778878e+01   2.8325621425e+01    0.2488496    0.2160794  14.76 0.0005358314    1.263    0.208
       447  -9.2241     72.7774    152.2142   9.4319455434e+01   3.4967154325e+01    0.2503189    0.2274185 -38.83 0.0003905125    1.140    0.123
       448 -10.2632     77.1289    149.9871   9.2590617157e+01   3.4897454683e+01    0.6759121    0.4039217  64.70   0.00261924    2.411    0.585
       449  -8.2599    184.5271    152.4538   6.5261816554e+01   1.4325768177e+01    0.1495632    0.1359486 -24.60 1.900027e-05    1.056    0.053
       450  -8.7970     47.9907    152.0555   1.0178109100e+02   3.8293759017e+01    0.2168374    0.1957283 -55.20 0.0004067183    1.090    0.083
       451  -7.9901     37.9767    151.8542   1.0476967605e+02   3.9464688446e+01    0.2134136    0.1706124 -45.29 0.0003341017    1.283    0.221
       452  -8.2646    111.1774    162.3535   8.5244088370e+01   2.6044834331e+01    0.2491782    0.2009906 -45.22 0.0005354742    1.236    0.191
       453  -7.6806    151.6114    151.2061   7.2361635418e+01   2.1020308249e+01    0.2137605    0.1415339 -37.08 0.0004690648    1.542    0.351
       454  -8.4812     56.5204    144.9988   9.7985725082e+01   3.9103667251e+01    0.2300925    0.2037955 -13.97 0.0003499397    1.278    0.218
       455  -9.9854     54.0902    150.0249   9.9599066683e+01   3.8088417338e+01    0.4301056    0.3255382 -65.65  0.001429089    1.218    0.179
       456  -8.7517     50.9765    147.7603   1.0017648753e+02   3.9068638741e+01    0.1915965    0.1870632  69.66 0.0002832033    1.092    0.084
       457  -8.8331     60.4285    150.4847   9.7744815891e+01   3.7149981896e+01    0.2642947    0.2377186  46.27  0.001063351    1.169    0.144
       458  -8.7026     60.3550    147.2971   9.7206078434e+01   3.7998278999e+01    0.2907647    0.1932941 -37.36 0.0007289232    1.679    0.404
       459  -8.0733     28.9959    151.1407   1.0735901449e+02   4.0551633304e+01    0.2084463    0.1720748  70.54 0.0007680779    1.242    0.195
       460  -8.3629     24.0236    150.7385   1.0878460651e+02   4.1113531988e+01    0.1772316    0.1677914  88.96 0.0003503994    1.105    0.095
       461  -7.7933    249.6920    150.6245   5.3416205285e+01   3.5126102435e+00    0.1324595    0.0886092 -17.02 0.0002483925    1.777    0.437
       462  -8.5774    176.6309    149.9553   6.6376560247e+01   1.6368840202e+01    0.2160537    0.1756693 -41.82 0.0003814327    1.153    0.133
       463  -8.5779    163.6634    149.7576   6.9205773790e+01   1.8957583101e+01    0.2820723    0.1999777 -42.63 0.0006507132    1.347    0.258
       464  -7.5545    162.7157    146.3081   6.8642011684e+01   1.9906764784e+01    0.1613409    0.1478081 -19.06  0.000293223    1.110    0.099
       465  -7.9612    128.8524    150.1546   7.7878754140e+01   2.5741314499e+01    0.2120393    0.1808805 -18.02 0.0002587069    1.302    0.232
       466  -8.2477     97.8485    149.9664   8.6451882192e+01   3.1519975138e+01    0.2295691    0.2001619 -28.37 0.0002754928    1.229    0.186
       467  -8.4198     42.9637    150.0576   1.0299577662e+02   3.9395964487e+01    0.2184999    0.1882716 -52.62 0.0004671692    1.133    0.117
       468  -8.3701      9.6335    149.7595   1.1288399858e+02   4.2528528940e+01    0.3740166    0.1176398 -41.77  0.001205774    4.504    0.778
       469  -8.5292    171.1056    149.2097   6.7412457906e+01   1.7608911398e+01    0.2305341    0.1973101 -14.79 0.0005246498    1.255    0.203
       470  -7.4720    155.2835    149.6978   7.1143559630e+01   2.0633610148e+01    0.1503484    0.1237841 -86.92  0.000470373    1.554    0.356
       471  -8.4695    122.9955    148.9545   7.9175501490e+01   2.7160948947e+01    0.2351569    0.2182684 -19.66 0.0003360079    1.120    0.107
       472  -8.8844     84.8181    148.4012   8.9970261133e+01   3.4103781792e+01    0.2776291    0.2456904 -33.23 0.0005741387    1.184    0.155
       473  -9.1646    143.2134    146.9732   7.3465394960e+01   2.3664014165e+01    0.3679038    0.2143018 -44.67   0.00108928    1.671    0.402
       474  -8.7716     91.0572    148.1138   8.8055694374e+01   3.3152021099e+01    0.2257308    0.2196919 -40.65 0.0003762805    1.037    0.036
       475  -9.4862     46.5239    145.0413   1.0110578990e+02   4.0312124756e+01    0.4161553    0.2100279 -63.87  0.001772257    1.779    0.438
       476  -8.2443     34.1042    148.2190   1.0541793377e+02   4.0818059314e+01    0.2057089    0.1734181 -51.21 0.0005018762    1.166    0.142
       477  -8.4176    111.5046    146.9128   8.1889847228e+01   2.9833827641e+01     0.220553    0.2117454 -41.74 0.0004362772    1.026    0.025
       478  -8.1496    102.8593    147.2750   8.4430610714e+01   3.1319506296e+01    0.2145312    0.2033824  12.88 0.0005486842    1.107    0.097
       479  -8.0743    106.2167    144.8672   8.2939493678e+01   3.1317863720e+01    0.2430711    0.1883143 -16.15 0.0004639387    1.607    0.378
       480  -8.5963      3.9721    146.7302   1.1420380702e+02   4.3694935761e+01    0.1671085    0.1552427 -86.11 0.0003486621    1.129    0.114
       481  -8.4127     39.8490    146.1658   1.0335322295e+02   4.0760498669e+01     0.203903    0.1792332 -87.97 0.0002586111    1.108    0.097
       482  -9.7668     29.4133    144.9980   1.0639383356e+02   4.2118474731e+01    0.3905388    0.2407881 -26.82  0.001818384    2.113    0.527
       483  -8.0086    186.9978    144.4576   6.2989502846e+01   1.5507299054e+01    0.2323321    0.1785684 -41.12 8.902379e-05    1.199    0.166
       484  -7.3155    127.2703    145.3281   7.7210358237e+01   2.7209973974e+01    0.1593053    0.1228509 -18.61 0.0003043523    1.581    0.367
       485  -8.1688     98.8984    145.3401   8.5162107580e+01   3.2511584353e+01    0.2101991    0.1933368  25.10 0.0003341871    1.136    0.120
       486  -9.3012     78.6990    143.9234   9.0917273817e+01   3.6232863557e+01     0.293735    0.2511965 -50.46 0.0003844366    1.123    0.109
       487  -7.9636    155.6655    144.0002   6.9753456621e+01   2.1838345590e+01    0.2170363    0.1882701 -41.21 0.0004091203    1.108    0.098
       488  -8.8089    117.6656    143.7612   7.9464297989e+01   2.9449708784e+01    0.2715898    0.2313988 -11.87 0.0004447081    1.345    0.256
       489  -7.9631     88.8696    144.1854   8.7887217675e+01   3.4525893952e+01    0.2104313     0.177533 -28.43 0.0003776347    1.286    0.223
       490  -7.8647    202.4658    143.5132   5.9778509046e+01   1.2760712343e+01    0.1446197    0.1291777 -39.67 0.0008094776    1.018    0.018
       491  -8.3139    171.4098    143.3017   6.6010124187e+01   1.8821315272e+01    0.2477465    0.1824193  28.99 0.0003779102    1.545    0.353
       492  -7.7003    113.3313    143.2629   8.0560351297e+01   3.0395644069e+01    0.1567531    0.1245109  -7.51 0.0004183602    1.574    0.365
       493  -8.4356     86.4321    141.8457   8.8128378362e+01   3.5530420896e+01    0.4445063     0.212177 -37.74  0.001380773    2.687    0.628
       494  -9.3427     56.9484    132.6263   9.5545100726e+01   4.2285439612e+01    0.3061298    0.2041955 -56.74 0.0002745475    1.365    0.267
       495  -8.8055     67.9551    127.2209   9.0818934050e+01   4.2162151840e+01    0.3012959    0.2171568  19.24  0.001158679    1.571    0.363
       496  -8.6994     66.1626    134.1862   9.2870326987e+01   4.0627146188e+01    0.2730412    0.2522716  68.50 0.0003527676    1.161    0.138
       497  -9.1315     69.2283    131.8155   9.1389657593e+01   4.0797142566e+01    0.2832904    0.2674885 -11.79 0.0008608263    1.117    0.105
       498  -8.7047     61.8650    125.8538   9.2538536734e+01   4.3375403670e+01    0.2268009    0.1863858 -34.69 0.0003733566    1.232    0.188
       499 -10.6841     68.4545    138.9981   9.3111548935e+01   3.9049393447e+01    0.6706517    0.4248696 -78.71  0.002836183    1.943    0.485
       500  -8.9463     73.0443    139.1379   9.1696346283e+01   3.8338225072e+01    0.2860127    0.2393562 -30.66 0.0004969932    1.277    0.217
       501  -8.8783     64.5354    130.0231   9.2537399906e+01   4.1932790841e+01    0.2800472    0.2282021  27.44 0.0003738255    1.315    0.240
       502  -8.9955     60.5167    129.4519   9.3737795480e+01   4.2634419717e+01     0.280587    0.2364783  47.37  0.001021656    1.288    0.223
       503  -9.2089     61.6906    142.6777   9.5948983275e+01   3.9032257108e+01    0.2435105      0.22767  21.54 0.0005492648    1.161    0.139
       504  -9.8622     62.4786    138.4104   9.4889461104e+01   4.0041624339e+01    0.3324712    0.2845653 -59.08 0.0005319329    1.086    0.079
       505  -9.3921     19.8061    142.4975   1.0900047048e+02   4.3617355388e+01    0.2717485    0.2010332 -41.45 0.0007978221    1.413    0.292
       506  -9.6363      9.9115    142.6751   1.1201791506e+02   4.4327721563e+01    0.3308358    0.1738455  62.65  0.001503792    2.293    0.564
       507  -7.4185     12.2725    140.3070   1.1102658577e+02   4.4767173366e+01    0.1366531   0.08539835 -48.05  0.000209618    1.543    0.352
       508  -7.2583    195.6815    142.6857   6.0881919362e+01   1.4200823956e+01    0.1466474    0.1118785  -7.99 0.0001747925    1.650    0.394
       509  -7.8378    178.5250    142.4722   6.4293320462e+01   1.7580711563e+01    0.1510262    0.1401642 -32.01  0.000809326    1.029    0.028
       510  -7.7575    164.1966    142.5856   6.7452456595e+01   2.0427060084e+01     0.199022    0.1480988  29.27 0.0003805808    1.509    0.337
       511  -9.0427    148.8168    141.0955   7.0723392171e+01   2.3884454664e+01    0.2657578    0.2273753 -16.67 0.0003995581    1.291    0.225
       512  -9.5266    138.7502    141.1018   7.3235873066e+01   2.5926254840e+01    0.4468333    0.2728979 -43.93  0.001188286    1.603    0.376
       513  -8.4567    124.2518    141.5692   7.7157956945e+01   2.8705989631e+01    0.2929325    0.2324505 -43.51 0.0004927709    1.239    0.193
       514  -9.2319    122.1372    138.2003   7.6947739147e+01   2.9932797169e+01    0.3966314    0.2189024  46.27  0.001553256    1.904    0.475
       515  -8.8780     52.3186    142.1413   9.8798013304e+01   4.0383074850e+01    0.2259931    0.1977347  -5.59  0.000506231    1.310    0.237
       516  -7.5441    103.5945    141.4749   8.2941951758e+01   3.2645001902e+01    0.1574873    0.1486308 -38.57 0.0001322213    1.051    0.048
       517  -7.7277     98.7098    140.9822   8.4263075130e+01   3.3646723342e+01    0.2140119    0.1917114 -56.43 0.0002584174    1.089    0.082
       518  -9.3556     92.2722    140.1190   8.5991160461e+01   3.4989487064e+01    0.2637078    0.2608488  42.34 0.0002675792    1.046    0.044
       519  -8.9576     14.5983    143.1598   1.1066599843e+02   4.3858349556e+01    0.2084654    0.1163007 -71.43 0.0005808212    1.516    0.340
       520  -9.3328      4.7867    140.8918   1.1335065036e+02   4.5131105610e+01    0.2034213    0.1452688 -55.58 0.0003417314    1.275    0.215
       521  -7.9826    159.5428    140.4540   6.8025009146e+01   2.1840834437e+01    0.1546865     0.146482 -27.77 4.810888e-05    1.041    0.040
       522  -7.8496    155.6118    139.7610   6.8781818095e+01   2.2797722064e+01    0.2084907    0.1441374 -54.60 0.0002529697    1.494    0.331
       523  -8.8270    107.9296    138.8682   8.1095967690e+01   3.2495875481e+01       0.3583    0.2537865 -69.42 0.0009997524    1.662    0.398
       524  -8.7616     45.2225    139.3842   1.0056981508e+02   4.1947853485e+01     0.387752    0.2343895  72.16 0.0009513041    2.296    0.564
       525  -8.3346     40.0428    140.2120   1.0235330658e+02   4.2303074210e+01    0.2051456    0.1759719 -41.97 0.0003980684    1.185    0.156
       526  -8.6880     27.6304    139.6543   1.0618523819e+02   4.3679310699e+01    0.2119895    0.1734952 -51.09 0.0004413117    1.166    0.142
       527  -8.9055     31.3961    137.7991   1.0471926552e+02   4.3811454154e+01    0.2245551    0.1952782 -48.37 0.0005039978    1.131    0.116
       528  -8.2122    167.2301    138.7365   6.5881424665e+01   2.0649146940e+01    0.2060364    0.1766692  -5.70 0.0005370529    1.332    0.249
       529  -7.8016     49.5537    138.9791   9.9117873311e+01   4.1548529356e+01    0.2157849    0.1309569 -60.75 0.0003131165    1.480    0.324
       530  -7.7453     23.6707    139.7468   1.0743774818e+02   4.4006549048e+01    0.1363097   0.09412646 -38.20 0.0002303473    1.554    0.356
       531  -8.5843    175.4935    138.0501   6.3925339272e+01   1.9119785854e+01     0.231491     0.173968 -30.73  0.001109422    1.370    0.270
       532  -7.8280    172.6076    136.2244   6.4120922619e+01   2.0091776491e+01    0.2051882    0.1765757  -5.15 0.0003021137    1.331    0.249
       533  -8.6400    115.1635    138.1667   7.8874670541e+01   3.1297702068e+01    0.2341952    0.2084222 -17.21 0.0003367041    1.218    0.179
       534  -7.8567    183.2760    141.5219   6.3090049038e+01   1.6840727352e+01    0.1878396    0.1444205  26.83 0.0008615855    1.504    0.335
       535  -8.7867     17.7165    137.5767   1.0900252714e+02   4.5059919542e+01    0.2571653    0.1927849  79.46 0.0009790439    1.392    0.281
       536  -9.2380    142.9698    136.3143   7.1038847264e+01   2.6172816746e+01    0.2573619    0.2089783 -55.45 0.0003480543    1.246    0.197
       537  -8.1277    101.0918    137.1743   8.2702250984e+01   3.4175508354e+01    0.2259424    0.2055031 -20.05 0.0003060983    1.165    0.141
       538  -8.1399     78.3297    136.6972   8.9532085188e+01   3.8158239864e+01    0.2095173    0.1692083 -29.34  0.001018057    1.349    0.258
       539  -8.1498    187.0930    139.1138   6.1772697994e+01   1.6586376428e+01    0.2155207    0.1869379 -22.40 0.0003506953    1.186    0.157
       540  -7.3627    162.3218    136.2825   6.6411297015e+01   2.2187750115e+01    0.1528719    0.1217504  -1.95 0.0003040729    1.591    0.371
       541  -8.7412    137.5916    135.2485   7.2146354227e+01   2.7522136908e+01    0.3574284    0.2540728 -12.48  0.001472183    2.019    0.505
       542  -8.2243     87.8687    135.7666   8.6370176653e+01   3.6844663897e+01    0.2294216    0.1993294 -21.85  0.000333826    1.250    0.200
       543  -7.9210     83.4109    135.8248   8.7759930088e+01   3.7568694321e+01    0.2160312    0.1360151 -45.00 0.0004254515    1.566    0.361
       544  -9.3309     40.8103    133.9639   1.0106364537e+02   4.3855134585e+01    0.4159813     0.213657 -39.12  0.001511404    2.188    0.543
       545  -7.5709     38.3438    131.2818   1.0140975767e+02   4.4815535668e+01    0.1458109    0.1317089 -65.30 0.0008118015    1.023    0.022
       546  -7.8007     21.7566    136.4148   1.0757503178e+02   4.5033979331e+01    0.1656442    0.1305055 -12.65 0.0003718152    1.525    0.344
       547  -8.0444    180.3913    138.7943   6.3066759648e+01   1.7980294757e+01    0.2039258    0.1349696 -34.95 0.0002293733    1.505    0.336
       548  -8.4648    127.2879    135.1443   7.4826096636e+01   2.9638699822e+01     0.254264    0.2169333  20.28 0.0003613448    1.286    0.222
       549  -8.0563    110.5828    135.2080   7.9482308430e+01   3.2897840486e+01    0.2164582    0.1441292 -39.49 0.0003209274    1.556    0.357
       550  -7.8600     48.5418    134.9941   9.8730372281e+01   4.2711773011e+01    0.2247074     0.131933 -61.81 0.0003846495    1.537    0.349
       551  -7.5803     11.8244    135.1560   1.1053038484e+02   4.6123807708e+01    0.1809412    0.1310426 -50.17  0.000239987    1.296    0.228
       552  -8.3965    155.3656    133.8319   6.7438435551e+01   2.4166360134e+01    0.2451197    0.2127999  60.62  0.000514972    1.255    0.203
       553  -8.9844    150.2731    133.6572   6.8608906669e+01   2.5264307663e+01    0.4333248     0.291777 -12.01  0.001358152    2.367    0.578
       554  -7.5940    133.1506    133.8535   7.2961567840e+01   2.8754631484e+01    0.2101002    0.1827275 -14.67 0.0002577349    1.279    0.218
       555  -8.9176    122.0171    133.3512   7.5827457710e+01   3.1119379768e+01    0.2557597    0.2116496 -33.85 0.0003940734    1.246    0.197
       556  -8.5067     73.8812    133.9125   9.0343304937e+01   3.9562362213e+01    0.2271722    0.1933266 -30.30            0    1.234    0.190
       557  -8.3774     61.9710    134.2404   9.4232675993e+01   4.1196929409e+01    0.1984288    0.1941952   1.73 0.0003871406    1.093    0.085
       558  -8.7245    182.8652    132.7303   6.1168992628e+01   1.8739393620e+01    0.2538429    0.1890345 -31.48 0.0005670487    1.369    0.269
       559  -8.1348    164.8493    132.8082   6.5021273845e+01   2.2418829286e+01    0.2259843    0.2024321 -16.04 0.0004827233    1.198    0.165
       560  -8.9592     97.3850    132.4921   8.2727339791e+01   3.6013357124e+01    0.2829941    0.2471839 -20.69 0.0006943069    1.239    0.193
       561  -7.5773     25.4483    133.5391   1.0598035459e+02   4.5464711537e+01    0.1397893    0.1203039 -63.70 0.0001310849    1.018    0.018
       562  -9.1554      8.1439    132.2312   1.1131968948e+02   4.7124162315e+01    0.3382369    0.1768999 -35.18  0.001587777    2.201    0.546
       563  -7.7205     12.3405    129.7470   1.0966673040e+02   4.7474323123e+01     0.139115    0.1148817 -59.15 0.0003544919    1.074    0.068
       564  -8.7579    142.5175    128.0375   6.9146501354e+01   2.8148670275e+01    0.2881531    0.1511759 -49.79 0.0003474826    1.901    0.474
       565  -8.6639    142.1604    132.1010   7.0228583269e+01   2.7302473152e+01    0.2737275     0.247369 -29.02 0.0004543161    1.127    0.113
       566  -8.1573    145.5515    131.4595   6.9229855317e+01   2.6741927126e+01    0.2534744      0.15558  41.79 0.0005200676    1.688    0.408
       567  -8.1705    148.3681    128.7964   6.7892629764e+01   2.6748729229e+01    0.2454592    0.1925388  -6.07 0.0002109399    1.656    0.396
       568  -7.9138     19.8739    132.5130   1.0762542228e+02   4.6197256681e+01    0.1737586    0.1384488  15.36 0.0003754222    1.472    0.321
       569  -8.9607    160.9957    130.0393   6.5228858301e+01   2.3820856429e+01    0.3338324    0.2375711 -32.32 0.0006480545    1.488    0.328
       570  -9.6871    160.7733    125.8171   6.4259047367e+01   2.4777927568e+01     0.411432    0.3057325 -10.46  0.001822812    1.850    0.459
       571  -9.0430    140.6537    120.8987   6.7831338518e+01   3.0140566505e+01    0.2883302    0.2424837  -4.69  0.000744895    1.429    0.300
       572  -8.9838    136.4463    129.7064   7.1096973942e+01   2.9036243083e+01    0.4306805    0.2261935 -52.95  0.000908893    1.988    0.497
       573  -9.1657    137.1499    124.1930   6.9549192291e+01   3.0144994072e+01    0.3060888    0.2762584  17.95 0.0004338722    1.202    0.168
       574  -9.3125    132.5943    124.1704   7.0723831947e+01   3.1105483876e+01    0.4366522    0.2971675 -31.91 0.0003847945    1.646    0.392
       575  -9.3959    135.5109    120.0248   6.8916689110e+01   3.1428915668e+01    0.4748683    0.3676183  50.62  0.002120849    1.343    0.255
       576  -7.8368     87.9649    130.7006   8.5196268210e+01   3.8110271648e+01    0.2054968      0.19892   2.69   0.00033996    1.069    0.065
       577  -9.4202     81.3171    129.3586   8.6978224180e+01   3.9555340907e+01    0.5320635    0.2199487 -48.12  0.001241753    2.298    0.565
       578  -8.7872     32.9671    130.7448   1.0309023417e+02   4.5496640844e+01    0.2530997    0.1897147 -72.42 0.0003891228    1.237    0.192
       579  -7.7051     29.2658    131.3765   1.0440742881e+02   4.5682896978e+01    0.1510577   0.08854481 -44.03 0.0006988018    1.675    0.403
       580  -7.8531    178.8342    130.1873   6.1402330503e+01   2.0084300602e+01    0.2050432    0.1698425 -21.07 0.0003645646    1.327    0.246
       581  -7.3667    168.6948    130.7379   6.3681575786e+01   2.2063295950e+01    0.1465154    0.1198866   0.51 0.0006924984    1.523    0.343
       582  -8.7123    116.4118    129.4609   7.6444632615e+01   3.3160499290e+01    0.2752426    0.2338891 -36.47  0.001342793    1.186    0.157
       583  -8.0058    110.9754    130.3464   7.8209616447e+01   3.4007655318e+01    0.2172088    0.1961527  33.23 0.0003840548    1.138    0.121
       584  -8.7247    104.0425    130.0652   8.0165727434e+01   3.5393138877e+01    0.2324622    0.2181704 -19.20 0.0003332227    1.098    0.089
       585  -8.9983     44.7292    129.4229   9.8963572752e+01   4.4603667836e+01    0.2615589    0.2115534 -41.66   0.00045054    1.208    0.172
       586  -8.1676     16.0992    129.8307   1.0846561083e+02   4.7180434322e+01    0.2844666    0.1500585  78.72  0.001188983    2.568    0.611
       587  -8.5067      4.2265    129.6089   1.1223550001e+02   4.8038748702e+01    0.3746814    0.1043404 -45.74  0.001322028    3.539    0.717
       588  -7.5540    206.3516    129.2445   5.5947309214e+01   1.4803566188e+01    0.1344386    0.1092003   4.75 0.0006930818    1.583    0.368
       589  -8.7319     92.9571    128.9987   8.3256531050e+01   3.7671950187e+01    0.2326599    0.2191705 -28.89  0.000317891    1.065    0.061
       590  -9.0016    153.8676    127.6009   6.6286690751e+01   2.5852928892e+01    0.2635639    0.1987237 -34.49 0.0005808672    1.361    0.265
       591  -8.7411     55.2323    127.0952   9.5009341915e+01   4.3938237355e+01    0.2918787    0.2240608 -29.07 0.0002548842    1.413    0.292
       592  -7.6526     57.5829    123.5405   9.3483121172e+01   4.4544688031e+01    0.1495818    0.1336356 -45.42 0.0002654689    1.048    0.046
       593  -7.5486     50.2841    128.3750   9.6914970844e+01   4.4224443605e+01    0.1583918   0.09956351 -36.85 0.0007015172    1.713    0.416
       594  -8.7545     23.4506    127.8822   1.0577402440e+02   4.7098373226e+01    0.2944235    0.1879113  30.23 0.0008584444    1.748    0.428
       595  -8.6197    174.0261    127.0049   6.1654060652e+01   2.1738748300e+01    0.2283977     0.209438 -35.88 0.0003813348    1.063    0.059
       596  -8.0508    165.0216    127.2565   6.3657046195e+01   2.3572777058e+01    0.2018716    0.2008497  53.40  0.000399319    1.056    0.053
       597  -8.2767    169.1879    125.4920   6.2322916967e+01   2.3068669715e+01     0.257376    0.1720362 -47.92 0.0004470746    1.433    0.302
       598  -9.2076    122.1823    125.6314   7.3889256066e+01   3.2912835000e+01    0.3039045    0.2607072  -4.58 0.0006684006    1.347    0.258
       599  -7.7349    102.1626    126.5977   7.9886905038e+01   3.6592735076e+01    0.2054953    0.1516276  21.29 0.0001370505    1.564    0.361
       600  -8.2215     87.2355    126.0910   8.4350564762e+01   3.9389994799e+01    0.2238593    0.1960366 -30.51 0.0003531767    1.166    0.142
       601  -9.2929     30.7508    124.3907   1.0276161263e+02   4.7349835043e+01    0.3493112    0.2881547  86.90  0.001963415    1.301    0.231
       602  -8.1641     27.7039    120.9933   1.0321830080e+02   4.8499140631e+01    0.1928621    0.1615393 -61.15 0.0003809835    1.042    0.041
       603  -8.7820    181.9588    123.3854   5.9174151409e+01   2.0831584428e+01    0.2687194    0.2025515 -35.82   0.00034959    1.301    0.231
       604  -8.7677     75.6569    128.0655   8.8498095148e+01   4.0784827531e+01    0.2555747    0.2192201   4.20   0.00034914    1.300    0.231
       605  -7.3156    151.3329    124.2840   6.6071147199e+01   2.7117003624e+01    0.1552174    0.1241425   1.67 0.0003060521    1.617    0.382
       606  -8.4138    146.8711    123.2292   6.6881510241e+01   2.8299438299e+01    0.2731721    0.1949698 -18.76 0.0002733526    1.857    0.461
       607  -7.9540    106.4851    124.5128   7.8089597793e+01   3.6280587706e+01     0.156636     0.152371 -38.32 2.293144e-05    1.001    0.001
       608  -8.7604     96.9065    123.2102   8.0648789012e+01   3.8390346742e+01    0.2567235    0.2150644 -33.21 0.0004100487    1.220    0.181
       609  -8.6171     72.0438    123.9917   8.8756908186e+01   4.2373854993e+01    0.2318858    0.2048568 -34.19 0.0003186061    1.122    0.109
       610  -9.5792     13.3599    122.9630   1.0839321073e+02   4.9134446280e+01    0.4832883    0.2763684  -6.24  0.002316888    2.325    0.570
       611  -8.3464     18.9655    122.2561   1.0640433419e+02   4.8902383639e+01    0.2130365    0.1695814 -16.22  0.000283835    1.431    0.301
       612  -8.5756    110.0001    122.5502   7.6568459198e+01   3.6070030114e+01    0.2700096    0.2084448 -31.86 0.0004238332    1.385    0.278
       613  -8.6044     82.2993    122.7512   8.5129349132e+01   4.1053489081e+01    0.2079485    0.1710396 -24.36 0.0004181473    1.316    0.240
       614  -7.5948     77.0353    123.2388   8.6948965716e+01   4.1786890070e+01    0.1858602    0.1303867  30.75 0.0002195332    1.504    0.335
       615  -8.4781     23.7796    122.7663   1.0485458001e+02   4.8384651210e+01    0.3176071    0.1830496 -84.11  0.001042284    1.954    0.488
       616 -10.3352    129.6163    130.0826   7.2977618798e+01   3.0356736947e+01    0.6966035    0.5241323  35.85  0.003224553    1.388    0.279
       617  -8.0821    128.0824    121.8519   7.1333709765e+01   3.2575878228e+01    0.2398813    0.1885617 -12.30 0.0005291179    1.596    0.373
       618  -8.8752     90.7486    121.3159   8.2093944127e+01   3.9960271771e+01    0.3157892    0.2584837 -67.09   0.00124923    1.316    0.240
       619  -8.4862     66.9890    122.0594   8.9996639332e+01   4.3615097808e+01    0.2242339    0.2047667 -34.03  0.000338707    1.073    0.068
       620  -8.2276    187.8078    121.2152   5.7523324233e+01   2.0057501249e+01    0.1970983    0.1679088 -15.82   0.00048797    1.345    0.256
       621  -8.8592    170.8629    120.9045   6.0859268057e+01   2.3670113195e+01    0.2261754    0.1997298 -16.82 0.0004322714    1.255    0.203
       622  -9.5308    116.7004    120.3205   7.4078192328e+01   3.5263908630e+01    0.2926323    0.2544647 -13.19 0.0003064472    1.281    0.219
       623  -7.3654     86.2793    121.6672   8.3594304793e+01   4.0651309105e+01    0.1534577    0.1224366  83.96 0.0003080188    1.607    0.378
       624  -8.3779    152.9606    120.0873   6.4643457939e+01   2.7679055257e+01    0.2279576    0.1865467  -1.57 0.0004343479    1.543    0.352
       625  -7.7198      7.9802    120.0192   1.0977732372e+02   5.0236346607e+01    0.1604999    0.1330319 -64.50 0.0003270052    1.004    0.004
       626  -9.0733    157.6734    118.4372   6.3144283139e+01   2.7015174566e+01    0.2647809    0.2268536 -48.07 0.0004605761    1.124    0.111
       627  -7.4610      3.6919    119.2600   1.1110906743e+02   5.0683350516e+01    0.1227935   0.09156784  66.37 0.0002166376    1.524    0.344
       628  -8.5941    124.0206    117.9988   7.1445172413e+01   3.4300227516e+01     0.232499    0.2275462 -47.41 0.0003460014    1.011    0.011
       629  -8.7650     97.3002    117.9085   7.9200761861e+01   3.9600299687e+01    0.2662301    0.2228483  23.33 0.0004529257    1.271    0.213
       630  -8.4861     74.7151    117.8524   8.6439254194e+01   4.3497415730e+01    0.2323306     0.202047  -2.02 0.0003788956    1.249    0.199
       631  -7.9574     63.8916    118.4721   9.0228367638e+01   4.4964714492e+01    0.2159828    0.1495713  26.71  0.001016732    1.553    0.356
       632  -8.4794     58.8589    117.6114   9.1756842731e+01   4.5878252813e+01    0.2425677    0.1786729 -46.18 0.0003213537    1.261    0.207
       633  -8.2798     39.1610    118.2352   9.8737922800e+01   4.8089021485e+01    0.2051404    0.1743965 -34.93 0.0004401685    1.160    0.138
       634  -8.3705     33.6432    117.8820   1.0060030667e+02   4.8738998036e+01    0.2122518    0.1814051 -26.02 0.0003618581    1.218    0.179
       635  -8.1638     12.0028    117.7972   1.0809520027e+02   5.0536396220e+01     0.201447    0.1711832 -83.65 0.0004394457    1.169    0.145
       636  -8.3212      9.2949    116.3246   1.0880572301e+02   5.1083947155e+01     0.184237    0.1383853   4.62 0.0005125822    1.579    0.367
       637  -8.0749    162.4526    116.7430   6.1653412648e+01   2.6337935042e+01    0.2099408    0.1439843 -32.55 0.0009197315    1.565    0.361
       638  -7.8646    149.9530    117.5339   6.4709845964e+01   2.8877439518e+01     0.220967    0.1540216  47.21 0.0003307509    1.479    0.324
       639  -8.8794    104.0587    116.9275   7.6892415726e+01   3.8556313251e+01    0.2784308    0.2629994 -51.45 0.0003820597    1.053    0.050
       640  -8.8942    101.4334    113.5369   7.6804508096e+01   3.9858095494e+01    0.4600559    0.3660002 -47.88  0.002231887    1.229    0.186
       641  -8.6470     69.0472    116.6852   8.8062785789e+01   4.4658455173e+01    0.2031135    0.1927868   2.52 0.0004018505    1.092    0.084
       642  -7.6454     17.1630    117.1436   1.0621795311e+02   5.0337313550e+01    0.1675611    0.1482588  74.68 0.0003344709    1.256    0.204
       643  -7.9678    140.8133    115.8419   6.6500547904e+01   3.1219438564e+01    0.2272408    0.2040942 -12.59 0.0003249526    1.229    0.187
       644  -7.8735    128.7108    115.9341   6.9644378773e+01   3.3784683445e+01    0.2188562    0.1940007 -43.48 0.0003915479    1.108    0.098
       645 -10.0767    112.6197    114.8702   7.3834279265e+01   3.7350235194e+01    0.4939369    0.3904147  17.04  0.001549809    1.479    0.324
       646  -8.6076     92.9589    115.3178   7.9891901453e+01   4.1017324448e+01    0.2862604    0.2168418 -41.67 0.0005714179    1.293    0.227
       647  -8.5505     86.8687    115.9270   8.1985409438e+01   4.1953447604e+01    0.2313465    0.1956376 -22.49 0.0003016694    1.257    0.204
       648  -7.9934     53.0579    116.3154   9.3480870631e+01   4.6962992941e+01    0.1918214    0.1814212  -5.13 0.0003731565    1.112    0.101
       649  -9.7958    128.1624    107.7474   6.7624956409e+01   3.5707749477e+01     0.511774    0.3182699 -26.86  0.001625932    2.091    0.522
       650  -8.2977    130.7835    111.9875   6.8061989374e+01   3.4219917204e+01    0.2316326    0.2093395  -9.65 0.0003205223    1.215    0.177
       651  -9.0164    134.8604    114.1847   6.7578587062e+01   3.2863373348e+01    0.3108387    0.2286541 -44.65 0.0006065736    1.334    0.250
       652 -10.7709    134.4734    108.0464   6.6059752881e+01   3.4279850411e+01    0.8275864    0.3680021 -41.85  0.002274459    2.256    0.557
       653  -8.5821     28.5063    114.6941   1.0181901575e+02   5.0028332493e+01    0.2254168    0.1928037 -36.64 0.0004274433    1.141    0.124
       654  -8.7109    153.5014    113.9892   6.2979866324e+01   2.8860808051e+01    0.2301745     0.148599 -43.65 0.0003976661    1.502    0.334
       655  -9.0620    122.3188    113.3466   7.0696889492e+01   3.5707971856e+01     0.231074      0.16361  25.40 0.0006930245    1.682    0.405
       656  -9.1768    119.1778    112.7922   7.1421700050e+01   3.6485872891e+01    0.3553128    0.2516799 -38.02   0.00159766    1.442    0.307
       657  -7.2659     48.6382    114.7639   9.4694422607e+01   4.7898538228e+01    0.1448254    0.1038253 -21.97 0.0002634366    1.590    0.371
       658  -9.6624    176.4024    110.8065   5.7265883995e+01   2.4526831164e+01    0.4619015    0.2500689 -25.24  0.001236882    2.856    0.650
       659  -7.8818     77.8338    113.2148   8.4262606313e+01   4.4135928843e+01    0.2013137     0.168464 -16.00 0.0003190576    1.298    0.229
       660  -8.5415     62.1592    112.8008   8.9506934138e+01   4.6623690455e+01    0.2403908    0.1969859 -46.75 0.0004163653    1.130    0.115
       661  -9.4778     69.6046    110.3350   8.6330852805e+01   4.6136144706e+01    0.3438492    0.2618504 -76.28  0.001242982    1.597    0.374
       662  -8.6633     43.2024    113.0822   9.6264699825e+01   4.8952040957e+01    0.2129966    0.1962061 -18.55 0.0003290592    1.121    0.108
       663  -9.1714    170.0228    112.0314   5.8864968571e+01   2.5662598458e+01    0.2264563    0.2137254 -48.85 0.0004732219    1.024    0.023
       664  -7.8873     81.7713    111.9772   8.2643150743e+01   4.3781317798e+01    0.2043264    0.1884071 -46.40            0    1.051    0.048
       665  -8.6713     56.6966    111.8737   9.1203363876e+01   4.7601150774e+01    0.2299541    0.1951646  -3.94 0.0003308935    1.272    0.214
       666  -7.8767     32.7725    112.2395   9.9830519712e+01   5.0249740279e+01    0.1910225    0.1429963 -35.33 0.0003695166    1.312    0.238
       667  -7.8874      6.1621    112.1459   1.0927839388e+02   5.2319964416e+01    0.1688413    0.1404415  81.62  0.001029651    1.307    0.235
       668  -8.4184    146.5262    110.9572   6.3841215159e+01   3.1026826006e+01     0.218451     0.211445  54.79 0.0003201932    1.057    0.053
       669  -8.4031    138.8127    111.2114   6.5797372160e+01   3.2656467393e+01    0.2075638    0.1829937  -4.86 0.0003615244    1.301    0.232
       670  -7.9707    151.9195    110.7418   6.2515296665e+01   2.9888564441e+01    0.2036856    0.1334041  46.01 0.0008906019    1.573    0.364
       671  -8.8168    107.1121    109.9953   7.4155988315e+01   3.9570438523e+01    0.2456799     0.223952  31.64 0.0003457227    1.116    0.104
       672  -8.6908    110.7559    108.3532   7.2640216408e+01   3.9212595203e+01    0.2901321    0.2240452  36.02 0.0003208225    1.328    0.247
       673  -7.8258     90.1811    110.2722   7.9463830312e+01   4.2718959218e+01    0.1959194    0.1760914 -83.36 0.0004145089    1.276    0.216
       674  -8.2115     65.2301    109.5911   8.7662538496e+01   4.6971134481e+01    0.2601333    0.1539536  22.62 0.0008399365    1.924    0.480
       675  -8.0760     38.9053    110.1688   9.7197449567e+01   5.0149008274e+01    0.2045736    0.1816218 -85.12 0.0005398326    1.240    0.193
       676  -8.4889     24.9597    110.1819   1.0225659614e+02   5.1471684662e+01    0.2029855    0.1727796 -45.77  0.000369506    1.064    0.060
       677  -9.5760    125.6761    102.9098   6.6974202529e+01   3.7283402047e+01    0.5404944    0.2781724 -48.22  0.002104455    1.970    0.492
       678  -7.4155    142.2827    109.6519   6.4528449626e+01   3.2233035999e+01    0.1580954    0.1220149 -78.56 0.0005019929    1.647    0.393
       679  -9.2723    119.5233    100.0198   6.7850053958e+01   3.9217052929e+01    0.4855354      0.32254 -80.24  0.001828655    2.681    0.627
       680  -9.1627    122.1329    108.1422   6.9359605356e+01   3.6905080706e+01    0.4210563    0.2212009  40.13  0.001143907    1.972    0.493
       681  -8.9525    115.9694    109.0372   7.1323235143e+01   3.7993120377e+01     0.289998    0.2490112  -5.88 0.0003388519    1.331    0.249
       682  -9.9924    119.2894    104.5297   6.9163411266e+01   3.8295724894e+01     0.507214    0.3395596  35.60  0.001791379    1.584    0.369
       683  -9.5954     96.6067    106.5790   7.6439746006e+01   4.2391571056e+01    0.5247411    0.3226724 -18.94  0.001945853    2.610    0.617
       684  -7.9898     54.2127    107.6961   9.1108985023e+01   4.8957472142e+01    0.2009681    0.1529816 -30.56 0.0005224867    1.330    0.248
       685  -8.8600     44.4264    107.9580   9.4713247057e+01   5.0089921152e+01     0.242728    0.1979496  -9.29 0.0005057211    1.327    0.247
       686  -7.9344     18.0343    108.7860   1.0451335964e+02   5.2370166194e+01    0.1596922    0.1101806  16.31 0.0005502044    1.662    0.398
       687  -7.9124    154.5509    107.5080   6.1079305498e+01   2.9977729701e+01    0.1515245    0.1469419 -42.87 9.822341e-05    1.039    0.038
       688  -8.8011     59.9965    107.0450   8.8881983565e+01   4.8338181138e+01    0.2132441    0.2050758 -28.19 0.0003828359    1.051    0.049
       689  -8.3683     12.0053    107.0256   1.0639932337e+02   5.3228952467e+01    0.1567068    0.1375184 -50.43  0.000310998    1.062    0.059
       690  -8.7429    250.1912    106.2221   4.4598669562e+01   1.0966787251e+01     0.196299    0.1364547  -2.15 0.0009578876    2.835    0.647
       691  -7.5691    150.2807    106.3853   6.1766202979e+01   3.1153908602e+01    0.1568286    0.1221668  -6.71 0.0001182963    1.731    0.422
       692  -8.4678    102.2434    106.1887   7.4591882777e+01   4.1396448298e+01    0.2252622    0.2006118 -12.11 0.0004285426    1.193    0.162
       693  -9.4024     85.2114    105.1928   7.9727334589e+01   4.4794798128e+01    0.2835889    0.2389792 -27.58 0.0004526127    1.204    0.170
       694  -8.7850     81.9739    101.9917   7.9936020458e+01   4.6101502562e+01    0.4859641    0.2476506 -62.11  0.001764843    2.629    0.620
       695  -9.1482     77.6295    105.2108   8.2268948553e+01   4.6086458463e+01    0.2643609    0.2306191 -12.53 0.0004044286    1.192    0.161
       696  -9.0158    113.8772    105.0383   7.0833098633e+01   3.9313588322e+01    0.2615516    0.2247075  40.39 0.0004777671    1.176    0.150
       697  -9.2182    107.9188    103.3481   7.2104390783e+01   4.0904849866e+01    0.4405233    0.3697625 -50.08  0.001522399    1.198    0.166
       698  -8.8486    109.4754     98.8658   7.0390492899e+01   4.1567413969e+01    0.2688435     0.216878  40.73 0.0007444698    1.246    0.197
       699  -8.2052     71.8436    105.1880   8.4247049063e+01   4.7027092777e+01    0.2095438    0.1974113 -60.46 0.0002859778    1.118    0.106
       700  -8.6434     49.6630    105.1265   9.2151791945e+01   5.0162216068e+01    0.2390517    0.1990875  -7.96 0.0003733784    1.277    0.217
       701  -8.6179     41.0839    104.2961   9.5123247999e+01   5.1365906729e+01    0.2411858    0.1680217 -35.73 0.0005463762    1.395    0.283
       702  -9.2744    142.0292    103.7060   6.3016536360e+01   3.3536096331e+01     0.333243    0.2151336 -47.54 0.0006335781    1.537    0.350
       703  -8.9967     65.8712    103.9624   8.6020730303e+01   4.8234303810e+01    0.2710516    0.2108926  17.60 0.0003848852    1.381    0.276
       704  -8.6296    153.5182    102.5574   6.0025650472e+01   3.1212832634e+01    0.2338999    0.1929535  40.44 0.0004893831    1.286    0.222
       705 -10.0580    153.9996     98.9815   5.8978700102e+01   3.1817876454e+01    0.7043166    0.3901971 -64.62  0.002505368    2.859    0.650
       706  -8.7566     93.0406    102.0628   7.6329039512e+01   4.4092067724e+01    0.3123663    0.2680152  73.18  0.001434802    1.419    0.295
       707  -7.9424     17.6947    102.9967   1.0359715035e+02   5.3826244784e+01    0.1907449    0.1470078 -57.06 0.0003513426    1.098    0.089
       708  -8.7530    130.3644    101.4856   6.5346261382e+01   3.6567416618e+01    0.2554728    0.2178655  13.17 0.0007496232    1.364    0.267
       709  -8.0575     36.1910    102.1597   9.6475264117e+01   5.2407174348e+01    0.2122922    0.1620149 -35.90 0.0004022417    1.230    0.187
       710  -8.2369     73.9993    101.0104   8.2391532677e+01   4.7665277984e+01    0.2294121    0.1691455 -19.40            0    1.560    0.359
       711  -9.1969     56.9996    100.5489   8.8340616506e+01   5.0313066924e+01    0.3534448    0.3141727  -0.37  0.001514833    1.153    0.132
       712  -8.0661    162.1564    100.1279   5.7509818975e+01   2.9762831738e+01    0.2149798    0.1990803   8.77 0.0004439732    1.244    0.196
       713  -8.8577    148.6831    100.6695   6.0630609784e+01   3.2673947818e+01    0.3980034    0.1327974  44.33  0.001242399    3.214    0.689
       714  -8.6979    100.2962    100.0632   7.3491192119e+01   4.3149499561e+01    0.3424706    0.2137809  29.19 0.0008081396    1.810    0.448
       715  -7.4547     46.6436    100.7667   9.2229690158e+01   5.1585398952e+01    0.1425494    0.1009315 -19.45  0.000472583    1.576    0.365
       716  -7.6295     30.4559    100.3886   9.8258742138e+01   5.3399803255e+01    0.1371922    0.1187694 -41.08 0.0002766355    1.034    0.033
       717 -10.0235    249.1080     92.4730   4.2006978593e+01   1.3388176892e+01    0.2960883    0.1529589 -48.31  0.001516481    1.571    0.363
       718  -8.0960    166.2943     98.2947   5.6179221140e+01   2.9192449575e+01    0.2058342     0.133839 -50.22 0.0001998423    1.516    0.340
       719  -8.5580     86.1032     98.6685   7.7638308529e+01   4.6131040224e+01    0.3195657    0.2033569 -38.26  0.001062081    1.589    0.371
       720  -7.7681     88.4970     94.4128   7.5636583342e+01   4.6641012771e+01    0.1510554     0.140191  -5.57 0.0001047249    1.065    0.061
       721  -9.5870    142.0968     96.0004   6.0919975510e+01   3.5086571313e+01    0.4949503      0.19781 -41.20  0.001274496    2.505    0.601
       722  -7.9181     67.4186     98.4684   8.4022174840e+01   4.9293957209e+01    0.1486319    0.1342805 -28.24 0.0001311807    1.039    0.038
       723  -8.6597     50.7333     97.3748   8.9857960240e+01   5.1890716376e+01    0.2524967    0.1996717 -42.69 0.0003525293    1.146    0.128
       724  -7.9944    128.8318     97.1777   6.4554202255e+01   3.7798049076e+01    0.2040704    0.1789069  11.58 0.0003756889    1.295    0.228
       725  -8.5044    121.7732     96.8790   6.6350633620e+01   3.9396211148e+01    0.2245593    0.2030301  -9.77 0.0003883189    1.199    0.166
       726  -8.0502     39.9282     97.3417   9.3951144254e+01   5.3175239261e+01    0.1863843    0.1653302 -18.06 0.0003462808    1.114    0.103
       727  -8.6710    169.3149     99.2706   5.5815577273e+01   2.8331005501e+01    0.2185938    0.1881519 -48.51 0.0002405035    1.112    0.101
       728  -8.7925    160.1736     96.2010   5.6910610771e+01   3.0970054131e+01    0.2162325    0.2037489  -3.62 0.0006091201    1.200    0.167
       729  -7.9840    146.8483     95.4735   5.9662028759e+01   3.4120894656e+01    0.2345501    0.2067743 -14.80  0.000467589    1.294    0.227
       730  -8.6409     94.3848     95.8355   7.4141570494e+01   4.5223222369e+01    0.2859901    0.2563919 -52.76 0.0004022402    1.158    0.137
       731  -8.1046     62.8904     95.6499   8.4895163889e+01   5.0626622508e+01     0.191993    0.1773405  10.42 0.0004084488    1.104    0.094
       732  -8.1990     45.8788     96.3036   9.1425089491e+01   5.2742082504e+01    0.1942466    0.1685065 -23.39 0.0004946824    1.105    0.095
       733  -7.2963     32.3032     96.2635   9.6638535122e+01   5.4219308731e+01    0.1393858    0.0921784 -30.48 0.0002761632    1.521    0.343
       734  -8.6317    112.7878     93.9412   6.8023251627e+01   4.1923371779e+01    0.3120571    0.1990175 -36.00 0.0005902908    1.648    0.393
       735  -8.4767     74.9881     94.4542   8.0233480245e+01   4.9003088447e+01    0.2083702    0.1914749 -21.90  0.000422582    1.031    0.030
       736  -8.6048    154.5239     94.5318   5.7685592599e+01   3.2568613113e+01    0.1481249    0.1449419 -69.12 0.0001162884    1.027    0.026
       737  -9.3636    100.2900     94.0038   7.1760588124e+01   4.4468193711e+01    0.4460133    0.2196162  42.77  0.001746626    2.041    0.510
       738  -7.3253     68.6778     94.2928   8.2424985001e+01   5.0058019344e+01    0.1416762    0.1172234  72.94 0.0002372513    1.612    0.380
       739  -7.8957     27.5569     94.5596   9.8105183138e+01   5.5068873204e+01    0.1361337    0.1178176 -44.42 5.376406e-05    1.013    0.012
       740  -8.6601     81.1142     93.1708   7.7749691296e+01   4.8243217418e+01    0.2192385    0.1889007 -11.11 0.0003501177    1.199    0.166
       741  -7.9083     55.5096     93.5489   8.7063827794e+01   5.2156952788e+01    0.1445062    0.1303221 -28.01 0.0002117736    1.014    0.014
       742  -7.5637     15.2869     93.3151   1.0266141646e+02   5.6342982769e+01    0.1407481   0.08062039 -39.24 0.0001837017    1.586    0.369
       743  -7.9788    130.5365     92.0472   6.2674544999e+01   3.8460140319e+01    0.2224688    0.1490805 -41.19 0.0003865173    1.501    0.334
       744  -7.9875    125.6059     92.2383   6.4007782504e+01   3.9511966329e+01    0.2025843    0.1443493 -30.58 0.0002824157    1.543    0.352
       745  -8.2932     48.9525     91.6264   8.9046936756e+01   5.3459335702e+01      0.19178    0.1698744   6.56 0.0003912956    1.157    0.135
       746  -8.6903     35.3662     91.6055   9.4345524924e+01   5.5017538060e+01    0.2456838    0.2017842  15.41  0.001195488    1.305    0.234
       747  -8.4222    120.8362     90.9560   6.4916052033e+01   4.0813091464e+01      0.22805    0.2010375  -7.68 0.0005284703    1.263    0.208
       748  -7.5211     66.3568     91.2710   8.2414237007e+01   5.1100968441e+01    0.1501279    0.1083073 -11.26 0.0006998094    1.642    0.391
       749  -8.7540    144.1000     89.5810   5.8688585249e+01   3.5887459564e+01    0.2617293    0.2065167 -23.06 0.0003929467    1.471    0.320
       750  -8.0688    109.9459     89.7713   6.7629371095e+01   4.3381041394e+01    0.2247041    0.1954388   7.52 0.0004434855    1.264    0.209
       751  -8.4464     61.3164     90.1257   8.3948192015e+01   5.2116730018e+01    0.2241728    0.1877992   1.56 0.0004191427    1.226    0.185
       752  -8.1671    116.1552     89.0671   6.5655172418e+01   4.2205355651e+01     0.221707    0.1989546   0.18 0.0003003337    1.213    0.175
       753  -8.8715     71.4215     88.7982   7.9869799739e+01   5.0846059394e+01    0.2535045    0.2120905  -6.46 0.0004880237    1.240    0.194
       754  -7.5308     43.4548     89.6037   9.0653571979e+01   5.4593597430e+01    0.1401065    0.1219832 -28.49 0.0001539072    1.043    0.041
       755  -8.0834     88.2543     88.4371   7.3961506562e+01   4.7973863912e+01    0.1860415    0.1424534  47.64 0.0002981926    1.394    0.282
       756  -7.6921     82.6375     88.0980   7.5742106693e+01   4.9074966588e+01    0.1993475    0.1310465 -34.90 0.0001776783    1.559    0.359
       757  -8.8588    137.9809     87.3670   5.9512251064e+01   3.7700460002e+01    0.2106721    0.1930256  57.67 0.0007287756    1.084    0.077
       758  -8.8428    129.8477     86.3874   6.1236309667e+01   3.9722443531e+01    0.3727027    0.2151078 -41.95  0.001055022    1.748    0.428
       759  -8.8862    123.1304     86.0939   6.2889735415e+01   4.1273543223e+01    0.4193887    0.2719909 -60.78  0.001791454    1.956    0.489
       760  -7.7492      5.9422     87.0248   1.0515326104e+02   5.8417040480e+01    0.1540593    0.1256573 -49.49 0.0003608379    1.004    0.004
       761  -9.3167     94.9741     85.8711   7.1013446810e+01   4.7222239300e+01    0.3760947    0.2035359  42.48  0.001270524    1.844    0.458
       762  -8.0914     76.3501     86.0947   7.7317609113e+01   5.0606797054e+01    0.2005359    0.1763499 -36.26 0.0004498983    1.103    0.094
       763  -8.0380     65.6823     86.1121   8.1171791754e+01   5.2347154459e+01    0.2012777     0.165663 -37.21 0.0003811928    1.145    0.127
       764  -7.6884     35.4577     86.4961   9.3035424013e+01   5.6193480212e+01    0.1384218    0.1196072 -35.51 0.0002613977    1.004    0.004
       765  -7.3465    112.6928     85.7387   6.5647061963e+01   4.3611244325e+01    0.1472733    0.1168587  10.98 0.0002327212    1.525    0.344
       766  -8.0727    107.6326     85.0204   6.6891647292e+01   4.4824307464e+01    0.2031575    0.1841277 -32.14 0.0004203788    1.111    0.100
       767  -8.1328     16.2496     85.0086   1.0053318548e+02   5.8229296209e+01    0.1802586    0.1459279 -47.49 0.0002639342    1.039    0.037
       768  -7.3670     80.2715     84.2868   7.5404034446e+01   5.0304209998e+01    0.1443792    0.1102969  -9.93  0.000215493    1.505    0.336
       769  -7.5839     41.0052     83.9934   9.0136562417e+01   5.6154990041e+01     0.164357    0.1447824 -28.21 0.0003188082    1.013    0.013
       770  -7.7379     27.9292     84.0244   9.5484913353e+01   5.7498519006e+01    0.1590218    0.1367844 -35.95 0.0003088323    1.012    0.012
       771  -9.3913    250.4210     82.6808   3.9933281601e+01   1.4699805966e+01    0.2512451   0.09270547 -44.22  0.001141657    2.130    0.530
       772  -7.1112     71.4528     83.4613   7.8269866875e+01   5.1992571558e+01    0.1471585     0.131728 -13.07 0.0002666346    1.062    0.059
       773  -8.8852    133.3313     81.9219   5.9084667109e+01   3.9781149830e+01    0.2014485    0.1925241 -34.20 0.0005357311    1.078    0.073
       774  -8.0096    115.6690     81.8275   6.3643748075e+01   4.3732108714e+01     0.200065    0.1844837 -41.80 0.0005228818    1.106    0.096
       775  -7.7211     89.0473     82.4333   7.1877114602e+01   4.9069832668e+01     0.206626    0.1416349  37.92 0.0003009095    1.450    0.310
       776  -8.1274    161.2977     81.6602   5.2847714926e+01   3.3405238570e+01    0.1523645    0.1099418 -73.12  0.000168786    1.661    0.398
       777  -8.2279    154.2193     80.1980   5.3892423948e+01   3.5296369740e+01    0.3335721    0.1245167 -32.29  0.001054595    3.520    0.716
       778  -8.1755    109.7379     80.9924   6.5061682581e+01   4.5168640738e+01    0.1963908    0.1888075 -22.05 0.0002086403    1.048    0.046
       779  -7.3705     51.6792     81.7527   8.5243497850e+01   5.5325326206e+01    0.1396106   0.09981704 -14.25 0.0002300362    1.528    0.346
       780  -8.0143      2.5298     80.9389   1.0537205899e+02   6.0009247142e+01    0.1985546   0.05818641 -47.12 0.0008084257    2.491    0.599
       781  -8.8501    142.8999     79.6780   5.6199727122e+01   3.8002032658e+01    0.2353043    0.1972253 -26.43  0.000444697    1.317    0.241
       782  -7.4309     38.3561     80.2531   9.0192968409e+01   5.7289253421e+01    0.1404477   0.09343472 -19.57 0.0002523547    1.607    0.378
       783  -8.0334    247.6605     79.2866   3.9563559235e+01   1.5716351904e+01    0.1277239   0.07945012 -66.91 0.0006455266    1.637    0.389
       784  -8.4851     92.7776     78.7049   6.9504859032e+01   4.9092655757e+01    0.2309121    0.1901329 -23.44 0.0004867651    1.254    0.203
       785  -8.4536     82.9526     79.0596   7.2865627300e+01   5.0892243601e+01    0.2173391    0.2020904  -7.83 0.0004174396    1.020    0.019
       786  -8.4688     75.3848     79.2025   7.5546421891e+01   5.2214710521e+01     0.231734    0.1855883  16.69 0.0005728189    1.278    0.218
       787  -8.2608     63.8821     78.8929   7.9669029149e+01   5.4170355631e+01    0.2120562    0.1707305 -14.70 0.0002909882    1.250    0.200
       788  -8.2608    118.8796     77.4933   6.1464517712e+01   4.3843543949e+01    0.2103222    0.1951673 -31.75 0.0003493112    1.106    0.096
       789  -7.3995    104.6277     78.7538   6.5865175376e+01   4.6677146542e+01    0.1508491     0.112021  17.08  0.000421675    1.628    0.386
       790  -8.0061     99.1599     78.1471   6.7326396492e+01   4.7923077294e+01    0.1860763    0.1727738 -75.11 0.0002782909    1.247    0.198
       791  -7.2636     69.7126     78.6240   7.7415103087e+01   5.3292235813e+01    0.1523827    0.1051937 -15.79 0.0005922407    1.724    0.420
       792  -7.6203      7.5938     78.5008   1.0273807390e+02   6.0289208474e+01    0.1299403    0.1024602 -45.42 0.0001122091    1.026    0.026
       793  -7.7185    102.6641     82.8020   6.7697469293e+01   4.6296024899e+01    0.1921214    0.1372335 -49.43 0.0002780104    1.480    0.324
       794  -9.5370    127.4996     74.8147   5.8436630368e+01   4.2397978793e+01    0.3984898    0.2553063 -61.19  0.001721592    2.036    0.509
       795  -8.1909     43.7647     77.2800   8.7122327968e+01   5.7309004262e+01    0.2251631    0.1614444  24.73 0.0009544107    1.447    0.309
       796  -8.0483    108.0572     76.0230   6.4015742117e+01   4.6468447177e+01    0.2225249    0.1739423   9.17  0.000514755    1.555    0.357
       797  -7.4188     87.6934     76.7577   7.0545305869e+01   5.0459549761e+01    0.1419714    0.1092826   7.74 0.0001707973    1.496    0.331
       798  -7.5110     58.3175     76.7227   8.1130020450e+01   5.5466636839e+01    0.1299706    0.1123183  67.82 0.0002292212    1.572    0.364
       799  -8.1789    113.9107     76.3184   6.2456332385e+01   4.5151212401e+01    0.2058432    0.1890377  36.12  0.000521734    1.063    0.059
       800  -7.8442     28.2594     78.8447   9.4027961117e+01   5.8638389602e+01    0.1836464    0.1319326 -29.35 0.0005875923    1.281    0.219
       801  -8.0737    134.5588     74.2176   5.6552635286e+01   4.0891867166e+01    0.1987868    0.1438787 -24.48 0.0008301613    1.623    0.384
       802  -7.7061    102.5201     74.4786   6.5154868038e+01   4.7924587095e+01    0.1481839    0.1370709  12.77 6.169984e-05    1.073    0.068
       803  -9.1215     86.7981     72.6776   6.9530458974e+01   5.1417011826e+01    0.5239971     0.283003  56.03   0.00195135    2.524    0.604
       804  -8.4308     97.6315     71.8278   6.5791061645e+01   4.9425938703e+01     0.235459    0.1849481  30.60 0.0004173481    1.272    0.214
       805  -7.3230     50.3527     71.2528   8.2589524792e+01   5.7727348725e+01    0.1401474   0.09737074  -9.50 0.0004156657    1.599    0.375
       806  -7.5299     23.2798     71.3555   9.4176165784e+01   6.0735716657e+01     0.142109   0.08036419 -32.60 0.0007013089    1.658    0.397
       807  -8.6693    104.5815     69.5475   6.2977588648e+01   4.8387767246e+01    0.2985929    0.1950224  39.27  0.001405018    1.509    0.337
       808  -7.8923     79.7652     70.2508   7.1122713662e+01   5.3196712442e+01    0.1982607    0.1582966   4.72  0.000662487    1.340    0.254
       809  -7.9434     37.0971     70.3566   8.7865455455e+01   5.9565172716e+01    0.1803128    0.1597137  -6.97 0.0005211505    1.090    0.082
       810  -8.4919    115.9413     68.6551   5.9530860671e+01   4.6074119316e+01     0.227173    0.1966865 -12.32 0.0003532004    1.275    0.216
       811  -7.5217    147.6221     68.7530   5.2089663680e+01   3.8792464312e+01    0.1455709    0.1074675  32.41 0.0004162073    1.641    0.391
       812  -7.9245    133.7701     68.3776   5.5018041825e+01   4.2075271794e+01    0.2005039    0.1294044  45.83 0.0003722095    1.534    0.348
       813  -8.3907    123.0305     67.6927   5.7399709517e+01   4.4648762263e+01    0.1998539    0.1808122  48.30 0.0003743467    1.061    0.057
       814  -8.4673     73.8589     73.1972   7.4177624464e+01   5.3683493691e+01    0.1945284    0.1873793   1.35 0.0003244925    1.099    0.090
       815  -7.4261     74.2326     68.6687   7.2552302569e+01   5.4491662299e+01    0.1286676    0.1120262 -72.54 0.0002994191    1.528    0.345
       816  -9.1466    129.0134     66.8587   5.5681402740e+01   4.3424402330e+01    0.3086122    0.1980909  -2.73   0.00120494    2.867    0.651
       817  -9.0091    101.1717     66.7978   6.3090894189e+01   4.9593729244e+01    0.2415672    0.1937414 -49.43 0.0007444283    1.374    0.272
       818  -8.0309     93.8291     66.8097   6.5334689205e+01   5.1108174543e+01    0.1801306    0.1683357  79.60 0.0002908054    1.267    0.211
       819  -7.5691     64.5003     66.4217   7.5407136112e+01   5.6568033750e+01    0.1398873    0.1242412  -1.71 -0.0006518394    1.024    0.024
       820  -8.8923    250.0000     64.9821   3.6533612332e+01   1.7437616616e+01    0.1970989   0.05717005 -39.45            0    2.900    0.655
       821 -10.1674    144.6852     63.3118   5.1149691758e+01   4.0360924834e+01    0.4225136    0.2720781 -80.53  0.001214284    2.320    0.569
       822  -7.6874     71.5599     64.6115   7.2151345122e+01   5.5718056765e+01    0.1388956     0.124736   6.34 0.0001262223    1.021    0.021
       823  -7.9629    120.9074     63.5048   5.6637753922e+01   4.5827433925e+01    0.2068937    0.1366114  53.46 0.0003005404    1.452    0.311
       824  -8.4785     87.0879     62.9488   6.6199551526e+01   5.3132831827e+01    0.2449152    0.2108363 -56.00  0.001249857    1.381    0.276
       825  -7.4819     81.5817     65.4557   6.8893030120e+01   5.3746366751e+01     0.141403    0.1290294   4.61 5.083867e-05    1.024    0.024
       826  -8.2791    112.8722     63.9617   5.8869405627e+01   4.7550933606e+01    0.2115334    0.1826724  16.14  0.000311667    1.252    0.201
       827  -7.4116     66.6111     62.4934   7.3262472074e+01   5.6953991505e+01     0.138701     0.122182  -6.46 0.0001143956    1.042    0.040
       828  -7.3343     80.6963     60.2785   6.7420194386e+01   5.4829072915e+01     0.128745    0.1129134  81.03 0.0001827856    1.548    0.354
       829  -9.0666    115.4288     58.8879   5.6573439694e+01   4.7806062320e+01    0.2908287    0.2186133 -15.84  0.001476878    1.589    0.371
       830  -7.7469     95.5688     58.9606   6.2165941386e+01   5.2094941648e+01    0.1967723     0.137741 -34.00 0.0003243704    1.493    0.330
       831  -8.2452     88.7818     58.7933   6.4227083099e+01   5.3506247619e+01    0.1746675    0.1647945  75.99  0.000336425    1.269    0.212
       832  -8.9879    103.0708     63.2805   6.1383036782e+01   4.9795893077e+01    0.2003037    0.1764861  43.30 0.0004952462    1.087    0.080
       833  -7.5714     82.7685     55.9467   6.5201215470e+01   5.5163208869e+01    0.1755847    0.1139237 -34.37 0.0005660144    1.593    0.372
       834  -9.6267    146.8562     54.8779   4.8296160420e+01   4.1142280164e+01    0.2476424    0.1967473  77.22 0.0007002574    1.261    0.207
       835  -7.4555     62.7167     55.2759   7.2197451804e+01   5.8891181051e+01    0.1187762    0.1095167  74.62 -0.0001541599    1.506    0.336
       836  -7.8123    166.2547     53.9659   4.4579094206e+01   3.6719827509e+01    0.1652509    0.1148265 -40.84 0.0003672098    1.464    0.317
       837  -7.7899     68.6736     54.0129   6.9476516003e+01   5.8091529949e+01    0.2459936     0.135424  11.68 0.0006894987    3.259    0.693
       838  -7.4362     99.7306     53.6850   5.9136198003e+01   5.2060624689e+01    0.1386053    0.1045928  13.54 0.0002001356    1.553    0.356
       839  -8.2609    133.5139     52.4894   5.0313934408e+01   4.4624634816e+01    0.1397935    0.1296539  73.93 0.0008101132    1.040    0.038
       840  -7.6261     91.4093     51.4579   6.0843174406e+01   5.4149185918e+01    0.1366329    0.1259171  23.21 0.0001621773    1.015    0.015
       841  -7.7613    106.2638     50.5872   5.6263334419e+01   5.1112916914e+01    0.1393109    0.1065722 -68.55 0.0006957229    1.758    0.431
       842  -9.2479    113.4820     47.4580   5.3351044349e+01   4.9956467525e+01    0.2697575    0.2204771  30.64 0.0008966523    1.262    0.208
       843  -8.4042    221.0672     47.4531   3.5877265664e+01   2.5517941028e+01    0.1869702    0.1411132 -53.23 0.0004385153    1.164    0.141
       844  -7.7195     73.7838     46.3806   6.4800722054e+01   5.8391246120e+01    0.1898606    0.1136123  32.84 0.0004445098    1.619    0.382
       845  -7.8026     84.8131     43.7699   6.0135232289e+01   5.6635119335e+01    0.1641852    0.1575447 -83.40 0.0003180313    1.294    0.227
       846  -7.6501    233.6278     42.7256   3.3697300195e+01   2.3638442485e+01    0.1060455   0.09132243  45.35 0.0007003438    1.684    0.406
       847  -7.6730    205.5464     41.4603   3.6228796575e+01   2.9585507537e+01     0.125733    0.1069467 -75.73 0.0001809048    1.037    0.036
       848  -7.3260     90.4908     41.4789   5.7547596496e+01   5.5792786712e+01    0.1360382     0.120728  30.66  0.000148381    1.011    0.011
       849  -7.6449     71.5798     41.6025   6.3763136671e+01   5.9513863307e+01    0.1330896    0.1136237  17.92 0.0001200501    1.038    0.037
       850  -7.8917    133.2894     40.2832   4.6651907764e+01   4.6350255270e+01    0.1328859   0.09869926  34.06 0.0001881302    1.530    0.346
       851  -8.4004    108.6837     38.9621   5.1698960758e+01   5.2182907623e+01    0.1778508    0.1726158  15.39 0.0003220806    1.097    0.089
       852  -7.5765     96.7594     38.9724   5.4836325684e+01   5.4802013824e+01    0.1569318    0.1141603 -27.18 0.0002056952    1.498    0.333
       853  -8.0532    189.0742     37.8014   3.7286129103e+01   3.3683329919e+01    0.2119738    0.1330317  45.16  0.001092889    2.053    0.513
       854  -7.1516    103.7090     37.2655   5.2372995050e+01   5.3507058313e+01    0.1244701    0.1034561 -87.24            0    1.503    0.335
       855  -8.3277    214.4111     33.8317   3.3660683995e+01   2.8687301646e+01    0.1536164    0.1143133 -30.80 0.0009426927    1.625    0.384
       856  -8.4082    111.2808     30.9333   4.8352220688e+01   5.2580686590e+01    0.1822891    0.1674001  37.43 0.0005919091    1.082    0.076
       857  -7.9858     77.1655     29.8105   5.7257212052e+01   6.0017833681e+01     0.182369    0.1356222  21.22 0.0004629591    1.320    0.242
       858  -7.6110    161.8266     16.6413   3.5382164528e+01   4.2355977692e+01    0.1664672    0.1035653  81.57 0.0002814565    1.470    0.320
       859  -8.4002     11.7691     12.2330   7.8245262124e+01   7.2398757100e+01    0.1750224   0.07694834  16.19 0.0008707413    2.445    0.591
