#   1 NUMBER                 Running object number                                     
#   2 MAG_AUTO               Kron-like elliptical aperture magnitude                    [mag]
#   3 X_IMAGE                Object position along x                                    [pixel]
#   4 Y_IMAGE                Object position along y                                    [pixel]
#   5 X_WORLD                Barycenter position along world x axis                     [deg]
#   6 Y_WORLD                Barycenter position along world y axis                     [deg]
#   7 A_WORLD                Profile RMS along major axis (world units)                 [deg]
#   8 B_WORLD                Profile RMS along minor axis (world units)                 [deg]
#   9 THETA_WORLD            Position angle (CCW/world-x)                               [deg]
#  10 FWHM_WORLD             FWHM assuming a gaussian core                              [deg]
#  11 ELONGATION             A_IMAGE/B_IMAGE                                           
#  12 ELLIPTICITY            1 - B_IMAGE/A_IMAGE                                       
         1 -11.5021     80.3160     23.4473   2.9107346836e+02   7.0053210292e+00   0.02919431   0.01736037   3.67 0.0006355344    2.361    0.576
         2  -9.3687     28.3411     22.4191   2.9166328770e+02   7.3287898230e+00   0.04053478   0.02295849 -14.34  0.003278615    3.022    0.669
         3 -10.3212    145.5660     22.3010   2.9031865200e+02   6.6257689183e+00   0.01547678   0.01104222 -48.57 0.0005410193    1.388    0.280
         4  -9.4149     63.8989     14.6552   2.9120730442e+02   7.2041665421e+00   0.02397513   0.01259576 -37.21  0.001797301    2.299    0.565
         5  -9.1124    128.1412     16.1926   2.9048036820e+02   6.8003866666e+00   0.02162965   0.01030969 -39.53  0.001173455    2.517    0.603
         6  -9.7478    134.3284     13.2893   2.9039148551e+02   6.7962155654e+00   0.02066382   0.01328701 -19.34  0.001964213    2.103    0.524
         7  -9.0485     74.5044     13.5013   2.9107852077e+02   7.1536530342e+00   0.01916082   0.01200324 -31.10  0.001032542    1.936    0.483
         8  -9.0336     96.8400     12.7087   2.9081750184e+02   7.0284706608e+00   0.02070783   0.01133525 -37.94  0.001263101    2.129    0.530
         9  -8.5175    112.9523     11.3437   2.9062435549e+02   6.9471073546e+00   0.01428008   0.00758823 -44.18   0.00121284    1.975    0.494
        10  -9.0260    125.2239     10.4646   2.9047827819e+02   6.8832528438e+00   0.01212625  0.009762852 -41.85 0.0002801429    1.260    0.206
        11  -9.3141     70.6709      8.9270   2.9109415715e+02   7.2288317935e+00   0.02454713   0.01348681  11.89  0.001902621    2.380    0.580
        12  -9.3666     76.4526      5.9153   2.9100918744e+02   7.2284470097e+00   0.01931272   0.01464282 -66.29  0.001882764    1.346    0.257
        13  -8.1666     34.3380      9.3273   2.9151348626e+02   7.4421863051e+00   0.01358116   0.01022263 -30.38  0.001484437    1.466    0.318
        14  -9.3571     32.0566      6.0326   2.9151927992e+02   7.4934237148e+00   0.01253174    0.0119138  28.03 0.0003533518    1.058    0.054
        15  -8.5249    155.9102      8.0487   2.9011180045e+02   6.7258565988e+00    0.0129705  0.008582453 -54.74  0.001185165    1.471    0.320
        16  -9.4849     79.2995     12.8397   2.9101943241e+02   7.1323958191e+00   0.03291155   0.01800597  10.44  0.002849743    2.480    0.597
        17  -9.0717     40.3918      6.7633   2.9142814595e+02   7.4351470889e+00   0.01986758   0.01183902 -35.16  0.001885001    1.971    0.493
        18  -9.6813     46.8171      6.3749   2.9135201069e+02   7.4010574768e+00   0.01554338   0.01362434  -6.89   0.00033715    1.221    0.181
        19 -10.5247      7.1408      5.4989   2.9180198234e+02   7.6486444217e+00   0.02555241    0.0149793   5.36 0.0007001432    2.364    0.577
        20  -8.5063     15.3071      2.6898   2.9169085574e+02   7.6318224689e+00    0.0148436   0.01077679 -81.07  0.001578832    1.591    0.371
        21  -8.8245    119.2850      6.7732   2.9052344439e+02   6.9610901447e+00   0.01186114   0.01056038 -30.72 0.0002248953    1.157    0.136
        22  -8.6055    100.5781      6.1420   2.9073395143e+02   7.0808545096e+00   0.01460197   0.01037622  76.25  0.001042689    1.811    0.448
        23  -8.5835    130.7133      5.9763   2.9038755032e+02   6.9013499683e+00    0.0092178   0.00849132 -57.84 0.0004330561    1.077    0.071
        24  -7.2523    179.5129      5.4743   2.8982563106e+02   6.6127645576e+00  0.006551057  0.006350774 -28.84 -2.925454e-06    1.032    0.031
        25  -9.2336    110.6569      3.2632   2.9060056964e+02   7.0530323462e+00    0.0191192   0.01198814 -75.43  0.001766901    1.868    0.465
        26  -8.5564    105.9750      1.5012   2.9064331326e+02   7.1012882750e+00   0.01683906  0.009912109  12.01  0.001559464    2.109    0.526
        27  -7.8984     91.1022      5.1588   2.9083650214e+02   7.1490420555e+00   0.01017252   0.00869108 -23.31 0.0005041564    1.252    0.201
        28  -8.2985    143.0819      2.2220   2.9022256805e+02   6.8696032157e+00   0.01051718  0.009115621 -58.51 0.0003261752    1.143    0.125
        29  -7.1839    134.2867      3.3248   2.9033016352e+02   6.9100409042e+00  0.006855429  0.004879127 -29.74 0.0002034914    1.605    0.377
        30  -8.3331     84.4084      3.1922   2.9090107373e+02   7.2116925204e+00  0.009120702  0.008421253  -1.91 0.0007777645    1.122    0.108
        31  -8.6396     56.4948      3.1371   2.9122092260e+02   7.3799302265e+00   0.01706791  0.009943919  12.67  0.001575573    2.116    0.528
        32  -7.7573    159.1796      1.7916   2.9003553874e+02   6.7774360859e+00   0.00927581  0.007649509 -18.46 0.0005287456    1.341    0.254
        33  -8.3354      2.8609      1.7609   2.9182800440e+02   7.7168602667e+00   0.01023963  0.008853434 -22.26 0.0006063035    1.230    0.187
        34 -10.4652     16.1530     95.1590   2.9225221194e+02   6.5713801515e+00   0.04269945   0.02500311 -19.84   0.00235207    2.594    0.615
        35  -8.7419    248.1473    250.1713   2.9055570615e+02   3.4070670572e+00  0.009321074   0.00774126  64.61 0.0005931365    1.334    0.250
        36  -7.3564    151.3220     95.3428   2.9070515883e+02   5.7578111787e+00  0.007106229  0.004873308 -28.11 0.0007050327    1.727    0.421
        37  -8.7256     43.8803     92.4376   2.9191762242e+02   6.4364664864e+00   0.01699161   0.01154683  -9.11  0.001684654    1.925    0.481
        38  -8.0528    109.6115     90.9387   2.9115535307e+02   6.0590667359e+00    0.0126535  0.009315937  -3.30  0.001320625    1.634    0.388
        39  -8.1440     96.3129     90.7827   2.9130668388e+02   6.1407715048e+00   0.01262644  0.008336719 -10.45 0.0009369721    2.050    0.512
        40 -10.1064     37.3750     81.1443   2.9192248881e+02   6.6044112925e+00    0.0366917   0.02102454 -11.72  0.003004079    2.947    0.661
        41  -7.9742     66.7619     84.3944   2.9160575054e+02   6.3911340047e+00   0.01184139  0.008542009  14.43  0.001263757    1.516    0.341
        42  -7.8670    127.3904     83.3808   2.9090505509e+02   6.0384172320e+00   0.01270661  0.006301476   8.80 0.0009482859    3.276    0.695
        43  -8.6539     88.0456     78.9479   2.9132823699e+02   6.3255580177e+00   0.02486278   0.01230882   4.92  0.001759199    3.838    0.739
        44  -7.3209    140.3134     79.3647   2.9073227314e+02   6.0064739580e+00  0.007179521  0.004821488 -29.54 0.0004218151    1.762    0.433
        45  -8.7327     49.3255     77.2034   2.9176117127e+02   6.5778060939e+00   0.02309505   0.01373242  -1.77  0.002021104    2.524    0.604
        46  -9.8258      7.9461     77.4239   2.9223694536e+02   6.8230204616e+00   0.01969591   0.01458029 -33.55  0.001323155    1.469    0.319
        47  -7.8211    184.3005     78.0168   2.9022066400e+02   5.7567748939e+00  0.009216156  0.008489788 -66.59 0.0005383923    1.092    0.084
        48  -7.5821    119.8099     76.3695   2.9094847563e+02   6.1640559674e+00  0.009271406  0.006296118  10.93 0.0005174153    1.705    0.414
        49  -9.5533     29.6485     68.6869   2.9193417399e+02   6.7929282642e+00   0.01878977   0.01163473 -23.35  0.001742924    2.185    0.542
        50  -8.9118     24.0062     73.5040   2.9202860376e+02   6.7717033361e+00   0.01928549   0.01003482 -42.45  0.001738483    2.084    0.520
        51  -8.7092     24.0464     69.8794   2.9200577251e+02   6.8128501097e+00   0.02355403   0.01196895  43.06  0.001771708    2.051    0.513
        52  -8.0547    107.6095     75.5799   2.9108331157e+02   6.2464413610e+00   0.01323319  0.006398882   8.68 0.0009515182    3.540    0.718
        53  -8.2900     74.9286     74.1814   2.9144906814e+02   6.4587343157e+00   0.01097799  0.009358041 -40.25 0.0003540379    1.187    0.157
        54  -7.6328    129.1867     69.1991   2.9079673861e+02   6.1894702881e+00   0.01173912  0.006446545 -24.77 0.0009456508    2.844    0.648
        55  -8.4075    105.7635     67.6131   2.9105517573e+02   6.3484742705e+00   0.01471591   0.01004507  -4.25   0.00110229    1.890    0.471
        56  -8.6489     83.7663     64.2841   2.9128660922e+02   6.5186532960e+00   0.02196418    0.0118698 -30.65  0.001861457    2.565    0.610
        57  -8.4677     15.9699     64.0530   2.9206243083e+02   6.9277032906e+00   0.01351698  0.009716831  32.97  0.001095583    1.383    0.277
        58  -8.9173     19.0045     61.4906   2.9201180993e+02   6.9388002312e+00   0.01294437  0.006738997  20.53  0.001151589    2.149    0.535
        59  -7.2994    122.5167     61.4788   2.9082533208e+02   6.3177124605e+00  0.006580731  0.006328219 -29.14 9.589514e-05    1.043    0.041
        60  -9.7674     37.1365     59.0668   2.9178890072e+02   6.8579095152e+00   0.01952653   0.01221576  -7.03  0.001787111    2.302    0.566
        61  -7.2686     96.3269     59.3231   2.9111199822e+02   6.4998123391e+00   0.00701863  0.004909085 -26.73 0.0007048685    1.690    0.408
        62  -8.2913     49.5876     58.7084   2.9164391724e+02   6.7873847695e+00   0.01195574   0.00731816  47.74  0.001066781    1.774    0.436
        63  -9.8430     62.0045     61.3788   2.9151806673e+02   6.6824392383e+00   0.04378575   0.01546266  19.79  0.002783737    4.056    0.753
        64  -7.9017    111.4142     58.0953   2.9093155550e+02   6.4231145297e+00   0.01080096  0.008851613   7.58 0.0004810895    1.319    0.242
        65  -8.5195    196.8397     55.6795   2.8993885446e+02   5.9358945712e+00   0.01040253  0.008456006 -47.38 0.0004015125    1.222    0.182
        66  -9.8352     75.0418     50.3672   2.9130053178e+02   6.7298763161e+00    0.0181932   0.01286898 -33.34 0.0003240413    1.569    0.363
        67  -7.8535     98.5755     52.7991   2.9104586648e+02   6.5607469484e+00  0.009205051  0.006398521 -79.94 0.0009382928    1.684    0.406
        68  -8.3242    118.5829     51.1628   2.9080652516e+02   6.4590908494e+00   0.01147869  0.009030653  27.89  0.000571108    1.277    0.217
        69  -9.5002     45.8538     48.5670   2.9162405478e+02   6.9255181865e+00   0.01588233   0.01226434   3.50 0.0008496641    1.467    0.318
        70  -7.7906    107.1333     48.1816   2.9091923462e+02   6.5619800393e+00  0.009939838  0.008529403 -19.98 0.0004670812    1.253    0.202
        71  -9.9814      9.7745     45.9726   2.9202187314e+02   7.1711539501e+00   0.05671945   0.02649199  19.16  0.002991437    2.574    0.612
        72  -9.0060      3.8597     39.7023   2.9205101631e+02   7.2780830619e+00   0.02318046  0.009229573 -66.78  0.001442249    2.869    0.651
        73  -9.3944      6.3955     33.9872   2.9198661867e+02   7.3281371005e+00   0.02174379   0.01694654  -5.27  0.001833101    1.481    0.325
        74  -9.4120     57.2643     41.8504   2.9145167639e+02   6.9337481492e+00   0.02003657   0.01223451 -23.41  0.001790636    2.251    0.556
        75  -7.2212     96.2988     46.3122   2.9103180945e+02   6.6484499835e+00  0.006840114  0.004912052 -28.02 0.0002943478    1.603    0.376
        76  -7.8251    114.0161     41.9212   2.9080161582e+02   6.5920003527e+00   0.01091034  0.007550127 -26.68 0.0008166438    1.722    0.419
        77  -8.5965    250.6436     41.0569   2.8923331242e+02   5.7774379646e+00  0.009568283  0.006139819 -60.41 0.0003029553    1.540    0.351
        78  -7.5296    123.7494     39.9835   2.9067811180e+02   6.5555300972e+00  0.009518361  0.007066279 -15.25 0.0005562516    1.616    0.381
        79 -10.0228     90.9991     38.3754   2.9104341977e+02   6.7708526429e+00   0.02826869   0.01348281  28.45  0.002305487    2.092    0.522
        80  -9.5692     70.0213     35.9864   2.9126912197e+02   6.9241061610e+00   0.03685044    0.0199281  -6.95  0.002734983    3.614    0.723
        81  -7.8049    106.0736     36.7568   2.9086063774e+02   6.6986895963e+00   0.01107011  0.007398428 -15.11  0.001048988    1.981    0.495
        82  -9.2745     56.6196     34.7729   2.9141529526e+02   7.0183686289e+00   0.02207944    0.0145443 -22.57  0.001257233    1.946    0.486
        83  -8.9386     61.4657     27.1781   2.9131272680e+02   7.0759381166e+00    0.0160037   0.01020584 -24.39 0.0005383795    2.036    0.509
        84  -9.3902     38.7989     35.4156   2.9162366954e+02   7.1178736719e+00   0.02154763   0.01194472  13.21  0.001851325    2.275    0.560
        85  -8.1048     18.9642     35.9467   2.9185450407e+02   7.2305897229e+00  0.009237936  0.007407593 -33.60 0.0003158074    1.317    0.241
        86  -8.9396     22.7063     35.6831   2.9180994033e+02   7.2111997470e+00   0.01082462     0.010388  59.76 0.0007322138    1.073    0.068
        87  -9.1855     21.9673     32.0632   2.9179604630e+02   7.2569265240e+00   0.01612545   0.01252592  30.04 0.0003983232    1.287    0.223
        88  -7.0929    133.6833     31.6943   2.9051296908e+02   6.5902566517e+00  0.006875403  0.004936998 -26.09 0.0007027625    1.628    0.386
        89  -8.9999      1.7904     28.4482   2.9200525005e+02   7.4188707044e+00   0.02743237  0.009171022 -61.35  0.002048324    2.942    0.660
        90  -7.1369    109.3052     30.3145   2.9078370618e+02   6.7527330713e+00  0.006878496   0.00491467 -27.62 0.0007024742    1.622    0.383
        91  -7.7967    192.1235     29.1596   2.8982832562e+02   6.2667123758e+00  0.009714482   0.00855665 -28.48 0.0003692647    1.182    0.154
        92  -9.6271    198.7543    250.1644   2.9111905004e+02   3.7043887917e+00   0.01587916  0.008895922  27.55  0.001520912    1.799    0.444
        93  -9.7922     70.0106     26.0109   2.9120750933e+02   7.0379667255e+00   0.02209266   0.01509118  23.61  0.002339856    1.508    0.337
        94  -9.1069     12.2307     93.7644   2.9228857707e+02   6.6107709594e+00   0.01188755    0.0106238 -52.01 0.0007073133    1.104    0.094
        95 -10.3426    188.5973    248.5889   2.9122525637e+02   3.7834669532e+00   0.03110751   0.01491989  12.65   0.00241062    3.072    0.674
        96  -7.8969    163.9740     22.5428   2.9010939081e+02   6.5120210257e+00   0.01490587   0.00674859 -33.04  0.001050859    3.613    0.723
        97  -7.6097    128.8544     22.6508   2.9051223165e+02   6.7224598308e+00  0.009498411  0.008132638 -39.33 0.0008928237    1.185    0.156
        98  -9.5858     41.7501     26.8368   2.9153676299e+02   7.1980629106e+00   0.01992224   0.01406057 -84.87 0.0008059336    1.716    0.417
        99  -8.9198     46.1715     20.8402   2.9144894218e+02   7.2399634539e+00   0.01588162   0.00923892 -48.63 0.0008164325    1.702    0.412
       100  -8.8400     92.7031     20.4049   2.9091260797e+02   6.9655838525e+00   0.01549221   0.01034532 -33.16  0.001386404    1.709    0.415
       101  -8.2953    140.2879     19.9620   2.9036459686e+02   6.6842415427e+00    0.0106135  0.009319605  24.29 0.0003765299    1.150    0.130
       102  -8.7398      9.4139     19.7570   2.9186404369e+02   7.4724344507e+00   0.01814057    0.0129432 -10.72  0.001158489    1.746    0.427
       103  -8.4680      4.8660     18.8710   2.9191076827e+02   7.5097393747e+00   0.01219686  0.009604644  46.52 0.0009539485    1.317    0.241
       104  -7.8187    111.9455     19.2698   2.9068501801e+02   6.8627989590e+00  0.008834659  0.008452581 -18.51 0.0003022204    1.059    0.056
       105  -7.9731    102.4173     17.7943   2.9078507991e+02   6.9369431082e+00  0.009830961  0.005657732 -48.58 0.0009435121    1.722    0.419
       106  -9.1950     70.0913    244.6705   2.9255471415e+02   4.5397052130e+00   0.01235003   0.00957879 -54.45 0.0004074076    1.264    0.209
       107  -7.6293    117.8200     24.4105   2.9064955880e+02   6.7688269802e+00  0.008939393  0.006398608  10.60 0.0005210204    1.581    0.367
       108  -8.4006    179.4814    239.5106   2.9127338542e+02   3.9419585791e+00  0.006490046  0.006427426  76.75 1.351275e-05    1.027    0.026
       109  -9.2660    188.0536    234.2968   2.9114339978e+02   3.9499424269e+00   0.01313784  0.009986078 -76.69  0.001443612    1.439    0.305
       110  -7.8851      4.8988    234.2853   2.9323624507e+02   5.0484797591e+00  0.008926868  0.008040292   9.93 0.0004100364    1.149    0.130
       111  -8.6252    121.4941     15.0030   2.9054915229e+02   6.8539743912e+00   0.01391336  0.007446999 -19.99  0.001036321    3.434    0.709
       112  -7.2941    136.6442    230.2772   2.9170573581e+02   4.3048990920e+00  0.006920769  0.004867362  58.24 0.0006875732    1.653    0.395
       113  -8.5876     47.7567    223.7466   2.9268155339e+02   4.9126411999e+00   0.01095963  0.009273041 -30.04  0.000577532    1.245    0.197
       114  -7.6219      9.7939     12.3967   2.9181417891e+02   7.5541126037e+00  0.009254373  0.006357734  10.15 0.0009422631    1.683    0.406
       115  -7.1876     44.6666    210.7457   2.9263704392e+02   5.0797576433e+00   0.00663299  0.004980244 -19.51  0.000213224    1.563    0.360
       116  -7.7128     29.3210     11.3082   2.9158331845e+02   7.4496490617e+00  0.006906176  0.004924476 -26.11 0.0007034126    1.642    0.391
       117  -7.1618     66.3006    200.3330   2.9232560351e+02   5.0691960051e+00  0.006966616  0.004877492 -29.29 0.0007033745    1.652    0.395
       118  -8.4395    190.0851    189.8151   2.9084584682e+02   4.4456859548e+00   0.01071853   0.00938211 -73.92 0.0004801945    1.182    0.154
       119  -7.7906    190.4564    175.4494   2.9075291052e+02   4.6074938088e+00  0.006500062  0.006368396 -30.59  0.000129887    1.016    0.016
       120  -7.3580    144.6932    150.6652   2.9112290989e+02   5.1660051280e+00  0.007003398  0.004883701 -28.79 0.0007040833    1.671    0.401
       121  -9.1809     67.2274    144.7318   2.9197269117e+02   5.6990941272e+00   0.02233399   0.01448838  54.51  0.002051829    1.790    0.441
       122  -8.8251    134.2343    137.5368   2.9116146447e+02   5.3788662958e+00   0.01187954   0.01084782 -42.67 0.0002946272    1.092    0.084
       123  -7.6013    135.3268    123.6583   2.9106323590e+02   5.5307967293e+00  0.007039876  0.004962456  64.59  0.000705126    1.737    0.424
       124 -10.2729    244.8385    116.9176   2.8976989301e+02   4.9476142132e+00   0.01888265   0.01375142 -47.37 0.0005009099    1.367    0.268
       125  -7.5160     39.2244    110.0151   2.9207939956e+02   6.2635750899e+00  0.008924759  0.005355306 -61.10 0.0008716782    1.649    0.394
       126  -8.4874      2.4184    109.5524   2.9249833033e+02   6.4890757444e+00   0.01608267  0.009072745 -27.99  0.001389013    2.478    0.597
       127  -7.8941    249.6452    107.6945   2.8965789777e+02   5.0237888552e+00  0.007025426  0.004940388 -23.85 0.0003224988    1.716    0.417
       128  -8.1059    133.8037    106.5304   2.9097480613e+02   5.7355429472e+00   0.01301862  0.009931533 -28.27  0.001282497    1.459    0.315
       129  -7.4535    123.7988    107.3825   2.9109457754e+02   5.7860001293e+00  0.009204588  0.006323184  10.00 0.0005058427    1.690    0.408
       130  -7.8203    108.9775    106.9152   2.9126134978e+02   5.8804476507e+00   0.01114089  0.007614576 -26.29  0.001122495    1.764    0.433
       131  -7.2840     75.7390    107.3202   2.9164446910e+02   6.0754453512e+00  0.006568596  0.005030575  70.08 0.0001534334    1.549    0.354
       132  -7.6275     32.5216    107.5392   2.9214093782e+02   6.3319985897e+00  0.006473434  0.006415098  70.47 9.130127e-05    1.027    0.026
       133  -9.1550     14.6908    105.0036   2.9232965077e+02   6.4676683399e+00   0.01838689   0.01052574 -21.30  0.001547499    2.699    0.630
       134  -7.4365    190.4181    104.4899   2.9031463163e+02   5.4178065577e+00  0.006482957   0.00635312 -54.18 0.0002208477    1.014    0.014
       135  -8.1543     69.0331    104.4760   2.9170372423e+02   6.1481675648e+00   0.01591002  0.006765536  12.37 0.0009731851    4.332    0.769
       136  -7.7131     94.4718    103.4893   2.9140627451e+02   6.0067312906e+00    0.0119707    0.0065979  11.71  0.001037508    2.377    0.579
       137  -8.8813    248.5004     97.5115   2.8960787709e+02   5.1468425139e+00   0.01360839   0.00677581  21.27  0.001180494    2.255    0.557
       138  -7.6401    129.3752     97.4114   2.9096911000e+02   5.8663043632e+00   0.01245795  0.006338644   7.96 0.0009504599    3.144    0.682
