#   1 NUMBER                 Running object number                                     
#   2 MAG_AUTO               Kron-like elliptical aperture magnitude                    [mag]
#   3 X_IMAGE                Object position along x                                    [pixel]
#   4 Y_IMAGE                Object position along y                                    [pixel]
#   5 X_WORLD                Barycenter position along world x axis                     [deg]
#   6 Y_WORLD                Barycenter position along world y axis                     [deg]
#   7 A_WORLD                Profile RMS along major axis (world units)                 [deg]
#   8 B_WORLD                Profile RMS along minor axis (world units)                 [deg]
#   9 THETA_WORLD            Position angle (CCW/world-x)                               [deg]
#  10 FWHM_WORLD             FWHM assuming a gaussian core                              [deg]
#  11 ELONGATION             A_IMAGE/B_IMAGE                                           
#  12 ELLIPTICITY            1 - B_IMAGE/A_IMAGE                                       
         1 -11.0119     31.5465     65.1113   9.6495338295e+01   6.1088015957e+01     1.883024     0.635399 -32.79  0.005726147    5.205    0.808
         2  -9.9187     10.3295     18.7699   8.9872660752e+01   7.1634815300e+01    0.6952873    0.2960961 -14.86  0.002844956    3.994    0.750
         3 -10.1812      4.5421     42.2126   1.0174400028e+02   6.7847365310e+01    0.7286094    0.3050259 -58.74   0.00249123    2.087    0.521
         4  -9.9933     26.1181     24.4793   8.4104995732e+01   6.9193461660e+01    0.9959886    0.3824981 -26.71  0.003981807    3.524    0.716
         5 -10.4897     72.9812     17.5764   6.1342870703e+01   6.2918034478e+01     1.473713    0.3880721 -24.95  0.004943409    4.577    0.782
         6  -9.5312     77.8877      4.5961   5.3975443720e+01   6.3217683340e+01    0.5005375     0.295147 -15.66     0.001539    1.800    0.444
         7 -10.2565     69.4813     39.8037   7.2122099000e+01   6.0610550380e+01     1.074067    0.3830189 -35.26  0.003252285    2.779    0.640
         8  -9.9544    130.5720     46.3582   5.6878860573e+01   4.6744217778e+01     1.109323    0.4365632 -20.17  0.002443729    4.693    0.787
         9  -9.5872     63.1626     21.0440   6.6337388515e+01   6.4318965181e+01    0.4627489    0.2725414 -45.76   0.00163823    2.334    0.571
        10 -10.0367     64.2910     12.5025   6.1956355747e+01   6.5093430685e+01    0.4240291    0.3069899 -41.51  0.001223571    1.771    0.435
        11  -9.2303     47.1261     19.4562   7.1961839215e+01   6.7153909897e+01    0.5323946    0.2568975 -14.94  0.002353313    2.838    0.648
        12  -9.8948     52.9426     13.6145   6.6732051048e+01   6.6948429139e+01    0.4571347    0.2779868  29.61  0.001692428    1.503    0.335
        13 -10.1757     46.2437     29.3963   7.6925618734e+01   6.5886908970e+01    0.4900101    0.3012516 -43.30  0.001410255    1.795    0.443
        14 -10.0935    154.5349     26.4564   4.5842523509e+01   4.3430676029e+01      0.48362    0.3923907   7.17  0.002712222    1.529    0.346
        15  -9.7644     91.5518     24.7108   5.8723561680e+01   5.8370184425e+01    0.6622484    0.3070943 -27.11  0.001945987    2.259    0.557
        16  -9.1663    128.6536     24.9482   4.9962723032e+01   4.9920326235e+01    0.5130065    0.2925509 -15.96  0.001824698    2.137    0.532
        17  -9.3091    102.9309     21.6731   5.4483282079e+01   5.6243499683e+01    0.5026767    0.2315503 -24.13  0.001141048    2.362    0.577
        18  -8.6177    104.8620     14.2747   5.1134855474e+01   5.6563226034e+01    0.4301546    0.2308678   4.71  0.001882154    2.728    0.633
        19  -9.4281    118.8911     21.3474   5.0692789089e+01   5.2625070599e+01    0.2943048    0.2648128 -36.82 0.0006333853    1.227    0.185
        20  -9.1019    111.4561     21.3234   5.2318885091e+01   5.4353098614e+01    0.3986765    0.2200345  -7.61  0.001794914    2.415    0.586
        21  -8.7120    112.2019     15.4067   4.9932797100e+01   5.4780749995e+01    0.3624504    0.1935366 -43.05  0.001332326    2.226    0.551
        22  -9.1187    110.3555      8.1451   4.7585415000e+01   5.5864838419e+01    0.3364525    0.1886402 -17.45  0.001651468    2.021    0.505
        23  -9.0732    110.5711      3.8522   4.5920575506e+01   5.6166147318e+01    0.3074223    0.2470728 -55.91  0.001535304    1.500    0.334
        24 -10.7575     37.3144      9.5246   7.1352328196e+01   6.9843307835e+01    0.8729979     0.348063 -34.58  0.003199609    2.471    0.595
        25  -9.3731     30.3444     11.2387   7.5569747244e+01   7.0582317291e+01    0.4180832    0.3656475  82.80  0.002371967    2.519    0.603
        26  -9.4416     24.6153     11.2232   7.8460653791e+01   7.1296253791e+01    0.4138385    0.2618646   9.05   0.00239727    1.497    0.332
        27  -9.0490     19.5447      8.9652   7.9971408740e+01   7.2183681282e+01    0.4286341    0.2429596  -3.82  0.001663083    1.896    0.473
        28  -9.7833     18.1807      3.8316   7.7940573923e+01   7.3006646182e+01    0.3350342    0.3204046  38.02  0.001500122    1.842    0.457
        29  -8.6495    155.4271     17.2160   4.2883972479e+01   4.4205126885e+01    0.3026893   0.09347282 -36.47  0.001146895    3.094    0.677
        30  -9.7810    132.9390     16.0374   4.6108318951e+01   4.9815239479e+01    0.4932268     0.262201  -5.86  0.001888327    2.718    0.632
        31  -8.3430    132.7557     10.0409   4.4116061302e+01   5.0418284864e+01     0.203596    0.1681762 -71.62  0.001153685    1.334    0.250
        32  -8.9150     96.3451     12.9809   5.2658334028e+01   5.8577040325e+01    0.3431644    0.1766983  18.52  0.001468452    2.764    0.638
        33  -8.6182    120.8601      6.0883   4.4807363842e+01   5.3590920456e+01    0.3468332    0.1991185  79.53  0.001067491    1.941    0.485
        34  -9.0336    125.7327      4.7747   4.3494223161e+01   5.2545053395e+01     0.300724    0.2171607  16.77  0.001000748    1.622    0.383
        35  -8.7487    125.1721     12.8986   4.6430880669e+01   5.1975185548e+01    0.2835812    0.2167238 -68.90 0.0005627117    1.559    0.359
        36  -8.5866    126.0484      9.1822   4.4972969033e+01   5.2100148520e+01    0.3240232    0.1779791  50.93 0.0008399293    1.601    0.375
        37  -9.5935      2.3632     14.3733   9.2452466967e+01   7.2962289809e+01    0.5749854    0.2083589 -55.53  0.002511351    3.779    0.735
        38 -10.1535      6.3013      5.4161   8.5688362027e+01   7.3999513106e+01    0.4770214    0.2429301   7.88 0.0008702409    2.106    0.525
        39  -9.5134      3.8624      1.4330   8.5032139946e+01   7.4768857432e+01     0.467258    0.1518494  27.58   0.00236944    3.094    0.677
        40  -9.5657     85.2682     12.9898   5.5588678323e+01   6.0938641335e+01    0.4053199    0.2620862 -53.35  0.001466734    2.329    0.571
        41  -8.3185     84.9261      6.4057   5.2837537341e+01   6.1613240393e+01    0.4019389    0.2439926  -4.62  0.002180163    1.849    0.459
        42  -8.6045     89.0641      2.6821   5.0176475267e+01   6.1042503253e+01    0.3500802    0.2797461 -48.63  0.001588138    1.598    0.374
        43  -8.3487    141.4674     12.3151   4.3456598686e+01   4.8101546519e+01    0.2289916    0.1357252 -16.26 0.0006734023    2.032    0.508
        44  -7.7375     80.5034     12.5584   5.6769095310e+01   6.1958823070e+01    0.2146734    0.1045875 -36.34  0.001026504    2.337    0.572
        45  -8.9708    114.3168      9.9277   4.7449287604e+01   5.4795814099e+01    0.3134991    0.1706776  44.87 0.0003354195    1.673    0.402
        46  -8.9125    115.3787      4.5653   4.5263823957e+01   5.4997641362e+01    0.3369998    0.2001255 -46.29 0.0006335044    2.044    0.511
        47  -8.6650    137.7953      9.3333   4.3063932547e+01   4.9264202925e+01     0.170969    0.1636943 -72.04  0.000575411    1.129    0.114
        48  -8.8283    102.1038      8.4210   4.9465229382e+01   5.7713931294e+01    0.2730595    0.2117344 -40.40 0.0006236362    1.511    0.338
        49  -8.5591    104.3197      2.3620   4.6606700898e+01   5.7706562564e+01    0.3566006    0.1797856  29.18  0.001675721    2.289    0.563
        50  -8.6489     97.8188      6.1031   4.9512787424e+01   5.8862688896e+01    0.2763452    0.1832184  23.86 0.0007127957    1.573    0.364
        51  -8.5908     95.9773      2.9984   4.8671435376e+01   5.9517735406e+01      0.25483     0.191367  36.48 0.0007869754    1.188    0.158
        52  -9.7178    132.2234      5.0234   4.2515787446e+01   5.0974930350e+01    0.4384637    0.1777644  47.19  0.001898555    2.324    0.570
        53  -7.1510    193.6676      5.6904   3.5248338646e+01   3.6079388225e+01    0.1246407   0.08890521  46.88 0.0006393066    1.671    0.402
        54  -8.6254    142.9776      4.9556   4.0873639289e+01   4.8385377211e+01    0.2069224    0.1391362 -66.81 0.0006602541    1.697    0.411
        55  -9.9703     63.0679      3.0641   5.7830981495e+01   6.6234364185e+01    0.3996598    0.2974627  52.47  0.001646607    1.413    0.292
        56  -7.9773    150.8374      1.8162   3.8837370017e+01   4.6737885277e+01     0.176196    0.1385334 -76.09 0.0008218198    1.284    0.221
        57  -7.9504    158.0083    121.9593   7.2867654983e+01   2.6239826581e+01     0.252559    0.1926766 -78.63  0.001019973    1.719    0.418
        58  -8.5635    237.4503    250.7067   8.2801802247e+01  -1.0453640240e+01    0.1779051    0.0849913  31.47 0.0005217107    1.825    0.452
        59 -10.1920    201.0168    249.8282   8.9172248540e+01  -5.4114667733e+00    0.4260131    0.1815464  34.40  0.002138588    1.998    0.499
        60  -9.0042     99.5497    119.0045   8.7469087962e+01   3.9059539142e+01    0.5284213    0.3814177  -6.89  0.002274033    2.070    0.517
        61 -10.2821     92.0815    113.0473   8.8199882939e+01   4.1824147974e+01    0.6290632    0.5084803  85.79   0.00157278    1.523    0.343
        62  -8.5899      1.6195    116.7758   1.1739543261e+02   5.1314493990e+01    0.3496983    0.1378324 -84.04  0.001381487    2.579    0.612
        63 -10.2330     78.2434    113.0162   9.2454355582e+01   4.4147764763e+01    0.5664951     0.357609 -79.61  0.001797695    2.303    0.566
        64  -9.8585     81.1051    100.1366   8.8262807111e+01   4.6738965884e+01     0.992162    0.4221163 -45.54  0.002283659    2.217    0.549
        65 -10.0785    108.6281    114.4716   8.3694093535e+01   3.8410383009e+01    0.6958011    0.4505301 -82.66   0.00151102    2.719    0.632
        66  -8.5573    152.9722    115.5280   7.2380987541e+01   2.8737548660e+01     0.234799    0.1564476  47.99 0.0003876391    1.542    0.351
        67  -7.5173    167.5400    113.8170   6.8624122518e+01   2.5798135939e+01    0.2161485    0.1432853 -53.43 0.0003660618    1.587    0.370
        68 -10.6615     65.7432    108.5410   9.5377715333e+01   4.7103773962e+01     1.890192    0.5932823 -57.99  0.006255489    3.042    0.671
        69  -9.0395     58.9894    109.4556   9.7793031196e+01   4.7803367726e+01    0.4646599    0.2249143 -66.48  0.001338046    2.250    0.555
        70 -10.3516     62.8879     95.6553   9.3138562250e+01   5.0568015284e+01    0.6924841    0.4023454 -72.55  0.001621586    2.423    0.587
        71  -8.7523     64.2609     86.3006   9.0117650086e+01   5.2511472723e+01    0.5431896    0.3122039 -16.21  0.002072127    3.048    0.672
        72  -9.7974     14.1579    111.1275   1.1275544603e+02   5.1877583713e+01    0.4769827    0.2424954  86.24  0.002015642    2.525    0.604
        73  -8.8883     14.7660    104.8153   1.1157970224e+02   5.3358718781e+01    0.2881165    0.1568207 -33.38  0.001298946    2.136    0.532
        74  -8.9749    158.6756    111.0846   6.9885260155e+01   2.8381156055e+01    0.4959042    0.1776384 -42.84  0.001314869    2.700    0.630
        75  -9.7605    127.5904    102.4829   7.5192755480e+01   3.7182657637e+01    0.5459695    0.3234702 -46.10 0.0008543431    1.654    0.395
        76  -9.3157     36.0224    110.8204   1.0561860717e+02   5.0109734258e+01     0.199249    0.1685867  82.23 0.0006682883    1.281    0.219
        77 -10.8347     44.4947    102.2557   1.0103884544e+02   5.1304935127e+01    0.8913997    0.4990292  65.54  0.002875113    3.170    0.684
        78  -7.8558     40.3327    107.0893   1.0346395481e+02   5.0582893943e+01    0.1931431    0.1153633 -73.07 0.0004602651    1.708    0.414
        79 -10.9262     20.8657    100.7066   1.0882771022e+02   5.3896430625e+01     1.150726    0.5712643  85.37  0.004158122    3.529    0.717
        80 -10.0294     19.8586     85.4451   1.0621319431e+02   5.7569169400e+01    0.8455701    0.1902893 -55.57  0.003169964    2.897    0.655
        81  -9.4514     43.9795     54.1959   8.7762646445e+01   6.1924634960e+01    0.3196867    0.2363661 -48.48  0.001097927    1.348    0.258
        82 -10.5957     25.8037     78.0691   1.0227551733e+02   5.8777631638e+01    0.8381529    0.5097777 -86.93  0.003947691    2.544    0.607
        83 -10.2639    169.5753    249.8823   9.5120998551e+01  -7.7873257463e-01    0.4105478    0.2041374  27.55  0.002037311    1.999    0.500
        84  -9.9404     34.4606     90.5011   1.0194512992e+02   5.5137848858e+01    0.5704871    0.2960021 -79.06  0.002078496    2.862    0.651
        85 -10.0575     36.8163     81.1868   9.8814030117e+01   5.7046961121e+01    0.8327403    0.4025224 -20.08  0.003066283    3.794    0.736
        86  -9.3770      6.4000    103.7407   1.1417070682e+02   5.4157081545e+01    0.3965114     0.237019  82.13  0.001427389    1.929    0.481
        87  -8.5033    165.9359    103.6964   6.6296852024e+01   2.8213399113e+01    0.3047269    0.2127621 -49.87 0.0006699393    1.432    0.301
        88 -10.1986    149.4426    101.9722   6.9560797379e+01   3.2381999726e+01    0.8079458    0.3179828 -40.72  0.001957478    2.505    0.601
        89  -8.8552    150.6147     89.1463   6.5660266285e+01   3.4670817106e+01    0.2809233    0.2565449 -40.87 0.0005342921    1.082    0.076
        90  -9.5015    245.5865    103.0292   5.2374168946e+01   1.0977353737e+01    0.3678302    0.2000667  56.09  0.001691923    2.146    0.534
        91  -8.6128     73.9656    102.8069   9.1282379899e+01   4.7257771845e+01    0.2578728    0.1929916 -51.72 0.0005599389    1.229    0.186
        92  -8.8946    159.0385    101.0951   6.7109212969e+01   3.0338037057e+01    0.3740768    0.2079611 -44.44  0.001101079    1.754    0.430
        93  -9.4010     94.3444     97.3267   8.3297120286e+01   4.5059051429e+01    0.3566919    0.2869753 -65.11 0.0006707648    1.371    0.271
        94 -10.4527     98.3090     87.3767   7.9154202778e+01   4.6485516205e+01    0.6530507    0.3646423 -22.97  0.002333583    2.898    0.655
        95  -9.7741    240.3432     96.2092   5.1553278866e+01   1.3125644461e+01    0.3725851    0.2705842  17.58  0.001369406    2.126    0.530
        96  -8.8028    164.4568     94.1946   6.4023356247e+01   3.0423850376e+01    0.3796291    0.2211434 -36.91  0.001574937    1.714    0.416
        97  -9.2384    138.8416     92.9220   6.9563970197e+01   3.6664534873e+01    0.4235824    0.3425905 -83.95  0.001287397    1.531    0.347
        98  -8.0442    139.1529     87.6177   6.7933413685e+01   3.7649389200e+01    0.3003032    0.2112583  31.98 0.0008347478    1.656    0.396
        99  -8.7522    157.7567     91.6997   6.4780965770e+01   3.2489748134e+01    0.3184907    0.1975851 -48.55 0.0008595365    1.632    0.387
       100  -9.6721    110.3646     90.3692   7.6456887146e+01   4.3435281320e+01    0.8385121     0.341615  33.94  0.002623579    3.449    0.710
       101  -9.5300      6.2709     78.3815   1.0991686504e+02   6.0075279492e+01    0.6343016    0.2484682 -30.59  0.002727415    3.140    0.681
       102 -10.4450     54.8123     70.7689   8.8946270393e+01   5.7198532065e+01    0.5749205    0.3810652  52.17   0.00125698    2.078    0.519
       103  -9.7212     54.9873     63.5156   8.6524401426e+01   5.8659106349e+01     0.421063    0.2636741  -2.48  0.001785124    2.210    0.548
       104 -10.0646     62.3968     60.7934   8.2744351633e+01   5.8118752351e+01     0.663693    0.2548603  34.11  0.001003262    2.811    0.644
       105 -10.2506     47.9534     84.3500   9.5468733523e+01   5.5101534057e+01    0.6437251    0.3996099 -66.41  0.002056294    1.784    0.439
       106  -9.4739     48.5754     77.3559   9.3299748143e+01   5.6585907254e+01    0.5686315    0.3569545  -8.43  0.002655798    2.185    0.542
       107 -10.1905     85.3518     86.6047   8.3031930727e+01   4.9052263494e+01    0.5238571    0.3941056  68.60 0.0008876395    1.847    0.458
       108  -9.6700     87.4199     78.9432   7.9991833234e+01   5.0303286377e+01    0.6904581    0.3879176  21.82  0.001963284    2.605    0.616
       109  -8.7536    195.3161     86.7405   5.6101655392e+01   2.4519280533e+01    0.3471533    0.2361471 -38.22  0.001046943    1.400    0.286
       110  -8.3478    163.3395     86.4956   6.2107563622e+01   3.2148137068e+01    0.3791106    0.2118347 -29.16   0.00149281    2.065    0.516
       111 -10.0929      4.1810     89.2232   1.1265583576e+02   5.7702127681e+01    0.5958202    0.2801823 -87.13  0.002309914    2.733    0.634
       112 -10.2732    103.8850     82.5053   7.5960509147e+01   4.6395819363e+01    0.5530856    0.2991081 -50.89 0.0009637058    1.983    0.496
       113  -9.6526    105.2881     71.4255   7.1979556581e+01   4.8287211449e+01    0.6574283    0.3984033 -23.95  0.002772402    2.033    0.508
       114  -8.8888    157.7112     82.9118   6.2281611664e+01   3.4160442889e+01    0.4365556    0.2238904 -32.65  0.001586645    2.106    0.525
       115  -8.9014    157.0533     76.2344   6.0478399303e+01   3.5527143743e+01    0.3665513    0.2071342 -44.03 0.0007585716    1.758    0.431
       116  -9.3449    140.4259     82.0664   6.5969189276e+01   3.8424198513e+01    0.6273699    0.3508143 -32.05  0.001267963    1.950    0.487
       117  -8.7702    139.9415     75.1428   6.3981126918e+01   3.9822698946e+01    0.4374334    0.1956098 -44.56  0.001207069    2.286    0.563
       118  -7.3976    170.6860     83.3717   5.9730701028e+01   3.0959034040e+01    0.1637633     0.114622 -69.59 0.0007034041    1.783    0.439
       119  -8.7188    150.0004     80.4182   6.3250196952e+01   3.6466136671e+01    0.4808438    0.2125294 -38.74  0.001333512    2.236    0.553
       120  -8.7321    118.9352     80.6406   7.1057854031e+01   4.3589019881e+01    0.3146226    0.2308675 -56.73 0.0006107389    1.533    0.348
       121  -8.4253    120.2131     75.8679   6.9205008802e+01   4.4226040714e+01    0.2904093    0.2405241  25.28 0.0005782211    1.307    0.235
       122  -8.9963     74.3002     80.3253   8.4838735416e+01   5.2277828630e+01    0.3879678     0.263495 -69.85  0.001069569    2.094    0.522
       123  -8.3482     74.5331     75.0031   8.3087807393e+01   5.3358481739e+01    0.3228969    0.2300007  -6.64  0.001031001    1.771    0.435
       124  -8.4132     68.8628     79.5100   8.6491224707e+01   5.3313651367e+01    0.3038141    0.1594129 -36.94  0.001299424    1.945    0.486
       125  -8.1489    174.5291     78.3595   5.7588933322e+01   3.0923276702e+01    0.2790388     0.138026 -41.77 0.0007739395    1.941    0.485
       126  -7.7157    166.3020     78.9420   5.9356233462e+01   3.2809047446e+01    0.2140017    0.1872213 -45.15 0.0009292456    1.120    0.107
       127  -8.0204    184.1069     78.0190   5.5741618568e+01   2.8678949587e+01    0.2263474    0.2098558 -59.16 0.0005790204    1.022    0.021
       128  -8.7688    130.4804     64.5169   6.2907353320e+01   4.3919050036e+01    0.6585067    0.2796683 -51.87  0.002142092    3.380    0.704
       129  -9.4121    127.4081     75.2122   6.7098964695e+01   4.2726586869e+01    0.3940153    0.2726728 -55.57 0.0008094949    1.651    0.394
       130  -8.3349    128.9590     69.5084   6.4892026018e+01   4.3405842437e+01    0.4433604    0.2744897  14.43   0.00161191    2.974    0.664
       131  -9.7839     81.6608     72.5247   7.9832699531e+01   5.2644513562e+01    0.4128774    0.3233147 -76.98  0.001032859    1.845    0.458
       132  -9.2524     83.3931     64.7020   7.6603676187e+01   5.3853692410e+01    0.5795941    0.4008627  -1.73  0.002345116    1.910    0.477
       133  -8.3015    162.7738     72.9972   5.8354669668e+01   3.4704590791e+01     0.274082    0.1936237 -56.86 0.0008729199    1.531    0.347
       134 -10.3386     16.6521     66.1790   1.0300304974e+02   6.2120129615e+01     1.298465    0.1359966 -55.87  0.004151187    4.279    0.766
       135 -10.8953     21.7257     53.3684   9.7167201203e+01   6.4402014618e+01    0.7800325    0.5070753 -86.42    0.0029343    3.095    0.677
       136  -8.7388    181.4556    248.4635   9.2641684979e+01  -2.3559008076e+00     0.122611    0.1001537  22.43 0.0001015177    1.009    0.009
       137 -10.2106     13.0000     45.5450   9.8713259714e+01   6.6639546011e+01    0.7761549    0.3504321 -21.81  0.003403498    2.763    0.638
       138  -8.9142     92.9996    103.4036   8.5395862881e+01   4.3921128437e+01    0.6388207    0.3858118  23.59  0.002624557    2.185    0.542
       139 -10.6026     23.4925     33.9914   8.9454900134e+01   6.7890561516e+01    0.5328298    0.3851619  -4.46  0.002477406    1.305    0.233
       140 -10.1448    191.3240    245.5134   9.0329709484e+01  -3.3975607341e+00    0.2852418    0.1932129  50.17   0.00165992    1.817    0.450
       141  -9.5076      6.8946     32.5134   9.7304233609e+01   6.9532882783e+01    0.2497057    0.1885599 -11.60 0.0007465057    1.231    0.188
       142 -10.0536      7.4290     28.2607   9.5428812864e+01   7.0259462242e+01    0.2743397    0.2644992  26.52 0.0009940326    1.504    0.335
       143  -7.6620    175.4827     72.5004   5.5776429911e+01   3.1696899449e+01    0.1508492    0.1388891 -71.16 0.0001488205    1.056    0.053
       144  -8.0183    169.4612     71.0465   5.6487972836e+01   3.3406954586e+01    0.2233844    0.1420592 -40.27 0.0004807893    1.538    0.350
       145  -9.6527    146.9860     69.3327   6.0586302180e+01   3.9165934161e+01    0.4762585    0.2711737 -51.21 0.0009801094    1.967    0.492
       146  -9.7958    146.5107     58.9885   5.7489120028e+01   4.0990453075e+01     1.021083    0.3299982 -27.69  0.002871266    4.557    0.781
       147  -8.4823    156.7028     69.6548   5.8607777085e+01   3.6754484309e+01    0.3513682    0.1770514 -36.07  0.001403969    1.994    0.498
       148  -9.6791     94.7997     68.2989   7.4127859841e+01   5.1007068007e+01    0.4189319     0.253033 -48.26 0.0008214689    1.757    0.431
       149  -9.1809     97.3394     58.6417   6.9989223489e+01   5.2242708967e+01    0.8043694    0.5297815 -24.11   0.00363661    1.656    0.396
       150  -9.5837    109.8400     63.9124   6.8143156926e+01   4.8689703983e+01    0.4682211    0.2754334 -49.27 0.0007549023    1.918    0.479
       151  -8.6879    110.9162     58.1139   6.5851820970e+01   4.9448536359e+01    0.3346692    0.2662711  12.81 0.0009433407    1.421    0.296
       152  -8.9739    138.0604     66.2805   6.1662259751e+01   4.1828316714e+01    0.3211505    0.2398032 -62.18 0.0005036134    1.578    0.366
       153  -8.4798    139.2215     62.1816   6.0096344056e+01   4.2236994258e+01    0.3293651    0.2151344  18.67  0.001329511    2.341    0.573
       154  -9.0440    121.2059     66.0141   6.5747864115e+01   4.5799102228e+01    0.3415247    0.2510481 -58.07 0.0008381041    1.613    0.380
       155  -8.5737    121.9106     61.1959   6.3965578036e+01   4.6464823947e+01     0.380208    0.2226561  34.68  0.001340395    1.983    0.496
       156  -9.0057    115.2321     72.2534   6.9405519877e+01   4.6003807115e+01    0.5531018    0.2518207 -35.54  0.001709936    2.291    0.563
       157  -7.9384    170.5456     64.9258   5.4535805115e+01   3.4150213378e+01    0.2206049    0.1425068 -36.89 0.0004713523    1.542    0.351
       158  -8.3929    157.6284     63.0664   5.6453430094e+01   3.7619726522e+01    0.2810167    0.2110143 -55.21 0.0006269452    1.403    0.287
       159  -8.5180    164.4734     60.7958   5.4460174105e+01   3.6299953086e+01    0.4195669    0.1516261 -31.13  0.001405159    3.076    0.675
       160  -9.3855     49.7456     60.6454   8.7627903562e+01   5.9934034476e+01    0.3386315    0.1542923 -44.33  0.001525487    1.941    0.485
       161  -8.5986     10.4276     60.8563   1.0428341375e+02   6.3683154381e+01     0.300914    0.2257155  87.04  0.001835464    1.842    0.457
       162 -10.1565     74.2265     56.1338   7.6721713071e+01   5.7060937021e+01     1.269043    0.5399548 -28.91  0.004535777    3.170    0.684
       163  -8.7380     87.6212     58.4772   7.3002606118e+01   5.4197558700e+01    0.3146579    0.2196367 -51.45 0.0008066475    1.662    0.398
       164 -10.4665     85.5728     48.6667   7.0050229749e+01   5.6250624203e+01    0.6450905    0.4298581 -61.70  0.001488607    2.428    0.588
       165 -10.4089     90.4031     37.9709   6.4382238240e+01   5.6904269792e+01      1.19037    0.3832416  37.13  0.003664818    4.311    0.768
       166 -10.0930    155.3076    245.9376   9.7350735800e+01   2.0183354782e+00    0.2860253    0.1822166  19.36   0.00127845    1.779    0.438
       167  -8.3523     97.0045    245.0234   1.0880730989e+02   1.1050901632e+01    0.1833231    0.1519678  51.63  0.001224487    1.043    0.041
       168  -8.4100    208.3893    240.2404   8.6316315270e+01  -5.1501158657e+00    0.1972537    0.1383229  27.35 0.0002848243    1.222    0.182
       169  -9.8312     76.1902     32.1558   6.6595504868e+01   6.0503297036e+01    0.4445561    0.3421162  68.72  0.001058215    1.884    0.469
       170  -9.8238     79.2576     23.9958   6.2125121498e+01   6.0959373972e+01    0.5292696    0.2741978  27.18  0.001939736    2.299    0.565
       171  -8.8522     84.7903     21.5011   5.9356772118e+01   6.0141201847e+01    0.2396932    0.2125911   9.17 0.0006034456    1.071    0.066
       172  -7.2749    152.5090     60.5138   5.6712663380e+01   3.9283576495e+01    0.1469393    0.1412422  89.67 0.0001063353    1.022    0.022
       173  -9.0069    138.8980     56.7210   5.8423385019e+01   4.3192004700e+01    0.3741168    0.2388954 -54.88 0.0005252105    1.851    0.460
       174  -7.9690    139.1606     51.6457   5.6727474013e+01   4.3906053864e+01    0.2720911    0.2276561 -39.42  0.001456473    1.231    0.188
       175  -9.0617    130.0046     57.9796   6.0886323190e+01   4.5112302921e+01    0.2738251    0.2078231 -46.02 0.0004879356    1.382    0.276
       176  -9.3026    118.1636     55.5866   6.3035435425e+01   4.8240344511e+01    0.3403213    0.2784292 -84.54 0.0007894624    1.571    0.363
       177  -9.0391    121.1537     46.9167   5.9283669262e+01   4.8881254489e+01    0.2531352    0.2500491 -11.53 0.0004459271    1.060    0.056
       178 -10.2445     49.9576     54.0099   8.5225668476e+01   6.1189926466e+01    0.6282173    0.3448299 -55.08  0.002160777    2.170    0.539
       179  -9.5511     56.4158     42.9742   7.8408485151e+01   6.2234141091e+01    0.7445133    0.4007113   2.19  0.002757722    3.817    0.738
       180  -7.5429    169.3126     55.6872   5.2095308008e+01   3.5894560858e+01    0.1516166    0.1072656 -69.87 0.0002901654    1.634    0.388
       181  -7.9615    157.5354     55.5493   5.4209685103e+01   3.8821157335e+01    0.1448045    0.1382501  85.48 0.0001390096    1.008    0.008
       182  -9.0319    162.5432     53.0774   5.2535605702e+01   3.7956108376e+01    0.3845575    0.2359127 -31.21  0.001230474    1.716    0.417
       183  -8.8391    105.6590     52.0789   6.5195109117e+01   5.1578279960e+01    0.5697817    0.2703363 -31.64  0.001695411    2.219    0.549
       184  -7.4438    152.8139     53.6229   5.4537228846e+01   4.0274904407e+01    0.2022725    0.1358589  73.53 0.0003868398    1.638    0.389
       185  -8.8744    142.1339     47.4609   5.4746410545e+01   4.3795863731e+01    0.5553907    0.2171259 -33.14  0.001438033    2.614    0.618
       186  -8.6048    246.8468    235.0935   7.8641708066e+01  -9.7287597569e+00    0.1634544    0.1418576  -3.92 0.0006654048    1.304    0.233
       187  -8.9334    132.9909     35.9816   5.2852713262e+01   4.7565736698e+01    0.3335266    0.2209651 -49.78 0.0009016478    1.710    0.415
       188 -10.8802    134.0313     31.0173   5.0966408520e+01   4.7926513363e+01    0.3706081     0.280321   8.22            0    1.620    0.383
       189  -8.4690    156.6478     47.9723   5.2076329598e+01   4.0155147262e+01    0.2944633    0.2158396  74.92  0.001477172    1.409    0.290
       190  -9.3065    149.7948     46.4987   5.2912062282e+01   4.2054776756e+01    0.5929159    0.2065503 -31.20  0.001837825    3.024    0.669
       191  -8.8802    153.6716     41.3082   5.0572611107e+01   4.1809909051e+01    0.3474678    0.2261979 -47.89   0.00123736    1.618    0.382
       192  -8.7219    111.9237     46.7879   6.1583923842e+01   5.1008510423e+01    0.2500457    0.2031465 -38.45 0.0005290619    1.292    0.226
       193  -7.5523    162.9482     46.4773   5.0500227319e+01   3.8806642350e+01    0.1959606    0.1194469 -84.76 0.0008045072    2.291    0.564
       194  -8.5238     40.0379     34.7823   8.1994218838e+01   6.5882566084e+01    0.2918431    0.2832889 -17.89  0.001300324    1.389    0.280
       195  -9.9699     37.7967     41.9980   8.5919303344e+01   6.4928032371e+01    0.3695357    0.3215959 -78.01  0.001561319    1.813    0.448
       196  -9.9534     35.9014     37.9937   8.5189295704e+01   6.5852970671e+01    0.3429278    0.1962938 -32.56 0.0003716933    1.552    0.356
       197  -8.6683    114.4199     40.5437   5.8694978478e+01   5.1334567424e+01    0.4743662    0.2663472   6.31  0.001700125    3.535    0.717
       198  -9.2221    110.3154     33.0729   5.6986101963e+01   5.3251087459e+01    0.3620319    0.2319389 -40.76  0.001187345    1.716    0.417
       199  -8.9583    104.8289     40.9012   6.1337232481e+01   5.3433027462e+01    0.3605857    0.2274123 -42.77  0.001104939    1.750    0.429
       200  -8.4272    106.0567     36.4581   5.9345573128e+01   5.3768810881e+01     0.279147    0.2068719  39.16 0.0008769267    1.275    0.216
       201  -8.9427    139.5031     39.8310   5.2802571519e+01   4.5487598110e+01    0.4041089    0.2375093 -43.60  0.001257284    1.812    0.448
       202  -7.9153    123.4782     40.2604   5.6410125819e+01   4.9272942764e+01    0.4191645    0.1864134  32.03  0.001346168    3.912    0.744
       203  -8.3705     53.3202     38.9439   7.8026828825e+01   6.3363095893e+01    0.3137393    0.1545523 -31.06  0.001481974    2.004    0.501
       204  -7.7222    160.3428     39.2711   4.8788372602e+01   4.0427067764e+01    0.1954549    0.1219034 -42.29  0.000462945    1.630    0.386
       205  -8.8311    144.1222     36.3071   5.0756405721e+01   4.4814428986e+01    0.2783901    0.2026386 -53.33 0.0005542063    1.507    0.336
       206  -9.1915    153.6274     34.0704   4.8340895062e+01   4.2751684919e+01    0.3877878    0.2081188 -15.23  0.001432573    2.597    0.615
       207  -8.6837    118.9396     34.5065   5.5429483899e+01   5.1087836459e+01    0.2818329    0.1934243 -27.17 0.0006705017    1.548    0.354
       208  -9.2951    101.1142     32.3658   5.9110375713e+01   5.5387591723e+01    0.4293518    0.2230132 -30.39  0.001247278    1.997    0.499
       209  -9.4305     60.1059     33.4805   7.3013963752e+01   6.3151144092e+01    0.4025355    0.2693282 -48.34   0.00127254    1.917    0.478
       210  -8.6908     62.6663     26.7391   6.9090239202e+01   6.3673393977e+01    0.3627473    0.1511435  40.79  0.001511987    2.286    0.563
       211  -9.4837    187.9028    233.8409   8.9173663055e+01  -1.1441176409e+00     0.240901    0.1802787 -41.44 0.0006925527    1.536    0.349
       212  -8.8429    207.2589    222.9599   8.3664802805e+01  -2.4653935427e+00    0.2541828    0.2199983 -65.86  0.001579538    1.795    0.443
       213  -7.6274    167.2525     34.5912   4.6290705667e+01   3.9312944994e+01    0.1938092    0.1173366  54.79 0.0002787869    1.590    0.371
       214  -8.3238     45.5116     15.4796   7.0723314432e+01   6.7906763379e+01    0.1899513    0.1573143  -0.70 0.0007740599    1.068    0.064
       215 -10.3036    227.1076    216.5008   7.8867123425e+01  -4.4861669908e+00    0.2204555    0.1886723 -12.06 0.0003045603    1.144    0.126
       216  -8.9377    195.4504    217.2278   8.4944779438e+01   2.8884739917e-01    0.2628181    0.1778087  39.69 0.0002462436    1.441    0.306
       217  -8.6582    196.6120    212.8046   8.3943093347e+01   8.2246758481e-01    0.2154974     0.184626  16.08 0.0003399293    1.037    0.035
       218  -8.6955     42.1714     27.8973   7.8046694499e+01   6.6682438992e+01    0.2202105    0.1462266  -9.15 0.0002430494    1.503    0.335
       219  -8.4844      1.5219     28.4709   9.8681984663e+01   7.0611592665e+01    0.2631719    0.1029298 -50.20  0.001034974    1.955    0.489
       220  -7.1951    118.3122    213.3420   1.0047602670e+02   1.3894706741e+01    0.1314803    0.1063818  -9.79 0.0007046358    1.701    0.412
       221 -10.1747     10.4270    207.8098   1.2299370779e+02   2.9368760463e+01     0.469759    0.2705527  31.37  0.002840267    1.993    0.498
       222  -8.7310    144.0815     25.9511   4.7425408074e+01   4.6062395660e+01    0.2545469    0.1930371 -29.32 0.0009326153    1.430    0.301
       223  -7.7029    223.9830    204.6566   7.7277230465e+01  -2.2314146972e+00    0.1711148    0.1441728  13.19 0.0002470237    1.100    0.091
       224 -10.3142    164.4622    202.6925   8.8726561334e+01   8.0807885644e+00    0.2531648    0.2442253 -49.66 0.0005489712    1.158    0.136
       225  -8.4576    197.0790    208.0431   8.3000353731e+01   1.5354800802e+00    0.1933153    0.1718006  10.98 0.0003365315    1.035    0.034
       226  -7.7088    147.5337     28.4581   4.7628847095e+01   4.4928035623e+01     0.137235    0.1259459  78.04 0.0008079718    1.034    0.033
       227  -8.7418    140.1272     22.4721   4.6985588249e+01   4.7411694564e+01    0.2676948    0.1562126 -47.18 0.0008585853    1.917    0.478
       228  -9.1797    192.3218    194.8390   8.1499695044e+01   4.6266603437e+00    0.9387954    0.4689955 -62.54   0.00249114    7.360    0.864
       229  -8.3281    120.6402     15.3979   4.8186065249e+01   5.2813227841e+01    0.2961472    0.2005102  21.48  0.001556114    1.730    0.422
       230  -8.8009    186.2840    187.9019   8.1393699064e+01   6.9629483550e+00    0.2208175     0.186854  31.74  0.000325971    1.148    0.129
       231  -8.4977    116.5754    200.1696   9.8917558489e+01   1.6935746254e+01    0.2285049    0.1776236  42.89  0.000259287    1.202    0.168
       232  -9.3001     48.9306    191.2216   1.1338288767e+02   2.8944149666e+01    0.2062011    0.1724879 -76.10 0.0002137536    1.171    0.146
       233  -7.2042    172.2797    185.2802   8.3827450387e+01   1.0026906840e+01    0.1395602    0.1085529  -0.98 0.0006918483    1.507    0.337
       234  -8.7181     40.9508     20.7302   7.5281348802e+01   6.7885549101e+01    0.2291943    0.1528202 -31.37 0.0007249847    1.428    0.299
       235  -7.6011    114.1112    176.9026   9.5672658286e+01   2.2546174793e+01    0.1854871    0.1680743 -31.19 0.0003108204    1.255    0.203
       236  -7.0747    100.9627    176.2104   9.8792810949e+01   2.4962783476e+01    0.1698185    0.1127728  41.06 0.0008031574    1.481    0.325
       237  -8.7112     50.3771    175.7552   1.1130006984e+02   3.2426101473e+01    0.2033778    0.1969282 -86.36 0.0004992582    1.217    0.178
       238  -6.9527    119.4695    173.4568   9.3740566386e+01   2.2385977690e+01     0.145554    0.1411658  69.39 4.998994e-05    1.021    0.020
       239  -7.9495    230.6083    167.7554   6.8819809053e+01   2.7024669253e+00    0.1945409    0.1161402 -44.20 0.0009504887    1.681    0.405
       240  -8.8334    233.0887     19.5625   3.5087843830e+01   2.5642880140e+01    0.1963658    0.1843896 -51.14 0.0004127082    1.285    0.222
       241  -7.0230    206.6676    164.7206   7.2573423001e+01   7.5203490422e+00     0.143999    0.1063602   2.64 0.0003068605    1.607    0.378
       242  -8.0944    139.8084     17.8442   4.5524536933e+01   4.7970071032e+01    0.1769801    0.1484164 -69.96 0.0003711195    1.287    0.223
       243  -6.9564    145.2520    158.2690   8.4439261484e+01   2.0933355918e+01     0.142747    0.1186586  -9.67 0.0006806487    1.445    0.308
       244  -8.8303    133.8409    146.8480   8.4736145238e+01   2.5812746839e+01    0.6781471    0.2105735 -53.46  0.001936393    3.687    0.729
       245  -8.3840     95.8718     16.8350   5.4344611383e+01   5.8302652547e+01     0.213589    0.1803843 -14.20 0.0004119607    1.249    0.199
       246  -9.6198    236.7030    146.6587   6.3319513596e+01   5.2399050809e+00    0.3426058    0.1939639  46.87  0.001658418    2.018    0.504
       247  -7.4176    189.0109     15.9441   3.8323930764e+01   3.6142495650e+01    0.1547673    0.1363152 -71.36 0.0005492874    1.067    0.063
       248  -9.2425     66.3406    143.8839   1.0241172097e+02   3.8240627769e+01    0.4555763    0.2623557  61.23  0.001903913    2.187    0.543
       249  -8.1683    235.6319    136.8145   6.1351086798e+01   7.1300398477e+00    0.2065054    0.1127195 -44.83 0.0009484295    1.712    0.416
       250  -9.5692    191.2978    134.2493   6.8735432116e+01   1.6435546661e+01    0.2770479    0.2487938 -29.81 0.0002254195    1.068    0.064
       251  -7.3980     95.6944    136.3099   9.2586363400e+01   3.5545467998e+01     0.153927     0.116772  80.15 0.0002926528    1.613    0.380
       252  -8.7527    112.3380    133.9261   8.7426620716e+01   3.3085928805e+01    0.3636716    0.2577483 -87.37  0.001077747    1.981    0.495
       253 -10.2282    134.4451    132.3031   8.1195408778e+01   2.9039531478e+01     0.620994    0.5006239 -62.59  0.001668559    1.309    0.236
       254  -9.0985     83.3614    131.4848   9.5091246302e+01   3.8799409095e+01    0.6910004    0.4207694  75.26  0.002630048    2.744    0.636
       255  -7.9420    142.2719    131.7486   7.9092425360e+01   2.7518596471e+01    0.3821924    0.2267917  66.54  0.001370934    2.643    0.622
       256 -10.3755     58.1903    124.4870   1.0121204491e+02   4.4196770505e+01    0.9919509    0.5312556  80.48  0.003279302    4.054    0.753
       257  -9.6128     67.6346    128.8864   9.9215818785e+01   4.1821428683e+01    0.5049772    0.3799529  87.30  0.002359131    1.526    0.345
       258  -8.4214    245.1031     14.2010   3.3052217648e+01   2.3720716608e+01    0.1637469    0.1458941 -79.20 0.0002756519    1.213    0.175
       259 -10.1182     71.2031    125.7738   9.7500177995e+01   4.2084672548e+01    0.6802292    0.4029839 -77.56  0.001377102    2.154    0.536
       260  -8.3387    196.6552    131.0361   6.6918833254e+01   1.5933082950e+01     0.215602    0.1798618 -36.90 0.0003563468    1.124    0.111
       261  -7.5306    195.3433     11.6907   3.6589067467e+01   3.5081520555e+01    0.1394411   0.08207564 -66.88  0.000704458    1.697    0.411
       262  -9.8030     98.4956    128.4781   9.0038455281e+01   3.6966331203e+01    0.6390768    0.4070772  77.54  0.002152435    2.659    0.624
       263 -10.0149    140.5998    118.5263   7.6174041123e+01   3.0830396153e+01    0.5413203    0.3645105 -60.92  0.001272785    1.717    0.418
       264 -10.0241    139.5005    104.1500   7.2585861662e+01   3.4189351258e+01    0.7240784     0.331719 -48.39 0.0009571815    2.233    0.552
       265 -10.3879    117.5159    124.3411   8.3713453354e+01   3.4347155785e+01    0.9294788    0.5548333 -48.70  0.002574243    1.621    0.383
       266 -11.4428    120.7927    108.1311   7.8593294821e+01   3.7394439857e+01     1.692495    0.8314189 -46.19  0.005748246    1.978    0.494
       267 -10.4797    123.8304     90.0207   7.2590484688e+01   4.0631521527e+01     1.117194    0.6487494 -26.81   0.00246873    2.219    0.549
       268 -10.4862    131.4586    119.5377   7.8771365416e+01   3.2575573413e+01    0.9388768    0.5947827  79.46  0.002253915    3.066    0.674
       269 -10.9000    108.6356    101.0312   8.0055855345e+01   4.1473854977e+01      1.07374    0.6845881 -62.41  0.004487394    1.916    0.478
       270 -11.2507    133.4087    109.4660   7.5596112526e+01   3.4395259662e+01     1.572383    0.5757409 -48.32  0.005040578    2.788    0.641
       271  -9.9530     42.0606    122.8320   1.0588443466e+02   4.6517596644e+01    0.7099634    0.3562156 -89.79   0.00260861    3.287    0.696
       272 -10.1501     27.3511    123.0117   1.1044018853e+02   4.7916076325e+01    0.5775008    0.3144653  72.82  0.002169196    2.530    0.605
