#   1 NUMBER                 Running object number                                     
#   2 MAG_AUTO               Kron-like elliptical aperture magnitude                    [mag]
#   3 X_IMAGE                Object position along x                                    [pixel]
#   4 Y_IMAGE                Object position along y                                    [pixel]
#   5 X_WORLD                Barycenter position along world x axis                     [deg]
#   6 Y_WORLD                Barycenter position along world y axis                     [deg]
#   7 A_WORLD                Profile RMS along major axis (world units)                 [deg]
#   8 B_WORLD                Profile RMS along minor axis (world units)                 [deg]
#   9 THETA_WORLD            Position angle (CCW/world-x)                               [deg]
#  10 FWHM_WORLD             FWHM assuming a gaussian core                              [deg]
#  11 ELONGATION             A_IMAGE/B_IMAGE                                           
#  12 ELLIPTICITY            1 - B_IMAGE/A_IMAGE                                       
         1 -11.8786      1.8600     23.5117   1.1873121645e+02   6.9314709657e+01     1.302471    0.1515327 -50.90   0.00408349    7.110    0.859
         2 -12.6181      2.1423      6.9811   1.1214935287e+02   7.1674215663e+01    0.9415796    0.7487928 -25.82  0.007841407    1.337    0.252
         3 -13.4501    202.6797     18.7722   6.2832926993e+01   3.2529549066e+01     2.351294     1.492703  28.29   0.01097354    2.759    0.638
         4 -12.4617    208.1020     12.5116   6.0802370489e+01   3.1951831465e+01    0.7065709    0.5482417  -9.46  0.001520373    1.903    0.474
         5 -10.8036    190.1948     14.9679   6.3384030503e+01   3.5929187940e+01    0.2429661    0.2200454  27.59  0.001201101    1.424    0.298
         6 -10.1804    112.0427     44.4663   8.6423678558e+01   5.0771809862e+01    0.5242437    0.3313634  79.72  0.002163385    3.035    0.671
         7 -11.2565    126.4833    247.6259   1.2820736997e+02   5.7645448409e+00     0.427226    0.3189297 -59.88  0.002607596    1.550    0.355
         8 -10.8690     93.3704    249.8042   1.3478042856e+02   1.0715754821e+01    0.4852486    0.3557591 -26.80  0.002127687    2.763    0.638
         9 -12.6536     88.3714    243.7404   1.3508565153e+02   1.2635121868e+01     1.495888    0.4522889  52.42  0.001748938    3.189    0.686
        10 -13.5984     34.9308    246.0292   1.4493120406e+02   1.9548310171e+01     5.624263     2.643222  24.23   0.02061236    6.697    0.851
        11 -14.1537     50.1781    213.8075   1.3944488535e+02   2.4238283408e+01     2.339766     1.329886  49.96   0.01318462    1.601    0.375
        12  -9.8311     70.3975    228.9464   1.3699665073e+02   1.8267075156e+01    0.3236254    0.1612644  53.51  0.001658839    1.756    0.431
        13 -11.0998    153.0110    228.8419   1.2027663345e+02   4.5751878816e+00    0.6468201    0.1752788  41.24  0.002189165    3.265    0.694
        14 -12.8156      3.5318    244.5902   1.4999845068e+02   2.3326231661e+01     1.523699    0.7940305 -80.83   0.01019853    1.578    0.366
        15  -9.1063    173.5040    221.4742   1.1488571919e+02   2.2036983315e+00    0.1372554    0.1227951  34.02 0.0008100471    1.018    0.018
        16 -11.9830     41.2140    225.2160   1.4220577292e+02   2.2951303483e+01    0.3694912    0.2923678 -58.72 0.0008839177    1.620    0.383
        17 -15.3574      9.7100    205.0702   1.4649342062e+02   3.0684118323e+01      9.82035     4.749118 -81.46   0.03820124    1.662    0.398
        18  -9.8894    227.5430    203.6372   1.0092939819e+02  -4.3862987124e+00    0.2861667    0.2271821 -57.59 0.0009291981    1.686    0.407
        19 -10.9308     66.4467    192.7930   1.3369232806e+02   2.6736392959e+01    0.4389586    0.2468362 -48.90  0.001837288    2.137    0.532
        20 -10.8469     71.7099    185.6950   1.3157519930e+02   2.7627207865e+01    0.3082652    0.2354161 -48.72  0.000867215    1.529    0.346
        21  -9.3627    191.3988    192.2904   1.0584657692e+02   4.2681883416e+00    0.4710036    0.2513607 -65.63  0.001500774    4.393    0.772
        22  -7.9839    181.3543    192.3100   1.0795023305e+02   6.2275730333e+00    0.1502762    0.1128628   5.67 0.0004374943    1.726    0.421
        23 -10.3808     80.7490    174.0120   1.2774233778e+02   2.9032158266e+01    0.2679283    0.2241583 -70.12 0.0003990493    1.120    0.107
        24 -12.5073     68.1634    171.2921   1.3034716267e+02   3.1538131392e+01    0.5265495    0.2845333 -44.70  0.001748847    2.283    0.562
        25 -11.5563     87.6332    165.8800   1.2472896937e+02   2.9894028147e+01     1.030747     0.564808  57.60  0.001933671    2.106    0.525
        26 -12.4868     67.6412    144.2483   1.2605607700e+02   3.8124330103e+01     1.124251    0.6610794 -87.53   0.00270806    2.352    0.575
        27 -11.8223     58.5924    133.8014   1.2660386219e+02   4.1837396125e+01       1.1156    0.4145118 -72.20  0.003287237    4.684    0.787
        28  -9.0536    102.8664    145.4535   1.1695943159e+02   3.2220016887e+01    0.3182313    0.2214996 -30.55  0.001422668    1.876    0.467
        29 -11.3796     88.8839    148.7457   1.2128546729e+02   3.3823437557e+01     0.294692    0.2629408 -37.99 0.0005267461    1.252    0.201
        30 -11.7250     33.2895    141.8581   1.3471038639e+02   4.2775197535e+01    0.4408856    0.2919201 -47.65  0.002436726    1.536    0.349
        31  -8.8130    110.9403    135.6994   1.1271086750e+02   3.3051953146e+01    0.2841791    0.2091229 -27.14   0.00129248    1.720    0.419
        32  -9.8810     68.8773    134.8320   1.2396293106e+02   4.0216947277e+01    0.2115066    0.1827009 -40.11 0.0004847531    1.232    0.188
        33  -9.8456     98.3705    132.5094   1.1537064040e+02   3.6105382492e+01    0.2881345    0.2372426 -28.32 0.0005500323    1.402    0.287
        34 -10.4980     75.4455    228.8200   1.3599882920e+02   1.7557233260e+01    0.2790082    0.2051908  84.49 0.0007957033    1.223    0.182
        35  -8.4092    107.6877    122.9081   1.1059624720e+02   3.6653683706e+01    0.2035474    0.1796142 -50.08 0.0003692905    1.092    0.084
        36  -9.2639     99.9677    149.5049   1.1854507325e+02   3.1761890139e+01     0.302178    0.2177598 -55.30  0.000943249    1.325    0.245
        37  -9.9827    167.9008    112.9447   9.2994571688e+01   2.5817190212e+01    0.3818943    0.3022464 -84.48 0.0008944899    1.528    0.346
        38 -11.5283     63.4174    218.5023   1.3728834143e+02   2.1450848390e+01    0.6325104    0.2596769  50.45  0.001391987    2.185    0.542
        39 -10.6479    139.0930    248.6840   1.2589272111e+02   3.4510375113e+00    0.2525268    0.2070762  68.86  0.001590871    1.241    0.194
        40 -11.0729    108.1789    246.9728   1.3166309651e+02   8.9000220450e+00    0.3308845    0.2491804  57.30  0.001840506    1.091    0.084
        41  -9.3128    115.4783    240.4968   1.2946815384e+02   8.9151259017e+00     0.131171    0.1086202  59.87 0.0003632047    1.006    0.006
        42 -10.7175    100.1055    238.4402   1.3223931280e+02   1.1822140249e+01     0.253858    0.1857141  66.63  0.001006771    1.214    0.176
        43 -12.3669     24.4553    233.6469   1.4586741843e+02   2.3213281704e+01    0.8326779    0.4396602  66.92  0.003733926    1.575    0.365
