#   1 NUMBER                 Running object number                                     
#   2 MAG_AUTO               Kron-like elliptical aperture magnitude                    [mag]
#   3 X_IMAGE                Object position along x                                    [pixel]
#   4 Y_IMAGE                Object position along y                                    [pixel]
#   5 X_WORLD                Barycenter position along world x axis                     [deg]
#   6 Y_WORLD                Barycenter position along world y axis                     [deg]
#   7 A_WORLD                Profile RMS along major axis (world units)                 [deg]
#   8 B_WORLD                Profile RMS along minor axis (world units)                 [deg]
#   9 THETA_WORLD            Position angle (CCW/world-x)                               [deg]
#  10 FWHM_WORLD             FWHM assuming a gaussian core                              [deg]
#  11 ELONGATION             A_IMAGE/B_IMAGE                                           
#  12 ELLIPTICITY            1 - B_IMAGE/A_IMAGE                                       
         1 -16.0833    246.6496     96.0886   4.4107329531e+01   1.3414613309e+01     7.384765     1.188133 -39.61   0.02171494    4.964    0.799
         2  -9.9845     40.8176     14.1881   6.5900862015e+01   6.8222361172e+01    0.1665365    0.1130728  12.77 0.0002407772    1.304    0.233
         3 -11.2441    160.3029    239.0112   8.8312096827e+01   1.7580512976e+00    0.2391794    0.1739823  48.82  0.001330653    1.623    0.384
         4 -11.2168    162.6801    225.3743   8.5637592295e+01   3.8708652104e+00    0.3342221    0.2497545 -13.31  0.001824584    1.427    0.299
         5 -10.2619    191.5260    226.5135   7.9730908223e+01  -6.3629466520e-01    0.1330847    0.1109544   0.63 0.0001411278    1.011    0.011
         6  -9.1901    171.3004    225.6838   8.3824460494e+01   2.5015332997e+00    0.1235908    0.1066797  62.66 0.0002655109    1.615    0.381
         7 -10.3958     99.3299    225.1954   1.0001389993e+02   1.3587391207e+01    0.2250355    0.1849138  40.11 0.0007838584    1.107    0.097
         8 -10.7674     60.5351    223.4835   1.0876203437e+02   1.9265724230e+01    0.3060564    0.1534149  62.40  0.001261909    2.329    0.571
         9 -10.3995    148.6804    222.5485   8.8279297259e+01   6.5774787926e+00    0.2394002    0.1271096 -49.74  0.001094043    2.045    0.511
        10  -9.9796    114.6609    223.3353   9.6198607098e+01   1.1693217432e+01    0.1440743    0.1003618  62.90 0.0007051404    1.753    0.429
        11  -9.5494    174.3138    222.6595   8.2670948977e+01   2.5934129448e+00    0.1261247    0.1084037  67.41 0.0004284453    1.701    0.412
        12 -10.7217    193.4020    221.2264   7.8434962936e+01  -2.0252589889e-03     0.175778    0.1231158 -47.85 0.0009534916    1.678    0.404
        13 -11.0669    126.0311    220.5618   9.3149641843e+01   1.0520683223e+01     0.232787    0.1974311  89.51 0.0006260127    1.461    0.316
        14 -10.2563     74.6686    219.3548   1.0505213722e+02   1.8342588543e+01    0.1467134   0.09116997  64.13 0.0007045072    1.785    0.440
        15 -11.0068    204.8174    217.8061   7.5539154540e+01  -1.0682505124e+00     0.163556    0.1572293 -14.60 0.0006562299    1.351    0.260
        16 -10.3614    143.8051    216.5062   8.8406026771e+01   8.5463091116e+00    0.2553963    0.1967049 -44.97  0.001385892    1.375    0.273
        17  -9.8439    111.6812    216.3364   9.5893568294e+01   1.3638685984e+01    0.1446743    0.1033497  65.06 0.0007049193    1.703    0.413
        18 -10.5369    199.0227    214.9819   7.6190290215e+01   2.5607736735e-01    0.1847502    0.1714417  83.12  0.000729977    1.672    0.402
        19 -10.9309    185.9720    214.4384   7.8772736962e+01   2.3090740758e+00    0.2425876    0.1934175 -54.63  0.001076574    1.606    0.377
        20  -9.6701    131.6819    213.6704   9.0759107425e+01   1.1066713365e+01    0.1448915     0.106871 -10.43 0.0004294102    1.685    0.407
        21 -11.3688    217.8927    210.5945   7.1707784871e+01  -1.7090296164e+00    0.2484738     0.167031 -50.90  0.001328366    1.935    0.483
        22 -10.4687    176.9906    209.6574   7.9823545550e+01   4.5901861645e+00    0.2757128    0.1491829 -55.11  0.001182758    2.448    0.591
        23 -10.5170    116.4104    210.2142   9.3846011385e+01   1.4235964093e+01    0.1938037    0.1384341 -72.80 0.0008373352    1.715    0.417
        24 -10.4752    205.8288    207.8256   7.3532150114e+01   4.9904756218e-01    0.1695061    0.1611021 -31.11  0.001077179    1.334    0.250
        25 -10.5620    124.0918    205.9113   9.1313395186e+01   1.3952442877e+01    0.2061832    0.1802004  58.98            0    1.239    0.193
        26 -11.0660    198.7398    204.0899   7.4256146147e+01   2.2275356613e+00    0.2695415    0.1807076 -49.44  0.001326031    1.728    0.421
        27 -12.5547    164.7925    200.8506   8.0903541443e+01   8.2886746433e+00    0.7306865    0.4064861 -42.75  0.003278606    1.800    0.444
        28 -11.2332    162.3637    193.2329   8.0029682148e+01   1.0253667617e+01    0.3943583    0.2706249 -56.08  0.001889373    1.699    0.411
        29 -10.6245    148.8793    198.0203   8.4039348641e+01   1.1543986983e+01    0.3329437    0.2041013 -74.54  0.001242305    3.219    0.689
        30 -10.5714    177.4841    197.9758   7.7563587887e+01   6.7591178896e+00     0.187121    0.1284506 -69.82 0.0008100913    2.527    0.604
        31 -11.6497    124.7203    197.4796   8.9754298515e+01   1.5720427243e+01    0.3826977    0.2388067  40.25  0.001770103    1.547    0.354
        32  -9.9809    203.1774    197.1974   7.2066555456e+01   2.7912032712e+00    0.1743243    0.1634463 -46.81 0.0008573293    1.348    0.258
        33 -10.2595    112.3251    197.6367   9.2852992239e+01   1.7712123171e+01    0.1536506    0.1106857  69.82 0.0007040195    1.791    0.442
        34 -12.0590    185.9836    203.8297   7.6841418070e+01   4.2635249975e+00    0.3899689    0.2567313 -47.65  0.001413973    1.648    0.393
        35 -11.2160    172.0949    195.5105   7.8277478854e+01   8.1425644620e+00    0.2139411    0.1358665  33.66 0.0006907278    1.550    0.355
        36  -9.9544    215.5776    193.8219   6.9010222809e+01   1.5027330269e+00    0.1869031    0.1184368 -47.20 0.0009494848    1.716    0.417
        37 -10.5334    186.2081    193.2208   7.4785901582e+01   6.2473834728e+00    0.2194222    0.1082307 -52.31 0.0008768847    2.474    0.596
        38 -11.1440    205.8295    190.7384   7.0298512932e+01   3.5543441219e+00    0.2750016    0.1768316 -46.50  0.001005021    1.631    0.387
        39 -10.0251    199.5913    191.2371   7.1637621511e+01   4.4512969020e+00    0.1988419    0.1186583 -31.29 0.0009490926    1.609    0.379
        40 -11.3410    172.6219    190.6349   7.7226091561e+01   9.0349491077e+00    0.2870529    0.2265271 -59.09  0.001459289    1.546    0.353
        41  -9.7979    179.4788    190.5117   7.5700692758e+01   7.8980232051e+00    0.1432324    0.1303545  -7.81 0.0001086374    1.022    0.022
        42 -10.1299    210.5141    189.0202   6.9051356161e+01   3.1343405350e+00    0.1789401    0.1172928 -60.90 0.0008093922    2.456    0.593
        43 -10.9798    138.8698    188.3294   8.4648386985e+01   1.5366803239e+01    0.3522679    0.2003305 -58.96  0.001464316    2.069    0.517
        44 -10.4812    129.0318    187.7918   8.6974083301e+01   1.7186597298e+01    0.2737401      0.19934 -69.94  0.001224214    1.692    0.409
        45 -10.0772    217.4996    187.0059   6.7330577667e+01   2.4181487916e+00    0.2087796     0.118717 -38.45  0.001028823    1.577    0.366
        46  -9.9441    192.3973    187.2614   7.2328099169e+01   6.3742474549e+00    0.1951423    0.1288793 -49.46 0.0009469363    1.649    0.393
        47 -10.8011    165.2501    186.1425   7.8004431726e+01   1.1229954311e+01    0.3563454    0.2577709 -63.40  0.001430087    1.803    0.445
        48 -11.3177    120.2458    184.7861   8.8641526559e+01   1.9381921572e+01    0.5268945    0.2097149 -62.83  0.001629567    3.699    0.730
        49 -11.4143     95.2006    186.6662   9.5444724822e+01   2.3020579824e+01    0.3475581    0.2182505  82.59  0.001396038    2.477    0.596
        50 -11.9374    174.1815    182.3059   7.5240202749e+01   1.0463104045e+01    0.4936536     0.248432 -45.36  0.001689426    1.952    0.488
        51  -9.9306    197.3889    182.2559   7.0311516472e+01   6.5058853127e+00    0.1955234    0.1267622 -48.38 0.0009449655    1.631    0.387
        52 -10.8800    203.9213    184.0487   6.9361523390e+01   5.0952259716e+00    0.3363307    0.1854821 -49.62  0.001493962    2.011    0.503
        53 -11.7632    147.5854    178.8171   8.0698263703e+01   1.5944256934e+01    0.4647576    0.2262175 -52.69  0.001802233    2.195    0.544
        54 -11.1910    138.0777    178.0392   8.2873252205e+01   1.7825058467e+01    0.3696093     0.220586 -49.60  0.001601629    1.686    0.407
        55 -10.3021    183.3014    183.7845   7.3552019029e+01   8.5858559835e+00    0.2871968    0.1250669 -50.75  0.001072506    2.626    0.619
        56 -10.5997    192.1314    176.9987   7.0325380504e+01   8.4124446516e+00    0.3516949    0.1939126 -42.08  0.001583378    1.708    0.414
        57 -11.1248    183.1091    175.0090   7.1814603881e+01   1.0380193121e+01    0.4087197    0.2062321 -38.61  0.001710192    1.911    0.477
        58 -10.7365     77.3903    175.1862   9.8366504555e+01   2.8530894371e+01    0.2156485    0.1369783 -77.42  0.000951471    1.792    0.442
        59  -9.8196    142.2878    171.6530   8.0550982107e+01   1.8516608384e+01    0.1510054    0.1229561  85.19 0.0006907178    1.656    0.396
        60 -10.2113    134.5782    170.8292   8.2313673555e+01   2.0113683853e+01      0.22035    0.1482776 -62.61 0.0009552801    1.740    0.425
        61 -11.0168    205.9206    169.0415   6.5932674886e+01   7.5935814382e+00    0.3365993    0.1853864 -50.54  0.001224468    1.998    0.499
        62 -11.5195    121.5619    167.9055   8.5086970272e+01   2.3150569144e+01    0.6135734    0.2537471 -56.64  0.002101952    2.663    0.624
        63  -9.5947    199.4417    169.4758   6.7294369452e+01   8.6197241507e+00    0.1432932    0.1270025 -21.91   0.00019169    1.008    0.008
        64 -10.4447    167.8097    168.1342   7.3754283948e+01   1.4576645733e+01    0.3918731    0.1955946 -53.80  0.001495236    2.329    0.571
        65 -10.6960    149.4347    168.7504   7.8200641189e+01   1.7853551728e+01    0.2905457    0.1484971 -52.53  0.001126252    2.075    0.518
        66 -10.3471    185.1926    166.4503   6.9585591741e+01   1.1742134704e+01    0.2837967     0.193969 -41.61 0.0009812795    1.382    0.276
        67 -11.1845    192.2391    163.9182   6.7583261736e+01   1.0980694580e+01    0.5523199       0.1824 -43.78  0.001893305    2.832    0.647
        68 -11.4546    138.9020    163.5027   7.9704938425e+01   2.1012329885e+01    0.5757077    0.2567226 -57.19  0.001962955    2.750    0.636
        69 -12.2097    213.1132    163.3607   6.3393998759e+01   7.4468667977e+00    0.3200639    0.2536347 -36.29  0.001262009    1.131    0.116
        70 -10.2009    159.5483    163.2909   7.4629857761e+01   1.7168377226e+01    0.2986159    0.1467011 -50.85  0.001139929    2.127    0.530
        71 -11.5285    205.7076    161.4185   6.4385805255e+01   9.0847067020e+00    0.3917283    0.2376925 -46.79   0.00134242    1.610    0.379
        72 -11.5677    177.1233    170.3403   7.2141186024e+01   1.2406731611e+01    0.4619314    0.2120011 -42.53  0.001607316    2.081    0.519
        73 -10.4887    151.4972    159.9921   7.5836655504e+01   1.9429110890e+01    0.3477865    0.1500529 -53.20  0.001197733    2.597    0.615
        74 -11.0966    154.6726    240.5480   8.9752170029e+01   2.3138544603e+00     0.213383    0.1217507 -47.94  0.000997144    1.964    0.491
        75 -10.2487     93.3130    160.6576   9.1389338730e+01   2.9766104271e+01    0.1585254    0.1177662  74.07 0.0007046825    1.704    0.413
        76 -10.4581     39.3033    147.7203   1.0507436876e+02   4.0347400178e+01    0.3458128    0.1584553  64.18  0.001138013    3.944    0.746
        77 -11.3218    196.6637    156.4930   6.5103765220e+01   1.1652902619e+01    0.4053207    0.2502632 -48.90  0.001519863    1.635    0.388
        78 -11.2460     56.4804    146.2177   9.9615180277e+01   3.8782403116e+01    0.4302568    0.2230725  63.57  0.001531563    3.181    0.686
        79 -11.4775    148.3925    143.2121   7.2824128943e+01   2.3810637687e+01    0.7368381    0.3202434 -55.35  0.002423998    2.874    0.652
        80 -10.5933    106.8166    144.9811   8.4323096498e+01   3.1378884138e+01    0.2636743    0.1875596 -89.27  0.001084461    2.084    0.520
        81 -10.5647    208.5016    143.9773   6.0130804952e+01   1.1920423098e+01    0.2222592     0.127361 -41.79   0.00102194    1.563    0.360
        82 -10.2763    105.2335    157.2614   8.7367822426e+01   2.8620336946e+01    0.2461546    0.1295307 -65.89 0.0008790045    2.406    0.584
        83 -10.6790    230.5160    142.0197   5.5918066511e+01   8.4055786392e+00    0.2756884    0.1142991 -43.73  0.001155648    2.103    0.524
        84 -12.1005    189.8422    147.8432   6.4584048577e+01   1.4646589280e+01    0.8249463    0.2896093 -37.53   0.00274608    2.941    0.660
        85 -10.4704    182.0470    140.6379   6.4567725800e+01   1.7621761471e+01    0.3116384    0.2098501 -37.32   0.00145685    1.411    0.291
        86  -9.9087    128.2172    158.2434   8.1338236288e+01   2.4240243179e+01    0.2473662    0.1263071 -60.51 0.0008789222    2.431    0.589
        87 -10.7940    177.2633    158.8526   6.9657916203e+01   1.4771098105e+01    0.4246015     0.202603 -42.03  0.001680812    1.990    0.497
        88 -10.7591     23.5051    138.3254   1.0854505430e+02   4.4237576974e+01    0.3672751    0.1822156  73.18  0.001409068    3.112    0.679
        89 -11.0063    195.2706    143.2161   6.2471679571e+01   1.4536474704e+01    0.2941099    0.2159484 -16.16  0.001431903    1.584    0.369
        90 -10.9477    197.9284    135.5765   6.0247552601e+01   1.5526366253e+01    0.6146793     0.203351 -40.94  0.002102322    2.777    0.640
        91 -10.1484    171.9909    137.2737   6.5942462046e+01   2.0331600888e+01    0.3156666     0.187223 -64.70  0.001172703    2.630    0.620
        92 -10.3365    192.5789    136.6459   6.1523413064e+01   1.6355762027e+01    0.2985334    0.1330967 -37.46  0.001138807    2.184    0.542
        93 -10.8519    219.5857    135.7594   5.6401851083e+01   1.1445761616e+01    0.2739575    0.1205588 -36.75    0.0011236    2.096    0.523
        94  -9.4664    215.2877    135.3251   5.7042355294e+01   1.2305743152e+01    0.1390822    0.1043795 -11.37 0.0007009777    1.608    0.378
        95 -10.1421    187.6921    134.5373   6.2012198806e+01   1.7738631195e+01    0.2757532    0.1269299 -42.54   0.00107468    2.015    0.504
        96 -10.8267    124.6239    142.4038   7.8782743262e+01   2.8686597236e+01    0.3964174    0.2031894 -64.51  0.001300937    3.000    0.667
        97 -10.6608    188.1346    156.7079   6.6881170529e+01   1.3177992169e+01    0.2653866    0.1887078 -48.40 0.0009543288    1.407    0.289
        98 -10.4712    179.2392    132.5177   6.3276559285e+01   1.9846005516e+01    0.3065468    0.1978549 -42.88  0.001396759    1.457    0.314
        99 -10.9124     83.6243    132.0616   8.8382243162e+01   3.8548000881e+01    0.3790669    0.2663595  69.77  0.001634251    1.995    0.499
       100 -10.6819    167.6541    155.9512   7.1158953696e+01   1.7215196407e+01    0.4882311    0.1764021 -46.72  0.001638485    2.709    0.631
       101 -10.5344    142.6388    130.0240   7.1107311271e+01   2.7940151038e+01     0.375866    0.1457117 -45.92   0.00125534    2.516    0.603
       102 -10.8669    131.5487    130.0093   7.3971803356e+01   3.0212943220e+01    0.5036845    0.1990884 -56.97   0.00145302    3.665    0.727
       103 -10.2863    204.8274    130.0718   5.7731372016e+01   1.5254990883e+01    0.2259145    0.1853285 -60.26 0.0009135565    1.312    0.238
       104 -10.4571     13.0048    129.5226   1.1063451076e+02   4.7271178259e+01    0.2810655    0.1297302  69.36  0.001039363    3.547    0.718
       105 -10.1669    157.5384    155.2714   7.3353859074e+01   1.9317372661e+01    0.2989542    0.1479082 -50.37  0.001136073    2.079    0.519
       106 -11.5711    221.1852    128.3275   5.4533628002e+01   1.2510392121e+01    0.3422498    0.1725248 -27.85    0.0013932    2.438    0.590
       107 -10.0827    211.8361    128.8316   5.6216676274e+01   1.4153144504e+01    0.1990065     0.154473 -56.49 0.0007351958    1.339    0.253
       108 -10.6778    152.5233    127.3202   6.8013631848e+01   2.6477574525e+01    0.4828765    0.1489636 -46.28  0.001448239    3.194    0.687
       109 -10.7690     99.1053    128.0088   8.2693046623e+01   3.6921884351e+01    0.3762553    0.2480885  88.75  0.001374326    2.817    0.645
       110 -10.2066     73.3301    129.6699   9.1108292465e+01   4.0737053897e+01    0.1547743    0.1170904  73.09 0.0007051716    1.716    0.417
       111  -9.6653    186.4763    128.5248   6.0862994461e+01   1.9182904637e+01    0.1484066    0.1377695 -34.94 0.0001803889    1.012    0.012
       112 -10.8926     60.1659    124.9604   9.4391446681e+01   4.3767399652e+01    0.5208107    0.2933228  72.26  0.001728705    3.846    0.740
       113 -10.7586    179.7325    123.3769   6.1011018883e+01   2.1595099688e+01    0.4367178    0.2277422 -37.06  0.001775213    1.900    0.474
       114 -10.3162    117.4921    125.0011   7.6579189308e+01   3.4179887284e+01    0.2237481    0.1410935 -72.67 0.0008104163    2.555    0.609
       115 -11.2711     44.2280    123.1943   9.9366008379e+01   4.6130385844e+01    0.6112638    0.3433097  74.40  0.002253373    3.301    0.697
       116 -11.4506     29.0099    122.7368   1.0440223561e+02   4.7743325640e+01    0.6812516    0.3216926  71.81    0.0020384    5.337    0.813
       117 -10.2522    188.4774    123.0328   5.9182291244e+01   1.9859733443e+01    0.3329468    0.1308872 -46.51  0.001190862    2.466    0.594
       118 -10.4686    168.5805    128.0101   6.4493708869e+01   2.2970262979e+01    0.3644972    0.1431792 -43.09  0.001267238    2.428    0.588
       119 -10.0889    194.5891    121.2862   5.7607804656e+01   1.8954568344e+01      0.29181    0.1280009 -45.41  0.001129192    2.135    0.532
       120 -10.4105    192.9439    129.1852   5.9747564092e+01   1.7753212503e+01    0.2806393    0.1970566 -40.52  0.001377489    1.311    0.237
       121 -10.0599    158.3627    120.5716   6.4968646755e+01   2.6682361725e+01    0.3105864    0.1286938 -54.37 0.0009566326    3.263    0.693
       122 -10.6042    204.3968    154.0421   6.3070770422e+01   1.0734220955e+01    0.2995252    0.1579657 -35.97 0.0009590107    1.779    0.438
       123 -10.2130    172.4561    120.0045   6.1713434859e+01   2.3801018303e+01    0.2439407    0.1427753 -42.26 0.0008630627    1.625    0.384
       124 -10.7861    141.5097    118.5211   6.8506185051e+01   3.0711932480e+01    0.5284389    0.2510548 -60.89  0.001569727    3.771    0.735
       125 -10.3272    185.6441    114.9197   5.7806430192e+01   2.2025083851e+01    0.3392969    0.1322622 -40.76  0.001222879    2.408    0.585
       126 -10.4365    119.3876    154.6273   8.2920205832e+01   2.6740227961e+01    0.3087972    0.1474245 -65.39 0.0009570551    3.338    0.700
       127  -9.5238    203.2821    115.3211   5.4660001916e+01   1.8327615489e+01    0.1385744    0.1100747  -7.68 0.0004344529    1.588    0.370
       128 -10.2861    192.6476    114.0197   5.6266355281e+01   2.0738039583e+01    0.3401317    0.1284884 -40.90   0.00123059    2.447    0.591
       129 -10.7577    108.7865    113.6823   7.6191473936e+01   3.8501766886e+01    0.4538424    0.2218728 -63.83  0.001374942    3.677    0.728
       130 -10.9477     79.5096    112.9813   8.5198235523e+01   4.3902457025e+01    0.4922025    0.3065444 -86.31  0.001709838    3.376    0.704
       131 -10.7634     93.0756    112.8954   8.0789799589e+01   4.1618148653e+01    0.3299856    0.2354519  78.95  0.001363051    2.268    0.559
       132 -11.0194     14.2654    110.5008   1.0743736359e+02   5.1945906510e+01    0.3617212     0.217279  87.69  0.001748764    2.053    0.513
       133 -10.2827    174.4889    110.4208   5.8929484190e+01   2.5274445251e+01    0.3198789    0.1413837 -41.88  0.001205529    2.150    0.535
       134  -9.9949    182.5830    108.2828   5.6792371715e+01   2.3947429876e+01    0.2929087    0.1325212 -44.62  0.001134301    2.091    0.522
       135 -10.2308    189.3744    106.7371   5.5135379646e+01   2.2793072624e+01     0.294571    0.1266804 -44.06  0.001133617    2.166    0.538
       136 -12.1552     46.2778    102.9533   9.4374603747e+01   5.0924271670e+01    0.7397423    0.4218247  68.10  0.002609663    3.913    0.744
       137 -11.6875     23.1350    102.4872   1.0282488163e+02   5.3269473218e+01    0.6652663    0.3550987  68.70  0.002523626    3.701    0.730
       138 -10.5305      3.0386    117.5305   1.1227522165e+02   5.0879405950e+01    0.2682601    0.1230763  68.79  0.001034546    3.527    0.716
       139 -10.6868    150.0000    102.5301   6.2255912979e+01   3.2210227891e+01    0.3416681    0.0855564 -41.73 0.0009337462    3.927    0.745
       140 -10.2819    159.0000    110.4829   6.2270449827e+01   2.8627738492e+01    0.3455603   0.08483195 -42.12 0.0009368486    3.952    0.747
       141 -11.0402    109.1099     99.0537   7.2097598245e+01   4.1686051935e+01    0.4466028    0.2914032  78.07  0.001587527    3.170    0.685
       142 -10.1538     82.3354    100.6402   8.1016683199e+01   4.6325783052e+01    0.1528178    0.1210953  81.05 0.0007039165    1.811    0.448
       143 -11.5867     64.3796     96.6287   8.6180780723e+01   5.0071996209e+01    0.4806069    0.3181391  73.34   0.00191079    2.944    0.660
       144 -10.3373     95.3131     97.6286   7.5928319834e+01   4.4680024781e+01    0.1537541    0.1230728  89.15 0.0001231454    1.780    0.438
       145 -10.6682      4.8610     91.7085   1.0772259034e+02   5.7047731786e+01    0.2448132    0.1535338  79.49  0.001244355    2.184    0.542
       146 -10.1476     82.0072    155.0072   9.3568312743e+01   3.2975739905e+01    0.3152246    0.1690675  69.59 0.0009532974    4.086    0.755
       147 -10.3956    124.4824     90.9646   6.5435686757e+01   4.0136717798e+01    0.2173469    0.1311395 -63.88 0.0008099609    2.547    0.607
       148 -11.3379     34.9886     90.0151   9.5587439849e+01   5.5193707320e+01    0.3897447    0.2263839 -75.90  0.001706997    2.408    0.585
       149 -11.2428     87.6515     87.5948   7.5488946986e+01   4.8249942921e+01    0.3804635    0.2561147  72.68  0.001492287    2.840    0.648
       150 -11.5503     49.5958     85.3174   8.8638402336e+01   5.4632354047e+01     0.529712    0.3378235  62.26  0.002245885    2.850    0.649
       151 -10.7697    105.0119     83.7174   6.8814408459e+01   4.5679638728e+01    0.3056971    0.1938664 -67.74  0.001177518    2.696    0.629
       152 -10.4916     49.7885    155.2000   1.0307994558e+02   3.7261187617e+01     0.252789    0.1333584  65.70 0.0009535935    2.814    0.645
       153 -10.3713     75.3104     81.6371   7.7924575033e+01   5.1655938266e+01    0.1417397    0.1183016  86.79 0.0007040161    1.749    0.428
       154 -10.3636      8.8290     80.6125   1.0401687441e+02   5.9410080334e+01    0.1651572    0.1122678  28.55 0.0009489006    1.743    0.426
       155 -10.4114    144.4212    154.2333   7.6312364226e+01   2.2092987152e+01    0.2238266    0.1481543 -58.46 0.0009521947    1.703    0.413
       156  -9.6092    211.6467     75.6749   4.4252426988e+01   2.3433236788e+01    0.1286762    0.1056845  16.44 0.0007047188    1.763    0.433
       157 -10.6303    132.9126    151.7199   7.8688667216e+01   2.4892718162e+01    0.4890172    0.2070577 -56.64  0.001594052    2.866    0.651
       158 -10.4893     42.5989     72.7836   8.7844634845e+01   5.8202386534e+01    0.1861511    0.1257096 -59.64 0.0009495735    1.677    0.404
       159 -11.4700     24.6625     80.7453   9.7489892610e+01   5.8260993234e+01     0.386011    0.2689982  85.69  0.001868213    2.248    0.555
       160 -11.2158     51.4867     69.6538   8.3224691999e+01   5.7727910506e+01    0.3976835    0.2501659 -68.72  0.001732593    2.697    0.629
       161 -10.7084     16.4986     69.5719   9.8171835441e+01   6.1372920454e+01    0.2733278    0.1117514 -59.42  0.001218794    2.197    0.545
       162 -11.3931    200.1420    147.7974   6.2535256843e+01   1.2721638908e+01    0.6456099    0.1955358 -42.25  0.002140024    3.005    0.667
       163 -11.0828     37.8329     64.6968   8.7381316004e+01   6.0424048528e+01    0.2357909    0.1825563 -83.25  0.001247621    2.129    0.530
       164 -11.0142     73.5710     59.7908   7.1356370608e+01   5.6158577556e+01    0.2567922    0.2204227 -70.79   0.00132027    1.663    0.399
       165 -11.6092      7.4078     55.3258   9.8547548869e+01   6.4983003291e+01    0.5060385    0.1306943 -58.23  0.001975911    3.183    0.686
       166 -11.1645     83.1770     73.4648   7.2590499321e+01   5.1914154346e+01    0.3258712    0.2271782 -82.45  0.001293732    3.101    0.678
       167 -10.5191     44.4704     55.0179   8.1256878498e+01   6.1495749679e+01    0.2908192    0.1266012 -51.71  0.001217087    2.647    0.622
       168 -10.2871     63.0152     55.0105   7.3613798219e+01   5.8780011998e+01     0.195409    0.1758847 -88.97 0.0009707207    1.678    0.404
       169 -10.9639     54.2282     53.7756   7.6682721093e+01   6.0361202384e+01     0.310942    0.1801616 -55.81  0.001411695    2.489    0.598
       170 -10.9933     30.8711     50.7148   8.5870936007e+01   6.3914437257e+01    0.3685547    0.1798946 -56.19  0.001682352    2.522    0.603
       171 -10.8005     45.1303     49.1545   7.8843929033e+01   6.2465281396e+01    0.2024456    0.1534544  -7.95 0.0004176286    1.210    0.173
       172 -10.4976     16.6542     43.6688   9.0326105865e+01   6.6592179592e+01    0.3398377   0.09230135 -50.60  0.001359717    3.091    0.677
       173 -10.5416     24.9806     58.7650   9.1269432194e+01   6.2939051874e+01    0.2226018    0.1651513 -62.62  0.001272436    1.625    0.384
       174 -12.8859    234.5825    146.6075   5.6210173772e+01   6.9145976526e+00    0.5952931    0.2507381 -43.00  0.002587071    2.041    0.510
       175 -10.9200     58.1193     42.2572   7.0732387967e+01   6.1675805888e+01    0.2321577    0.1788788 -62.52  0.001246463    2.148    0.534
       176 -11.1976      4.8048     39.8055   9.5156426326e+01   6.8190142715e+01    0.4610955    0.1523864 -60.75  0.001829374    3.750    0.733
       177 -10.3771     69.3303     41.6728   6.6200206489e+01   5.9850262966e+01    0.1222175     0.109156  88.71 0.0005163081    1.709    0.415
       178 -10.3599     36.5799     39.7593   7.9107165436e+01   6.5183730421e+01    0.2454612     0.107249 -38.90  0.001154995    2.134    0.531
       179 -10.1955    182.1210    149.8644   6.6634312060e+01   1.5711495730e+01    0.2890908    0.1629667 -48.29  0.001227172    1.762    0.432
       180 -10.8298     27.4309     30.4202   7.9733884207e+01   6.7795570394e+01    0.3742017   0.07467661 -37.27  0.001149724    5.456    0.817
       181 -10.7538     12.8503     29.2502   8.6937022823e+01   6.9462383203e+01    0.2971287    0.0630863 -47.32  0.001117253    3.864    0.741
       182  -9.7656    162.2903    149.6481   7.0980736869e+01   1.9622394712e+01     0.152775    0.1232574 -81.74 0.0007027309    1.673    0.402
