#   1 NUMBER                 Running object number                                     
#   2 MAG_AUTO               Kron-like elliptical aperture magnitude                    [mag]
#   3 X_IMAGE                Object position along x                                    [pixel]
#   4 Y_IMAGE                Object position along y                                    [pixel]
#   5 X_WORLD                Barycenter position along world x axis                     [deg]
#   6 Y_WORLD                Barycenter position along world y axis                     [deg]
#   7 A_WORLD                Profile RMS along major axis (world units)                 [deg]
#   8 B_WORLD                Profile RMS along minor axis (world units)                 [deg]
#   9 THETA_WORLD            Position angle (CCW/world-x)                               [deg]
#  10 FWHM_WORLD             FWHM assuming a gaussian core                              [deg]
#  11 ELONGATION             A_IMAGE/B_IMAGE                                           
#  12 ELLIPTICITY            1 - B_IMAGE/A_IMAGE                                       
         1 -14.0128    206.3837     21.3622   5.6534594472e+01   3.0519217664e+01     2.483628     1.327644  26.19  0.009458026    3.107    0.678
         2 -11.0889      2.3938      4.6591   1.0901177386e+02   7.3270366009e+01    0.4708556     0.120624 -53.38  0.002021998    3.396    0.706
         3  -9.6623    189.5186     15.4894   5.6886864350e+01   3.5505104148e+01    0.1406168    0.1325651 -88.74 0.0008102487    1.016    0.016
         4 -12.7495    138.4251    249.3166   1.1889411609e+02   7.7650346318e+00    0.7451781    0.1984316  46.41  0.003256348    2.896    0.655
         5 -11.5734     81.9614    249.3138   1.2826371211e+02   1.5773562087e+01    0.2655642    0.1871452  71.55  0.002030992    1.227    0.185
         6 -12.6586     84.4261    242.5465   1.2733305139e+02   1.6488386354e+01    0.3635234    0.2897226  46.24  0.002826557    1.307    0.235
         7 -12.0936    101.7876    248.5303   1.2494830532e+02   1.3203860563e+01    0.4520686    0.2683995  59.24  0.003048278    1.407    0.289
         8 -12.7786    105.3328    242.9186   1.2385408905e+02   1.3542247166e+01    0.4866038    0.3378741  57.09  0.002752424    1.124    0.111
         9 -12.0570     92.8914    249.0167   1.2645670072e+02   1.4357373517e+01    0.5048367    0.2635888  54.92  0.002066286    1.493    0.330
        10 -11.4092     95.4028    242.4785   1.2549063109e+02   1.5004576319e+01    0.3165514    0.1667095 -78.08  0.001897881    2.415    0.586
        11 -11.1385     62.7434    249.9449   1.3138509890e+02   1.8116247889e+01    0.3392886   0.09661235  49.38  0.001509464    2.454    0.592
        12 -15.1984      8.3343    244.7887   1.3941650610e+02   2.4871451530e+01     5.621125     1.865745  33.40    0.0165942    3.884    0.743
        13 -11.1269     46.9307    231.3602   1.3274785010e+02   2.2999655513e+01    0.1843358    0.1400804  76.56 0.0005948028    1.124    0.111
        14 -11.4844     42.1961    231.3597   1.3352486275e+02   2.3541240132e+01     0.203287    0.1451303  69.35 0.0007479858    1.023    0.022
        15 -11.9371    114.9318    248.5340   1.2276013603e+02   1.1337528603e+01    0.3105303    0.2378984  21.19  0.001888718    1.861    0.463
        16 -11.2198    150.4479    228.3602   1.1438465753e+02   8.8406520103e+00    0.2297922    0.1650068  40.34  0.001345734    1.154    0.133
        17 -10.4265    183.5927    248.7865   1.1123876492e+02   9.3197640424e-01    0.1291218    0.1091454 -59.94 0.0009630633    1.727    0.421
        18 -12.7683     35.1920    224.1769   1.3424933051e+02   2.5544298342e+01    0.3270455    0.2540309  63.07 0.0007313698    1.179    0.152
        19 -12.4336    127.1893    248.7269   1.2072351034e+02   9.5202564768e+00    0.4443246    0.3371381  11.26   0.00297793    2.116    0.527
        20 -10.1950    225.7711    200.6660   9.6714184837e+01  -3.0599967012e-03    0.3122504    0.2041063 -50.64 0.0009685323    2.422    0.587
        21 -14.4213     42.6832    215.0822   1.3240095503e+02   2.6312739846e+01      1.18736    0.9446424  22.21   0.00653236    1.997    0.499
        22 -14.2203     10.0013    206.6526   1.3751204049e+02   3.1199090745e+01     1.495145    0.7895066  85.05  0.006824707    1.506    0.336
        23  -9.8983    191.9969    192.9901   1.0142378005e+02   6.9435721845e+00    0.3420186    0.1895836 -65.89  0.001035363    7.011    0.857
        24 -11.5894     62.0034    191.9298   1.2695473491e+02   2.8334090351e+01    0.3028756    0.2454057 -50.50  0.001288578    1.668    0.401
        25  -8.6466    181.5135    192.4505   1.0330353400e+02   8.9217701065e+00    0.1311303    0.1125949  33.62 7.763267e-05    1.006    0.006
        26 -11.6453     67.8419    184.8797   1.2508183054e+02   2.8972460918e+01    0.2474407    0.2109666 -61.35 0.0007327645    1.402    0.287
        27 -10.8456     77.6431    173.2470   1.2170310102e+02   3.0005598861e+01    0.2105037    0.1855505  79.73 0.0003291999    1.073    0.068
        28 -13.1305     64.7086    170.4370   1.2414207324e+02   3.2326424493e+01    0.4517312    0.2534677 -48.11  0.002271874    2.300    0.565
        29 -12.0504     84.9680    164.8623   1.1900103208e+02   3.0702156496e+01    0.7774975    0.4582869  59.73  0.003440937    1.730    0.422
        30 -12.8206     67.5350    144.0862   1.2007183958e+02   3.7636648855e+01     0.947625    0.5447626  84.95  0.002764558    2.211    0.548
        31 -12.2120     56.9668    131.0814   1.2075224535e+02   4.1885973083e+01     1.665148    0.5225043 -74.79  0.004292769    7.042    0.858
        32 -12.0139     86.6535    148.1972   1.1612421046e+02   3.4024827790e+01    0.2625081    0.2241644 -55.57 0.0005437932    1.247    0.198
        33 -12.3654     55.2877    238.9133   1.3186489503e+02   2.0766720162e+01    0.3345657    0.2304022  80.79 0.0009759857    1.253    0.202
        34  -9.1855    100.9867    145.2339   1.1220752856e+02   3.2404656398e+01    0.2064571    0.1622429  -3.92  0.001057317    1.978    0.495
        35 -15.8066     12.8896    157.1707   1.3392656482e+02   4.0629064298e+01     8.780747     3.193985  71.53   0.03812084    3.470    0.712
        36  -9.5336    109.6004    135.4093   1.0828028860e+02   3.3067228679e+01    0.2935381    0.2117293 -13.69  0.001056453    2.316    0.568
        37 -10.4521     96.8968    132.1994   1.1080323628e+02   3.5935257756e+01    0.2583185    0.2230013 -30.16  0.000699357    1.399    0.285
        38  -9.2832    106.9225    122.6477   1.0630904840e+02   3.6331677632e+01    0.1894266    0.1722398  56.61 0.0004207816    1.112    0.101
        39 -10.3119    167.7848    112.7825   8.9367674595e+01   2.5847951434e+01    0.3506272    0.2838329 -81.27 0.0009176611    1.594    0.373
        40  -9.8039     98.1090    149.3737   1.1360678039e+02   3.1980111274e+01    0.2527841    0.1915206 -70.79 0.0008531327    1.304    0.233
        41 -10.9776      1.7186     89.9842   1.3010906443e+02   5.6001456770e+01    0.3721737    0.1031992 -73.56  0.001582395    2.860    0.650
        42 -11.0158      1.9945     80.4749   1.2873803136e+02   5.8072475957e+01     0.322661    0.1160805 -67.73  0.001098127    1.995    0.499
        43  -9.8252      1.4866     61.9889   1.2593094871e+02   6.2101897250e+01     0.175156    0.0872883 -67.51 0.0003690121    1.526    0.345
        44 -11.5864    248.2580    248.1700   1.0067629318e+02  -8.5317025388e+00      0.46675    0.2459597  19.50  0.002926011    1.739    0.425
        45 -10.9073    229.3726    249.0877   1.0378547596e+02  -5.9524235526e+00    0.2122712    0.1270683  38.89 0.0007139771    1.369    0.269
