#   1 NUMBER                 Running object number                                     
#   2 MAG_AUTO               Kron-like elliptical aperture magnitude                    [mag]
#   3 X_IMAGE                Object position along x                                    [pixel]
#   4 Y_IMAGE                Object position along y                                    [pixel]
#   5 X_WORLD                Barycenter position along world x axis                     [deg]
#   6 Y_WORLD                Barycenter position along world y axis                     [deg]
#   7 A_WORLD                Profile RMS along major axis (world units)                 [deg]
#   8 B_WORLD                Profile RMS along minor axis (world units)                 [deg]
#   9 THETA_WORLD            Position angle (CCW/world-x)                               [deg]
#  10 FWHM_WORLD             FWHM assuming a gaussian core                              [deg]
#  11 ELONGATION             A_IMAGE/B_IMAGE                                           
#  12 ELLIPTICITY            1 - B_IMAGE/A_IMAGE                                       
         1 -13.1300     37.3072     50.3278   8.9783684739e+01   6.3011522662e+01    0.8700044    0.6463469 -35.21   0.00529999    1.148    0.129
         2 -12.2048     77.1360     33.3866   6.7225420975e+01   5.9863389538e+01    0.9724674    0.5248248  12.27  0.003822437    3.147    0.682
         3 -12.0740     13.8151      3.7370   8.1698826043e+01   7.3082926145e+01    0.5334007    0.4646586 -55.23  0.002802479    2.143    0.533
         4 -10.2122     14.9711     14.2191   8.6276713220e+01   7.1470538002e+01    0.2070841    0.1433212 -38.76 0.0005380293    1.429    0.300
         5 -10.6024     32.7926      1.7962   7.0516805350e+01   7.1034055640e+01    0.2648883    0.1910224  37.91    0.0014797    1.568    0.362
         6 -11.5849     22.3037     25.9872   8.7595080829e+01   6.8907937296e+01    0.4530141    0.2790886 -27.12   0.00201283    1.361    0.265
         7 -11.0349     26.4510      2.9033   7.4301698367e+01   7.1748613494e+01    0.2734001    0.1936412  28.38   0.00109071    1.416    0.294
         8 -12.0634     21.2368     16.0525   8.3724588317e+01   7.0577116146e+01    0.5901749    0.4250512 -20.69  0.003444764    1.113    0.101
         9 -11.6163     21.1858      2.7481   7.7019531424e+01   7.2407990355e+01    0.3828372    0.2346719 -13.52  0.001963991    1.419    0.295
        10 -10.1178      5.3981     13.2646   9.1313034415e+01   7.2422077247e+01    0.2022553    0.1468895 -28.13 0.0007394406    1.102    0.092
        11 -11.4050      9.8405     15.5620   8.9781696952e+01   7.1710583078e+01    0.2584989    0.1650579 -21.79 0.0005163494    1.251    0.201
        12 -10.8869      2.0000     15.9585   9.4475538619e+01   7.2223158385e+01    0.3125412    0.1247869 -47.56  0.001251747    2.043    0.511
        13 -11.8538    102.6016     19.4316   5.4012572114e+01   5.6340414734e+01    0.5652097    0.4004078  70.71  0.002879166    1.643    0.391
        14 -11.9967     23.7152      7.9068   7.8384434345e+01   7.1450947843e+01    0.2523186    0.1891537  18.61 0.0002751099    1.290    0.225
        15 -11.8294    129.3947     19.3396   4.8019535448e+01   5.0175938616e+01     0.351945    0.2580678  35.00  0.000556971    1.399    0.285
        16 -11.6088     49.9387     15.3592   6.9647189908e+01   6.6908622631e+01    0.6065992    0.3195686  44.79  0.003204705    2.031    0.508
        17 -11.3499     40.0199     12.7207   7.2739548738e+01   6.8720141254e+01    0.4626531    0.2604318 -34.15  0.001919904    1.796    0.443
        18 -10.6190     33.9896     15.8509   7.7123840773e+01   6.9122637585e+01    0.3962783    0.1952268  10.01  0.001781618    2.945    0.660
        19  -9.6141     65.2846     12.2918   6.2231794194e+01   6.4659518031e+01    0.2061213     0.127897   4.80 0.0005572141    1.763    0.433
        20  -9.9776     62.4787     14.4608   6.4256116331e+01   6.4922910008e+01     0.268891    0.1819193  52.58  0.001039017    1.726    0.421
        21 -11.6485    233.7069     13.8375   3.3545303323e+01   2.6295535629e+01    0.5246796    0.1020245 -33.55  0.001896588    4.214    0.763
        22 -10.9997     80.9581      4.9700   5.3899105462e+01   6.2335274997e+01    0.4212554    0.2315931 -34.47  0.002225453    2.120    0.528
        23 -10.9735     74.4390      3.1823   5.5025289220e+01   6.3799364872e+01    0.4900555    0.3012626 -29.47  0.002813697    1.821    0.451
        24 -11.1062     74.1212     15.8412   6.0794689161e+01   6.2624397142e+01    0.4425775    0.4098863  66.15   0.00181385    1.429    0.300
        25 -11.0274     79.0410     10.5083   5.6887067932e+01   6.2212271199e+01    0.2358668    0.1753858  27.92 0.0004574528    1.175    0.149
        26 -11.1830     75.5560     10.4691   5.7951145180e+01   6.2905863440e+01    0.3016539    0.2194358  47.71   0.00101454    1.296    0.228
        27 -12.3895    178.9590      4.3442   3.6290260582e+01   3.9671571359e+01    0.3336863    0.2535591  82.59 0.0002840243    1.142    0.125
        28 -11.1390    175.6039     11.2665   3.8504368999e+01   3.9810326473e+01     0.337796    0.2538618 -26.40   0.00171681    1.527    0.345
        29  -9.9793    126.7105      2.5516   4.2802393537e+01   5.2341732801e+01    0.2403517     0.158487 -11.41 0.0008285926    1.811    0.448
        30 -11.7747    128.7959     11.0523   4.5320018981e+01   5.1123736794e+01    0.5606186    0.3626887 -60.55  0.002311991    1.991    0.498
        31 -10.1295    130.4144      6.7744   4.3593627518e+01   5.1116763542e+01    0.2094824    0.1893857  16.06 0.0008985469    1.223    0.182
        32 -10.4993     43.8537      8.7081   6.9010079571e+01   6.8642069963e+01    0.3098359    0.2178436 -18.31 0.0009442328    1.324    0.245
        33 -10.1819     31.0484     12.5882   7.6976794221e+01   6.9939755868e+01    0.1730687    0.1286973 -13.85 0.0004856192    1.118    0.105
        34 -10.6509    230.2936     11.1002   3.3229455255e+01   2.7323591670e+01    0.2183502    0.1100823 -24.19  0.001082716    2.550    0.608
        35 -10.6721    157.0782      9.9597   4.0500749929e+01   4.4411156916e+01    0.4010943    0.1204559 -35.90   0.00141836    3.205    0.688
        36  -9.7303    118.6758     12.3075   4.7702270877e+01   5.3390257896e+01     0.190105    0.1387979  33.54 0.0006919549    1.365    0.267
        37 -10.0120    117.5293      9.4676   4.6916318614e+01   5.3914470072e+01    0.2241175    0.1527921 -35.77 0.0008984825    1.661    0.398
        38 -10.0456    100.2173     11.8127   5.1638513272e+01   5.7627111230e+01    0.1796526    0.1297097  31.76 0.0003223925    1.300    0.231
        39 -10.4579    164.3886      9.2362   3.9323543733e+01   4.2709582806e+01    0.2443593    0.1903653 -49.79 0.0005814589    1.343    0.255
        40 -10.1381    164.5748      5.5086   3.8249943561e+01   4.3008521630e+01    0.2129754    0.1713444 -54.09 0.0005415413    1.292    0.226
        41 -11.7895      7.9870      9.0300   8.7808505607e+01   7.2869957929e+01    0.4114933    0.1805949  32.59  0.001528008    2.699    0.630
        42 -10.8596    236.9494      9.5030   3.2397609963e+01   2.6093321429e+01    0.1730729     0.103168  79.34 0.0004912441    1.565    0.361
        43 -12.3403    214.0927      6.1859   3.3445678812e+01   3.1378883851e+01    0.6113712    0.3740596 -70.42  0.003518321    1.510    0.338
        44 -11.4097    146.5900      6.7696   4.1029891649e+01   4.7237947036e+01    0.4295209    0.2971697  17.46  0.002134249    1.873    0.466
        45 -10.7993     98.0628      3.8847   4.9017148281e+01   5.8794305886e+01    0.3795447     0.201523  26.86  0.001756083    2.123    0.529
        46 -10.5152     91.3502      7.2691   5.2044231488e+01   5.9963732625e+01    0.3148067    0.1781493  39.71  0.001476454    1.556    0.357
        47 -10.4931     93.4692      4.4910   5.0366463152e+01   5.9745729560e+01    0.2083963    0.1685535  19.68 3.629559e-05    1.195    0.163
        48 -10.9876    191.6364      7.0838   3.5685179004e+01   3.6420195314e+01    0.3519151     0.230342 -24.35  0.001304621    1.807    0.446
        49 -10.7156    194.6823      2.0965   3.4173055205e+01   3.6192284325e+01    0.2663385     0.186343  74.32  0.001434025    1.267    0.211
        50  -9.5412    113.4538      7.8802   4.7168018712e+01   5.4995384832e+01    0.1651001     0.127692 -15.52 0.0004983891    1.450    0.310
        51 -10.3550     85.9974      7.3124   5.3493487757e+01   6.1089494191e+01     0.245793    0.1507265 -23.13 0.0004208322    1.758    0.431
        52 -10.8309     34.5064      7.3009   7.2599522502e+01   7.0158831656e+01    0.3278827    0.1756714  24.51  0.001093935    1.749    0.428
        53 -10.0444    141.3007      7.0440   4.1910790820e+01   4.8488440090e+01    0.1692128      0.16317 -34.84   0.00083162    1.183    0.155
        54  -8.9613     56.3076      5.7164   6.2408716464e+01   6.6936499795e+01    0.1004135   0.09833703 -81.29 0.0002170864    1.565    0.361
        55 -10.6710    223.4847      3.9862   3.2225275041e+01   2.9542237557e+01    0.1818172    0.1368068  88.89 0.0004207972    1.161    0.139
        56 -10.7821    203.4252      3.1753   3.3654231474e+01   3.4082083240e+01    0.2115742    0.1930423  62.58 0.0008743117    1.287    0.223
        57 -10.0288    117.9465      3.7506   4.4788904417e+01   5.4299690273e+01    0.1942353    0.1429787  49.10 0.0004162814    1.176    0.149
        58 -11.6792     66.7633      3.1549   5.7451979087e+01   6.5284989185e+01    0.3824828    0.2571439  45.34  0.002331968    1.326    0.246
        59 -10.9453    243.1592      2.8711   3.0631339883e+01   2.5523817371e+01     0.194769    0.1485766 -67.98 0.0004409105    1.021    0.021
        60 -11.5417    247.1222      7.6757   3.1325267563e+01   2.4206509633e+01    0.3054199    0.2135416  23.97  0.001709233    2.917    0.657
        61  -9.6416    183.8442      1.3316   3.5012510604e+01   3.8792571178e+01    0.1683099   0.09650208  65.87 0.0009032397    1.541    0.351
        62  -9.4644    166.2682      1.3638   3.6895215384e+01   4.2966798462e+01    0.1778445    0.1060924  82.64 0.0006667607    1.556    0.357
        63 -10.0997    149.9009      1.5579   3.8982998833e+01   4.6882857361e+01    0.2521578    0.1014974  64.67  0.001126099    2.026    0.506
        64 -10.5205    144.8359      1.3637   3.9618126898e+01   4.8115578589e+01    0.2266828    0.1090379  72.14            0    1.864    0.463
        65 -12.0899     36.1124    165.0704   1.1368467032e+02   3.6114216856e+01    0.6988212    0.4158292  87.23   0.00353735    1.708    0.415
        66 -10.6563    249.2036    248.0476   7.9651165847e+01  -1.1624591135e+01    0.4123383        0.195  -8.71  0.001978802    2.893    0.654
        67 -11.1612     88.6601    249.7180   1.1082033141e+02   1.0965206199e+01    0.2979699    0.1965581  33.61  0.001172017    1.464    0.317
        68 -10.0741     72.5694    250.1534   1.1399231782e+02   1.3060334672e+01    0.1843728     0.159459   8.20  0.001257872    1.651    0.394
        69 -12.8759     19.2113    237.9091   1.2316634503e+02   2.1699189461e+01     0.682552    0.3472722  51.74  0.004217373    1.561    0.359
        70 -12.1253     28.9315    248.3153   1.2199604499e+02   1.8670625358e+01     0.513356     0.272396  75.36  0.003136858    1.700    0.412
        71 -11.7764      4.6290    236.2440   1.2569695127e+02   2.3457248127e+01    0.3940705    0.2994413 -71.01  0.002967947    1.513    0.339
        72 -13.3630      5.8452    245.0373   1.2588157907e+02   2.1656422369e+01    0.8950597    0.5579668  43.18  0.004468053    1.486    0.327
        73 -12.1914     21.8874    248.9639   1.2328308675e+02   1.9303349596e+01    0.4337437    0.2381405  45.40  0.001793917    1.504    0.335
        74 -11.2107     17.2732    247.4123   1.2401291646e+02   2.0074294982e+01    0.2227426     0.147717  58.63 0.0008465253    1.152    0.132
        75 -10.7814     36.9582    157.9582   1.1262899089e+02   3.7773148399e+01    0.2864831    0.1889431  62.86 0.0003744687    1.578    0.366
        76 -11.9569     50.5272    161.8452   1.0955206856e+02   3.5315721412e+01    0.6570035    0.4320861  65.10  0.002179752    1.627    0.385
        77  -9.1866    177.2701    168.6745   7.8909056347e+01   1.2310726825e+01    0.1401515    0.1193144 -82.42 0.0002039257    1.575    0.365
        78  -9.9668     68.4997    166.3636   1.0546273258e+02   3.1916393931e+01    0.4531806    0.1962613  61.97  0.001417275    4.233    0.764
        79 -11.2283     44.5658    162.2324   1.1116557632e+02   3.5902907888e+01    0.3578338    0.2124857 -64.99  0.001381034    1.493    0.330
        80  -9.9251     99.1621    164.8958   9.7159063418e+01   2.7638939719e+01    0.2185606    0.1909751  80.19 0.0003598453    1.181    0.154
        81  -8.9611    200.3123    162.6615   7.2793523991e+01   9.1165607799e+00    0.1401782    0.1171262 -77.35 0.0007046034    1.693    0.409
        82 -12.3634     22.2936    156.8747   1.1632243733e+02   3.9436679058e+01    0.5483905    0.5258862  19.84  0.003778131    1.314    0.239
        83  -9.3720    216.3889    155.2069   6.8073016370e+01   7.5199932123e+00    0.1937274    0.1242829 -46.00 0.0004509714    1.574    0.365
        84  -9.4940    157.4986    155.0307   8.0458581701e+01   1.9058371031e+01    0.2293738    0.1292435 -24.95 0.0008098292    2.679    0.627
        85 -10.1991     10.8838    153.1663   1.1887365754e+02   4.1269361258e+01    0.2298946     0.159968  34.48  0.001401158    1.637    0.389
        86 -10.0245    177.5152    151.0105   7.5009210478e+01   1.5877060551e+01    0.2899607    0.2174461  60.34  0.001363433    1.629    0.386
        87  -9.6118     33.0630    148.0387   1.1243899968e+02   4.0619642771e+01     0.163709    0.1314968 -75.35 0.0004689897    1.062    0.058
        88 -10.6867     17.2224    147.0377   1.1660435189e+02   4.2265529074e+01    0.2559066    0.1922599 -27.32 0.0008682926    1.731    0.422
        89  -9.1366     41.4142    146.4367   1.0991490006e+02   4.0173032647e+01    0.1359608    0.1163819 -82.79 7.737829e-05    1.044    0.042
        90 -10.2423    207.0703    146.3186   6.7877076156e+01   1.0930712282e+01    0.1977521     0.186096  25.31 0.0006870883    1.129    0.114
        91  -9.6768    220.4752    143.9802   6.4868589073e+01   8.8068442074e+00    0.2170021    0.1280168 -38.90 0.0008171941    1.533    0.347
        92  -9.7336    239.9490    140.5327   6.0798103622e+01   5.8742041241e+00    0.1832405     0.135275  40.89  0.001011416    1.538    0.350
        93  -9.5724     82.3796    139.7956   9.7054396597e+01   3.6525020707e+01    0.2158483    0.1270725 -49.19 0.0009405302    1.636    0.389
        94 -10.3731     56.4299    139.4719   1.0454889871e+02   4.0207730342e+01    0.3324037    0.2376586  63.41  0.001694981    1.579    0.367
        95 -11.1114      2.6484    137.1694   1.1950310385e+02   4.5701784944e+01    0.3010631    0.1530743 -81.55 0.0009234245    1.654    0.395
        96 -10.4802      9.2978    136.9215   1.1766564765e+02   4.5325826536e+01    0.1835171    0.1291908 -73.79 0.0003939145    1.142    0.124
        97  -9.9190     20.9636    135.4888   1.1423214764e+02   4.4806495650e+01    0.2138175    0.1418967 -71.87 0.0006950733    1.249    0.199
        98  -9.5799    123.1582    135.3920   8.4641875371e+01   3.0401838957e+01    0.2197128    0.1444664  52.01 0.0005528532    1.667    0.400
        99  -9.9868    249.4845    133.9961   5.7910008268e+01   5.3204578940e+00    0.2071804    0.1136317 -37.38 0.0006069118    1.538    0.350
       100 -10.3868    108.5354    133.4960   8.8224410194e+01   3.3638616286e+01    0.1536551    0.1483992 -48.23 0.0001661681    1.015    0.015
       101 -10.3289     55.3235    132.9284   1.0374582449e+02   4.1991244731e+01    0.3260196    0.1670645  41.01  0.000984858    2.091    0.522
       102 -11.1218     36.4163    130.6687   1.0904383662e+02   4.4630732641e+01    0.4488093    0.3241281  -6.30  0.002203725    1.857    0.462
       103 -10.8651     73.9725    129.4379   9.7452034146e+01   4.0375682354e+01    0.3173566    0.2564745 -67.59 0.0008978157    1.197    0.164
       104  -9.0893     59.0685    128.9675   1.0188996055e+02   4.2522725993e+01    0.1682867    0.1471514 -64.40    0.0002881    1.032    0.031
       105  -9.0343      9.3208    129.3123   1.1681703880e+02   4.7179012510e+01    0.1307106   0.07817299 -47.68 0.0003698676    1.651    0.394
       106 -10.2396     24.3548    125.8615   1.1195349070e+02   4.6912824891e+01    0.2294336    0.1393175 -61.47 0.0006752266    1.361    0.265
       107 -11.4773     21.7414    121.1862   1.1207778321e+02   4.8277730513e+01    0.5212911     0.226068 -39.78            0    2.703    0.630
       108 -10.7127     24.9900    118.1374   1.1061290555e+02   4.8769945513e+01    0.4547047    0.2542965 -86.13  0.002158675    1.996    0.499
       109 -10.8501     13.4216    126.1773   1.1525151300e+02   4.7665987409e+01    0.3370452    0.2174577  22.58  0.001175736    1.880    0.468
       110 -11.0880     10.8112    122.9942   1.1562689739e+02   4.8621704858e+01    0.2795415    0.2236928  81.48  0.001201558    1.251    0.201
       111 -10.0713    220.2050    124.5728   6.0542756497e+01   1.2386518238e+01    0.1839317    0.1355961  33.49 0.0009325722    1.562    0.360
       112 -10.6401      2.9149    123.0453   1.1795738726e+02   4.9097814793e+01    0.2248887    0.1719546 -58.55 0.0007267304    1.178    0.151
       113 -10.0659      1.3989    119.0231   1.1794953224e+02   5.0153125826e+01    0.1936167    0.1253136 -86.63 0.0003296566    1.387    0.279
       114  -9.6994     15.5889    119.5445   1.1373442304e+02   4.9138714787e+01    0.1300098    0.1044579 -67.80 1.315524e-05    1.018    0.018
       115 -10.3673     72.3754    117.4472   9.5375012309e+01   4.3582842222e+01    0.3741769    0.1400396 -61.07  0.001263117    2.845    0.649
       116 -10.2802     86.0066    116.8995   9.0983896869e+01   4.1604555648e+01    0.2318096    0.2132279 -46.35 0.0006040231    1.026    0.026
       117  -9.8076    213.9824    115.6606   5.9543090683e+01   1.5265535716e+01    0.1928272    0.1812531  40.30 0.0005071351    1.166    0.142
       118 -10.7336     15.8469    115.9105   1.1314767379e+02   5.0009418608e+01    0.1905515    0.1811374 -47.10 0.0004657654    1.189    0.159
       119 -12.6286     14.0551    109.1665   1.1273509899e+02   5.1772761204e+01    0.7583987    0.3331138 -42.21  0.003501941    2.294    0.564
       120 -10.1849     13.9930    103.5872   1.1189909409e+02   5.3123961775e+01    0.2482208    0.1236908  -1.89  0.001143373    2.921    0.658
       121 -10.8901    249.3670    112.2785   5.3265507723e+01   8.9551942067e+00    0.2496901    0.1979513 -50.46 0.0006434513    1.190    0.160
       122  -9.8960     94.9511    112.6786   8.7197105012e+01   4.1092784515e+01    0.2106365    0.2057938  36.04  0.001006455    1.076    0.070
       123 -10.3827      1.3157    109.1736   1.1679671910e+02   5.2521775662e+01    0.4460377    0.1842444  84.93  0.001239578    3.566    0.720
       124 -10.5910      2.4873    105.5030   1.1594987338e+02   5.3337908281e+01     0.190582    0.1725456 -49.48 0.0005433678    1.188    0.159
       125 -11.3174     55.1306    110.2813   9.9379484441e+01   4.7655870772e+01    0.2798852    0.2602395 -24.42 0.0004458034    1.129    0.115
       126 -11.5590     36.7605    109.8104   1.0538412953e+02   4.9776510414e+01    0.4059385     0.272882  67.57  0.001374537    1.945    0.486
       127 -10.0071     82.7941    109.3052   9.0137460159e+01   4.3956471302e+01    0.2706135     0.184669 -59.92  0.000707944    1.488    0.328
       128 -10.8962     25.5985    108.3094   1.0881716744e+02   5.1131799495e+01    0.3890306    0.1903999 -87.67   0.00154354    2.990    0.666
       129  -9.6800     70.6880    108.0315   9.3735381489e+01   4.6122496692e+01    0.2139217    0.1792777 -54.88 0.0006258252    1.113    0.102
       130 -10.5957    243.7870    104.6514   5.2379369414e+01   1.1255346430e+01    0.1901207    0.1541602 -33.85 0.0007206722    1.123    0.110
       131  -8.9858    186.3236    104.2865   6.1843596494e+01   2.3382665386e+01     0.149799    0.1195429  10.33 0.0002298188    1.602    0.376
       132 -10.2488    119.6550    101.6614   7.6965682689e+01   3.8839792710e+01    0.3113728    0.1914154 -20.09  0.001150793    2.487    0.598
       133  -9.0642    223.2890    103.7025   5.5200334090e+01   1.5474730957e+01    0.1405228    0.1032099 -64.61 0.0002835547    1.555    0.357
       134 -10.3461     37.8368    102.3668   1.0356111193e+02   5.1485931354e+01    0.2523161    0.1413664 -48.77 0.0005674267    1.545    0.353
       135 -10.3637     39.7905     96.7574   1.0169085378e+02   5.2639538611e+01    0.4878615    0.2471339 -74.28  0.002015921    2.519    0.603
       136 -10.5592     26.0328    102.6360   1.0766753103e+02   5.2474177241e+01    0.2370573    0.1673161 -72.04 0.0003917639    1.310    0.237
       137 -11.6509      2.5579     97.3817   1.1479693741e+02   5.5262312188e+01    0.4772652    0.2406576  81.77  0.002184596    2.714    0.632
       138 -11.3426    143.6419     98.3680   6.9688821356e+01   3.4307371452e+01    0.4841144    0.3905747  81.74  0.002227715    1.555    0.357
       139 -10.9427     61.7514     98.6246   9.4439147817e+01   4.9617907300e+01    0.3192808    0.2892254 -39.89 0.0008839013    1.017    0.017
       140 -10.1982     66.3441     98.0677   9.2723344316e+01   4.9117252437e+01    0.2236479    0.1927786  -3.69 0.0005248492    1.252    0.201
       141 -11.5057    161.9787     98.2047   6.5329033193e+01   3.0138407449e+01    0.2864589    0.2287049 -39.06  0.001026929    1.230    0.187
       142  -9.9059     50.8894     99.3062   9.8365590938e+01   5.0820735010e+01    0.1828746    0.1706986 -21.02 0.0006086236    1.115    0.103
       143 -11.0483     14.7851     96.9901   1.1054430292e+02   5.4651084811e+01    0.3598905    0.1646942 -62.81  0.001753476    1.708    0.415
       144  -9.6695    249.8622     95.8115   4.9628531066e+01   1.1547915714e+01     0.181742    0.1364026 -57.11 0.0004252514    1.292    0.226
       145 -10.5393     93.3876     95.7788   8.3162240893e+01   4.5277074329e+01    0.2247505    0.1329667 -38.18 0.0004717818    1.707    0.414
       146  -9.9157     57.4920     96.5089   9.5391429705e+01   5.0675271086e+01    0.1422528     0.127087 -44.00 -5.029322e-05    1.007    0.007
       147 -11.1383     26.6160     92.8452   1.0557646553e+02   5.4769086743e+01    0.6121559    0.2976449 -82.37  0.002387856    3.210    0.688
       148 -10.8327     20.8073     93.6818   1.0782576913e+02   5.5020053847e+01    0.4686957   0.05409066 -58.33  0.001468527    3.972    0.748
       149 -11.2143    157.0273     82.3957   6.2009426817e+01   3.4313040034e+01    0.9681943      0.45102  32.18  0.002860192    4.099    0.756
       150 -12.7528    158.3131     89.8522   6.3837830857e+01   3.2611996880e+01    0.6101221    0.5460191  14.20  0.003154926    1.246    0.197
       151 -10.3114    108.9853     92.4026   7.7397869718e+01   4.3031475082e+01    0.4077731    0.1860472 -44.87  0.001522216    2.142    0.533
       152  -9.9018     31.4858     92.9519   1.0384084461e+02   5.4329801911e+01    0.1990182    0.1144226 -60.92 0.0003642922    1.493    0.330
       153  -9.4966     46.7430     92.6056   9.8252028618e+01   5.2882956273e+01    0.1689924    0.1280246  38.98 0.0003000407    1.518    0.341
       154 -12.1692    165.9963     83.7772   6.0476967221e+01   3.1935298640e+01    0.8802574    0.6556641  63.32  0.004223771    1.423    0.297
       155  -9.9828     32.0213    103.7958   1.0583890498e+02   5.1683399595e+01    0.2897058    0.1795642  71.13  0.001354008    2.351    0.575
       156 -10.7679     96.0355     90.0564   8.0674162200e+01   4.6052209306e+01    0.3675133    0.2549243  13.54  0.001628595    1.870    0.465
       157  -9.4677     35.6796     91.3297   1.0196497936e+02   5.4327398579e+01    0.2039556    0.1647235  45.02 0.0009736268    1.485    0.327
       158  -9.8170     38.4414     89.7501   1.0059427339e+02   5.4429182683e+01    0.2096707    0.1160656 -56.18  0.001018405    1.538    0.350
       159 -11.4890     11.4467     90.8113   1.1064925815e+02   5.6321094699e+01    0.3282457    0.2224907  16.75 0.0005528357    1.774    0.436
       160 -10.4486     82.9678     88.8547   8.4567704803e+01   4.8641622816e+01    0.2262149    0.1855154 -17.25 0.0005387391    1.281    0.220
       161 -11.0172     78.5404     87.5454   8.5679846418e+01   4.9665947578e+01    0.4289092    0.2281182 -54.09  0.001800927    1.939    0.484
       162  -9.9827     58.7302     89.4332   9.3139857085e+01   5.2160636697e+01    0.2677866    0.1298952  36.50  0.001148567    2.239    0.553
       163 -11.0864     46.7593     87.4733   9.6982010199e+01   5.4074897093e+01    0.4965901    0.2520495 -65.03   0.00189882    2.185    0.542
       164  -9.9640     43.3043     83.0189   9.7133321571e+01   5.5476594318e+01    0.2724844    0.1634532  45.41  0.001296465    2.130    0.530
       165 -10.2471     65.2064     87.4067   9.0279261818e+01   5.1734433777e+01    0.2929978    0.2034543  28.37  0.001222086    1.549    0.355
       166 -10.4489     67.4854     84.4772   8.8641432890e+01   5.2059621452e+01    0.3327301    0.2063153 -31.01  0.001535261    1.726    0.421
       167 -11.0164     21.9844     86.6362   1.0599748837e+02   5.6587839289e+01    0.3362625    0.2386288 -25.75  0.001965055    1.470    0.320
       168  -9.5476    139.0436     87.7635   6.7798272571e+01   3.7483416254e+01    0.2012718    0.1295239  49.87 0.0005778581    1.570    0.363
       169  -9.4354     51.2555     86.1890   9.4996219381e+01   5.3844946729e+01    0.1762533    0.1560572 -79.86 0.0007862892    1.332    0.249
       170 -12.0652      5.6712     83.7132   1.1149805289e+02   5.8295256569e+01     0.833254    0.4084161 -78.72   0.00403861    2.166    0.538
       171 -11.8321     19.9924     61.9446   1.0094284829e+02   6.2249754712e+01    0.5621137    0.3886936 -56.83  0.002372007    1.310    0.236
       172 -12.6519      3.5429     64.5079   1.0855807738e+02   6.2709846954e+01    0.8924867    0.3500851 -61.60  0.004368308    1.970    0.492
       173 -11.7445      5.1311     58.7556   1.0656463604e+02   6.3868537172e+01    0.3012801    0.2698819  63.52   0.00068444    1.505    0.336
       174 -12.3597     13.3560     75.7893   1.0701376177e+02   5.9665247307e+01    0.4828885    0.2598639 -53.85 0.0008564444    1.437    0.304
       175 -11.6354      8.3144     73.9647   1.0862108088e+02   6.0372038983e+01    0.4385388    0.2455654 -11.61  0.002372687    2.132    0.531
       176 -13.6406     16.2836     67.7594   1.0399822390e+02   6.1259653859e+01    0.3506797     0.282705 -34.55  0.000734581    1.099    0.090
       177 -11.4664     21.8659     66.6580   1.0139877599e+02   6.1095724687e+01    0.3645214    0.2103924  48.71 0.0004830486    2.631    0.620
       178 -10.5726    115.4747     84.0023   7.2989699754e+01   4.3438275752e+01    0.3720881    0.2139806  37.94 0.0008117846    1.822    0.451
       179 -11.4311     30.3608     81.7104   1.0173651899e+02   5.7044092111e+01    0.2700029    0.2342732  -0.38  0.001313825    1.263    0.208
       180 -10.5939     35.2944     79.1801   9.9214531599e+01   5.7164618644e+01    0.3230688    0.2056183 -23.44  0.001359728    1.716    0.417
       181 -10.3956     74.0985     82.1662   8.5629922035e+01   5.1556643956e+01     0.239319    0.1882927 -15.36  0.001244864    1.353    0.261
       182 -11.5822     61.0462     78.4654   8.9226044023e+01   5.4299382395e+01    0.4021591    0.2499731 -59.19 0.0003514731    1.772    0.436
       183 -12.0857     62.4941     71.4924   8.6562442431e+01   5.5578693905e+01    0.4001089    0.2672112 -18.25  0.001173816    1.719    0.418
       184  -9.7319    146.4960     80.9642   6.3990957037e+01   3.7059342310e+01    0.2371247    0.1502459 -37.63  0.001030493    1.584    0.369
       185  -9.7301     86.5819     80.7796   8.0942837992e+01   4.9755026834e+01    0.2011873    0.1376945 -54.22 0.0009385856    1.586    0.369
       186 -11.0871     21.8628     73.8168   1.0318589283e+02   5.9521254823e+01    0.6386257    0.3226154 -82.72  0.002430358    3.884    0.743
       187 -10.4844     21.3036     81.3327   1.0512478752e+02   5.7863154917e+01    0.3974056     0.180252 -29.62  0.001734815    2.645    0.622
       188 -10.8517     18.5429     79.4311   1.0577394275e+02   5.8496322104e+01    0.2308172    0.1672961 -38.40   0.00080744    1.225    0.184
       189 -12.6999     44.7282     75.2975   9.4509155631e+01   5.7043926155e+01    0.2664393    0.2592303 -45.30 0.0005759168    1.191    0.160
       190 -11.6640     38.9443     68.4679   9.4857463307e+01   5.9152435779e+01    0.5740205    0.4607135  37.67  0.002178341    1.501    0.334
       191 -10.4053     31.6954     67.9887   9.7682572315e+01   5.9973224828e+01    0.2247076    0.1701474 -11.87 0.0003819468    1.350    0.259
       192  -9.7172     33.0380     64.4896   9.6130646652e+01   6.0592806031e+01    0.1822171    0.1535994 -27.05 0.0005416247    1.056    0.053
       193  -9.9826    173.3819     83.7669   5.8970193435e+01   3.0188476419e+01    0.2656646    0.2082896 -50.80 0.0008754116    1.273    0.215
       194 -10.5577     91.1398     75.4794   7.7770005232e+01   5.0015192145e+01    0.2875705    0.2014805 -41.05  0.001399967    1.384    0.278
       195 -10.2105     74.4280     75.2523   8.3394408412e+01   5.2972212287e+01     0.273681    0.2044444 -14.87  0.000771598    1.466    0.318
       196 -10.9633    207.7966     73.2522   5.0246636557e+01   2.3965238009e+01    0.2285039    0.2158719 -47.93 0.0002625282    1.085    0.079
       197  -9.9964    145.7010     74.0745   6.2127480219e+01   3.8501364990e+01     0.216798    0.1941772 -34.92 0.0008153207    1.129    0.114
       198  -9.9839    137.3444     74.0222   6.4102598556e+01   4.0470227411e+01    0.2119482    0.1845529 -32.38 0.0002953451    1.164    0.141
       199  -9.6184     84.5276     74.4323   7.9633497098e+01   5.1428457138e+01    0.1459679    0.1326275 -10.69 1.698291e-05    1.036    0.035
       200 -11.0523     53.9672     73.9844   9.0559256970e+01   5.6213880856e+01    0.2723965    0.2414997  89.86 0.0009282505    1.501    0.334
       201 -11.8673     50.2856     68.6458   9.0371806733e+01   5.7812675884e+01    0.4376531    0.3031722  -8.49 0.0008179343    1.633    0.388
       202 -10.8724     51.8147     62.5854   8.7838353770e+01   5.8863904934e+01    0.3057247    0.2324275 -29.25 0.0008461416    1.174    0.148
       203 -11.0715     48.0792     56.7115   8.7392598903e+01   6.0505388551e+01    0.3647283    0.2651494 -42.89   0.00165004    1.276    0.216
       204 -10.4259    102.4286     73.1320   7.3434450715e+01   4.8285333825e+01    0.2911633    0.1973898  60.99  0.001086613    1.924    0.480
       205  -9.8125    128.9911     71.5515   6.5435325202e+01   4.2840779379e+01    0.2226241    0.1455411  49.42 0.0003565134    1.512    0.338
       206 -11.0560     77.1884     69.9131   8.0700884456e+01   5.3605281295e+01    0.4781282    0.3413606  20.10  0.002417336    1.515    0.340
       207 -10.8136     76.9651     64.3347   7.8912063989e+01   5.4734556625e+01    0.4067927    0.2831692 -43.21  0.002080297    1.418    0.295
       208  -8.9831    194.6683     69.6547   5.1372433988e+01   2.7566805855e+01    0.1451099    0.1132398  18.73 0.0007050098    1.760    0.432
       209  -9.6927    189.2326     68.6806   5.2006250417e+01   2.9002055969e+01    0.2135705     0.169725  88.77 0.0003911533    1.361    0.265
       210  -9.5219    110.4098     68.7851   6.9631501712e+01   4.7448374689e+01    0.1923471    0.1392093 -24.06 0.0001541331    1.486    0.327
       211 -11.9454     93.6882     66.7491   7.4070982578e+01   5.1228190667e+01    0.3306746    0.2699178  12.15 0.0005909602    1.280    0.219
       212 -10.1526     99.4787     65.5220   7.1825768421e+01   5.0311703830e+01    0.2643842    0.2042634 -32.47 0.0008641509    1.280    0.218
       213 -10.3447     10.8886     62.4918   1.0498467180e+02   6.2747309472e+01    0.2194511    0.1420948 -52.95 0.0005804205    1.227    0.185
       214  -9.6494    201.8396     61.8583   4.8270552969e+01   2.7117780610e+01     0.194039    0.1532485 -71.92 0.0006087141    1.284    0.221
       215  -9.4635    109.3591     62.1922   6.7739732354e+01   4.8851598231e+01    0.2077704    0.1330807 -45.34  0.000946288    1.673    0.402
       216 -10.3006    119.9732     61.2408   6.4472933133e+01   4.6684675302e+01    0.4000818    0.1890491  50.94  0.001161873    2.082    0.520
       217 -11.0331     85.9395     60.0214   7.4309851685e+01   5.3937737704e+01    0.3997535    0.2797827  16.86  0.001900584    1.623    0.384
       218 -10.5417     44.9157     51.9077   8.7050470401e+01   6.1823417807e+01    0.3032783    0.1722248 -44.23  0.001562257    1.594    0.373
       219 -11.1824     28.8651     60.7516   9.6799720203e+01   6.1767225197e+01    0.5270465    0.3573955  30.85  0.003056996    1.712    0.416
       220 -11.2237     43.3740     37.9627   8.2476374557e+01   6.4522729632e+01    0.6244091    0.3471378  49.73  0.002843808    3.118    0.679
       221 -11.4778     33.0302     43.5884   8.9302982713e+01   6.4741099815e+01    0.8483486    0.4072127  -6.50   0.00319599    3.984    0.749
       222 -11.6558    235.0288    248.9902   8.2269019977e+01  -9.9967503032e+00     0.318008    0.2097059  -1.75  0.001779638    1.335    0.251
       223 -12.2107     26.6814     49.1266   9.4133626633e+01   6.4315170826e+01    0.6399801    0.3319603 -57.19  0.003226157    2.022    0.505
       224  -9.8044    183.2534     60.3829   5.0776533301e+01   3.1734178676e+01    0.1912696    0.1338693  75.44 0.0003598316    1.528    0.346
       225 -10.1955    155.0697     60.4843   5.6001550425e+01   3.8544893802e+01    0.2228412    0.1410278  56.65 0.0003925352    1.536    0.349
       226  -9.7544     98.2023     60.2050   7.0402547272e+01   5.1523150151e+01    0.2109768    0.1819323  -1.65 0.0003527108    1.160    0.138
       227 -11.3853     58.9981     58.4258   8.3585436667e+01   5.8698056376e+01    0.3471097    0.2888122 -60.42  0.001560746    1.525    0.344
       228 -11.1884     62.5192     52.7959   8.0203686479e+01   5.9225873152e+01    0.5178587    0.1871094 -41.70  0.002032769    2.608    0.617
       229 -10.0580    166.8863     56.6215   5.2577309636e+01   3.6271446399e+01    0.2193464    0.2023977 -16.67 0.0004305526    1.197    0.165
       230 -10.5539    147.0156     56.7889   5.6562158386e+01   4.1073062453e+01    0.2522222    0.2066731 -45.74 0.0002439404    1.264    0.209
       231 -11.7258     75.2301     56.0683   7.6634310787e+01   5.6567663648e+01    0.2399926    0.2073818 -24.14 0.0002790283    1.096    0.087
       232  -9.8851     98.9676     55.9722   6.8684743657e+01   5.2095725591e+01    0.2370799    0.1667455  14.53 0.0009803681    1.703    0.413
       233  -9.3374    230.6712     55.3242   4.2964539321e+01   2.1645192726e+01    0.1419346   0.08709875 -64.68 0.0007049785    1.698    0.411
       234  -9.8632    132.4610     54.7736   5.9199797304e+01   4.4858365970e+01    0.3683594    0.1731724  40.10  0.001400186    2.382    0.580
       235 -11.7234    129.7160     49.2885   5.8048542211e+01   4.6337471574e+01    0.6226813    0.4388299 -21.05  0.002685463    1.588    0.370
       236 -11.0484      6.9377     41.1710   1.0093357761e+02   6.7360228798e+01    0.2603556     0.130998 -42.94 0.0004772948    1.506    0.336
       237 -11.5750      6.6787     51.6987   1.0408564182e+02   6.5263701752e+01     0.381646    0.2612745 -25.45  0.001573522    1.328    0.247
       238 -10.6472      4.1427     46.2389   1.0377370502e+02   6.6513499347e+01    0.3219681    0.1265545 -54.25  0.001129559    1.899    0.473
       239 -11.1522     12.8246     51.6122   1.0124740791e+02   6.4907515087e+01    0.4921622    0.1912554 -53.10  0.001512347    1.975    0.494
       240 -10.7096     11.4618     45.0742   9.9946051953e+01   6.6310048806e+01    0.4084751     0.232939 -55.45  0.001701648    1.556    0.357
       241 -10.9541    119.5680     52.0029   6.1475053993e+01   4.8272366094e+01    0.4027217    0.3018529  70.82  0.001264205    1.607    0.378
       242 -11.6927    104.9958     52.7041   6.5726941011e+01   5.1373772511e+01    0.2770261    0.2363768  47.05  0.000193155    1.180    0.152
       243 -11.4519     88.1763     51.4887   7.0501215372e+01   5.4994050081e+01     0.303371     0.244853  11.19 0.0007373535    1.243    0.195
       244  -9.8656    237.8181     51.1846   4.1251352678e+01   2.0720416704e+01    0.1588769    0.1558719  11.55 0.0005137874    1.326    0.246
       245  -9.7972     73.7912     51.1692   7.5362733768e+01   5.7678880647e+01    0.1962187    0.1497634  -2.74 0.0005658564    1.350    0.259
       246  -9.0785     82.7792     40.9681   6.8322896895e+01   5.7696139492e+01    0.1830965    0.1241323 -42.74 0.0003300447    1.660    0.398
       247 -12.0057    232.7235    244.6298   8.1975032938e+01  -9.1507318074e+00    0.5375386     0.186716 -29.55  0.002386471    3.185    0.686
       248 -10.9874     80.9706     35.7340   6.6866210704e+01   5.8808053476e+01    0.6642848    0.3195182 -14.84   0.00235001    3.468    0.712
       249 -10.5421     71.4770     41.0491   7.2326205122e+01   5.9747548410e+01    0.1914053    0.1244218 -31.20 -8.602192e-06    1.498    0.332
       250 -11.5249     68.3079     38.5873   7.2518301297e+01   6.0676947189e+01     0.561564    0.3077023 -15.06  0.002343622    2.447    0.591
       251 -10.8689     57.3204     46.5302   7.9925325111e+01   6.1122841714e+01    0.3072263    0.1729631  20.11  0.001113601    2.035    0.509
       252 -10.5082    152.1934     47.5934   5.2675292718e+01   4.1185113158e+01    0.3052053    0.1242129  54.58 0.0009305418    2.254    0.556
       253 -10.4803    112.7426     47.2949   6.1647773595e+01   5.0524275598e+01    0.3296094    0.2483798 -77.83  0.001380435    1.994    0.499
       254  -9.4960    119.9386     47.0880   5.9697350246e+01   4.8930353785e+01    0.1649183    0.1583992  21.55 0.0006031243    1.033    0.032
       255 -10.8002    142.6780     45.4198   5.3914457748e+01   4.3802775312e+01    0.3704778    0.2467164 -66.02  0.001684851    2.014    0.504
       256 -10.9014    102.0850     28.9871   5.7816609597e+01   5.5363851090e+01    0.3948087    0.3167543  83.45  0.000694096    1.666    0.400
       257 -10.8361     91.8461     43.0704   6.6183081177e+01   5.5600609729e+01    0.3990507    0.2439234 -41.51  0.001937953    1.789    0.441
       258 -10.5569     96.2847     41.8859   6.4370104475e+01   5.4868146672e+01    0.3464265    0.2343736  -4.64  0.001688545    1.797    0.443
       259 -11.0330    101.0306     37.2144   6.1223937618e+01   5.4527322806e+01    0.4120738     0.274016   5.30  0.001293592    1.911    0.477
       260 -10.6670     96.1386     36.6516   6.2431263690e+01   5.5640934423e+01    0.4183752    0.2420947 -50.79  0.001025587    2.444    0.591
       261 -10.3766     96.9863     31.0547   6.0031391243e+01   5.6203034622e+01    0.3287095    0.2376363  31.16  0.001314731    1.316    0.240
       262 -10.6497     50.9595     45.0148   8.1963321054e+01   6.2296511317e+01    0.1974736    0.1646857 -11.35  0.000370662    1.019    0.019
       263 -10.3765    125.1978     43.1624   5.7061895724e+01   4.8278011002e+01    0.3311976    0.2097628  42.11  0.001582723    1.539    0.350
       264  -9.5569    106.7367     42.9978   6.1753822202e+01   5.2480129558e+01    0.1882983    0.1764199  22.62 0.0001984405    1.031    0.030
       265 -10.1017     54.1731     49.9786   8.2495589539e+01   6.0962490382e+01    0.3543943    0.1746847  23.05  0.001570533    2.374    0.579
       266 -10.7132     23.8028     41.5720   9.2886935319e+01   6.6021202572e+01    0.5771307    0.3034591  41.59  0.002834003    2.790    0.642
       267 -11.9678     27.7724     38.1394   8.9737957012e+01   6.6274003446e+01     0.358257    0.2589482  19.46  0.001360225    1.443    0.307
       268 -11.9737     24.5031     35.0460   9.0140003376e+01   6.7145090694e+01    0.4866359    0.2455243   2.93  0.001222468    2.558    0.609
       269 -10.0975     30.3196     32.7243   8.6398391437e+01   6.6955983866e+01     0.347477    0.2685867  19.20 0.0009817684    1.347    0.258
       270  -9.7865     61.9828     40.7646   7.5819140796e+01   6.1376462193e+01    0.3516805    0.1798614  19.97  0.001482106    2.639    0.621
       271 -11.6073     52.7793     39.8454   7.9181586322e+01   6.2923816027e+01     0.487331    0.3513336  26.92   0.00178909    1.368    0.269
       272 -11.6113     56.4105     32.9296   7.4840108607e+01   6.3480007352e+01    0.5439949    0.4045438 -63.17  0.002857297    2.457    0.593
       273 -10.7331     48.2467     31.5040   7.7670262546e+01   6.4910224321e+01    0.3953658    0.1835801  33.49 0.0006197567    2.134    0.531
       274 -10.5751     50.0458     27.9615   7.5366655121e+01   6.5184725179e+01    0.2807614    0.1767606   2.95   0.00109506    1.764    0.433
       275 -10.8089    152.5474     39.0102   4.9979787540e+01   4.2270020896e+01    0.2508883    0.2290602  75.30 0.0004220254    1.048    0.046
       276 -10.3183    223.3029     38.5157   3.9935137457e+01   2.5553473411e+01    0.3679443    0.1247826  69.83   0.00143979    3.108    0.678
       277  -9.2367     85.7167     38.7324   6.6478641354e+01   5.7459417221e+01    0.1346698   0.09638426  14.50 0.0001822463    1.493    0.330
       278 -10.7045    171.5833     36.7056   4.6089694863e+01   3.7908335624e+01    0.3128871    0.1824194  50.88 0.0007745843    1.716    0.417
       279 -10.1233      2.3941     36.9444   1.0188633690e+02   6.8435255438e+01    0.2300107    0.1184172 -17.98  0.001020396    1.961    0.490
       280  -9.6964    134.5206     35.8809   5.2528394392e+01   4.7043659894e+01    0.2008989    0.1395395 -27.96 0.0008351927    1.553    0.356
       281 -12.0413    224.7650    247.0795   8.3800846515e+01  -8.4286945201e+00    0.4779367    0.2019612 -26.37  0.002302806    2.705    0.630
       282 -12.1393     36.8995    243.7247   1.2026373064e+02   1.8658716892e+01    0.6650759    0.3076111 -89.77  0.002981381    2.268    0.559
       283 -12.8092     75.2054    238.5856   1.1243954036e+02   1.4900952414e+01    0.6996632    0.4765221 -68.55  0.004313526    1.582    0.368
       284  -9.6014     63.3271    242.6607   1.1515335413e+02   1.5672999659e+01    0.1303121   0.07178339  63.31 0.0007051604    1.731    0.422
       285 -11.7013      8.1921     33.3240   9.7725994849e+01   6.8772395728e+01    0.4369003    0.3074998 -57.21   0.00284441    1.529    0.346
       286 -11.4196     16.9505     31.3742   9.2508161475e+01   6.8471513581e+01    0.5445494    0.2729357   5.47  0.002841584    2.310    0.567
       287  -9.2944     50.3071    240.3208   1.1749242159e+02   1.7747543565e+01    0.1015054   0.09122214 -37.48 0.0004738565    1.639    0.390
       288 -10.0874    195.3808    238.8915   8.8009261765e+01  -3.1809744331e+00    0.2538045    0.1598575  23.39  0.001445702    1.412    0.292
       289 -10.4569    243.8809    237.3834   7.8810712104e+01  -9.6457667933e+00    0.1916518    0.1435637 -26.22 0.0008120574    1.383    0.277
       290 -10.2142    107.2088     35.0458   5.8713772404e+01   5.3471467555e+01    0.1893439    0.1703985  33.97 0.0004868711    1.015    0.015
       291 -11.2486    234.6750     31.4476   3.7236869041e+01   2.4000584159e+01    0.3848619    0.2500901  35.74  0.001320174    2.581    0.613
       292  -9.9479    225.7099     33.1878   3.8476713435e+01   2.5711198769e+01    0.2089001    0.1304808 -55.33 0.0007495282    1.436    0.304
       293  -9.8566    185.1735     32.5713   4.3000100718e+01   3.5133217287e+01    0.1889051    0.1146799  56.69 0.0003824546    1.607    0.378
       294  -9.7608    180.6866     32.3051   4.3539564302e+01   3.6247665676e+01    0.1416838   0.09515822 -69.01 0.0005270364    1.619    0.382
       295 -10.2036    166.2986     32.0385   4.5576610536e+01   3.9782326087e+01    0.1891623    0.1778032 -76.65 0.0005974345    1.063    0.059
       296  -9.7085    139.1461     30.7787   4.9919223328e+01   4.6560823907e+01    0.1890678    0.1758486 -83.55 0.0005154288    1.133    0.117
       297  -9.8607     89.3954     31.4743   6.2451988539e+01   5.7727475164e+01    0.2292206    0.1545766  44.34 0.0006784645    1.374    0.272
       298 -11.1193     69.6909     26.3733   6.6921904879e+01   6.2180039942e+01    0.3767632    0.1997774  30.65  0.001265462    1.899    0.473
       299 -10.8055     62.5229     28.6131   7.0568015062e+01   6.3122808960e+01    0.2706377    0.2217592  33.56  0.001398197    1.254    0.202
       300  -9.8058     68.7890     22.0576   6.5374117310e+01   6.2893665507e+01    0.2860942    0.1955719  51.97  0.001039207    1.670    0.401
       301 -10.2129     62.3866     23.8232   6.8530004609e+01   6.3794735728e+01    0.2783434    0.1768065 -18.13  0.001423607    1.569    0.363
       302  -9.5560     64.2775     20.6421   6.6399110846e+01   6.3873191260e+01     0.189209    0.1742678 -25.25 0.0007511964    1.343    0.255
       303  -9.5072    114.4500     20.5271   5.1581570138e+01   5.3552749930e+01    0.1803242    0.1276624  -5.14 0.0005755775    1.639    0.390
       304  -9.8307    111.5814     27.5504   5.4831561044e+01   5.3423353368e+01    0.2226795    0.1633199 -35.17 -1.421017e-05    1.491    0.329
       305  -9.7552    112.0000     24.0527   5.3444066998e+01   5.3729469907e+01    0.2704537    0.1792073 -24.25  0.001084187    1.636    0.389
       306 -11.7051    193.6361     25.3150   4.0051097514e+01   3.3988200616e+01    0.6170023    0.2744311 -82.54  0.002128637    3.956    0.747
       307 -10.8670    196.7012     24.6804   3.9536450383e+01   3.3340299003e+01     0.370694     0.175272 -57.58  0.001628543    2.341    0.573
       308 -11.0185    130.5973     26.4692   5.0194623622e+01   4.9116232867e+01    0.4803739    0.2839045  70.49  0.002270009    1.800    0.444
       309  -9.2804    121.6591     27.7238   5.2534488015e+01   5.1082692703e+01     0.143841   0.09374944  33.71 0.0007001372    1.618    0.382
       310  -9.9706      1.4604     25.2037   9.8412915235e+01   7.0664410418e+01    0.2830366   0.08901884 -53.68  0.001165728    2.611    0.617
       311 -10.8650    186.2558     23.9463   4.0584721717e+01   3.5901062989e+01    0.3416358    0.2422068  17.37  0.001758327    2.146    0.534
       312  -9.4147    118.8263     25.4447   5.2363967844e+01   5.2003760331e+01    0.1887197    0.1108004  46.23 0.0005059877    1.545    0.353
       313 -11.7167     78.1217     45.9552   7.1848639278e+01   5.7784439447e+01    0.5543428    0.2607837 -41.65   0.00168559    2.217    0.549
       314 -11.3384      9.2382     24.9569   9.4071308256e+01   7.0198350174e+01    0.4648869    0.1870124  16.11   0.00211172    2.678    0.627
       315 -10.0981     23.9633    232.5197   1.2197757899e+02   2.2271989959e+01    0.1891472    0.1611983 -70.07 0.0006757411    1.434    0.303
       316 -10.5515     29.5310    232.9955   1.2095621434e+02   2.1582873875e+01    0.2711993    0.1467725  54.24   0.00163317    1.507    0.337
       317 -10.8678      7.1341     20.7548   9.3538780093e+01   7.1068791828e+01    0.3455298    0.1776739  -2.86  0.001371099    2.102    0.524
       318 -11.1951      4.8337     17.6431   9.3546297962e+01   7.1752209424e+01    0.2785044    0.1999646 -29.60 0.0009799781    1.073    0.068
       319 -10.1103    159.8351    236.1573   9.4689172797e+01   2.6760470006e+00    0.1777605    0.1395645   9.83 0.0005192101    1.318    0.241
       320 -10.0425    108.0260     17.9380   5.2112796678e+01   5.5285093849e+01    0.2221621    0.1541101  34.34  0.001212464    1.385    0.278
       321 -11.2443     95.9594     22.9375   5.7143680678e+01   5.7399927082e+01    0.5989327    0.3124315  56.28   0.00283486    1.870    0.465
       322 -10.2984    109.4948    242.8918   1.0592690390e+02   9.2247013523e+00    0.2420201    0.1401033  51.00  0.000757293    1.581    0.367
       323 -10.2977    164.9937     23.0335   4.3179302395e+01   4.1148505203e+01    0.1984551    0.1787767  78.84 0.0003215688    1.005    0.005
       324  -9.7891     50.1887     23.1215   7.3150625913e+01   6.5853845580e+01    0.1540028    0.1406467   2.17 0.0005347668    1.264    0.209
       325  -9.0812    226.6808     22.2761   3.5950665916e+01   2.6832535962e+01    0.1299934   0.07815026 -67.08 0.0002647583    1.573    0.364
       326 -10.6966    155.9765     21.9492   4.4219542461e+01   4.3468654372e+01    0.2019653     0.177989  74.54 0.0003378053    1.029    0.028
       327 -10.7192     59.0745     21.7055   6.8870258262e+01   6.4628961555e+01    0.1806087    0.1418438  15.45 0.0006653346    1.092    0.084
       328  -9.8492    177.4048    234.8277   9.0921225224e+01   1.6079836275e-01    0.1714541    0.1139343 -26.65 0.0009471683    1.696    0.410
       329 -10.3420     88.8886    241.2328   1.0993682550e+02   1.2508715895e+01     0.214663    0.1533352 -34.57  0.001225045    2.115    0.527
       330  -9.8447    121.0986     20.3929   5.0072374472e+01   5.2024977992e+01     0.191516    0.1751615  21.86  0.001184682    1.120    0.107
       331 -10.5097     89.6348     20.6822   5.8032139610e+01   5.8987705484e+01    0.2864419    0.1765361  26.51 0.0008419025    1.691    0.408
       332 -10.1179    238.0000     19.9813   3.4500443213e+01   2.4689383055e+01    0.1946795   0.06214578 -32.98 7.632989e-05    2.999    0.667
       333  -9.8519    139.8349     19.8569   4.6251953237e+01   4.7616738051e+01    0.2418271    0.1547752  53.54 0.0007205392    1.397    0.284
       334  -9.4288     44.3002    232.6554   1.1808423620e+02   1.9983116140e+01    0.1283051   0.07010768  65.49 0.0007037261    1.678    0.404
       335 -11.3723     42.0072     19.0808   7.4889765742e+01   6.7602164248e+01    0.4473805    0.2396024  36.39  0.002007034    1.855    0.461
       336 -10.0869     38.2129    232.7886   1.1927874447e+02   2.0660076534e+01    0.1727086    0.1253597  67.68 0.0006174623    1.104    0.094
       337 -10.9129    154.9910    227.6581   9.4424277130e+01   4.9069676657e+00    0.2930198    0.1749685  57.58  0.001365287    2.312    0.567
       338  -9.5686    142.8597     16.8569   4.4770008316e+01   4.7191898958e+01    0.1753476    0.1474202 -79.05 0.0003956855    1.268    0.211
       339 -11.1371    120.3691    226.4594   1.0162131512e+02   1.0653178194e+01    0.2305239    0.1688705 -64.31 0.0008732594    1.567    0.362
       340  -9.8419     60.2865     16.7044   6.6119146703e+01   6.5044392493e+01    0.1845815    0.1446337  -3.92 0.0004899055    1.156    0.135
       341 -10.0188     65.9859    226.2162   1.1316059505e+02   1.8601738073e+01    0.2023407    0.1649403 -86.61 0.0007151263    1.200    0.166
       342  -9.6568     17.5043    227.5123   1.2289685087e+02   2.3943882564e+01     0.115739   0.08675504  71.81 0.0001793337    1.009    0.009
       343 -11.0374      4.5932    226.1817   1.2522495397e+02   2.5453892657e+01    0.2893342    0.1151668  50.28  0.001619061    1.992    0.498
       344 -11.5852     21.0324    222.3851   1.2191507463e+02   2.4638701400e+01    0.2622947    0.1817923  84.29  0.001061285    1.192    0.161
       345  -9.5034    126.5576    221.5324   9.9608053932e+01   1.0627023258e+01    0.2081256    0.1107587  46.51 2.283538e-05    1.755    0.430
       346  -9.6890    190.4235    226.7071   8.7009702406e+01  -5.5389716469e-01    0.1709822    0.1145589 -24.60 0.0009413187    1.590    0.371
       347  -9.4882     41.6958    220.6818   1.1768459547e+02   2.2752637603e+01    0.1083232   0.09107381 -45.85 0.0007027242    1.627    0.386
       348 -10.1920    203.7996     14.8690   3.6383555405e+01   3.2793167381e+01    0.1727985    0.1609254  78.15 0.0004658198    1.194    0.163
       349  -9.5302    175.0010    219.6694   8.8975150072e+01   3.0659732227e+00    0.2242909    0.1001562  20.00 0.0007051707    4.351    0.770
       350 -10.1855    177.9534     15.2782   3.9300867766e+01   3.8838982223e+01    0.2022722     0.156105 -70.64  0.000367787    1.264    0.209
       351 -11.8919      9.8034    217.2594   1.2377823775e+02   2.6800818112e+01    0.3222662     0.184921  58.68  0.001867258    1.437    0.304
       352  -9.3348    116.2933     15.3686   4.9300248056e+01   5.3652086833e+01    0.1411231   0.08907246  29.93 0.0007027292    1.720    0.419
       353  -9.7216    148.7698     14.0333   4.2936197975e+01   4.6038020424e+01     0.174945    0.1603937  66.61    0.0011021    1.044    0.042
       354  -9.8423     37.9479    217.5068   1.1820158315e+02   2.3851896124e+01    0.1707819    0.1084706  38.82 0.0006870323    1.544    0.352
       355 -11.4877     29.9482    215.8649   1.1970903149e+02   2.5079247939e+01    0.3337499    0.2556096  23.47  0.002175896    1.705    0.414
       356 -11.8791    235.9246    214.5751   7.6249648173e+01  -5.4629975677e+00    0.3499457    0.1986868 -25.97   0.00133608    1.639    0.390
       357  -9.2714    194.6604    215.2931   8.4216854143e+01   6.3834524518e-01    0.1219908    0.1044677  61.27 0.0002568861    1.651    0.394
       358  -9.9345     67.0199    215.2012   1.1185574926e+02   2.0782116888e+01    0.1887238    0.1502073 -13.34 0.0009876256    1.977    0.494
       359 -10.7709     21.5961    212.6324   1.2117188205e+02   2.6635983329e+01    0.2904483    0.1496953  54.45  0.001649189    1.672    0.402
       360 -10.0001    208.9655    212.0102   8.0813012543e+01  -1.0789880681e+00    0.2022374    0.1651646   0.94 0.0005395312    1.070    0.065
       361  -9.5006     76.3232    212.3126   1.0950756672e+02   2.0141673253e+01    0.1214255    0.1024406 -24.23 0.0006031294    1.657    0.397
       362 -12.4336      4.2781    208.3677   1.2435466065e+02   2.9177046491e+01    0.5748802    0.3089999 -85.52   0.00347101    1.541    0.351
       363 -10.4404     11.0191    208.3957   1.2302243640e+02   2.8564613155e+01    0.2018324    0.1350804 -68.93 0.0003963102    1.486    0.327
       364  -9.3198    188.2406    205.3543   8.3747338266e+01   3.3829750402e+00    0.1362607   0.09683868  -9.61 0.0003770223    1.582    0.368
       365 -10.8959     19.6704    200.7985   1.2074701794e+02   2.9404929050e+01    0.2898416    0.1156177 -61.76  0.001303181    2.403    0.584
       366  -9.2518    107.5331     10.5028   4.9417916009e+01   5.6114266780e+01    0.1303246    0.1132901  45.06 0.0008097184    1.013    0.013
       367 -10.2975    175.3285    202.8271   8.5990395385e+01   6.0249056566e+00    0.2259905    0.1776723  41.50 0.0005034102    1.281    0.220
       368  -9.5817    243.3241    202.2809   7.2684306900e+01  -4.6970218116e+00    0.1284361   0.08328093  -0.92 0.0002289152    1.592    0.372
       369 -10.0914    108.2420    209.9752   1.0205348223e+02   1.5890950414e+01    0.1715051    0.1148949 -61.54 0.0008838369    1.607    0.378
       370  -9.2778    223.6217    201.3286   7.6056293650e+01  -1.6373440552e+00    0.1189639    0.1074344  85.36 0.0007021173    1.847    0.458
       371  -9.2027     34.3348    201.3010   1.1765176226e+02   2.7791246963e+01    0.1145697   0.09156787 -44.28 0.0007035114    1.658    0.397
       372  -9.2674    238.6582    200.6991   7.3207264132e+01  -3.7887842927e+00    0.1332927   0.08551607  -0.98 0.0007037398    1.673    0.402
       373  -9.5046    215.6554    194.6988   7.6297995450e+01   6.9922988966e-01    0.1406466   0.09451351   0.56 0.0007038185    1.681    0.405
       374  -9.8410     26.2354     14.1746   8.0200473520e+01   7.0301907582e+01    0.1747494    0.1179491  -9.34 0.0002568629    1.270    0.213
       375 -11.0292     16.4176    193.1753   1.2088878065e+02   3.1417544170e+01    0.2787568    0.2298045   7.11  0.001341276    1.759    0.431
       376  -9.4914    211.4892    188.4887   7.5892939283e+01   2.4387663065e+00    0.1387475    0.1188671  -4.49 0.0008102888    1.031    0.030
       377  -9.6340      2.1343    187.8415   1.2358234182e+02   3.3851073367e+01    0.1552961    0.1212563 -68.21 0.0006377579    1.333    0.250
       378 -11.3468     16.5278    184.5837   1.2021691542e+02   3.3366231537e+01    0.4268816    0.1915718 -80.77  0.001918378    1.943    0.485
       379  -9.9876     14.7029    180.6592   1.2032029103e+02   3.4435930494e+01    0.1946171     0.146556 -52.55 0.0005944002    1.542    0.351
       380  -9.5159     61.6412    184.8362   1.0968436271e+02   2.8360125571e+01    0.1950697    0.1169419 -82.26 0.0009444827    1.727    0.421
       381  -9.9789    167.4972    183.5110   8.4072863275e+01   1.1147291276e+01    0.1451056    0.1356596   8.82 4.161654e-05    1.005    0.005
       382  -9.6819     58.6157    182.2052   1.1009858537e+02   2.9372732983e+01    0.1907313    0.1115449 -58.64 0.0009423423    1.664    0.399
       383  -9.3273      1.5393    180.4933   1.2323873530e+02   3.5559514050e+01     0.120409   0.09247079  85.69  0.000179453    1.006    0.005
       384  -9.9264    244.4555    178.4880   6.7904352956e+01  -1.1877439520e+00    0.2407344    0.1059944 -27.79  0.001025559    2.342    0.573
       385 -10.6397     46.5454    177.8299   1.1253290949e+02   3.1881005362e+01     0.280019    0.2238331  89.92  0.001188609    1.105    0.095
       386  -9.6436     69.6061    178.1936   1.0686265898e+02   2.8885743026e+01    0.1888847    0.1170141 -54.55 0.0004901429    1.627    0.385
       387  -9.4024    200.6829    176.3159   7.5584509527e+01   6.4863587721e+00    0.1327961    0.1160319 -85.35 0.0004382893    1.651    0.394
       388 -11.9389     34.1942    174.2722   1.1516036086e+02   3.4085232509e+01    0.2432292    0.1861508 -75.56 0.0003787108    1.152    0.132
       389 -10.9892     18.0418    173.1539   1.1892727749e+02   3.5899459404e+01    0.3788096    0.2087789  66.84  0.002000073    1.803    0.445
       390 -11.1681     40.3032    162.9714   1.1236410429e+02   3.6187082946e+01    0.4049371    0.2268192 -68.54  0.001448841    1.561    0.360
