#   1 NUMBER                 Running object number                                     
#   2 MAG_AUTO               Kron-like elliptical aperture magnitude                    [mag]
#   3 X_IMAGE                Object position along x                                    [pixel]
#   4 Y_IMAGE                Object position along y                                    [pixel]
#   5 X_WORLD                Barycenter position along world x axis                     [deg]
#   6 Y_WORLD                Barycenter position along world y axis                     [deg]
#   7 A_WORLD                Profile RMS along major axis (world units)                 [deg]
#   8 B_WORLD                Profile RMS along minor axis (world units)                 [deg]
#   9 THETA_WORLD            Position angle (CCW/world-x)                               [deg]
#  10 FWHM_WORLD             FWHM assuming a gaussian core                              [deg]
#  11 ELONGATION             A_IMAGE/B_IMAGE                                           
#  12 ELLIPTICITY            1 - B_IMAGE/A_IMAGE                                       
         1 -11.8215    206.6645     31.9870   4.7391926720e+01   2.9435281711e+01     0.862644    0.7912923  70.27  0.004661225    1.120    0.107
         2 -10.9464    214.1863     23.7968   4.4351144078e+01   2.8580066995e+01    0.6052211    0.3441373  51.36  0.001500927    1.928    0.481
         3 -11.8151    223.9743     12.8992   4.0626814757e+01   2.7465308142e+01    0.7614575    0.6135564 -59.03  0.002763781    1.113    0.102
         4 -11.0597    115.3119    243.5333   1.1202025322e+02   9.7194768409e+00    0.4433804    0.3288506 -28.46  0.002615997    2.273    0.560
         5 -10.5152    102.3737    250.1758   1.1502923326e+02   1.0570407882e+01    0.5512979    0.1682571  39.30  0.002411702    2.813    0.644
         6 -10.6265     82.1284    249.5389   1.1854972637e+02   1.3555838326e+01    0.3447212    0.1824433  45.50  0.002100213    1.496    0.332
         7  -9.3639     70.2442    249.3640   1.2059778724e+02   1.5192219625e+01    0.1814291    0.1265154 -67.53  0.001274419    1.681    0.405
         8 -11.8332     28.1971    216.2255   1.2570344972e+02   2.6385614190e+01    0.8367053    0.3113678  85.68  0.002482321    3.081    0.675
         9 -11.8179     23.7350    225.0538   1.2702008404e+02   2.5169704782e+01    0.7708708    0.3802069  79.80  0.002555066    1.750    0.429
        10 -14.3694      5.0088    148.5570   1.2557171089e+02   4.2942050208e+01     9.908824     1.206761 -76.52   0.02559206    7.691    0.870
        11 -13.8625      7.9922    240.0168   1.3035297889e+02   2.4047907519e+01     2.070528     1.236792  66.80   0.00389341    1.162    0.140
        12 -12.8874      8.5745    207.5419   1.2871906162e+02   3.0073158377e+01    0.9548852    0.8334525  49.73  0.004440678    1.478    0.324
        13 -11.1562     95.5421    245.3943   1.1580605981e+02   1.2354844351e+01    0.5035712    0.2617126  52.14  0.002928618    1.535    0.349
        14  -9.6346    114.8238    227.8468   1.1036910846e+02   1.2467397125e+01    0.1723229    0.1503732  64.64 0.0004807382    1.089    0.082
        15 -10.3709    125.2690    227.0174   1.0824092365e+02   1.0943086730e+01     0.376821    0.2257573 -62.24  0.002091584    1.991    0.498
        16  -9.9559    106.5147    228.9573   1.1209765969e+02   1.3565251156e+01    0.2312188     0.159494  31.73  0.001150522    1.623    0.384
        17  -9.7566    143.8246    228.7134   1.0485399741e+02   7.6109135099e+00    0.3108162   0.09197464  42.90  0.001212133    2.761    0.638
        18 -10.5613     95.7261    225.6447   1.1381618138e+02   1.5804696802e+01    0.3777941    0.2445802  52.93   0.00164504    1.272    0.214
        19  -9.3970     48.4305    224.6689   1.2261607380e+02   2.2429295310e+01     0.232258    0.1568451  66.42 0.0006958774    1.149    0.130
        20  -9.7057     45.2554    220.2951   1.2287501357e+02   2.3651850145e+01    0.2211348    0.1686736  79.39  0.001585475    1.083    0.076
        21  -9.5034     38.7904    224.3901   1.2433379080e+02   2.3626349800e+01    0.2967548    0.1240951  34.93  0.001185282    2.584    0.613
        22  -9.4341    168.8734    222.7364   9.9142875644e+01   4.3528649133e+00    0.2927343    0.1776516  11.75  0.001320502    2.765    0.638
        23 -10.9875     76.0383    219.9763   1.1704362164e+02   1.9723161432e+01    0.5442286    0.2161764  46.23   0.00266832    2.065    0.516
        24  -9.6309     83.4463    218.6327   1.1547258492e+02   1.8930908165e+01    0.2760644      0.11053 -63.02    0.0013091    2.624    0.619
        25 -10.7071     65.0560    241.1568   1.2087847700e+02   1.7296898725e+01    0.3026195    0.2684126  81.70  0.001479391    1.310    0.237
        26 -10.0384    120.0333    247.2770   1.1155295498e+02   8.3928099640e+00     0.244437    0.1648001 -56.98  0.001177015    1.832    0.454
        27  -9.6303    140.1985    244.0334   1.0747768814e+02   5.7549488497e+00    0.1883697    0.1282816  76.14  0.001085994    2.009    0.502
        28 -10.1970     62.5324    182.3157   1.1591024267e+02   2.9368316532e+01    0.3816958    0.2602107 -39.23  0.002039145    2.217    0.549
        29 -10.0962     67.6481    176.4868   1.1407999357e+02   2.9982100302e+01    0.2906698    0.2355246 -47.04  0.000778256    1.543    0.352
        30  -8.1176     50.4659    181.4737   1.1845648185e+02   3.1079085365e+01    0.1260525    0.1020716  81.60 1.784354e-05    1.003    0.003
        31 -10.7212    135.0142    236.1949   1.0749892423e+02   7.8251777519e+00     0.274361    0.1930396 -86.00  0.001612334    1.947    0.486
        32  -7.9307     95.3074    235.6286   1.1491428496e+02   1.4068932730e+01    0.1277421   0.07455953  67.74  0.000334461    1.764    0.433
        33  -8.4154    194.8515    168.1196   8.4111526528e+01   8.8496389965e+00    0.2614619    0.2173846 -69.29  0.001370808    1.609    0.379
        34  -9.6214     77.4034    166.3557   1.1046726562e+02   3.0913070454e+01     0.239642    0.2204148 -76.89 0.0005576746    1.147    0.128
        35 -11.6078     64.7704    162.5144   1.1295262846e+02   3.3562642814e+01    0.4740483    0.2840133 -46.24  0.001519697    2.036    0.509
        36 -11.1690     83.2908    159.7937   1.0806461405e+02   3.1556429971e+01    0.7420762    0.5305844  38.47  0.001443894    1.482    0.325
        37 -10.0683     74.0885    154.3548   1.0949714225e+02   3.4186892865e+01    0.3589455    0.2383038 -64.21  0.001880108    1.395    0.283
        38  -9.6985     22.3560    155.8047   1.2221105410e+02   3.9866292093e+01    0.2707307    0.1464672  62.16  0.001484261    1.833    0.454
        39 -10.7964     70.2200    145.5741   1.0909989929e+02   3.6815724789e+01     0.473132    0.4230961  -4.45   0.00192924    1.488    0.328
        40 -10.9361     67.5177    142.5186   1.0931008063e+02   3.7917830084e+01    0.4591483    0.3484856  45.86  0.002006968    1.380    0.275
        41  -8.8805    101.4902    141.0173   1.0013024431e+02   3.3007741228e+01    0.3712127    0.2145479 -28.29  0.001338602    3.228    0.690
        42 -10.5505     86.3204    143.2393   1.0451153467e+02   3.4990912676e+01    0.3828604    0.2912841  43.67 0.0006161603    1.363    0.266
        43  -8.3238     32.6451    143.3228   1.1840003923e+02   4.1790382316e+01       0.1352   0.08065859  70.33 0.0007046406    1.761    0.432
        44 -10.6548      7.1118    187.1683   1.2783556425e+02   3.4351937476e+01    0.3421534    0.2852803 -70.70 0.0006590032    1.422    0.297
        45  -9.2054     58.5154    135.0336   1.1049020968e+02   4.0892238669e+01    0.2150164     0.119591 -66.31  0.001033495    1.595    0.373
        46  -9.0587    108.4604    132.2961   9.6484622874e+01   3.3813558014e+01    0.4061001     0.256125  48.17  0.001783923    1.633    0.388
        47  -9.1916     96.6892    128.7988   9.8895900151e+01   3.6730446160e+01    0.2657315    0.2500095 -14.13 0.0006666559    1.231    0.188
        48  -7.9612    106.9148    120.5254   9.4238083014e+01   3.6856714064e+01    0.2092742    0.1499696  40.60 0.0004254773    1.460    0.315
        49  -8.2848    167.7930    113.1845   7.7020659543e+01   2.5448018578e+01    0.2697843    0.1769501 -81.59  0.000950927    2.846    0.649
        50 -11.5908     36.1701    210.5764   1.2385529790e+02   2.6621175047e+01    0.4953395    0.4674803  -3.12  0.001580826    1.737    0.424
        51 -13.7793     44.8704    199.7393   1.2132628743e+02   2.7828422350e+01     2.887215     1.086162  64.97   0.01195743    3.277    0.695
        52 -10.0150     13.1397     60.6144   1.1077649939e+02   6.2456939386e+01    0.3340477    0.1353558 -62.84  0.001633121    1.993    0.498
        53  -9.7033    139.4755     45.4749   6.3000329038e+01   4.4741919067e+01    0.6309578    0.3622551 -82.46  0.001903988    4.580    0.782
        54 -11.3743    198.5361     37.9616   5.0095637863e+01   3.0706928139e+01    0.7157605    0.5179231  77.30  0.003153446    1.380    0.276
        55 -10.2412    129.2784    248.6250   1.1001397755e+02   6.7577907432e+00    0.3000618    0.1648433  61.03  0.001615958    2.044    0.511
        56 -10.4465    115.3414    247.8956   1.1247104566e+02   9.0079742485e+00    0.3051368    0.1870798  42.76  0.001880994    1.329    0.247
