#   1 NUMBER                 Running object number                                     
#   2 MAG_AUTO               Kron-like elliptical aperture magnitude                    [mag]
#   3 X_IMAGE                Object position along x                                    [pixel]
#   4 Y_IMAGE                Object position along y                                    [pixel]
#   5 X_WORLD                Barycenter position along world x axis                     [deg]
#   6 Y_WORLD                Barycenter position along world y axis                     [deg]
#   7 A_WORLD                Profile RMS along major axis (world units)                 [deg]
#   8 B_WORLD                Profile RMS along minor axis (world units)                 [deg]
#   9 THETA_WORLD            Position angle (CCW/world-x)                               [deg]
#  10 FWHM_WORLD             FWHM assuming a gaussian core                              [deg]
#  11 ELONGATION             A_IMAGE/B_IMAGE                                           
#  12 ELLIPTICITY            1 - B_IMAGE/A_IMAGE                                       
         1 -11.5415     45.4079     49.2447   5.2438674997e+01   6.3589302449e+01    0.5002587    0.2556675 -42.28  0.002268477    1.861    0.463
         2 -10.6179     41.0515     13.8262   3.8195871290e+01   7.0548316096e+01    0.2318977     0.183514  14.53 0.0002380027    1.139    0.122
         3  -9.1981     97.6506     12.1557   1.6375352766e+01   5.8804576875e+01     0.299244    0.1699763 -11.06  0.001371629    2.197    0.545
         4  -9.4239     67.4946      1.3580   1.9703360020e+01   6.6853107458e+01    0.2258911    0.1093232  56.53  0.001064773    1.836    0.455
         5  -8.9126     37.9387    248.7055   8.4640179068e+01   1.8198911556e+01    0.1591466    0.1114451  48.40 0.0003973533    1.066    0.062
         6  -8.6822    213.7740    250.3747   5.0222612897e+01  -4.2865172676e+00    0.1576611   0.07998219  21.13  0.000754413    1.652    0.395
         7 -10.2213    161.5478    249.2560   5.9698094830e+01   2.4224077055e+00    0.4480494    0.1690386 -51.92  0.002044332    3.934    0.746
         8  -9.4101    173.5015    250.5186   5.7566102503e+01   6.8352865393e-01    0.1896391    0.1491718  15.66 0.0009654471    1.048    0.046
         9 -10.2751    166.5431    248.0556   5.8577480403e+01   1.9282005555e+00     0.322616    0.2094861  31.75  0.001417735    1.250    0.200
        10 -10.8439    174.2218    244.8424   5.6677702778e+01   1.3556355460e+00     0.497519    0.4035708 -88.12  0.003110543    2.537    0.606
        11 -11.5466    167.6231    242.6758   5.7661200698e+01   2.5356217823e+00    0.6486755    0.4247502  47.05  0.002792293    1.817    0.450
        12 -10.6988     54.1017    249.1047   8.1438360159e+01   1.6333200261e+01    0.3877296    0.2725465   9.61  0.001743568    2.010    0.503
        13 -10.9944      9.1738    241.5622   8.9958551799e+01   2.2372982395e+01    0.4927888    0.2218034  59.38  0.002050494    1.723    0.420
        14 -11.0996     19.0935    248.1365   8.8288698099e+01   2.0234442967e+01    0.5496426    0.2314681  53.92  0.003215047    1.772    0.436
        15  -9.9810     13.0425    250.2780   8.9519234980e+01   2.0435453534e+01    0.2722954    0.1429319  41.15  0.001161625    1.420    0.296
        16  -9.8227      4.0840    249.2746   9.1164373494e+01   2.1443158501e+01    0.2384247    0.1199402  49.26 0.0007426615    1.391    0.281
        17 -10.0146     33.5603    247.1228   8.5424920593e+01   1.8947634919e+01    0.2125382    0.1277252  37.60 0.0008375435    1.352    0.260
        18 -10.8854     73.5013    244.5441   7.7147598238e+01   1.4825132499e+01    0.2581392    0.2138659  35.67 0.0007513249    1.157    0.136
        19  -9.0927    250.5512    241.3444   4.2821566476e+01  -7.3783795001e+00     0.165457   0.08701888 -31.31  0.000803472    1.871    0.465
        20  -9.2472    248.6862    237.1517   4.2481692198e+01  -6.7258679352e+00    0.1764262    0.1385639   0.91  0.001247947    1.243    0.195
        21 -10.3465     98.1654    241.5300   7.1721916396e+01   1.2183539339e+01    0.3589916    0.1872335  27.99  0.001153779    1.750    0.429
        22  -8.6381    235.3082    240.3217   4.5115957530e+01  -5.6073551125e+00     0.199584     0.105851  13.82 0.0007615276    1.705    0.413
        23  -9.9708    238.2822    239.3246   4.4479326475e+01  -5.8276652090e+00    0.2797782    0.1380703   4.00  0.001235411    2.374    0.579
        24  -8.0678    221.3083    240.3138   4.7466174309e+01  -3.9919548585e+00    0.1155953   0.06802884   1.76 0.0007027613    1.627    0.385
        25  -9.8078    107.6253    238.0617   6.9371442014e+01   1.1506700332e+01    0.6186916    0.3265185  53.00  0.003193523    2.038    0.509
        26 -11.0314     91.1124    230.3965   7.2134618487e+01   1.5106265615e+01    0.6327697    0.2809094 -55.04  0.003114938    2.649    0.622
        27 -11.0055     87.7394    227.6342   7.2599439778e+01   1.6070907228e+01     0.650634    0.3393812 -52.69  0.003403824    2.312    0.567
        28 -11.6718     98.6283    225.5557   6.9978628881e+01   1.4975235939e+01    0.5712551    0.4508096 -78.26  0.001572705    1.526    0.345
        29 -11.5582     95.8030    217.8786   6.9765140255e+01   1.6821366754e+01    0.6447542    0.3934004  35.76  0.001836164    1.381    0.276
        30 -10.1250     99.9642    217.4643   6.8773472713e+01   1.6313917041e+01    0.2944211    0.1979076  52.16 0.0006110686    1.423    0.297
        31  -8.9934     16.5700    238.2633   8.8390337743e+01   2.2287556694e+01     0.336896    0.1046423  55.22  0.001640641    2.498    0.600
        32  -9.8314    169.7627    224.9789   5.4759254569e+01   4.8366719252e+00    0.3945822    0.2305585  51.73  0.001793984    2.466    0.594
        33 -11.0996    162.2765    225.6236   5.6362933652e+01   5.8100753070e+00    0.4203386    0.2843442  16.98  0.002022358    1.383    0.277
        34 -10.2237    168.7604    234.0492   5.6259315048e+01   3.6220812346e+00     0.529395    0.3553723  23.90  0.003069768    1.227    0.185
        35  -9.6753    161.4522    231.7631   5.7397020015e+01   4.9832594361e+00    0.4428308    0.1933618  38.60  0.002170733    1.986    0.497
        36 -10.7659    238.6620    229.9332   4.2979745138e+01  -4.7938420759e+00     0.430898    0.2446185   6.41  0.002119877    1.661    0.398
        37  -9.0900    242.7088    223.9701   4.1385049143e+01  -4.5590698788e+00    0.1770422    0.1157403  -3.19 0.0005353688    1.255    0.203
        38 -11.7971    126.1394    221.9678   6.3492831267e+01   1.1694699647e+01    0.4954888    0.4760218  76.41  0.001274983    1.244    0.196
        39  -9.9005    231.0653    234.3905   4.4922179146e+01  -4.4376019343e+00    0.2338165    0.1898273   5.80 0.0008136478    1.238    0.192
        40  -8.4455    144.9964    227.4916   6.0190138189e+01   8.0067272889e+00    0.1895473     0.104903  32.42   0.00043848    1.501    0.334
        41  -9.1519    181.2719    226.0250   5.2644962062e+01   3.0571547104e+00    0.1689935     0.142143   0.29 0.0006709884    1.116    0.104
        42  -8.9048    104.8067    225.8397   6.8645877374e+01   1.4061591828e+01    0.1832007    0.1431678  37.47 0.0004671681    1.058    0.055
        43 -10.0167    108.4971    222.7150   6.7470608814e+01   1.4112807602e+01    0.3019804     0.234051  -7.99  0.001779416    1.681    0.405
        44 -10.2602    114.7956    221.1771   6.5889040090e+01   1.3489636417e+01    0.2685329    0.2176315 -66.59  0.001151048    1.502    0.334
        45  -8.9707    174.5147    222.4919   5.3442042955e+01   4.5356006623e+00    0.1254882    0.1020188  15.95 -1.924193e-05    1.002    0.002
        46  -9.0818    157.6829    221.3454   5.6686857330e+01   7.1551914757e+00    0.2355744    0.1809334  13.69 0.0007911315    1.199    0.166
        47  -9.5771    213.6889    220.8469   4.5802544496e+01  -6.0309838638e-01    0.2691922    0.1483005  37.68  0.001504304    1.861    0.463
        48  -8.9193    149.0544    219.7270   5.8258543841e+01   8.6941822325e+00    0.1806309    0.1478959  21.58   0.00113792    1.046    0.044
        49  -9.2031    152.0010    215.9020   5.7080295683e+01   8.8950644628e+00    0.3843456    0.2066802  13.62  0.001525022    2.671    0.626
        50  -9.7947     75.0737    219.3241   7.4622850800e+01   1.9347262476e+01    0.2980688    0.1688296  45.65   0.00112933    1.473    0.321
        51  -9.7830    219.4663    218.6272   4.4428381936e+01  -1.0579563937e+00    0.2467768    0.1541678 -22.89  0.001541478    1.491    0.329
        52  -9.9235     84.0338    216.3593   7.2285668462e+01   1.8742858237e+01    0.3632577    0.1858641 -57.08  0.001827605    2.222    0.550
        53 -10.4692    190.6199    216.0015   4.9290311759e+01   3.2109790137e+00    0.4209987    0.2598805 -29.18  0.002434327    1.668    0.401
        54 -10.4273    130.9714    214.8097   6.1476841351e+01   1.2254501525e+01    0.3669902    0.2979244 -78.17  0.002203187    1.653    0.395
        55 -10.2825    170.5705    215.2265   5.3125669120e+01   6.2344022219e+00    0.2570608    0.2157721  11.79 0.0006745147    1.032    0.031
        56  -8.7188    143.5816    216.2746   5.8932321045e+01   1.0097523640e+01    0.1682492    0.1183554 -31.79 0.0009489018    1.644    0.392
        57  -7.7765    176.2788    215.6284   5.2038831310e+01   5.3323194715e+00    0.1127076   0.09934682  65.51  0.000701011    1.693    0.409
        58  -9.9984    117.7701    227.6364   6.6019775337e+01   1.1904260718e+01    0.3854481    0.1957261  42.43  0.001213461    1.689    0.408
        59  -9.5018    116.1138    210.5260   6.4234831111e+01   1.5283565719e+01    0.4008537    0.2711571  20.58     0.002147    1.548    0.354
        60  -9.2729    228.3114    213.5876   4.2083578237e+01  -1.5314917728e+00    0.2047067    0.1157511 -14.76  0.001125069    1.772    0.436
        61 -10.3259     77.5018    211.1312   7.3255016123e+01   2.0675042169e+01    0.3926752    0.2920898 -59.69  0.002288487    1.537    0.349
        62  -9.7268     63.6086    213.7197   7.6726993232e+01   2.1942964892e+01    0.2809269    0.1964976  43.12  0.001226689    1.195    0.163
        63 -10.9634     16.2623    212.3596   8.7319221056e+01   2.7422167436e+01    0.3122009    0.2023198  47.52 0.0006388401    1.248    0.199
        64 -10.0895    202.5486    210.4808   4.6143079039e+01   2.3336559526e+00    0.2944659    0.1725795 -26.09  0.001654508    1.713    0.416
        65  -9.6720    212.5593    198.9591   4.2358092892e+01   2.5865055757e+00    0.2276177    0.1488382 -15.88 0.0007178059    1.479    0.324
        66 -10.8305    211.9379    207.7928   4.3979379857e+01   1.4133479301e+00    0.4828745    0.3593629   3.53  0.003148769    1.147    0.128
        67 -10.3833     11.5232    207.0182   8.8111051813e+01   2.8973052891e+01    0.2958811    0.2056262  21.91  0.001885499    1.665    0.399
        68 -11.8531     14.4013    195.9627   8.6914768208e+01   3.1090571573e+01    0.7061862    0.3200236 -46.64 0.0009563713    3.474    0.712
        69  -8.5368     98.8384    205.9921   6.7661008224e+01   1.8733891319e+01    0.2189113    0.1425515  73.31  0.001082426    2.043    0.511
        70  -7.7342    224.3149    205.3309   4.1384716190e+01   8.0875243763e-02     0.125581   0.07722131  -1.44 0.0003959827    1.680    0.405
        71  -9.8032    130.4985    202.1293   5.9769067258e+01   1.4673837972e+01    0.6649404    0.3962282  72.42  0.002520221    3.868    0.741
        72 -10.0112    126.3444    196.8372   5.9934061688e+01   1.6352698407e+01    0.3998002    0.2700195  25.86  0.001262699    1.438    0.305
        73  -9.5179    124.6828    193.6411   5.9837211155e+01   1.7250466851e+01    0.3172106    0.1874246 -42.74  0.001046102    1.926    0.481
        74 -10.3595    162.6395    194.1243   5.1357156465e+01   1.0997667561e+01    0.3591092    0.2153042  48.29  0.001394121    1.893    0.472
        75 -12.0265    175.7290    184.6934   4.6937216709e+01   1.0515416961e+01    0.8969569    0.5673487 -56.71  0.004346499    2.228    0.551
        76 -11.1647    166.8482    199.0771   5.1298817048e+01   9.4639968507e+00    0.5911936    0.4830216 -32.21   0.00359625    1.298    0.230
        77 -12.2254    178.1917    196.6570   4.8543941524e+01   8.0872277654e+00    0.8494247    0.5555898 -10.67  0.003347519    1.829    0.453
        78  -9.4350     60.4508    200.4178   7.6246559438e+01   2.5145310685e+01    0.3579648    0.1694162  43.61  0.001514236    1.781    0.439
        79  -8.9602    148.9512    198.6588   5.5085810750e+01   1.2388101756e+01    0.2834482    0.2006718  76.49  0.001045324    2.582    0.613
        80  -9.2750    112.6651    197.8352   6.3302571761e+01   1.8303665855e+01     0.398268    0.2010469  56.51  0.001612287    2.680    0.627
        81  -8.9812    113.0219    194.2720   6.2707005478e+01   1.8973726874e+01     0.205173    0.1981196 -65.72 0.0003362694    1.158    0.136
        82  -9.3134    105.2479    197.5310   6.5034204301e+01   1.9504643368e+01    0.2379685    0.2057624 -31.22 0.0008228287    1.358    0.264
        83  -9.8083      1.6265    197.0143   8.9893249532e+01   3.1950997011e+01    0.4182641    0.1262801 -84.06  0.001801534    3.083    0.676
        84  -9.3700     37.5764    195.5410   8.1373650158e+01   2.8889329830e+01    0.4241788    0.1709208 -52.01  0.001797065    3.176    0.685
        85  -8.7158    131.9732    195.0148   5.8346745595e+01   1.5806788407e+01    0.2130015    0.1595392  63.63   0.00111882    1.675    0.403
        86  -8.8698     66.3107    194.5773   7.4224161639e+01   2.5675239391e+01    0.3284885    0.1529382  66.85   0.00127257    3.089    0.676
        87  -9.5549    103.9824    189.2036   6.4177870052e+01   2.1443664602e+01    0.2579397    0.1956211  26.93 0.0006353611    1.299    0.230
        88 -11.5855     98.0236    188.3937   6.5543157151e+01   2.2534670930e+01    0.6905668    0.4065458  61.00  0.001814199    2.088    0.521
        89 -11.7850    172.9073    195.6606   4.9457169902e+01   9.0870333050e+00    0.6965391    0.3524618 -40.56  0.002323283    2.086    0.521
        90 -10.7711    183.1411    185.7136   4.5606623578e+01   9.1304881857e+00    0.2758966    0.2344714 -71.85  0.001590518    1.785    0.440
        91  -9.3797    155.3114    187.4149   5.1798656988e+01   1.3415869493e+01    0.3648331     0.195503 -31.54  0.001339923    2.297    0.565
        92  -9.5268    138.6825    189.1687   5.5856255738e+01   1.5848052281e+01     0.268306     0.196383 -66.06  0.001294918    1.773    0.436
        93  -8.1591    116.9836    190.7680   6.1234850729e+01   1.9065945448e+01    0.1757193    0.1056242  34.88 0.0002755264    1.498    0.332
        94 -10.4820    197.2143    182.4057   4.2232994169e+01   7.4229769863e+00    0.2918378    0.2238698  54.75  0.001583055    1.811    0.448
        95 -10.4842    204.1324    187.7283   4.1904470600e+01   5.5067981106e+00    0.3656203    0.3027165  68.55  0.002127716    2.063    0.515
        96 -10.7266     93.8663    181.8433   6.5669752575e+01   2.4606196120e+01    0.3996616    0.3342192 -36.24  0.001973003    1.403    0.287
        97  -8.5455     87.3161    189.6468   6.8393479112e+01   2.3859893525e+01    0.1471068   0.09496956  63.43 0.0007046332    1.739    0.425
        98  -8.9707    129.0292    188.3373   5.7977208538e+01   1.7605553650e+01    0.2020285    0.1662986  39.99 0.0007348035    1.121    0.108
        99 -11.0674     19.9967    181.4416   8.4706134999e+01   3.3847943721e+01    0.4585313    0.3330408 -74.51  0.002570828    1.355    0.262
       100 -12.0606     12.5645    179.8690   8.6466632759e+01   3.4868613622e+01    0.7404594     0.560174 -53.60  0.003932619    1.576    0.366
       101 -11.3742      4.3618    177.1438   8.8356486559e+01   3.6162639184e+01    0.5449201    0.3971132 -83.22  0.002442231    1.259    0.206
       102 -10.4592      3.7295    169.4829   8.8121201269e+01   3.7987049275e+01    0.3537902    0.2796813 -67.07 0.0009682564    1.340    0.254
       103  -9.5016    165.6216    186.9270   4.9468694171e+01   1.1790958371e+01    0.2393621     0.183776  55.14   0.00104274    1.628    0.386
       104  -9.8403    148.7067    186.2974   5.3081372463e+01   1.4730160498e+01    0.3216047    0.1756063 -60.94  0.001352556    2.701    0.630
       105  -8.6167     55.1713    186.7974   7.6224108604e+01   2.8832244706e+01     0.245196    0.1049425  60.72 0.0009472638    2.874    0.652
       106 -10.0854    109.2809    184.9833   6.2242396410e+01   2.1509361249e+01    0.4370007    0.2892005  43.51  0.002129239    1.386    0.278
       107 -10.7751    210.4937    184.2632   4.0102942823e+01   5.0765414656e+00    0.3690765    0.2223381   8.71  0.001861174    2.014    0.504
       108  -8.8023    120.0000    184.5269   5.9534430218e+01   1.9869175121e+01    0.2807279   0.08132425 -54.28 0.0009173863    3.796    0.737
       109  -9.0437    217.6441    183.0150   3.8596478053e+01   4.1963593748e+00    0.1807187    0.1426937 -14.57  0.000730903    1.097    0.089
       110  -8.2893     74.2871    183.6429   7.0956353371e+01   2.7055494423e+01    0.1454518   0.09412577  65.33 0.0007023447    1.677    0.404
       111 -10.1870     45.6648    180.1897   7.8027017679e+01   3.1487971527e+01    0.6425633    0.1880349 -67.78  0.002415535    3.196    0.687
       112 -10.0727    182.1122    180.0089   4.4765071492e+01   1.0271904416e+01    0.2391161    0.1863656 -41.92 0.0009142368    1.392    0.282
       113 -11.1291    148.3989    179.9213   5.2032206407e+01   1.6008461012e+01    0.4774123    0.3465529  18.14  0.002465617    1.452    0.311
       114 -10.7538    148.8240    174.8651   5.1018057112e+01   1.6923512954e+01    0.3895915    0.3630559 -41.04  0.001691385    1.165    0.142
       115  -9.8628    152.4820    174.0278   5.0026287431e+01   1.6446411044e+01    0.3491592    0.2256866 -25.94  0.001636186    1.870    0.465
       116 -10.7947     11.2539    187.1250   8.7191352390e+01   3.3330155792e+01    0.3834733    0.2579097  45.32  0.001642654    1.309    0.236
       117 -10.3634    138.5864    179.1179   5.4167342344e+01   1.7852335472e+01    0.4425275    0.2982445 -68.60  0.002081401    2.085    0.520
       118  -8.6382    104.0171    180.0242   6.2808662695e+01   2.3423197032e+01    0.2179272    0.1688468 -18.56  0.001112896    1.679    0.404
       119  -8.3993    218.8883    177.8250   3.7413617417e+01   4.7899290209e+00    0.1551092    0.1453497 -19.83 0.0004149902    1.306    0.234
       120  -9.6700    158.5229    176.3418   4.9097915051e+01   1.4947236426e+01    0.4084496    0.2436252 -29.34  0.001381972    1.974    0.493
       121  -9.1953     88.9889    176.9886   6.6238238881e+01   2.6441062933e+01    0.3199438    0.2093261  69.32  0.001499974    1.870    0.465
       122  -8.9253     88.0014    173.2479   6.5955314331e+01   2.7448076572e+01    0.2224555    0.2031579  55.61 0.0009516391    1.014    0.014
       123  -9.5613     91.6966    172.0170   6.4789519212e+01   2.7164101605e+01    0.3480083    0.1950125  35.31 0.0009235588    1.666    0.400
       124  -8.6292    101.4775    177.5036   6.3071150024e+01   2.4384559622e+01    0.2604183    0.1361893  22.88  0.001037303    2.376    0.579
       125 -10.4154     29.6589    175.9191   8.1830128082e+01   3.4209440551e+01    0.2943931    0.2730215  88.76   0.00105796    1.150    0.130
       126  -9.9624     24.2668    174.4539   8.3123695207e+01   3.5079208881e+01    0.2824572    0.1564781  60.24 0.0007886483    1.671    0.402
       127 -10.1979     28.9134    170.0021   8.1542727038e+01   3.5688840997e+01    0.2337571    0.1926379  73.51 0.0009950495    1.053    0.050
       128  -9.9563    183.1780    175.4935   4.3698392533e+01   1.0875277178e+01    0.2399125    0.1987379  59.23  0.001352135    1.610    0.379
       129  -8.4518    118.2610    176.6237   5.8673346977e+01   2.1828734545e+01    0.1423878    0.1090095  75.34 0.0004543552    1.665    0.399
       130  -9.8992    105.5954    174.9838   6.1616369531e+01   2.4281738716e+01    0.3603131    0.2346287  82.57  0.001378881    2.352    0.575
       131  -9.7400     77.5362    175.6603   6.9078664043e+01   2.8433733927e+01    0.3651167    0.1816974  55.42  0.001312918    2.269    0.559
       132 -11.8994    207.4621    169.1464   3.7793877019e+01   7.9234392163e+00    0.6125584     0.383184 -51.40  0.003073998    2.108    0.526
       133 -11.4988    217.1662    165.4324   3.5338894347e+01   6.9596474086e+00    0.7061968    0.3333821  37.80  0.003362281    2.197    0.545
       134 -10.8040    178.2158    170.7771   4.3808873999e+01   1.2554369515e+01    0.3867726    0.2474328   9.89  0.001790031    2.038    0.509
       135  -9.6886    176.8475    167.8458   4.3520847733e+01   1.3320993194e+01    0.3209189    0.2420893 -38.50 0.0008904002    1.344    0.256
       136  -9.4720    135.1411    171.4761   5.3623500233e+01   2.0011252778e+01    0.2718596    0.2243229  72.77  0.001101525    1.512    0.339
       137 -10.0212    121.8766    169.4969   5.6539982251e+01   2.2748443124e+01    0.4476973     0.312609  66.16  0.001341447    1.871    0.466
       138  -8.9036    121.7925    163.7850   5.5529245663e+01   2.4008612034e+01    0.2491126    0.1593127 -11.00 0.0009555788    2.804    0.643
       139  -8.9150     54.8803    169.0435   7.4381807372e+01   3.3034568010e+01    0.3321772    0.1594813  79.53  0.001229842    3.146    0.682
       140  -9.8829    199.8750    167.0087   3.8783169573e+01   9.5186575437e+00    0.3237632    0.1980493 -17.86  0.001133687    1.886    0.470
       141  -8.8107    167.9902    169.0179   4.5630304021e+01   1.4666445069e+01    0.2140546    0.1786301  81.86  0.001128213    1.756    0.430
       142 -11.5749    150.3559    164.0578   4.8611803188e+01   1.8800144119e+01    0.7982354    0.5061501 -31.00  0.003555169    1.806    0.446
       143  -9.8816    159.9595    164.4272   4.6495413057e+01   1.6980250016e+01    0.8729643    0.2833296 -50.74  0.002785814    3.860    0.741
       144  -9.5175    157.9124    155.5182   4.5156423921e+01   1.9109389560e+01    0.3740118     0.234052 -60.23  0.001443767    2.148    0.534
       145 -10.9532    204.6637    175.2821   3.9490395632e+01   7.3868287129e+00     0.357097    0.2862756   3.13  0.001660542    1.150    0.130
       146  -9.8890    139.3719    165.1824   5.1428526909e+01   2.0564207467e+01    0.4014177    0.2914124  78.12  0.001821387    2.145    0.534
       147  -9.4021     19.2140    166.7965   8.3890771056e+01   3.7362711489e+01    0.1614805    0.1446011 -58.22 0.0004141639    1.291    0.225
       148  -9.4409     99.9672    159.9752   6.0606137697e+01   2.8626098310e+01    0.4587051    0.3375123  61.82  0.001138669    1.498    0.332
       149  -9.6632     97.9327    165.1034   6.2025751316e+01   2.7769369738e+01    0.5135723    0.2966087  70.13  0.001410188    2.819    0.645
       150  -9.4373     92.7596    159.9455   6.2577614488e+01   2.9812264402e+01    0.4486559    0.2414889 -67.72  0.001706352    2.166    0.538
       151  -9.1837     80.5068    164.3667   6.6669777904e+01   3.0659950895e+01     0.371789     0.204801  76.58  0.001377193    3.016    0.668
       152  -9.3891     37.0814    163.3568   7.8700960068e+01   3.6462495604e+01    0.3880402    0.2216282 -82.65  0.001911056    1.720    0.419
       153  -9.6348     15.2951    162.9914   8.4671392413e+01   3.8614224176e+01    0.3060866    0.1772811  26.32  0.001343435    1.822    0.451
       154 -10.4361     22.9498    160.5159   8.2379778693e+01   3.8546569635e+01    0.5833849    0.3052047  11.10  0.002679469    2.623    0.619
       155  -9.7028      9.1542    161.3080   8.6218056880e+01   3.9513399513e+01    0.3278663    0.1283507  79.83  0.001327814    2.729    0.634
       156  -9.6462    177.4464    160.6330   4.1954901017e+01   1.4530456098e+01    0.2891186    0.2341638 -60.21  0.001322743    1.567    0.362
       157  -9.1857     60.4867    157.8591   7.1400856471e+01   3.5047374290e+01    0.4744928    0.2565521  81.70   0.00189899    2.577    0.612
       158  -8.4804    193.2803    172.5614   4.1129804067e+01   9.6866918335e+00    0.1829967    0.1182557  24.15 0.0009335963    1.588    0.370
       159  -9.9749    167.6859    157.9578   4.3486490401e+01   1.6812740752e+01    0.3315721    0.2976241 -86.87  0.001757998    1.449    0.310
       160 -10.6419    142.6382    158.4078   4.9317957964e+01   2.1376384218e+01    0.7529305    0.2919749  40.07  0.002684257    2.464    0.594
       161  -8.8153    128.4171    158.1825   5.2784516785e+01   2.4044823742e+01    0.3429848    0.1474067 -60.05  0.001150174    3.273    0.694
       162  -9.5943    105.4574    157.6844   5.8709591334e+01   2.8231598655e+01     0.358065    0.2539239  71.14  0.001028476    1.801    0.445
       163 -10.0684    188.9028    157.0209   3.8890824898e+01   1.3126594631e+01    0.3682355    0.1684195 -50.55  0.001431318    2.808    0.644
       164 -10.7501    207.6091    142.5124   3.2337966399e+01   1.2287821743e+01    0.4560244    0.2972806 -38.13  0.002383751    1.429    0.300
       165 -12.5148    205.8356    150.1784   3.4269192187e+01   1.1315366206e+01    0.7612375    0.6487815 -86.34  0.004324451    1.777    0.437
       166  -9.3200    119.3679    154.8257   5.4463782037e+01   2.6432656161e+01    0.3712012    0.2552623 -81.10  0.001304646    2.117    0.528
       167  -9.6566    116.2220    144.8466   5.3309651036e+01   2.9276443519e+01     1.091161    0.4096624  55.62  0.002369239    7.393    0.865
       168  -9.8647    107.0580    144.7812   5.5815206632e+01   3.0962379520e+01     0.592846     0.375572  79.32  0.002242748    2.740    0.635
       169  -9.3167    106.9895    139.0471   5.4664728101e+01   3.2325055113e+01      0.35438    0.2949522 -81.35  0.001777229    1.361    0.265
       170  -9.3976     49.7511    155.0378   7.4150495774e+01   3.7090083219e+01     0.411295    0.2011559  59.40  0.001684548    2.379    0.580
       171  -9.6821    249.8108    154.3819   2.7975014508e+01   3.6583157313e+00     0.242108   0.07717736 -37.19  0.001024465    2.652    0.623
       172 -10.5968    133.9906    152.3582   5.0219751452e+01   2.4277053322e+01    0.7917241    0.4707488 -60.86  0.002417552    2.089    0.521
       173  -9.8354     81.5452    153.7985   6.4717034470e+01   3.3050577228e+01    0.4573611    0.2962007 -85.26  0.001721496    1.929    0.482
       174 -10.4841     68.3462    153.3023   6.8468105745e+01   3.5109034546e+01    0.5434707    0.3377417 -87.27  0.001985343    1.931    0.482
       175  -9.1813     32.4554    154.8701   7.9165054644e+01   3.9029667179e+01     0.320313    0.1867448  -2.06  0.001406252    2.791    0.642
       176  -8.9238    100.2989    153.6746   5.9394589119e+01   3.0047284779e+01    0.2353773     0.202002  64.64 0.0005841298    1.205    0.170
       177  -8.7611     98.4951    150.5098   5.9316965763e+01   3.1102279960e+01    0.2613563    0.1857254 -86.71  0.001014999    1.811    0.448
       178 -10.3937    154.1643    150.9909   4.5070589059e+01   2.0728801761e+01    0.4281445    0.2817751  18.14  0.001886467    1.933    0.483
       179 -11.3529    189.9998    149.9289   3.7195767425e+01   1.4187091188e+01     0.441507    0.2924446 -46.35  0.002211753    1.592    0.372
       180  -9.7800    182.2541    149.3561   3.8618804747e+01   1.5719540522e+01    0.3954596    0.2166959 -46.78  0.001363694    1.928    0.481
       181  -8.8862     89.8908    151.1278   6.1868446301e+01   3.2382022259e+01    0.3911042    0.1842663  41.83  0.001557105    2.016    0.504
       182  -8.8779     22.8129    151.2483   8.1615997759e+01   4.0840986693e+01     0.242518   0.09837957  59.89 0.0009535554    2.772    0.639
       183  -9.6551    162.5587    149.4311   4.2831828171e+01   1.9433402134e+01    0.4275027    0.1852607 -49.07  0.001604841    2.536    0.606
       184  -9.3117     28.0563    148.7383   7.9836177600e+01   4.0987018782e+01    0.4187552    0.1800935  78.30   0.00156541    3.086    0.676
       185 -10.1340    223.8194    148.0852   3.0737952229e+01   8.6047738299e+00    0.4271678     0.245335  41.78  0.001785408    1.900    0.474
       186  -9.3949     39.8251    147.8278   7.6216696830e+01   4.0026146313e+01    0.5413406    0.1857327  52.30  0.001847448    3.480    0.713
       187  -9.3285     38.3299    143.3278   7.6130511280e+01   4.1324169528e+01    0.3248723    0.1706483 -70.85  0.001494224    1.773    0.436
       188  -9.0693    142.5787    147.7037   4.7126356791e+01   2.3637091489e+01    0.2759528    0.2170617 -23.63  0.001366562    1.422    0.297
       189 -11.1504    148.3695    141.9242   4.4477907189e+01   2.3720985685e+01     1.112751    0.5305793 -54.79  0.003733867    2.589    0.614
       190  -9.3836     77.7364    146.7887   6.4657071820e+01   3.5351731748e+01    0.2595218    0.1802503 -58.25  0.001120651    1.442    0.307
       191 -10.1474     56.1396    145.3393   7.0937383016e+01   3.8734973670e+01    0.5907436     0.280192  57.57  0.001766962    2.620    0.618
       192  -9.7944     62.4995    146.0000   6.9102272694e+01   3.7734086666e+01    0.3789944     0.147042  24.54  0.001313972    3.138    0.681
       193 -11.7328    195.1764    144.7100   3.5086639163e+01   1.4161147960e+01    0.9610524    0.2709984 -48.28  0.002602013    5.504    0.818
       194 -10.0976    192.5154    133.5439   3.3144731757e+01   1.6637609351e+01    0.2509511    0.1785215 -36.71 0.0008065042    1.326    0.246
       195 -11.5052    197.4621    136.3313   3.2836931306e+01   1.5204503868e+01    0.4716935    0.3806351  -9.55  0.001633094    1.285    0.222
       196 -10.5578    202.7328    136.2685   3.1861450702e+01   1.4232326614e+01    0.2759121    0.2500471  45.41  0.000666903    1.240    0.194
       197  -8.6920     13.0566    146.0063   8.4021455785e+01   4.2952599295e+01    0.2217278    0.1245771  61.53  0.000692629    1.726    0.420
       198 -10.1936    125.2602    142.9732   5.0505595829e+01   2.8000592195e+01    0.5677872    0.3725294 -83.89  0.001987541    2.681    0.627
       199  -9.8338    165.5785    143.3780   4.0851883338e+01   2.0039786472e+01    0.3934873    0.2440563 -43.85  0.001807678    1.619    0.382
       200  -9.4180     88.0276    143.6027   6.1047248802e+01   3.4513540786e+01     0.363563    0.2336386  87.03   0.00135101    2.256    0.557
       201  -9.2773      3.3630    142.5092   8.6607498264e+01   4.4507761550e+01    0.2733579    0.1207124  54.18  0.001173954    2.192    0.544
       202  -9.7254    181.8156    140.9664   3.6890942356e+01   1.7348341093e+01    0.3295243    0.1863497 -46.75  0.001465367    1.840    0.457
       203 -11.0999     69.1037    139.1929   6.5977609884e+01   3.8526724749e+01    0.8136759    0.3965983 -79.19  0.002899117    2.957    0.662
       204  -9.5042     46.4258    139.2679   7.3082298585e+01   4.1459876730e+01    0.3462023    0.2793789  40.50  0.001593683    1.247    0.198
       205  -8.9553     45.4943    134.9849   7.2772572051e+01   4.2662638314e+01     0.327342    0.1721172 -88.97  0.001329457    2.350    0.575
       206 -10.1651     41.0077    135.4590   7.4277454127e+01   4.3043311118e+01    0.4276068    0.2754821  20.62  0.001765715    1.761    0.432
       207 -10.6095     42.0639    129.9003   7.3152940440e+01   4.4354854610e+01    0.4248551     0.338925  74.22   0.00156377    1.256    0.204
       208 -10.0238     81.5178    137.1335   6.1787389601e+01   3.7158712522e+01    0.4191951    0.2406829 -59.41  0.001629642    1.738    0.425
       209  -9.7235     23.2901    137.7015   8.0157875197e+01   4.4202611963e+01    0.5338854    0.2379561  70.22  0.002098194    2.826    0.646
       210  -9.4398     22.8566    130.6460   7.9536505160e+01   4.6036242295e+01    0.3955248    0.1546831 -47.71  0.001548745    2.852    0.649
       211 -10.1414    234.4409    136.7740   2.6737860390e+01   8.6100858612e+00    0.3597249    0.2313452 -12.69  0.001903918    1.771    0.435
       212  -9.2750    172.2730    137.1028   3.8008264503e+01   1.9940324245e+01    0.4863143    0.1179237 -46.08   0.00133226    4.531    0.779
       213  -9.5587    138.3150    137.2865   4.5906072312e+01   2.6702676351e+01    0.2928844    0.1858802 -69.09  0.001156174    2.371    0.578
       214 -10.8077    187.9099    134.2773   3.4193116799e+01   1.7396094624e+01     0.421122    0.2038809 -43.82  0.001761492    2.034    0.508
       215  -9.8282    162.4419    135.1905   3.9713589834e+01   2.2281062196e+01     0.447561    0.2202995 -38.42  0.001782809    2.076    0.518
       216  -9.3337    124.7753    136.0405   4.9127201075e+01   2.9653146549e+01     0.256396      0.17461 -21.56  0.001070907    2.033    0.508
       217  -9.0934    245.2218    133.9386   2.4583770785e+01   7.3019280945e+00    0.1719802   0.08646806 -35.26 0.0005258054    1.663    0.399
       218  -9.1377    179.8380    133.7499   3.5678858303e+01   1.9076492403e+01     0.273314    0.1855979 -63.03  0.001114426    2.063    0.515
       219 -10.6478    132.4241    130.3801   4.5830694456e+01   2.9393147332e+01    0.8399827    0.3875106 -54.92   0.00268681    2.542    0.607
       220 -11.0506    111.0310    130.7289   5.1722918350e+01   3.3528162365e+01    0.7356775    0.6031058 -61.84  0.003215866    1.280    0.219
       221 -11.1928    117.1823    123.3979   4.8294712643e+01   3.4030109744e+01    0.9551672    0.6581416 -44.81  0.003037825    1.477    0.323
       222 -10.3835     83.6343    131.4593   6.0032572626e+01   3.8226101467e+01    0.5727724    0.3780248  86.71  0.001798401    2.139    0.532
       223  -9.7449    208.4856    132.1070   2.9936616815e+01   1.3876648285e+01    0.3004866    0.2067826  56.28  0.001553366    1.786    0.440
       224  -9.3174    143.2593    131.4234   4.3338606659e+01   2.6961753868e+01    0.3470345     0.260497 -70.45  0.001155152    1.720    0.418
       225  -9.7448     13.1025    129.5899   8.2575632806e+01   4.7071864471e+01    0.6649797    0.2589903  83.10  0.002458856    3.195    0.687
       226 -10.2876     29.7262    102.2361   7.3198878381e+01   5.2734098746e+01    0.7151121    0.2121823  44.12   0.00234657    3.980    0.749
       227 -10.6245     22.8752    101.7237   7.5741566070e+01   5.3457293806e+01    0.8029644    0.3403087  63.61  0.002708739    4.038    0.752
       228 -10.0209     21.6645     92.2256   7.4682572030e+01   5.5972144578e+01     0.590555    0.1973023 -44.65  0.002146233    3.104    0.678
       229 -11.3295     14.7224    113.3638   8.0317367919e+01   5.1091695124e+01    0.6438112    0.3161758 -72.13 0.0008470315    1.757    0.431
       230 -10.7716     16.5696    105.4628   7.8660664918e+01   5.2981375801e+01    0.5624398    0.3654023 -37.13  0.002817031    1.687    0.407
       231  -9.7860    169.0261    129.9825   3.7071477759e+01   2.1969420437e+01    0.2895969    0.1996643 -68.28  0.001252924    2.146    0.534
       232  -9.7504    152.9007    127.7587   4.0164464656e+01   2.5740025039e+01    0.6745828     0.232244 -48.82  0.002138552    3.202    0.688
       233  -9.5698    107.8230     91.9911   4.2767232890e+01   4.3055428439e+01    0.4751362    0.3292478  16.00  0.001672786    2.046    0.511
       234 -10.7472    105.0499    123.7990   5.1877824501e+01   3.6297206024e+01    0.4159283     0.303148   8.96 0.0009682971    1.877    0.467
       235 -11.3144    108.4532    112.8176   4.8217861032e+01   3.8212763056e+01     1.141747    0.5605036 -46.43  0.004362373    2.051    0.512
       236 -10.8355    108.9457     99.1737   4.4464685703e+01   4.1227494581e+01    0.6386389    0.5203306  63.17  0.002009379    1.355    0.262
       237 -10.6176     99.1011    127.6153   5.4507508088e+01   3.6490376582e+01    0.6692136    0.4297744 -87.40  0.002023467    2.553    0.608
       238  -9.8164     98.4489    120.3357   5.3053315332e+01   3.8360793571e+01    0.5248861    0.3696924  -7.19  0.002104582    2.203    0.546
       239  -9.7145     73.0191    127.7823   6.2658077708e+01   4.0825551913e+01    0.5665789    0.2545348 -68.08  0.002040065    2.619    0.618
       240 -10.4452     59.8910    124.2225   6.6292249300e+01   4.3622880903e+01    0.7113578    0.3660073  74.17  0.002295171    3.844    0.740
       241  -9.3851    225.8449    125.0744   2.5578358534e+01   1.1888825867e+01    0.2168532    0.1383051 -55.97  0.001074486    2.011    0.503
       242  -8.9301    208.4249    125.3239   2.8446399392e+01   1.5028071005e+01    0.1824522     0.120414 -43.56 0.0003907591    1.456    0.313
       243 -10.2808    181.0463    120.6645   3.2396276739e+01   2.1268505070e+01     0.359776    0.2671752  -8.92  0.001298616    1.664    0.399
       244 -10.6266     43.9520    122.3384   7.1363548768e+01   4.6092682960e+01    0.7784125    0.3887993  76.15  0.002756718    3.298    0.697
       245 -10.5772     28.0061    123.0432   7.6910398131e+01   4.7535049781e+01    0.5886933    0.5088533  85.67  0.003516169    1.080    0.074
       246 -10.0201    188.9423    121.5549   3.1078540885e+01   1.9492508204e+01    0.3475949    0.2017752 -30.28  0.001081131    1.783    0.439
       247  -9.3916     84.1148    122.1602   5.7941011368e+01   4.0452640788e+01    0.3359821    0.2191455 -20.74  0.001338049    2.389    0.581
       248  -9.3729    173.1875    121.4634   3.4180138138e+01   2.2750477883e+01    0.3073698    0.2286511 -76.36  0.001408497    1.953    0.488
       249  -9.7202    158.6534    119.9090   3.6949277765e+01   2.6123128154e+01     0.526445    0.2397765 -43.48  0.001783444    2.169    0.539
       250  -8.9935    141.2490    112.7488   3.9272303156e+01   3.1343859354e+01    0.3321398    0.2222888 -13.58  0.001311052    2.313    0.568
       251  -9.8542    130.8372    117.5180   4.3144651962e+01   3.2548158607e+01    0.6760132     0.312115 -56.10  0.002313698    2.731    0.634
       252  -9.7230     71.0694    119.3146   6.1595624848e+01   4.3259805387e+01    0.4098903    0.2476926 -77.02  0.001701013    2.051    0.512
       253  -9.9809      2.8993    116.7007   8.4756881266e+01   5.0988504355e+01    0.5464556    0.2282604  74.95   0.00222928    2.782    0.641
       254 -11.0211    184.8835    113.8138   3.0009476173e+01   2.1726246943e+01    0.4561116    0.3587775  68.81  0.002006434    1.540    0.350
       255 -10.2102     79.3879    112.7112   5.7369310484e+01   4.3584528230e+01    0.5948187    0.3843107  86.68  0.001757991    2.437    0.590
       256  -9.1652     78.1764    106.0243   5.6195771427e+01   4.5435710142e+01     0.325807    0.2473655 -13.98  0.001510788    1.712    0.416
       257 -10.2106     92.5732    112.0952   5.2919963890e+01   4.1426302174e+01    0.5915923    0.3443359 -70.84  0.001816353    2.406    0.584
       258  -9.2375     92.4046    104.8040   5.1143360416e+01   4.3201980697e+01    0.3730259    0.2416364 -30.12   0.00154866    1.961    0.490
       259  -9.7635    122.0266    112.3361   4.4208101053e+01   3.5545031537e+01    0.4333195    0.3029928 -80.94  0.001365274    2.172    0.540
       260 -10.6491     22.6182    110.5960   7.7132033603e+01   5.1202328496e+01    0.5994979    0.2699417 -88.18  0.002356016    2.665    0.625
       261  -9.9640    141.5830    118.8071   4.0718885616e+01   2.9993162514e+01    0.6368383    0.3126255 -57.85  0.002191082    2.829    0.646
       262 -10.4969     66.1921    108.9512   6.1043599997e+01   4.6608129437e+01    0.6868632    0.3436906 -67.92  0.002644764    2.295    0.564
       263 -10.0623     59.4803    109.4999   6.3541894150e+01   4.7435518829e+01    0.2491889    0.1822688 -54.59   0.00108222    1.304    0.233
       264 -10.0478     61.3243    106.0581   6.2137122321e+01   4.8046823068e+01    0.3134416    0.2510558   1.47 0.0009739293    1.497    0.332
       265  -9.7670    133.6156    108.4819   4.0100342368e+01   3.3908149898e+01    0.5163609     0.273175 -48.17  0.001970047    1.931    0.482
       266 -10.6782    249.9929    101.8151   1.7306130019e+01   1.1207870035e+01    0.5629004    0.1827963 -27.37  0.001895002    4.180    0.761
       267  -9.9713    198.3634    107.0366   2.5940797897e+01   2.0120733086e+01    0.2309298    0.1971091  29.07 0.0007890329    1.294    0.227
       268 -10.8584     45.9248    102.2627   6.7026138733e+01   5.1022890011e+01    0.8823949    0.4228926  64.74  0.002796293    4.220    0.763
       269  -9.4562    139.9313    103.3643   3.7135205354e+01   3.3590631982e+01    0.6447453    0.2458446 -49.05  0.002096839    2.874    0.652
       270  -9.3568    150.4081    103.2563   3.4588033823e+01   3.1265590680e+01      0.40332    0.2386618 -57.42  0.001608798    2.080    0.519
       271  -9.7650      6.7663    102.8987   8.1997624113e+01   5.4263820006e+01    0.2491815    0.1602923  79.37 0.0007979932    1.575    0.365
       272 -10.2489    128.9812     99.8002   3.8977141270e+01   3.6772605169e+01    0.6564789    0.3920284 -33.80  0.002673647    1.885    0.470
       273  -8.4083    159.8373    101.0053   3.1870943925e+01   2.9583389873e+01    0.2552474    0.1686194 -64.88  0.001062915    2.029    0.507
       274 -10.0513     82.2028     97.7354   5.2701903678e+01   4.6748388831e+01    0.7736551     0.269808 -50.46  0.002573405    2.763    0.638
       275 -10.4487     63.8824     95.7988   5.8788808243e+01   5.0230191296e+01    0.6667379    0.4035259  81.02  0.002238291    3.131    0.681
       276  -9.7811     64.6945     86.9688   5.6176994804e+01   5.2251017437e+01    0.4895796    0.3017044  -5.69  0.001851181    2.874    0.652
       277  -9.7684     94.8776     96.5762   4.8137958286e+01   4.4657412210e+01     0.521245    0.2577391 -58.50   0.00163789    2.402    0.584
       278  -9.3557     95.3534     91.9710   4.6684089193e+01   4.5617782953e+01    0.4416091    0.2771055 -13.87  0.001556882    3.019    0.669
       279 -10.0322     45.0000     91.8947   6.5166127842e+01   5.3751513221e+01    0.5492436    0.2652085  15.42  0.002131401    2.777    0.640
       280  -9.4134    138.8130     90.2724   3.3778561642e+01   3.6497809236e+01    0.5675776    0.2054097 -43.15  0.001868997    2.749    0.636
       281  -9.8022    125.0862     88.5825   3.6824388601e+01   3.9986190530e+01    0.9826478    0.4427711 -39.17  0.003550178    2.319    0.569
       282  -9.9329      4.8676     91.0155   8.1306818127e+01   5.7364288844e+01    0.4237794    0.2237248  66.87  0.001922588    2.276    0.561
       283  -9.8167      7.4860     84.4039   7.9325366876e+01   5.8880695618e+01    0.4122552    0.1440804 -49.73   0.00171203    2.456    0.593
       284  -9.4194      8.3780     80.5873   7.8363211991e+01   5.9781218698e+01    0.2518143    0.1333055  33.84  0.001249806    2.089    0.521
       285  -9.9706     34.9269     89.1009   6.8647211797e+01   5.5566215786e+01    0.5585049    0.2879943 -80.45  0.002264909    2.469    0.595
       286  -9.5384     35.9916     81.5102   6.6512595625e+01   5.7342826451e+01    0.3991406    0.2199466 -28.82  0.001577059    2.296    0.564
       287 -10.0800     86.7460     86.4389   4.7961474889e+01   4.8546450775e+01    0.5644152     0.380039  83.45  0.001936492    2.646    0.622
       288  -9.6906     86.8631     80.4261   4.6099982566e+01   4.9870482995e+01     0.558076    0.2662601  27.19  0.001849927    3.155    0.683
       289  -9.3967    189.3366    107.8737   2.7738926077e+01   2.1855035218e+01    0.3038153    0.1157929 -44.45  0.001092969    2.576    0.612
       290 -10.1873     48.8155     84.2355   6.1779438318e+01   5.5172734425e+01    0.5385509    0.3026063  63.96  0.001879866    3.071    0.674
       291  -9.7512     49.3658     77.0044   5.9626662810e+01   5.6843822940e+01    0.4214468     0.252387 -21.08  0.001736081    2.360    0.576
       292  -8.9906    116.7076     83.3474   3.7578767969e+01   4.2952712328e+01    0.2897735    0.2065832 -30.13  0.000554546    1.563    0.360
       293  -9.0638    119.3745     80.1602   3.5849423148e+01   4.2995520047e+01    0.5885099    0.2178593 -41.62  0.001955129    2.733    0.634
       294  -9.9066    104.6428     82.7948   4.0991677176e+01   4.5717798314e+01    0.5034769    0.3227995 -65.90  0.001536537    2.163    0.538
       295  -9.3349    104.7693     76.8383   3.9082304018e+01   4.6935283212e+01    0.4744969    0.2924012  20.51  0.001775882    2.575    0.612
       296 -10.7593    186.9212     81.1905   2.1428065649e+01   2.6967253469e+01    0.4391091    0.3176013  28.58  0.001316759    1.802    0.445
       297  -8.4337    182.6944     81.3305   2.2183281383e+01   2.7905938070e+01    0.1970577    0.1363734 -29.56  0.000560906    1.491    0.330
       298  -9.3368    140.7249     81.0671   3.0634737715e+01   3.7832392624e+01     0.425264    0.1910105 -32.31  0.001480347    2.620    0.618
       299 -10.1697     24.4873     80.0946   7.1208073579e+01   5.8783089419e+01    0.5172411     0.275661 -89.70  0.001646995    2.648    0.622
       300  -9.1292     74.3273     79.6341   5.0390297492e+01   5.2368663955e+01    0.3227735      0.22457 -79.24  0.001387143    2.122    0.529
       301  -9.3577    127.9295     75.1178   3.1988219271e+01   4.1990718364e+01     0.443464    0.2351535 -54.25  0.001486903    2.320    0.569
       302  -9.3203    128.8029     69.7809   3.0080863976e+01   4.2778007799e+01    0.3667366    0.2473205 -10.21  0.001494906    2.241    0.554
       303  -8.6012    140.4795     74.9790   2.8866706736e+01   3.9022500158e+01    0.2215606    0.1238989 -59.46 0.0008093997    2.468    0.595
       304 -10.0389     10.5907     74.2436   7.6309135985e+01   6.1219941211e+01    0.3292272    0.1905611  17.98  0.001310977    1.930    0.482
       305  -9.8114     82.3945     72.2609   4.5074903605e+01   5.2510580319e+01    0.4636451    0.3248095 -78.80    0.0015428    2.257    0.557
       306 -10.2240     82.2907     66.1389   4.3045107516e+01   5.3816343634e+01    0.6177573     0.358448 -11.11  0.001916231    4.235    0.764
       307 -10.0520     27.0150     71.6375   6.8178038580e+01   6.0630798040e+01    0.5652509    0.2534473 -21.36  0.001944083    3.978    0.749
       308  -8.9524    115.8874     71.5195   3.4083546706e+01   4.5494451357e+01    0.3858572    0.1691052 -43.91  0.001400676    2.328    0.570
       309  -8.9697    105.9944     71.3370   3.6917700228e+01   4.7775641289e+01    0.2975196    0.2141651 -57.98 0.0008793679    1.595    0.373
       310  -8.7998    106.2080     67.1997   3.5469316795e+01   4.8535469404e+01    0.3043806    0.2166539  -2.08  0.001291345    2.078    0.519
       311  -9.5512     95.0739     70.6241   4.0142847441e+01   5.0289088840e+01    0.5086566    0.2556994 -56.76  0.001807907    2.693    0.629
       312  -9.2728     94.9871     64.5180   3.8083942474e+01   5.1526954622e+01     0.328522     0.192201 -22.41  0.001253673    2.486    0.598
       313  -9.9576     51.2305     68.6752   5.6381572669e+01   5.8532796288e+01    0.5723446    0.2724982 -68.82  0.001965947    3.487    0.713
       314  -9.4019     16.6172     69.4035   7.2549671266e+01   6.2009384014e+01    0.3841133    0.1816123 -79.77   0.00161136    2.538    0.606
       315  -8.9493      1.4680     68.9715   7.9640981727e+01   6.2968002181e+01    0.1994436    0.1070703 -69.87 0.0008731372    1.573    0.364
       316  -8.7758    147.3418     68.1776   2.5260835434e+01   3.8564622977e+01    0.2227237    0.1312058 -46.25 0.0006169814    1.729    0.422
       317  -9.4826    138.6352     65.1827   2.6260452078e+01   4.1211854206e+01    0.5156927    0.1872338 -39.14  0.001759085    2.715    0.632
       318  -8.7804    121.4920     65.4957   3.0576468267e+01   4.5305551434e+01    0.3767021    0.1271213 -46.35  0.001157349    3.339    0.700
       319  -8.4821    122.3304     61.3361   2.8970573540e+01   4.5847225286e+01    0.1579041    0.1185824  17.57   0.00070521    1.732    0.422
       320  -9.7447     37.5002     63.7378   6.1130995916e+01   6.1420700823e+01    0.3686574    0.2388181  84.85  0.001594172    2.681    0.627
       321  -8.0872    158.6759     64.2817   2.1788692343e+01   3.6440072524e+01    0.1514513    0.1120289 -74.63 0.0003015384    1.594    0.373
       322  -8.8030    110.8282     58.7682   3.1208812940e+01   4.9034458642e+01     0.298155    0.2019469  21.28  0.001147911    2.033    0.508
       323  -9.0928    110.2875     63.4443   3.2984509878e+01   4.8312491715e+01    0.3937471    0.2402139 -58.77  0.001242029    2.158    0.537
       324  -9.7320     18.2247     61.6357   6.9982669715e+01   6.3748104467e+01    0.3251362    0.1726655 -44.07  0.001121516    1.682    0.406
       325  -9.8166      2.0938     56.6175   7.7126450019e+01   6.5890991067e+01    0.2837455    0.1937657  72.97  0.001306849    1.824    0.452
       326  -9.1728    100.2456     59.6605   3.4680507415e+01   5.1298108527e+01    0.3365012    0.1903637 -57.73  0.001292197    2.464    0.594
       327  -8.6702    100.1912     54.9947   3.3010028998e+01   5.2157389734e+01    0.3274137    0.2156537 -13.74   0.00138234    2.131    0.531
       328  -9.5607     73.2740     59.2673   4.4001536774e+01   5.6947397315e+01    0.4186546    0.2511655 -58.00  0.001207518    2.095    0.523
       329  -9.4565     72.8589     53.4558   4.1994656535e+01   5.8174242631e+01    0.2870754    0.2012517 -25.50  0.001299902    1.575    0.365
       330  -8.3477    164.5135     59.4870   1.9299820900e+01   3.5772051978e+01    0.1450014     0.138783 -79.05 0.0008103419    1.016    0.016
       331  -9.6598     39.0728     57.7482   5.8510451389e+01   6.2591418677e+01    0.2656965    0.1565519 -40.67  0.001282974    1.609    0.379
       332 -10.2366      7.5611     57.0105   7.4358439433e+01   6.5530043524e+01    0.3143779    0.1940608  77.06   0.00128976    2.223    0.550
       333 -10.3197      7.4759     51.5429   7.3143009805e+01   6.6805592928e+01    0.4599352   0.07262434 -53.44  0.001607098    3.441    0.709
       334  -9.1893    119.2752     55.6371   2.7818509956e+01   4.7565416402e+01    0.2771545    0.1750066 -48.47 0.0008065701    1.714    0.417
       335  -9.4593     62.7537     54.1167   4.6379901989e+01   5.9875345851e+01    0.2888914    0.1934071 -56.94 0.0009820531    1.745    0.427
       336 -10.1492    247.0523    248.1542   4.4381365365e+01  -7.7333141182e+00    0.2556655    0.1664363  11.08 0.0009298059    1.149    0.130
       337  -9.4890     54.0211     53.4816   4.9978763779e+01   6.1435788420e+01    0.4375779    0.2040687 -62.60  0.001472436    3.817    0.738
       338  -8.8344    105.6158     51.8445   3.0224867425e+01   5.1457406803e+01    0.4289214     0.146373 -35.40  0.001410261    3.122    0.680
       339  -9.0589     20.4493     52.9262   6.6506979753e+01   6.5588150098e+01    0.1739294    0.1111601  85.86 0.0008070433    2.460    0.594
       340  -9.4502     92.4076     49.7639   3.3527047412e+01   5.4818992587e+01    0.4430177    0.2347929 -54.22  0.001562608    2.595    0.615
       341  -9.5417     30.9173     51.1657   6.0438803014e+01   6.4981630141e+01    0.1963536    0.1796615  75.32 0.0009209565    1.372    0.271
       342  -8.8530    130.2982     46.5574   2.2013914010e+01   4.6299323523e+01    0.3827634    0.1461735 -25.78  0.001220178    3.561    0.719
       343  -9.1192     63.7608     47.3001   4.3295601859e+01   6.1032573982e+01    0.3658251    0.2255723   4.30  0.001465079    2.716    0.632
       344  -9.1584     81.8712     46.0217   3.5676190865e+01   5.7738313790e+01     0.373322    0.1873573 -42.78  0.001064619    2.081    0.519
       345  -8.9836     84.0287     39.9140   3.2415903973e+01   5.8305590871e+01    0.3283936    0.2216498   6.61  0.001464707    2.089    0.521
       346  -9.1114     22.5874     46.8352   6.3474071110e+01   6.6760735894e+01    0.2633479    0.1584179  -5.39  0.001314228    1.964    0.491
       347  -8.6750      1.4714     46.0123   7.5179354911e+01   6.8370074203e+01    0.1809774    0.1053608 -64.44 0.0003598869    1.480    0.324
       348  -9.1069    150.0000     44.3858   1.7310977066e+01   4.1647574686e+01    0.3182946   0.08269014 -31.26 0.0009407112    3.983    0.749
       349  -9.3509    113.9433     41.4473   2.4094956034e+01   5.1121056117e+01    0.3040105    0.2238066   4.46 0.0002983703    1.790    0.441
       350  -9.6997     16.7834     43.0794   6.5528645759e+01   6.8079294022e+01    0.5999565    0.1855667 -58.26   0.00239271    2.737    0.635
       351  -9.4478     58.1420     42.4644   4.3758614812e+01   6.2926541616e+01    0.2726017    0.1842622 -59.23   0.00120786    1.975    0.494
       352 -10.1510      4.9759     40.6277   7.1748922460e+01   6.9407223139e+01    0.4858851    0.2193327 -77.99  0.002087665    2.925    0.658
       353  -9.8771      6.4070     33.4636   6.8704173332e+01   7.0882440981e+01    0.3139749    0.1704662 -45.22  0.001054539    1.507    0.336
       354  -9.2104    123.3238     40.3795   2.1428297152e+01   4.8955362633e+01    0.2738572    0.2147971  25.77 0.0008904099    1.483    0.326
       355  -9.6019    105.9193     38.6082   2.5135259658e+01   5.3488303292e+01     0.526509    0.2011842 -32.33  0.001911951    2.780    0.640
       356  -8.5302     69.0061     41.0526   3.8530873155e+01   6.1195230628e+01    0.2104927    0.1775337 -84.14 0.0007998955    1.679    0.404
       357  -8.7154     36.9132     40.5501   5.3368985919e+01   6.6505103069e+01    0.2217961    0.1641996 -79.00 0.0009405412    2.157    0.536
       358  -9.4083     26.2221     54.7470   6.4015402959e+01   6.4659762206e+01    0.2697732    0.1456996 -10.65  0.001165511    2.568    0.611
       359  -9.4763     95.0427     36.6762   2.7500587706e+01   5.6340990946e+01    0.4037869    0.3340838 -57.52  0.002159504    1.411    0.291
       360  -9.0541     26.0929     36.2667   5.7666252461e+01   6.8645890470e+01    0.2162067    0.1653989 -65.73  0.001243785    1.595    0.373
       361  -8.5260     37.8343     35.4210   5.0730657842e+01   6.7386767119e+01     0.180682    0.1187987  13.37 0.0005852783    1.653    0.395
       362  -8.7474    111.5229     34.0203   2.1896047852e+01   5.2778845344e+01    0.2106521    0.1098691 -53.36 0.0008101824    2.577    0.612
       363  -8.7028     21.3032     33.6724   5.9474717877e+01   6.9661654220e+01    0.1166327    0.1007443  69.29 0.0007033512    1.646    0.392
       364  -8.7639     60.4321     32.2542   3.8240946037e+01   6.4307751678e+01    0.1860242    0.1276167 -48.06 0.0009420785    1.692    0.409
       365  -8.6372     49.4279     32.2439   4.3331359927e+01   6.6230562820e+01    0.1867025    0.1257983 -50.26 0.0009564516    1.727    0.421
       366  -9.3020     12.7806     30.9540   6.3736114934e+01   7.0966326131e+01    0.2142136    0.1707637 -73.87  0.001115689    1.562    0.360
       367  -8.8533    119.4905     32.9986   1.9609343395e+01   5.0937467116e+01    0.2109118    0.1440744 -30.24 0.0007509011    1.564    0.361
       368  -9.7647     27.6835     28.2123   5.3293244117e+01   7.0041942186e+01    0.4719131   0.09547142 -40.31  0.001297588    5.902    0.831
       369  -9.2482    148.5162     28.4787   1.2451542162e+01   4.4121510562e+01    0.1413632    0.1299788  83.39 5.016667e-05    1.008    0.008
       370  -8.4117    101.3077     27.9845   2.2142164020e+01   5.6076115260e+01    0.2298105   0.08660147 -48.87 0.0007035194    4.163    0.760
       371  -8.9896      2.3446     27.5437   6.9412351279e+01   7.2363857524e+01     0.262576    0.1540249 -12.96  0.001483848    1.735    0.424
       372  -8.4111     81.5213     27.4776   2.7892983757e+01   6.0728586594e+01    0.1367749    0.1306683  44.51 0.0008080751    1.096    0.088
       373  -9.6049     44.3964     25.3012   4.2528756730e+01   6.8224723756e+01     0.229503    0.1810642   9.43 0.0003154306    1.213    0.176
       374  -8.6904    110.4099     24.6595   1.8510735951e+01   5.4265897051e+01    0.1799074    0.1387573  -7.60 0.0009331655    1.517    0.341
       375  -8.0947    118.4932     24.5193   1.6642128284e+01   5.2258688658e+01    0.1435766    0.1289608  51.19 0.0008094622    1.066    0.062
       376  -8.4205     66.7969     23.9401   3.1635889098e+01   6.4349207163e+01    0.1740962    0.1062373 -29.67 0.0004002435    1.703    0.413
       377  -8.2420     58.6316     22.1830   3.4167485749e+01   6.6207721880e+01    0.1794666    0.1200814 -18.19 8.416342e-05    1.614    0.381
       378 -10.0444     13.0981     20.9984   5.9400434832e+01   7.2916445787e+01    0.2573402    0.2085821   7.96 0.0007426182    1.227    0.185
       379  -8.4176     84.5683     21.4327   2.4160591369e+01   6.0844837523e+01    0.1363488    0.1257993  40.20 7.838944e-05    1.034    0.033
       380  -8.2569     48.4727     21.5321   3.8552430204e+01   6.8149165480e+01    0.1305671    0.1170771   7.55 0.0002019544    1.053    0.050
       381  -8.6021     40.8655     21.1609   4.2282618382e+01   6.9458743194e+01    0.1777272    0.1345454   1.78  0.001028664    1.306    0.234
       382  -8.8149    188.5264     20.5131   4.9520097156e+00   3.5079854099e+01    0.1320814     0.116434 -75.00 0.0008098323    1.024    0.024
       383  -8.3585     73.7146     19.3746   2.6815223887e+01   6.3516122555e+01    0.1323463    0.1059897 -65.42 0.0007016837    1.716    0.417
       384  -8.2924      1.4843     19.5049   6.7079320405e+01   7.4053889634e+01    0.1209977   0.09666557 -32.63 0.0001165864    1.002    0.002
       385  -8.9130     50.4082     15.4646   3.4388506904e+01   6.8691736759e+01    0.2654166    0.1542125  19.28 0.0009336427    2.131    0.531
       386  -9.3228    196.4445    248.5539   5.3042145891e+01  -1.9766801074e+00    0.2117329     0.156601  14.62  0.001283065    1.017    0.016
       387  -9.6760    107.3278    247.4077   7.0394247633e+01   9.9795662746e+00    0.2959401    0.2015372 -89.76  0.001702139    2.165    0.538
       388  -8.3309     31.7140     11.6664   4.2258841021e+01   7.2325127725e+01    0.1293536   0.08612136  -3.61  0.000701389    1.622    0.384
