#   1 NUMBER                 Running object number                                     
#   2 MAG_AUTO               Kron-like elliptical aperture magnitude                    [mag]
#   3 X_IMAGE                Object position along x                                    [pixel]
#   4 Y_IMAGE                Object position along y                                    [pixel]
#   5 X_WORLD                Barycenter position along world x axis                     [deg]
#   6 Y_WORLD                Barycenter position along world y axis                     [deg]
#   7 A_WORLD                Profile RMS along major axis (world units)                 [deg]
#   8 B_WORLD                Profile RMS along minor axis (world units)                 [deg]
#   9 THETA_WORLD            Position angle (CCW/world-x)                               [deg]
#  10 FWHM_WORLD             FWHM assuming a gaussian core                              [deg]
#  11 ELONGATION             A_IMAGE/B_IMAGE                                           
#  12 ELLIPTICITY            1 - B_IMAGE/A_IMAGE                                       
         1 -10.8476     58.0184     42.0615   7.4576612310e+01   6.1848454635e+01    0.2790956    0.1860632 -60.98  0.001322196    2.664    0.625
         2 -10.6624     12.5803     29.3394   9.1211757727e+01   6.9359622499e+01    0.3459499    0.1054059 -52.96  0.001451813    3.262    0.693
         3  -9.8154     40.7637     14.0808   6.9983130331e+01   6.8481312967e+01    0.1674393    0.1281319   2.08 0.0003888982    1.081    0.075
         4 -10.7324    154.5087    239.9853   9.2565187480e+01   2.5008813433e+00    0.1811449    0.1288688 -45.59  0.001037954    1.605    0.377
         5 -10.7985    159.6765    237.5027   9.1110406936e+01   2.1471871929e+00    0.2161761    0.1205967 -46.78  0.001093355    2.027    0.507
         6 -11.8205    230.5792    232.2143   7.6203107955e+01  -7.1241408748e+00    0.2845131    0.1090427 -38.79  0.001333824    2.552    0.608
         7 -12.2380    248.7260    223.3187   7.1463929633e+01  -8.1418347115e+00    0.3596514    0.1593156 -45.28  0.001698587    2.901    0.655
         8 -11.2994    163.3269    226.0724   8.8574904123e+01   3.6005805654e+00    0.4814688    0.2959873  27.73  0.001865186    1.508    0.337
         9 -10.6945     99.3553    225.7137   1.0271058570e+02   1.3618400878e+01    0.2961105    0.2306643  29.84  0.001277663    1.274    0.215
        10 -11.1428    126.0190    220.7057   9.6006158229e+01   1.0551050021e+01    0.2546388    0.2094456  56.93 0.0006063247    1.266    0.210
        11  -9.4478     75.0425    220.0000   1.0753051617e+02   1.8299513459e+01     0.213451   0.06869526  33.34 0.0007968207    2.904    0.656
        12 -12.3408    240.3059    215.2932   7.1520849973e+01  -5.9144676308e+00    0.3295645    0.1708451 -35.54  0.001775166    1.751    0.429
        13  -9.4940    143.6287    217.1689   9.1491496100e+01   8.4291226082e+00    0.1877575    0.1251021 -38.13 0.0008021269    1.670    0.401
        14  -9.7660    185.6748    213.4680   8.1726277233e+01   2.3304869473e+00    0.2286146    0.1205232 -41.92  0.001073287    1.952    0.488
        15  -9.7931    131.7554    214.3901   9.3755810455e+01   1.0915375927e+01    0.2000879    0.1249185  25.44 0.0009463522    1.666    0.400
        16 -12.9468    249.5705    198.8708   6.6945612248e+01  -4.6578817830e+00     0.726354    0.2466829 -38.46  0.003153075    2.574    0.611
        17 -13.7647    244.1728    149.1637   5.8169144964e+01   4.2480061960e+00     1.121257    0.3833807 -47.36  0.004121548    3.162    0.684
        18 -13.0924    249.0459    184.4956   6.4341748215e+01  -2.3423393981e+00    0.6973483    0.2734342 -39.97  0.003151144    2.234    0.552
        19  -9.3156    185.3137    203.6562   8.0046181463e+01   4.1626443242e+00    0.1294811    0.1124488  78.60 0.0004138807    1.709    0.415
        20  -9.5008    164.3193    202.6540   8.4412600250e+01   7.8534377539e+00    0.1382406    0.1128748  73.36 0.0004060085    1.728    0.421
        21 -12.2526    243.7866    180.9723   6.4547441243e+01  -1.0238178874e+00    0.4845673    0.2197893 -46.31  0.002179505    2.380    0.580
        22 -10.0314     89.4526    199.5189   1.0162478249e+02   2.0836367191e+01    0.2556823    0.1094816  44.47 0.0009054862    2.205    0.547
        23 -10.0686    126.0676    197.8822   9.2463155042e+01   1.5357103390e+01    0.2815686    0.2331625   1.90  0.001489573    1.401    0.286
        24 -10.0242    113.5361    198.5081   9.5595136003e+01   1.7295887396e+01    0.2783107    0.1128079  45.37  0.001033216    2.459    0.593
        25 -10.7488    172.9096    195.7742   8.1259386700e+01   7.7402472022e+00    0.2324281    0.2026839 -34.74 0.0007102338    1.171    0.146
        26  -9.7533     67.0279    195.2713   1.0657239747e+02   2.5005716441e+01     0.255769    0.1219392  71.17 0.0008890411    3.526    0.716
        27  -9.8661    139.5020    190.0182   8.7877928332e+01   1.4767930369e+01      0.19995    0.1331194 -81.77 0.0008100851    2.522    0.603
        28 -10.1904     87.7698    189.7888   1.0066796254e+02   2.3367549176e+01    0.2090134    0.1582164  65.27  0.001075471    1.381    0.276
        29 -11.5493     96.7058    187.4029   9.8046000918e+01   2.2560598525e+01    0.6639956     0.226063  46.91  0.002196265    3.198    0.687
        30  -9.4384    156.3574    187.6941   8.3476036348e+01   1.2280356264e+01    0.1472684    0.1157808  70.11 0.0003892147    1.724    0.420
        31 -10.4115    110.0444    186.5645   9.4533758574e+01   2.0602501325e+01    0.3986861    0.2053559  59.55   0.00143484    2.905    0.656
        32 -10.8286     17.4094    185.0600   1.1754255853e+02   3.2992679068e+01    0.1928717    0.1742145 -32.49 0.0005429401    1.446    0.308
        33 -10.6896      7.1560    184.9230   1.1991709929e+02   3.3899847669e+01    0.1971309     0.139436  71.37  0.001121932    1.230    0.187
        34  -9.7879     74.6568    184.3369   1.0323344760e+02   2.6586779764e+01    0.1541165   0.09939763  66.81 0.0007049709    1.768    0.434
        35  -9.7161     44.3620    182.6974   1.1074631302e+02   3.0835182276e+01    0.1457223   0.08772804  63.44 0.0006154214    1.727    0.421
        36 -10.6443     78.4072    176.6333   1.0114214528e+02   2.7938377158e+01    0.4724068    0.1811724  48.73  0.001658373    2.939    0.660
        37  -9.8426    106.0206    175.5097   9.3681533334e+01   2.3891314386e+01     0.223748    0.1131582  55.26 0.0008104136    2.567    0.610
        38 -10.5026    122.5887    170.1803   8.8395573958e+01   2.2287268474e+01    0.4101313      0.24336  61.14  0.001587796    2.381    0.580
        39 -10.3672     55.7556    170.1728   1.0626148128e+02   3.2589523762e+01    0.2504798    0.1255139  65.86 0.0009530887    2.800    0.643
        40 -10.2626    100.0833    166.7162   9.3693288555e+01   2.7017947250e+01    0.4060052    0.1397201  46.95  0.001263395    3.347    0.701
        41 -10.2813    139.9311    165.8189   8.3125234501e+01   2.0106920374e+01    0.3613571    0.2353212  68.23  0.001419894    2.414    0.586
        42 -10.6200     80.0106    164.0534   9.8718338319e+01   3.0837593209e+01    0.4821361    0.2703185  80.54  0.001706483    3.161    0.684
        43  -9.6777     47.4962    164.0027   1.0767863431e+02   3.5122344231e+01    0.2032825    0.1079752  82.06 0.0008103181    2.528    0.604
        44  -9.3632    213.3181    163.6532   6.6518225022e+01   6.8613834066e+00    0.1357102     0.111441 -72.34  0.000309487    1.727    0.421
        45 -10.0698     69.9881    163.4836   1.0140230360e+02   3.2416083585e+01    0.2138053    0.1031841  53.53 0.0008099017    2.502    0.600
        46  -9.4509    152.3182    161.6499   7.9215432537e+01   1.8682646414e+01    0.1555232    0.1236183  85.20 0.0007047892    1.736    0.424
        47 -10.7961     93.4763    160.6804   9.4401443388e+01   2.9594387188e+01    0.3676043    0.2419245  57.78  0.001631425    1.750    0.429
        48 -10.0154      9.6616    161.3542   1.1745720654e+02   3.9354052506e+01    0.1388077   0.07866876  66.36 0.0007042388    1.804    0.446
        49  -9.8537     62.3100    160.6792   1.0310912756e+02   3.4155816121e+01    0.1494663    0.1031098  69.93 0.0004160535    1.646    0.392
        50 -10.4784    106.5156    158.5727   9.0414011054e+01   2.7927573756e+01    0.3929002     0.234073  55.85  0.001594831    2.031    0.508
        51  -9.5306    168.6339    158.3121   7.4671024942e+01   1.6241094501e+01    0.1530685    0.1225437  82.97 0.0007038459    1.762    0.433
        52  -9.5449    196.9789    157.5053   6.8408004357e+01   1.0981463892e+01    0.1892772    0.1304494  69.46 0.0008080989    2.407    0.585
        53 -10.5448    120.0664    156.1422   8.6261231459e+01   2.6091024059e+01     0.346981    0.2536789  85.98   0.00150069    1.926    0.481
        54 -10.7519     82.1340    154.8451   9.6528779890e+01   3.2841408985e+01    0.4233564    0.2398997  61.53  0.001649145    2.432    0.589
        55 -10.8037     50.3264    155.6192   1.0573937492e+02   3.6921607826e+01    0.4215588    0.1782729  52.93  0.001555614    3.005    0.667
        56 -13.3149    249.6429    158.9654   5.9276413878e+01   1.7366039950e+00     1.213489     0.329823 -33.92  0.003927916    4.047    0.753
        57  -9.4867    145.6585    155.3347   7.9488374463e+01   2.1397723335e+01    0.1593492    0.1244521  81.70  0.000705087    1.757    0.431
        58 -10.5645     68.1666    154.0603   1.0039402460e+02   3.5058869445e+01      0.34816    0.2098841  75.28  0.001420217    2.358    0.576
        59 -10.4104    133.9880    153.5412   8.2053204047e+01   2.4079881570e+01    0.3926586    0.2685767  67.12   0.00162583    2.048    0.512
        60  -9.8757     91.4736    151.9588   9.3328716609e+01   3.2101550916e+01    0.2143248    0.1327883 -87.21 0.0008092217    2.488    0.598
        61 -10.6672    189.6101    149.3933   6.8143892480e+01   1.3998412811e+01    0.4940792    0.2870708 -56.82   0.00176096    2.171    0.539
        62 -10.0036     98.8558    151.1068   9.1067401600e+01   3.1089497008e+01    0.2447173    0.2089542  77.32  0.001033367    1.298    0.229
        63 -10.7249     39.6990    147.9035   1.0769786710e+02   4.0058634937e+01    0.3978688    0.2085676  59.45    0.0017028    2.380    0.580
        64 -11.5216    107.8435    145.6001   8.7396802699e+01   3.0882208173e+01    0.6854115    0.4186462  70.57  0.002462797    2.842    0.648
        65 -11.5119     56.5589    146.0440   1.0246100438e+02   3.8620712335e+01    0.5931473    0.3069498  64.64  0.002205715    2.993    0.666
        66  -9.9576    234.1698    147.1392   5.9371218472e+01   6.2560372149e+00    0.1906722    0.1456082 -50.22 0.0007530991    1.356    0.262
        67 -10.8567    149.8565    145.7074   7.6309623193e+01   2.2741192815e+01    0.5202151    0.3519792  76.01  0.002011384    2.510    0.602
        68 -10.1099     78.2055    147.1495   9.6255618589e+01   3.5384685306e+01    0.2119786    0.1733557  76.82 0.0007793971    1.354    0.262
        69 -10.0284     13.4817    146.4990   1.1500485819e+02   4.2736379811e+01    0.1311671     0.108082 -88.22 0.0001739397    1.073    0.068
        70 -11.4418    125.3257    143.1403   8.2043297509e+01   2.8208439804e+01    0.5608029    0.3744196 -87.69   0.00210591    2.607    0.616
        71 -11.1823     88.1441    143.6923   9.2667061040e+01   3.4719403315e+01    0.4389164    0.2763022 -78.10  0.001608607    2.083    0.520
        72 -12.5120    245.9377    191.0113   6.6096048859e+01  -2.9423663217e+00    0.5957898    0.2197376 -38.44   0.00262108    2.363    0.577
        73 -11.6748    247.6891    129.6001   5.3620437433e+01   6.9960521786e+00    0.2772093    0.2047883 -81.52  0.001487708    2.067    0.516
        74 -12.0657    249.8673    139.5553   5.5337501817e+01   4.9551882130e+00    0.3798438    0.1776955 -40.40 0.0008847871    1.780    0.438
        75 -10.8281    197.0141    142.8984   6.5196079898e+01   1.3849605176e+01     0.262179    0.2266314  29.21 0.0005807959    1.227    0.185
        76 -10.8799     23.4446    138.0790   1.1115651598e+02   4.4066723273e+01    0.4373854    0.2138454  73.71  0.001750129    2.937    0.660
        77 -11.0112     69.1762    139.7470   9.7566972667e+01   3.8573813855e+01    0.4698989     0.240912 -84.73  0.001507429    3.724    0.731
        78  -9.3938    166.3320    144.6635   7.2155829290e+01   1.9627595946e+01      0.15622    0.1242566 -88.01 0.0007052111    1.737    0.424
        79 -10.6013    113.3059    133.5227   8.3162727219e+01   3.2816759347e+01    0.3567225    0.2519535  72.55  0.001485427    2.018    0.505
        80 -11.2612    132.3390    131.5729   7.7472536035e+01   2.9531542465e+01    0.5320522    0.3424463 -76.40  0.001956108    2.624    0.619
        81 -12.1650     83.7382    131.1760   9.1386241863e+01   3.8571813719e+01    0.6821964     0.415529 -74.67  0.002611037    2.152    0.535
        82 -10.2661    143.3244    131.7370   7.4663402179e+01   2.7232664089e+01    0.3365688    0.2645724  89.04  0.001244263    1.717    0.418
        83  -9.8974    169.0280    130.0148   6.8109054241e+01   2.2193941177e+01    0.2462358     0.193531 -84.30  0.001079302    1.717    0.418
        84 -10.1522    153.1882    129.6622   7.1716247732e+01   2.5624558093e+01    0.3383068     0.249433 -74.25  0.001355862    1.838    0.456
        85 -12.2172     99.1444    127.3855   8.5857796441e+01   3.6911763555e+01    0.7876723    0.4701335 -73.81  0.002925822    2.549    0.608
        86 -10.8244     73.1501    129.1497   9.4245809845e+01   4.0697271916e+01    0.4333037      0.27112 -82.32   0.00177909    2.220    0.549
        87 -10.3565     13.0768    129.3674   1.1317617069e+02   4.7036750950e+01    0.3711675    0.1618796  71.77  0.001349118    3.777    0.735
        88 -11.4473    118.3566    125.6232   7.9848994588e+01   3.3724260668e+01    0.5762119    0.3630308  74.06  0.002010187    3.009    0.668
        89 -11.7302     59.5817    124.3315   9.7592529781e+01   4.3777694679e+01    0.6720865    0.3863653  82.30  0.002426929    3.259    0.693
        90 -11.6668     44.0347    122.6830   1.0234637028e+02   4.6024466591e+01     0.827561    0.4376229  84.90  0.002964412    3.456    0.711
        91  -9.8288    180.0105    125.0288   6.4526315293e+01   2.0899690169e+01    0.2447195    0.1897585 -82.24  0.001133999    1.740    0.425
        92 -11.5062    249.3173    123.6270   5.2153875614e+01   7.7262872212e+00    0.3610008    0.1996187 -60.45  0.001607504    2.579    0.612
        93 -11.0282    141.9246    118.9961   7.1856008022e+01   3.0372620210e+01    0.5251029    0.3208408 -66.06  0.001967651    2.400    0.583
        94 -10.9297     71.3493    120.0243   9.2862396886e+01   4.3246698736e+01    0.3821813     0.252297 -89.40  0.001594965    2.272    0.560
        95 -10.9752    130.8756    118.5133   7.4619963702e+01   3.2820241863e+01    0.4862646    0.3223471 -79.42  0.001807395    2.613    0.617
        96 -10.0612    158.8354    121.5675   6.8376685014e+01   2.6167441080e+01    0.2965546    0.2074411 -80.03  0.001190508    2.246    0.555
        97 -10.3207      3.0482    117.5537   1.1484716052e+02   5.0569393629e+01    0.2680804    0.1173646  69.12   0.00103658    3.574    0.720
        98  -9.5062    186.3156    116.6425   6.1213130527e+01   2.1231448586e+01    0.1561423    0.1161616 -73.62 0.0007044366    1.749    0.428
        99 -11.7209    109.0472    113.1652   7.9394852619e+01   3.8460517508e+01    0.8019537     0.396601 -59.14  0.002834411    2.545    0.607
       100 -11.9520     79.3181    112.5447   8.8525940274e+01   4.3874453540e+01    0.7173853    0.4428422 -82.63  0.002674037    2.867    0.651
       101 -12.1022     92.6471    111.1934   8.3902561753e+01   4.1965891260e+01    0.8968892    0.4102178 -60.93  0.003054133    2.838    0.648
       102 -10.7561    122.3309    112.6807   7.5446093392e+01   3.5910639325e+01    0.3359204    0.2641383  89.31  0.001122889    1.719    0.418
       103 -11.3850     28.6439    122.4701   1.0732545003e+02   4.7563524134e+01    0.7544397    0.3506814  76.78  0.002396423    4.757    0.790
       104  -9.7150    159.4978    112.0097   6.5803738560e+01   2.8031429989e+01    0.2240282    0.1313497 -63.66 0.0008101123    2.512    0.602
       105 -11.6722     66.9253    111.0251   9.2284765276e+01   4.6100977083e+01     0.453154    0.3154263  80.12  0.002000708    2.166    0.538
       106 -10.8343     14.2855    110.3817   1.1021141044e+02   5.1658626008e+01    0.3650271    0.2096894 -89.69  0.001781395    1.992    0.498
       107 -10.0345     59.3371    109.6723   9.4557703251e+01   4.7461339487e+01    0.1466027    0.1112184  72.28 0.0007051822    1.727    0.421
       108 -12.1522     46.0269    102.8218   9.7694445766e+01   5.0737311928e+01    0.8019621    0.4439071  67.97  0.002860673    3.848    0.740
       109 -11.4925     23.0286    102.6124   1.0589650927e+02   5.2938105447e+01    0.6751462    0.3571787  70.72  0.002676951    3.401    0.706
       110 -10.5598    140.0686    104.9048   6.8632445206e+01   3.3819300598e+01     0.338216    0.2390732 -85.29     0.001361    2.250    0.556
       111 -10.9431    150.2753    102.8026   6.5551428662e+01   3.1985164187e+01    0.4963191    0.2513739 -55.09  0.001789283    2.451    0.592
       112 -11.4634    128.7780    102.0602   7.0813950495e+01   3.6885070094e+01    0.4260857    0.3139021 -80.08  0.001664153    1.965    0.491
       113 -12.6124    109.4554     98.4456   7.5292633518e+01   4.1699306209e+01    0.9860445    0.6624712 -86.01  0.003658524    2.904    0.656
       114  -9.6374    166.3515    103.6691   6.2115809173e+01   2.8191047763e+01    0.1604857    0.1203472 -80.62 0.0007047257    1.775    0.436
       115 -11.0095     82.1955     99.9179   8.4347214126e+01   4.6398758511e+01    0.4115531    0.2771455 -74.61   0.00174927    2.161    0.537
       116 -11.5944     95.3316     96.8147   7.9194696779e+01   4.4789911909e+01    0.4885941    0.3180869 -62.07  0.001846819    1.883    0.469
       117 -12.0587     64.2807     96.2471   8.9571737584e+01   5.0009181253e+01    0.6073081    0.3992994  76.89  0.002441979    2.888    0.654
       118 -10.4347    138.6006     91.8095   6.5387694508e+01   3.6834062972e+01    0.3118606    0.2365551 -72.12  0.001266892    1.692    0.409
       119 -11.9985    124.5832     90.0089   6.8545788249e+01   4.0305267544e+01    0.6136349    0.3277616 -52.98  0.002373429    2.179    0.541
       120 -11.3379     34.9223     89.5564   9.8819660711e+01   5.5044966227e+01    0.5330172      0.28879 -78.78  0.002207063    2.755    0.637
       121 -10.3757      4.8695     91.7469   1.1062384616e+02   5.6692782348e+01    0.2422984    0.1473135  79.18  0.001243198    2.153    0.536
       122 -12.3765     87.1826     86.8102   7.8974062074e+01   4.8463385421e+01    0.6987477    0.4656406 -75.59  0.002814611    2.633    0.620
       123 -11.5526     49.1990     84.9837   9.2197154992e+01   5.4568419788e+01    0.5709817     0.368517  68.49  0.002424365    2.907    0.656
       124 -11.8712    104.8789     82.6508   7.2047481873e+01   4.5948748133e+01    0.6806415    0.3887857 -55.54  0.002758562    2.165    0.538
       125 -10.5189    140.5567     82.3198   6.2188949311e+01   3.8224213925e+01    0.2974825    0.1431981 -44.38  0.001140774    2.117    0.528
       126 -10.9978     74.8886     81.0441   8.1503012141e+01   5.1798566513e+01    0.3047667    0.2158189 -69.30  0.001409884    1.987    0.497
       127 -11.2091     24.5696     80.4699   1.0079078297e+02   5.8050153783e+01    0.4383434    0.2681788 -85.61  0.001847122    2.432    0.589
       128  -9.7839    150.2397     80.2450   5.9326818961e+01   3.6364723236e+01    0.2460268    0.1121026 -48.92 0.0007585553    2.440    0.590
       129 -10.6669    119.1716     79.7576   6.6992603703e+01   4.3510529749e+01    0.3027613    0.1719404 -53.53  0.001215194    2.120    0.528
       130 -10.7577     61.8337     77.0173   8.5100495843e+01   5.4660341949e+01    0.2220715    0.1691955 -81.03  0.001087935    2.000    0.500
       131 -12.2076     82.7308     72.4842   7.6064134107e+01   5.2217097635e+01    0.6510281    0.3658566 -60.59  0.002544189    2.771    0.639
       132 -10.7171     42.6859     72.7014   9.1389752206e+01   5.8041914860e+01    0.2557558     0.166373 -77.08  0.001170372    2.472    0.595
       133 -10.2821    105.9680     71.9698   6.8380114630e+01   4.7803152716e+01    0.2344436    0.1889444 -86.37 0.0009963448    1.756    0.430
       134 -10.6885     95.1894     71.2054   7.1484669638e+01   5.0128418927e+01    0.3859604    0.2275273 -58.73  0.001564687    2.452    0.592
       135 -10.7880    128.0510     75.3973   6.3276789096e+01   4.2359632582e+01    0.3674634    0.2379796 -61.62  0.001495947    2.091    0.522
       136 -11.2922     51.5463     69.6089   8.6868724039e+01   5.7626082313e+01    0.5514742    0.2814711 -64.38  0.002145875    3.112    0.679
       137 -10.2919     16.6013     69.9201   1.0160916227e+02   6.1004154551e+01    0.2402298    0.1522458 -74.53  0.001253101    1.856    0.461
       138  -9.8287    146.6218     67.8166   5.6544344211e+01   3.9389741103e+01    0.2162154    0.1316748 -47.99 0.0009513663    1.745    0.427
       139  -9.9618    138.5229     66.0360   5.7853301256e+01   4.1592310596e+01    0.2126816     0.119142 -58.56 0.0008098225    2.534    0.605
       140  -9.6848    158.3473     82.6753   5.8222000727e+01   3.4030207714e+01    0.1577163    0.1167706 -78.83 0.0007049735    1.746    0.427
       141 -10.7259     37.5244     64.2135   9.1048227602e+01   6.0402633458e+01    0.2910162    0.2196046 -81.45  0.001556198    2.043    0.510
       142 -10.1450    110.0367     63.9936   6.4599962392e+01   4.8379050280e+01    0.2303583    0.1849763 -82.84 0.0009139199    1.737    0.424
       143 -10.9269     73.3291     59.2736   7.4990664940e+01   5.6373959389e+01    0.4423085    0.2519963 -54.87  0.001924295    2.377    0.579
       144 -10.2429     24.9934     59.0356   9.5014345018e+01   6.2682219512e+01    0.1848463    0.1574543  69.73  0.001139036    1.731    0.422
       145 -11.4741      7.4174     55.6182   1.0213846476e+02   6.4640764332e+01    0.5047173    0.1563564 -60.65  0.002140631    2.726    0.633
       146  -9.9962    119.3224     56.0040   5.9432441315e+01   4.7654293217e+01    0.2328064     0.101172 -54.00 0.0007043739    4.238    0.764
       147 -10.5697     44.1165     55.2117   8.5301505908e+01   6.1446126252e+01    0.3544559    0.1723273 -52.52  0.001616247    2.197    0.545
       148 -10.9661     63.0126     54.1303   7.7095033398e+01   5.8997567048e+01    0.3624401    0.1756962 -46.34   0.00155476    2.164    0.538
       149 -10.7178     54.1055     53.6648   8.0525942563e+01   6.0413605327e+01    0.4212059    0.2204814 -57.74  0.001754979    2.922    0.658
       150  -9.3352    100.3378     54.3297   6.4198200420e+01   5.2062953153e+01    0.1505101    0.1061596  13.67 0.0007051954    1.734    0.423
       151 -10.5953     92.6806     50.8444   6.5341598027e+01   5.4197886874e+01    0.3939348    0.2139042 -51.65  0.001643703    2.559    0.609
       152 -10.6792     30.9379     50.8512   8.9723509503e+01   6.3762913575e+01    0.3944611    0.2149586 -63.71  0.001812642    2.691    0.628
       153  -9.8321     20.3161     52.6633   9.5259714754e+01   6.4367998482e+01    0.1118824   0.09803469  71.08 0.0003718236    1.697    0.411
       154 -10.4213     82.0288     46.8147   6.7386753220e+01   5.6924749205e+01    0.2430589    0.1761106 -47.88  0.001265596    1.656    0.396
       155 -10.7855     45.1307     44.7001   8.1085155919e+01   6.3251456931e+01    0.2228263    0.1674059 -44.30  0.001025172    1.428    0.300
       156 -10.2821     16.6340     43.2977   9.4066530805e+01   6.6492560709e+01    0.4023697   0.09273323 -53.66  0.001498627    3.596    0.722
       157 -11.6550    166.3589    248.8028   9.1374444205e+01  -7.2949607604e-01    0.2654159    0.1874372  16.44  0.001571153    1.328    0.247
       158 -10.7426     69.3263     41.4559   6.9904133399e+01   6.0077835674e+01    0.2690343    0.2042126 -73.74  0.001270777    2.539    0.606
       159  -9.3302    113.7339     41.6271   5.6048643603e+01   5.1047271216e+01    0.1422926    0.1025458  16.96 0.0006989249    1.668    0.400
       160 -10.0741     36.8815     40.5781   8.3271446902e+01   6.5002445298e+01    0.2345505    0.1667799 -57.32  0.001239201    1.918    0.479
       161  -9.9926     60.5032     32.5194   6.9726198419e+01   6.2918595127e+01    0.1297259    0.1111055   8.25 0.0001659569    1.034    0.033
       162 -11.0902      4.9862     40.5875   9.9096607747e+01   6.7800411953e+01    0.4497951    0.1705301 -63.53  0.001975085    3.058    0.673
       163 -10.8542     27.4913     30.5144   8.3854148788e+01   6.7771662235e+01    0.3531747   0.07592384 -39.86  0.001220743    4.224    0.763
       164  -9.6717     72.3158     31.6482   6.4894542893e+01   6.0972113297e+01     0.120945    0.1068276 -78.06 0.0007046712    1.734    0.423
       165 -10.6823    159.2954    243.3412   9.2046271617e+01   1.2091194280e+00    0.1293383   0.09176456  -2.27 0.0003017292    1.660    0.397
       166 -10.5508      3.6064     26.0465   9.4945639344e+01   7.0571308188e+01    0.2585681   0.09360538 -53.23  0.001261356    2.456    0.593
