#   1 NUMBER                 Running object number                                     
#   2 MAG_AUTO               Kron-like elliptical aperture magnitude                    [mag]
#   3 X_IMAGE                Object position along x                                    [pixel]
#   4 Y_IMAGE                Object position along y                                    [pixel]
#   5 X_WORLD                Barycenter position along world x axis                     [deg]
#   6 Y_WORLD                Barycenter position along world y axis                     [deg]
#   7 A_WORLD                Profile RMS along major axis (world units)                 [deg]
#   8 B_WORLD                Profile RMS along minor axis (world units)                 [deg]
#   9 THETA_WORLD            Position angle (CCW/world-x)                               [deg]
#  10 FWHM_WORLD             FWHM assuming a gaussian core                              [deg]
#  11 ELONGATION             A_IMAGE/B_IMAGE                                           
#  12 ELLIPTICITY            1 - B_IMAGE/A_IMAGE                                       
         1 -12.6446    248.4813     55.1527   3.5405013439e+02   2.0826642897e+01    0.9152131    0.1950307 -39.97  0.003959079    2.898    0.655
         2 -11.3618    113.6854     14.0825   3.5738854167e+02   5.4490790836e+01    0.5976013    0.1945042  67.80  0.002289732    2.663    0.625
         3 -10.4752     23.6036     16.7746   3.1429560543e+01   7.4147734277e+01    0.2418918    0.1912389 -73.99 0.0008579391    1.960    0.490
         4 -10.9374     19.7666     16.0545   3.3830203816e+01   7.4840522111e+01    0.3593594    0.2597161 -21.33  0.001175338    1.455    0.313
         5 -11.8250    249.7524     13.5566   3.4593489343e+02   2.5472788851e+01    0.4200175    0.1822274 -27.39   0.00230302    2.545    0.607
         6 -10.7813    183.4715     15.0051   3.4998820353e+02   3.7945021027e+01    0.3061955    0.2479877  76.18  0.001173309    1.333    0.250
         7 -12.3611    178.2578      8.2576   3.4864434874e+02   3.9789970252e+01    0.6154229    0.3196434 -69.24  0.002480845    1.747    0.428
         8 -11.4025     54.4330      8.7779   9.7477331560e+00   6.9314544992e+01    0.4647372    0.3324806  42.81  0.002647489    1.296    0.228
         9 -11.1831     49.5287     14.0479   1.4862461968e+01   6.9744684599e+01    0.3305626    0.2492938  36.65 0.0008280317    1.265    0.209
        10 -10.3287     45.2066     12.1454   1.5730396723e+01   7.0889905918e+01    0.2628812    0.2152564  39.62 0.0006528177    1.103    0.093
        11 -10.9373     27.8967     12.0530   2.5463880431e+01   7.4194707283e+01    0.4755557    0.2228428 -44.52  0.002213646    2.431    0.589
        12 -10.6562     34.9746     13.7447   2.2138548504e+01   7.2681562864e+01    0.3289028     0.211962  38.94 0.0009553038    1.424    0.298
        13 -11.2996     32.1433     10.3537   2.1642207595e+01   7.3683023967e+01    0.3580968    0.2582883  -6.58 0.0004981409    1.631    0.387
        14 -12.1131    241.4749     10.6698   3.4572872649e+02   2.7172248764e+01    0.3954158    0.1387641 -39.97  0.002214195    1.934    0.483
        15 -11.4783    236.6258      6.9181   3.4519149990e+02   2.8404047734e+01    0.2391507    0.1744084 -61.63  0.001544513    1.080    0.074
        16 -11.6747     85.4639      7.2483   3.5985716480e+02   6.2161732444e+01    0.3351635    0.2704603  83.34 0.0008014968    1.161    0.139
        17 -11.0009     79.7099      7.5756   1.3362596343e+00   6.3533332353e+01    0.3321131    0.2193108  73.07  0.001776756    1.404    0.288
        18 -10.0881     78.9017     11.6866   3.5070269499e+00   6.3312199725e+01    0.2107303    0.1832523 -64.08 0.0007052767    1.228    0.186
        19 -10.3696     69.4842      9.6131   5.0963601559e+00   6.5775421520e+01    0.2275387    0.2097718  55.29 0.0006427896    1.046    0.044
        20  -9.5598    115.5857      8.7745   3.5512626545e+02   5.4553981954e+01    0.1768572    0.1115406 -44.93 0.0004637571    1.576    0.366
        21 -11.1568     97.5795      6.4195   3.5709231611e+02   5.9249563308e+01    0.4864258    0.2032784 -44.51  0.001812836    2.498    0.600
        22 -10.1196    218.5753      8.6013   3.4635503598e+02   3.1518876530e+01    0.1914332    0.1421665 -60.18 0.0002744368    1.027    0.027
        23  -9.5815    212.9422      8.4895   3.4661456993e+02   3.2607800999e+01    0.1574836   0.09909603  86.72  0.001019546    1.559    0.358
        24 -11.5725    124.4458      7.0999   3.5333436883e+02   5.2523901421e+01    0.5147074    0.2545821  88.75  0.002360617    2.042    0.510
        25  -9.9501    120.7191      3.6776   3.5258767874e+02   5.3757509749e+01    0.1993486    0.1387856  67.32 0.0002684047    1.326    0.246
        26  -8.9084     40.3102      8.3234   1.5754032218e+01   7.2369065238e+01    0.1331139   0.09078477  22.82 0.0006250276    1.652    0.395
        27 -10.5755    162.4313     11.7754   3.5083142061e+02   4.2977986059e+01    0.2315976    0.1560801  87.36 0.0006970158    1.345    0.256
        28 -11.3873    113.8852      1.9746   3.5283049238e+02   5.5596362598e+01    0.3661718    0.2432756  84.86  0.001107278    1.336    0.252
        29  -9.7200     23.6518      5.0723   2.3533353492e+01   7.5921525286e+01    0.1642839    0.1474023  -1.43 0.0005242208    1.104    0.094
        30 -10.0593    101.3279      3.7710   3.5535725527e+02   5.8557728053e+01    0.2349521    0.1679037  68.66  0.001201681    1.234    0.190
        31 -10.0063     16.1331      4.2477   2.8689111518e+01   7.7262124504e+01    0.1891841    0.1492424  10.81 0.0006410999    1.190    0.160
        32 -11.6052    174.4421      3.8081   3.4774953594e+02   4.1073585137e+01    0.3712715    0.2372625 -67.49  0.001045953    1.301    0.231
        33 -10.0992    131.0690      3.3457   3.5128488307e+02   5.1248360310e+01    0.1866554     0.141445 -89.86 0.0006727461    1.138    0.121
        34  -9.1765     31.5068      3.4432   1.7253615680e+01   7.4698263191e+01    0.1256227    0.1091239  31.84 0.0001323518    1.007    0.007
        35  -9.7865    229.8422      1.9071   3.4445763529e+02   3.0120034117e+01    0.1514339    0.1263943 -54.77 0.0005103389    1.236    0.191
        36 -10.0735     21.0459    115.8828   6.2625455601e+01   5.0507535509e+01    0.2975307    0.1520569 -47.50   0.00122831    2.023    0.506
        37  -9.8809     79.8539    111.8327   3.9272298862e+01   4.3698928384e+01    0.4638295    0.2814701 -81.39  0.001728466    2.465    0.594
        38  -8.9637     96.4034    111.5171   3.3802598720e+01   4.0727857571e+01    0.1533841    0.1478606 -61.01 0.0001447682    1.035    0.034
        39 -11.0453     24.6464    107.7540   5.9961099587e+01   5.2442874828e+01    0.5280291    0.2499537 -26.80  0.001819367    3.277    0.695
        40 -10.9821      1.8176    105.2245   6.9484266024e+01   5.4802633846e+01    0.3871434    0.1654048 -67.03  0.001601612    2.016    0.504
        41  -8.7083     58.2814    106.2931   4.5854269976e+01   4.8693224138e+01    0.1522346    0.1170293 -28.75 0.0002176172    1.533    0.348
        42 -10.8997     12.4896    105.6926   6.4906381820e+01   5.4015083372e+01    0.3649632    0.1936514  43.07 0.0008935241    1.931    0.482
        43  -9.3649    102.7932    105.6193   3.0360003468e+01   4.0880939244e+01    0.2304001    0.1406415  53.28 0.0009535368    1.770    0.435
        44  -9.1247    117.0144    102.2264   2.5444643603e+01   3.8747044241e+01    0.1995925     0.126265  45.96 0.0005731139    1.620    0.383
        45 -11.2766    248.0782    100.6908   2.8874757700e+00   1.4750297631e+01    0.2682037    0.1692499  34.96  0.001648882    2.463    0.594
        46  -9.1101    108.0665    101.0227   2.7603643218e+01   4.0868584300e+01    0.1784032    0.1727524 -86.62 0.0003380864    1.013    0.012
        47  -9.5763     48.3364    100.8498   4.8620715159e+01   5.1582589961e+01    0.3186659    0.1459815 -71.91  0.001111992    2.602    0.616
        48 -11.2898     28.1508     99.6824   5.7081732049e+01   5.4323695903e+01    0.4234439    0.2625161 -31.71  0.001720756    1.908    0.476
        49 -10.2836    102.9605     95.6370   2.7622528776e+01   4.3141465025e+01    0.3096843    0.2193649 -43.85  0.001001862    1.433    0.302
        50 -11.2660     64.5282     95.9548   4.0903406389e+01   5.0379347256e+01    0.4175305     0.314908  65.80 0.0004891087    1.531    0.347
        51  -9.8613    237.0000     95.9896   3.1272699259e+00   1.7063740286e+01     0.203555   0.05280487 -37.82 0.0008049027    2.960    0.662
        52 -10.4771      5.0723     95.2803   6.6951691913e+01   5.7355377425e+01    0.2863415    0.1608017 -50.00  0.001321312    1.696    0.410
        53 -10.9068     38.2721     93.4211   5.1299892937e+01   5.4880485241e+01    0.3948537    0.2410715  85.53  0.001214114    2.207    0.547
        54 -11.0927     16.0319     94.0964   6.1664718084e+01   5.6940392355e+01     0.331012    0.3173404  43.04  0.001144134    1.099    0.090
        55 -10.1906     90.2485     94.1723   3.1183414716e+01   4.6066508065e+01    0.2715681    0.2171825  51.30 0.0005501686    1.260    0.206
        56  -9.4504    108.2561     89.9650   2.4479538635e+01   4.3280681205e+01    0.2465676    0.2019742 -85.23   0.00120611    1.376    0.273
        57 -11.1360    248.7262     88.4333   4.8122120706e-01   1.6368249709e+01    0.3189097   0.08706364 -33.34  0.001224725    3.648    0.726
        58  -8.9540     54.2963     88.3031   4.3039044905e+01   5.3977176815e+01    0.1526676    0.1159336 -24.89 0.0002712483    1.580    0.367
        59  -9.6150      2.3613     88.2262   6.7380814122e+01   5.9418107694e+01    0.1958711    0.1223814 -88.95 0.0007528036    1.580    0.367
        60  -9.5885    232.3450     84.3237   1.2748938320e+00   1.9480878145e+01    0.1106809    0.0879057  -7.85 0.0007050256    1.737    0.424
        61  -9.6740    186.2375     81.9405   6.3277324021e+00   2.8140891187e+01    0.2684279    0.1600078 -82.19   0.00118949    2.601    0.616
        62  -9.5133    160.1811     81.1836   1.0277676896e+01   3.3650249566e+01    0.1953525    0.1505574 -67.50 0.0003624035    1.315    0.240
        63 -12.0298     54.3459     78.6802   4.0301081884e+01   5.6364971081e+01    0.3366943    0.3023392  75.02 0.0003833357    1.201    0.168
        64  -9.2691    201.4905     79.5336   3.7313398374e+00   2.5582817812e+01    0.1295536    0.1071454 -50.83 0.0001103765    1.009    0.009
        65  -9.7859    143.9728     77.0965   1.2215493817e+01   3.7932628437e+01    0.2168033    0.2058559 -75.55 0.0006356222    1.061    0.057
        66 -10.1123    152.4543     76.0480   1.0301670245e+01   3.6234703845e+01    0.2580884    0.1946239  86.33 0.0007745501    1.476    0.322
        67 -10.6425      2.9272     74.5141   6.5185049882e+01   6.3047674850e+01    0.3809801    0.1952236 -61.42  0.001757126    1.692    0.409
        68  -9.7068    130.2253     74.5601   1.4392936140e+01   4.1503358724e+01    0.1965879    0.1379669  44.95 0.0005384879    1.573    0.364
        69  -9.1951     48.4846     73.5198   4.1384869916e+01   5.8547298329e+01    0.1478247    0.1404278 -24.39 -5.648309e-05    1.071    0.066
        70  -9.4044    176.0107     71.0267   5.1249128592e+00   3.1992188157e+01    0.1954548    0.1676539  14.49 0.0006717718    1.638    0.389
        71  -9.4351     64.0800     69.6457   3.3271657906e+01   5.6790613499e+01    0.1984186    0.1891679  33.80 0.0004564841    1.054    0.052
        72 -10.3812      7.9209     68.9499   6.1436394111e+01   6.4209936479e+01    0.2108126    0.1922458 -54.22 0.0006063789    1.010    0.010
        73  -8.7896     33.5781     68.4976   4.7216328203e+01   6.1873966420e+01    0.1424175    0.1350439 -38.72 9.660144e-05    1.020    0.020
        74 -11.1549    191.9745     65.8460   1.7191546185e+00   2.9518438327e+01      0.24984    0.2288654  33.09 0.0003738947    1.452    0.311
        75  -9.7052     70.0930     66.6588   2.9820423829e+01   5.6298610242e+01     0.207787     0.181181  38.58 0.0004191053    1.148    0.129
        76  -9.1123     40.3591     65.8446   4.2915469227e+01   6.1601304412e+01    0.2058117    0.1242554 -46.47 0.0004219738    1.638    0.389
        77  -9.9159      2.4887    184.5018   7.4271795357e+01   3.3515745767e+01    0.2014832    0.1774101  17.95  0.001195347    1.275    0.216
        78 -10.9031      4.2505     63.8972   6.2590382762e+01   6.5727344332e+01    0.3477818    0.2262281 -59.26 0.0007356609    1.371    0.271
        79 -11.0249      2.4804     59.8836   6.2878124166e+01   6.6841080181e+01    0.4185878    0.2750224 -22.72  0.001138446    1.572    0.364
        80 -10.7034     99.7815     62.6874   1.8358800162e+01   5.0723153557e+01    0.4141374    0.2533963 -59.09  0.001651775    1.905    0.475
        81  -9.7916     75.4712     64.5580   2.7023221065e+01   5.5661719206e+01     0.326145    0.1778638  56.93  0.001178132    2.144    0.533
        82  -9.9073     78.3984     62.7880   2.5318721702e+01   5.5417479502e+01    0.2741295    0.2132712  38.27 0.0002424804    1.323    0.244
        83 -11.3363    230.7960     60.0231   3.5642542059e+02   2.3117035581e+01    0.4209207    0.2217405 -85.69  0.002202645    2.681    0.627
        84 -10.0770    114.3400     60.2342   1.3653404629e+01   4.7791874500e+01    0.4081685    0.2296185 -52.68  0.001746162    1.879    0.468
        85 -11.1550     14.0747     61.0579   5.6089908311e+01   6.5763858442e+01     0.375099    0.2213049  20.35  0.001817018    1.738    0.424
        86 -10.0042    124.8778     59.8187   1.1074177095e+01   4.5381532238e+01    0.2041535    0.1955808  43.93 0.0003608683    1.194    0.163
        87 -10.7035     22.2790     57.5820   5.0233526817e+01   6.5842891653e+01    0.3312498    0.2500938 -63.66  0.001123743    1.330    0.248
        88 -10.1415     66.0356     57.8771   2.8266908253e+01   5.8948784920e+01    0.3625912    0.1943165  63.95  0.001263711    3.174    0.685
        89  -9.5367     29.3213     56.7396   4.5867247046e+01   6.5231427849e+01    0.3610456    0.1755749 -30.81  0.001337957    2.932    0.659
        90  -8.9985    152.9604     56.0108   4.6306990210e+00   3.9440156446e+01    0.1691256    0.1496781 -74.63 0.0005422583    1.024    0.024
        91 -10.1470    119.9515     55.4522   1.0760319874e+01   4.7287764426e+01    0.2646254    0.2056958 -41.77 0.0005474425    1.305    0.234
        92  -9.6972     78.5911     55.8354   2.2694192567e+01   5.6751932001e+01    0.2578991    0.1903513  38.58 0.0006257917    1.407    0.289
        93  -8.8884     45.4603     56.4889   3.7105423775e+01   6.2968280966e+01    0.1402576      0.13768   4.13 0.0001029661    1.017    0.017
        94  -9.1917    133.4870     55.5052   7.9382117388e+00   4.4064454120e+01     0.145244    0.1294313 -76.17 -5.500565e-06    1.031    0.030
        95  -8.8640     39.4713     54.4409   3.9445534725e+01   6.4358117976e+01    0.1384555    0.1349421   6.87 6.471847e-05    1.028    0.027
        96 -11.5058     16.6971     50.8598   5.1589329705e+01   6.8005112078e+01    0.4788936    0.3636696 -75.69  0.002398732    1.469    0.319
        97  -9.8180    149.4354     52.3039   4.1338064181e+00   4.0823497405e+01    0.2645836    0.1359577 -30.85  0.001138595    2.162    0.537
        98  -9.7064     88.7451     52.8193   1.8156334359e+01   5.5060759931e+01    0.2080855    0.1957642  38.76 0.0005697951    1.124    0.111
        99  -9.0200    111.4466     51.4825   1.1405433855e+01   4.9976367911e+01     0.142423    0.1368289  67.23 0.0008060073    1.101    0.092
       100  -9.0704     63.6534     50.6746   2.6446200738e+01   6.0862618131e+01     0.148903    0.1141418   5.05 0.0003571105    1.746    0.427
       101  -9.1989     23.7489     50.5688   4.7069327316e+01   6.7330340668e+01    0.1844477    0.1231268  36.78 0.0005075666    1.548    0.354
       102  -9.6038    145.9389     49.5428   3.8923310049e+00   4.2056964580e+01    0.2015403    0.1307519  65.54 0.0007526276    1.531    0.347
       103 -11.1387     94.0024     48.6185   1.4990099723e+01   5.4583693573e+01    0.2455629    0.2082034 -45.03 0.0002285766    1.219    0.179
       104 -10.5331      5.6136     46.9212   5.7804078898e+01   6.9837497133e+01    0.5470718    0.1635629 -40.89  0.001912574    3.404    0.706
       105  -9.4817    241.0120     48.0449   3.5318161669e+02   2.2939245928e+01    0.1369208    0.1000005 -51.11 0.0003326965    1.004    0.004
       106 -10.7461     38.8379     43.4518   3.5413324502e+01   6.6801290267e+01    0.3809387    0.2903609  40.19  0.002062421    1.309    0.236
       107  -9.8199    229.4815     44.4996   3.5329620600e+02   2.5364157480e+01    0.1184597   0.08808527 -52.91  0.000810406    1.002    0.002
       108  -9.9145     31.2198     43.8785   3.9989687713e+01   6.7857353572e+01    0.2926732    0.1852083  23.48 0.0008511586    1.632    0.387
       109  -9.1540    194.3464     42.3181   3.5579787079e+02   3.2354770351e+01    0.1140964   0.09806266  26.56 0.0007048732    1.726    0.421
       110 -10.2552    119.3611     40.8256   5.9638071252e+00   4.9725403850e+01    0.3250968    0.2615722   3.39  0.001190763    1.751    0.429
       111 -10.7115    158.6695     39.1864   3.5900371516e+02   4.0567295310e+01    0.2410399    0.2017443 -75.19 0.0003959004    1.052    0.050
       112  -9.3169     95.8919     38.1263   1.0436801309e+01   5.5816070947e+01    0.1864128    0.1594315  41.85 0.0003726257    1.254    0.203
       113  -8.9481     61.3940     37.2847   2.1655005305e+01   6.3770841716e+01     0.146843    0.1057276  19.88  0.000700067    1.763    0.433
       114 -11.0891    119.1739     35.0097   3.9827683189e+00   5.0595564240e+01     0.263098    0.2281606  81.32 0.0003216201    1.062    0.058
       115 -10.0604     47.1525     35.8035   2.7528504591e+01   6.6838535256e+01     0.197322    0.1872776  67.96 0.0002532966    1.172    0.147
       116 -10.2630     52.2991     33.3063   2.3821349608e+01   6.6292349086e+01    0.2728935     0.224335 -66.32  0.001016973    1.498    0.332
       117 -10.2531     48.8035     32.1635   2.4944352645e+01   6.7167651285e+01    0.2843929    0.2165427   5.52 0.0004095999    1.625    0.385
       118 -10.6198     40.3861     35.6593   3.1038811112e+01   6.8071903099e+01     0.368013    0.2302241  48.99  0.001131704    1.717    0.418
       119  -9.6322    173.9573     34.8140   3.5598567688e+02   3.7684528325e+01    0.1786174     0.171164 -83.51 0.0006425515    1.241    0.194
       120  -8.8837    107.2947     35.3278   6.5779113924e+00   5.3460809750e+01    0.1384223    0.1079765  29.74 0.0006754717    1.628    0.386
       121  -9.3166    204.2906     65.4265   1.8895238288e-01   2.7169698358e+01    0.1559008    0.1128382 -86.24 0.0007960281    1.509    0.337
       122  -9.7078    178.3266     31.3963   3.5463781966e+02   3.7154291049e+01    0.2242117    0.1865061  33.17 0.0008631619    1.735    0.424
       123  -9.7428    153.9045     31.9735   3.5754019186e+02   4.2622593559e+01       0.2013    0.1744564 -79.14 0.0004423506    1.041    0.040
       124 -10.1530     17.8290     31.0955   4.3289399246e+01   7.2255011653e+01    0.2094818     0.207637  55.73 0.0004813721    1.196    0.164
       125  -8.7269    189.7242     31.7226   3.5364635097e+02   3.4668001582e+01    0.1040776   0.09750856  32.58 0.0001806847    1.496    0.332
       126 -10.1566    167.5947     30.9385   3.5563288725e+02   3.9599587208e+01    0.2369264    0.1656901 -86.41 0.0005866452    1.354    0.262
       127 -10.0767     92.6016     31.1140   8.5000574365e+00   5.7621987449e+01    0.2522371    0.1881338  59.08  0.000437849    1.245    0.196
       128 -10.0653      3.8214     31.1038   5.4132410657e+01   7.3586146158e+01    0.1778262    0.1688158  31.06 0.0005629418    1.203    0.169
       129 -11.0252     59.2743     28.2706   1.8266649583e+01   6.5675904693e+01    0.4229578    0.3313723  -9.42  0.001419658    1.543    0.352
       130  -9.8069    104.0297     28.0901   4.5548496579e+00   5.5241919229e+01    0.2097447    0.1875876  85.89 0.0003989074    1.025    0.025
       131 -11.0408     46.8859     26.7883   2.3168169006e+01   6.8431698910e+01    0.2272343    0.2234121 -35.33 0.0002802159    1.121    0.108
       132  -9.9841    160.7177     27.0449   3.5530886463e+02   4.1650674028e+01    0.2130506    0.1665593 -87.47 0.0004340589    1.163    0.140
       133  -9.2489     42.6141     27.7043   2.5856207926e+01   6.9089972661e+01    0.1418163    0.1004615  12.26 0.0007015975    1.771    0.435
       134 -10.5534     12.6884     26.6443   4.5124624297e+01   7.3738088202e+01    0.3598188     0.157809  10.53   0.00139032    3.224    0.690
       135 -10.4240     88.1671     24.7980   7.0165904279e+00   5.9537619595e+01    0.2822969    0.1786124 -47.73  0.001095994    1.698    0.411
       136 -10.1746    217.7666     24.3561   3.4980933618e+02   2.9943713341e+01    0.1798929    0.1367496 -17.76 0.0009822882    1.780    0.438
       137  -9.1443    138.6696     21.7322   3.5638618497e+02   4.7503059625e+01     0.127961   0.09637727  47.26 0.0003188571    1.581    0.367
       138 -10.0715    135.6889     23.6815   3.5741921125e+02   4.7998201649e+01    0.2265832     0.108479  61.97  0.001009437    1.963    0.491
       139  -9.9588    120.6991     25.0371   1.9906416189e-01   5.1511471708e+01    0.1848509    0.1686931 -71.96 0.0005226093    1.073    0.068
       140 -10.6733    110.7748     24.9864   1.9846199554e+00   5.3970336322e+01    0.2924394    0.1870034  68.89 0.0006766805    1.440    0.306
       141  -9.8683    196.5767     23.2999   3.5103886090e+02   3.4249594566e+01    0.2689055    0.1960552  38.22  0.001597559    2.164    0.538
       142  -9.5497    129.0965     23.8562   3.5843928512e+02   4.9587370517e+01    0.1764079    0.1499375  54.82 0.0004089327    1.295    0.228
       143 -11.2396     98.4820     22.6019   3.6029260950e+00   5.7295945376e+01    0.2625921    0.2411442 -52.25 0.0004987401    1.150    0.130
       144 -10.3783     43.5776     22.8099   2.2721080630e+01   6.9700734824e+01    0.2519522     0.175083  43.00 0.0007178855    1.336    0.252
       145  -9.7683     38.5909     22.8262   2.5432475149e+01   7.0630987764e+01    0.2110408    0.1663916  30.03 0.0004961507    1.201    0.167
       146 -10.3916     19.2362     22.9017   3.8171651509e+01   7.3686318164e+01    0.2578016    0.1586321   1.63  0.001240424    2.131    0.531
       147 -10.5511     79.2884     20.0021   7.3131055751e+00   6.2269976975e+01    0.3605447    0.1952751 -58.54  0.001195896    2.555    0.609
       148 -10.7000     66.2946     20.6502   1.1763182366e+01   6.5213268271e+01    0.2683296    0.2166031  55.07   0.00154066    1.131    0.116
       149  -9.4354    159.1123     20.5199   3.5362485603e+02   4.2789761601e+01    0.1826081    0.1159655  79.04 0.0003239031    1.482    0.325
       150 -10.8264    108.9112     18.8885   2.8194367430e-02   5.5152199103e+01    0.3174093    0.2656913 -56.97  0.001174877    1.194    0.163
       151  -9.8862      1.3006    181.6258   7.4486210881e+01   3.4318364577e+01    0.2513233    0.1181795  85.18 0.0008952071    2.033    0.508
       152  -9.2335     84.7970     20.3758   5.9690677437e+00   6.0903816558e+01    0.1924376    0.1132112  54.52 0.0005070237    1.547    0.353
       153  -9.2238    208.0225     19.7605   3.4941568023e+02   3.2348331835e+01    0.1415741   0.08896235  86.39 0.0004816646    1.579    0.367
       154  -9.1623    243.5113    179.5234   1.7597399026e+01   4.0438631338e+00    0.1108341   0.08254542 -24.34 0.0005201141    1.020    0.020
       155 -10.0444     16.4790     18.4990   3.7849033533e+01   7.4859472007e+01    0.2211603    0.1716518 -36.93 0.0005358828    1.276    0.217
       156 -10.4966     20.3359    174.8713   6.8571681457e+01   3.4511446276e+01    0.2537996    0.1619304  40.84 0.0009111739    1.408    0.290
       157  -9.1429      5.2805     19.3365   4.7837170586e+01   7.5939997286e+01    0.1322231   0.08195233 -27.09 0.0003570874    1.618    0.382
       158  -9.1865    226.5027     18.5709   3.4805635064e+02   2.8972876479e+01    0.1159248   0.08228731 -57.20 0.0001548711    1.034    0.033
       159  -8.9713    147.3351     17.6810   3.5406270554e+02   4.5878590518e+01    0.1439565   0.08223144 -64.46 0.0007049081    1.700    0.412
       160 -10.7909    224.0345    172.7837   1.9250766125e+01   7.2400064343e+00    0.2143129    0.1281463 -46.04  0.001077398    1.698    0.411
       161  -9.9150     66.3245     16.2999   9.5466211409e+00   6.5755218272e+01    0.1386714   0.09509878  32.57 0.0001961308    1.632    0.387
       162 -10.8169     21.5347    170.3879   6.7883837550e+01   3.5567513152e+01    0.2674006     0.238894  62.86 0.0004953656    1.012    0.012
       163 -10.0084     27.8296    159.1507   6.4963514184e+01   3.7957848979e+01    0.2243777    0.1778076  63.66 0.0004725086    1.181    0.153
       164  -9.8590    133.0616     15.1178   3.5496699205e+02   4.9602464395e+01    0.1935228    0.1658081  65.03 0.0004078473    1.229    0.187
       165 -11.1975      3.1750    156.2341   7.2702948790e+01   4.0755136632e+01    0.3535143    0.2306866 -89.01  0.000623383    1.408    0.290
       166 -10.1578      8.6297    150.2226   7.0545475356e+01   4.1988683307e+01    0.1962512    0.1175095 -70.02 0.0005117349    1.579    0.367
       167  -9.9277     39.9715    147.8638   5.9715076856e+01   3.9754282133e+01    0.2229491    0.2063338  64.35 0.0004762282    1.022    0.022
       168 -10.4123    235.6084    145.8042   1.2798530869e+01   9.8540922539e+00    0.1716816   0.08674421 -44.78 0.0006838363    1.736    0.424
       169  -9.7367     24.5560    146.3169   6.4811898383e+01   4.1747279832e+01    0.2295847    0.1997935 -29.07  0.000867372    1.327    0.246
       170 -10.8752     22.2519    141.8079   6.5160145529e+01   4.3194930395e+01    0.3054582    0.2805697  47.25 0.0008169077    1.094    0.086
       171  -9.1115      7.0024     15.7648   4.4390075346e+01   7.6471133846e+01    0.1596118   0.09634003  21.46 0.0006099461    1.581    0.367
       172 -11.0377      7.3033    141.0119   7.0345642368e+01   4.4590026574e+01    0.4826028    0.1676464 -70.68  0.001812971    2.516    0.603
       173 -10.9236      3.8150    136.6914   7.1269827593e+01   4.6003763622e+01    0.3410008    0.2329532  80.06  0.001745271    1.361    0.265
       174  -9.9695    245.6820    138.3207   1.0156992717e+01   9.6666688244e+00    0.1091915   0.07641251 -54.81 0.0007042438    1.664    0.399
       175 -10.2312     28.5161    138.0775   6.2527019971e+01   4.3642449870e+01    0.2619185    0.2151065  26.58 0.0003775166    1.266    0.210
       176  -9.2668    191.5322     11.4808   3.4855066295e+02   3.6608937957e+01    0.1221169    0.0946026 -63.19   5.3272e-05    1.005    0.005
       177 -10.3390     12.4075    137.5514   6.8261506873e+01   4.5175172252e+01    0.2914934     0.139515  18.18  0.001219259    2.217    0.549
       178 -10.4108     26.7939    133.9272   6.2662981058e+01   4.4958624769e+01    0.2275096    0.1883999 -49.01  0.000598481    1.273    0.214
       179 -10.0404     11.2281    133.9594   6.8377215931e+01   4.6254300178e+01    0.2337575     0.204443  33.62 0.0005893299    1.189    0.159
       180  -9.4860    108.7188    133.1404   3.5195936204e+01   3.3214228237e+01    0.2481222    0.1915087 -74.17  0.001175675    1.480    0.324
       181 -10.3784     17.6807    132.1514   6.5829408781e+01   4.6257747980e+01    0.2308758    0.1814613  45.94 0.0003745598    1.249    0.199
       182 -11.5115    248.7594    126.8690   7.7065053055e+00   1.0922182194e+01    0.3139992    0.2316782 -82.74  0.002035035    2.299    0.565
       183  -9.9319      5.5202    125.4756   6.9786972934e+01   4.8988979322e+01    0.2507564    0.1627322  86.45 2.128176e-05    1.454    0.312
       184 -10.5692      6.8478    121.8339   6.8959391499e+01   4.9914338478e+01    0.2103656    0.1813599 -53.88 0.0002517694    1.187    0.158
       185 -10.4680    136.3250    123.6647   2.5886285717e+01   3.0173763977e+01    0.4233032    0.2514145  27.00  0.001730004    2.314    0.568
       186  -9.2236     15.3203    123.2768   6.5792882425e+01   4.8914924901e+01    0.1463308     0.102028 -39.86 0.0002417987    1.577    0.366
       187  -9.9674     62.5466    121.0970   4.7421713909e+01   4.4106031526e+01    0.3694642    0.2144511  63.89  0.001403747    2.314    0.568
       188  -8.8684     30.3157    122.2560   5.9808766985e+01   4.7860550414e+01    0.1461913    0.1087957 -33.31 0.0002558747    1.532    0.347
       189  -9.3478     26.8198    120.1593   6.0886732451e+01   4.8789203782e+01    0.1999829    0.1617295 -44.09            0    1.302    0.232
       190 -10.1641     54.9718    117.7315   4.9542384629e+01   4.6114285159e+01    0.4441802    0.2767368  -0.46  0.001726909    2.453    0.592
       191 -10.6406      2.2981    118.2354   7.0442750498e+01   5.1183812250e+01    0.2551098    0.2108195  62.83 0.0004217632    1.175    0.149
       192 -10.4578     13.9678    117.0524   6.5642369454e+01   5.0751561381e+01    0.2430649    0.1538456 -39.93  0.001128148    1.733    0.423
       193  -9.6771     91.5190    116.1262   3.6454495885e+01   4.0516400166e+01    0.2186965    0.2111977  52.66 0.0007415954    1.046    0.044
