#   1 NUMBER                 Running object number                                     
#   2 MAG_AUTO               Kron-like elliptical aperture magnitude                    [mag]
#   3 X_IMAGE                Object position along x                                    [pixel]
#   4 Y_IMAGE                Object position along y                                    [pixel]
#   5 X_WORLD                Barycenter position along world x axis                     [deg]
#   6 Y_WORLD                Barycenter position along world y axis                     [deg]
#   7 A_WORLD                Profile RMS along major axis (world units)                 [deg]
#   8 B_WORLD                Profile RMS along minor axis (world units)                 [deg]
#   9 THETA_WORLD            Position angle (CCW/world-x)                               [deg]
#  10 FWHM_WORLD             FWHM assuming a gaussian core                              [deg]
#  11 ELONGATION             A_IMAGE/B_IMAGE                                           
#  12 ELLIPTICITY            1 - B_IMAGE/A_IMAGE                                       
         1 -12.2872     58.6169     87.2178   1.0898878465e+02   5.2337965992e+01     1.506056    0.2143658 -51.36  0.003590019    6.972    0.857
         2 -13.0028    181.4952     37.5680   6.4635034778e+01   3.5229948400e+01      1.10743    0.9396365  28.26  0.004408231    1.590    0.371
         3 -10.0731    189.6483     14.5471   5.8300754080e+01   3.6071279273e+01    0.2203615    0.1432208 -43.32  0.001026265    1.623    0.384
         4 -12.3911    202.4864      5.6201   5.5087363573e+01   3.4170938163e+01    0.8118481    0.5603846  79.19  0.004937114    1.191    0.161
         5 -10.4651     78.7817     10.5064   7.6712055832e+01   6.0457321737e+01    0.4917969    0.2091866  62.08  0.002146661    3.155    0.683
         6 -11.0157     69.3264    218.5535   1.3027139227e+02   1.9462303039e+01    0.2726184    0.1939727  73.22 0.0005186846    1.351    0.260
         7 -11.4089    247.9441    246.8641   9.7655006596e+01  -1.4118011324e+01    0.5317822    0.3583247 -26.03  0.003435772    1.316    0.240
         8 -19.4639     35.4070    145.0616   1.2854070152e+02   4.1689208949e+01     21.41848     3.863813 -66.00   0.05596656    5.536    0.819
         9 -10.9500     69.3830    198.3843   1.2768714490e+02   2.4203999424e+01      0.43808    0.2590665 -50.04  0.001320942    1.849    0.459
        10  -9.4546    193.0413    194.9965   9.8662905889e+01   3.1195906293e+00    0.9319674    0.4476565 -65.43  0.001886082   10.835    0.908
        11  -9.2686     82.5860    194.9210   1.2406101749e+02   2.3056723456e+01    0.3305417    0.2802553  48.82   0.00141285    1.190    0.160
        12  -9.9571     76.7967    208.4313   1.2732412169e+02   2.0712304969e+01     0.357666     0.321104  40.75  0.002128692    1.247    0.198
        13  -9.4814    151.0503    191.2336   1.0711592490e+02   1.1787796401e+01    0.2644868    0.2233361 -54.13  0.001367503    1.203    0.168
        14 -11.3105    118.5389    189.6339   1.1449909601e+02   1.8241643470e+01    0.3905744    0.2642002  49.97  0.001817331    1.480    0.324
        15 -10.8909    114.4920    187.0143   1.1501171376e+02   1.9598349245e+01    0.3716077     0.264352 -52.59  0.001214396    1.406    0.289
        16  -9.0091    150.5285    182.1164   1.0545277345e+02   1.3948453461e+01    0.2230075    0.1491756 -52.51 0.0007052114    1.506    0.336
        17 -10.8360     99.5674    180.0174   1.1745677529e+02   2.3926595272e+01    0.4990645    0.2705911 -48.45    0.0014414    1.893    0.472
        18  -8.1760     93.6669    181.3077   1.1916013790e+02   2.4605644181e+01    0.1560766    0.1096275  73.41 0.0006430816    1.669    0.401
        19 -10.5909    127.5701    174.7101   1.0947871484e+02   2.0127024396e+01    0.4431599    0.2774839  64.50  0.001779968    2.120    0.528
        20 -10.7442    104.1458    172.4553   1.1491999550e+02   2.4994708184e+01    0.3613764    0.3364211  77.98  0.001960739    1.049    0.047
        21 -10.7508    113.7713    172.3460   1.1245645068e+02   2.3287156456e+01    0.4428597    0.3709917  10.97  0.002196151    1.487    0.328
        22  -8.8471    134.2980    171.6570   1.0721512468e+02   1.9556950971e+01    0.1597293    0.1214332  85.16 0.0003800693    1.669    0.401
        23  -8.1409    165.2144    172.0664   1.0001866079e+02   1.3315891552e+01    0.1981448    0.1215798 -46.04 0.0003081673    1.599    0.375
        24  -9.2884    204.6328    166.1138   9.0418596759e+01   6.8223288885e+00    0.4009194    0.2364959 -49.37  0.001793156    1.659    0.397
        25  -9.6416    193.4817    165.9195   9.2614087016e+01   9.0223163408e+00    0.3287745    0.2770692 -52.86 0.0007483883    1.180    0.152
        26  -8.6338    191.0238    161.5262   9.2177295328e+01   1.0435050358e+01     0.293418    0.1957657  60.23  0.001302261    1.853    0.460
        27 -10.1945     96.1470    159.4379   1.1449800977e+02   2.9622757439e+01    0.2903353     0.276859 -47.68 0.0003985137    1.102    0.093
        28  -8.6546      6.1583    161.5432   1.3831004560e+02   4.0337488048e+01     0.137685    0.1271244  21.94 0.0003153907    1.412    0.292
        29 -11.3435     61.1510    215.8347   1.3173732555e+02   2.1244947224e+01    0.3790241    0.2322466  56.84  0.001215647    1.546    0.353
        30  -9.3950    188.8288    154.9282   9.1194031967e+01   1.2279554455e+01    0.3536269    0.3154632 -75.18  0.001795047    1.218    0.179
        31 -11.7888     85.5091    153.7932   1.1624840396e+02   3.2811521050e+01     0.433417    0.3033876 -38.43 0.0008560508    1.598    0.374
        32 -11.0730    101.0192    152.3834   1.1176768044e+02   3.0521133850e+01    0.6726627    0.4552292 -34.90   0.00256091    1.751    0.429
        33  -9.6862    133.8735    145.2850   1.0162083441e+02   2.5915783647e+01    0.7562642    0.1560604 -51.94  0.001696025    5.636    0.823
        34  -8.5077    174.9800    149.0226   9.2816715790e+01   1.6429060930e+01    0.1902114    0.1755023 -49.98  0.000396236    1.041    0.039
        35  -9.0536    152.5475    211.7581   1.1054849318e+02   7.0407420846e+00    0.1952824    0.1400658 -66.44 0.0009400289    1.673    0.402
        36 -10.5034    110.7460    138.6288   1.0613354142e+02   3.2088732199e+01    0.5611511    0.2916043 -39.77  0.002127159    2.150    0.535
        37 -10.7522     99.7467    138.2754   1.0906426643e+02   3.4209337210e+01    0.3247457    0.2952659  11.68 0.0003829908    1.239    0.193
        38  -9.8894    105.8615    130.8964   1.0567036464e+02   3.4858688254e+01    0.4250206    0.3426635 -82.63  0.001130428    1.462    0.316
        39  -9.4482    105.0116    125.4136   1.0459444557e+02   3.6309729312e+01    0.2910891    0.2268962 -32.67 0.0008297546    1.380    0.275
        40  -9.2678    116.8462    129.4943   1.0233966462e+02   3.3070529917e+01    0.3033852    0.2413769 -16.89  0.001385222    1.567    0.362
        41  -9.3233    160.5055    127.5068   9.1010404655e+01   2.4274530178e+01    0.3627331    0.2419075 -84.90  0.001388453    2.436    0.590
        42  -8.8835    111.9296    118.6472   1.0100050562e+02   3.6538855169e+01    0.2153255    0.1926777  41.63 0.0005112895    1.149    0.130
        43  -8.7671    168.1187    113.0775   8.5805723163e+01   2.5634358989e+01    0.2531026    0.1851334 -79.95  0.001123802    1.744    0.426
        44  -9.5319     59.1424    207.4446   1.3119459265e+02   2.3481167479e+01    0.3965681    0.1746317 -53.24  0.001227023    2.411    0.585
        45  -8.7136    205.2686    110.3713   7.7993232678e+01   1.7917433600e+01    0.2023772    0.1366321  67.66 0.0007753709    1.672    0.402
        46  -9.4845     66.0179    210.7546   1.3005727687e+02   2.1743548667e+01    0.3682327     0.270062  70.92  0.002041328    1.291    0.225
        47  -9.1630     62.4203    210.4633   1.3082483976e+02   2.2318355088e+01    0.2084949    0.1779844 -74.91 0.0001426483    1.153    0.133
        48  -9.5709    158.2723    235.6574   1.1331352799e+02   1.2444546716e+00    0.2664203    0.2093378  24.31 0.0009090915    1.265    0.210
        49  -9.2989     78.3402     74.9277   9.8889614144e+01   5.1747428873e+01    0.2259525    0.1798972  45.79 0.0003359428    1.390    0.280
        50  -8.7452    127.0000     94.8944   9.0692502383e+01   3.8497730400e+01    0.2430612   0.08486447 -42.93 0.0007931811    2.879    0.653
        51 -11.2267     74.3019    213.7499   1.2857949198e+02   1.9841630084e+01     0.245813    0.2135803  85.92 0.0004191769    1.036    0.035
        52 -10.8413    172.6311     71.6447   7.4489539998e+01   3.2312062229e+01    0.4686673    0.3009426 -85.61 0.0008449304    2.117    0.528
        53 -12.0388    167.7113     53.1338   7.0636145981e+01   3.6320909441e+01    0.6757081    0.5034811 -50.70  0.001496265    1.379    0.275
        54  -8.1725    168.5828    233.8116   1.1084387020e+02  -1.4971769135e-01     0.167215     0.131787 -63.50 0.0003412166    1.569    0.363
        55 -11.7024    186.1689     30.9983   6.2456100506e+01   3.4978682818e+01    0.5179532    0.4382722  69.39  0.001260823    1.157    0.136
        56 -10.0398     12.4976    206.4981   1.4112525222e+02   2.9194095224e+01    0.2974785    0.1710314  58.40  0.001706867    1.623    0.384
        57  99.0000      8.4730    205.4814   1.4186128149e+02   2.9817941759e+01    0.2661484    0.1520306  63.64 0.0008238682    1.620    0.383
        58 -10.5366     71.9951    230.0779   1.3103976610e+02   1.6484780281e+01    0.2211655    0.1850365  74.63 0.0003616748    1.020    0.020
        59  -9.2691     86.8594     12.8835   7.5425821114e+01   5.8714537739e+01    0.2482775    0.1506765  57.44 0.0008042531    1.582    0.368
        60  -8.9894     87.6204    202.7788   1.2403072074e+02   2.0376551518e+01    0.3247153    0.2018545  56.19  0.001534321    1.636    0.389
