#   1 NUMBER                 Running object number                                     
#   2 MAG_AUTO               Kron-like elliptical aperture magnitude                    [mag]
#   3 X_IMAGE                Object position along x                                    [pixel]
#   4 Y_IMAGE                Object position along y                                    [pixel]
#   5 X_WORLD                Barycenter position along world x axis                     [deg]
#   6 Y_WORLD                Barycenter position along world y axis                     [deg]
#   7 A_WORLD                Profile RMS along major axis (world units)                 [deg]
#   8 B_WORLD                Profile RMS along minor axis (world units)                 [deg]
#   9 THETA_WORLD            Position angle (CCW/world-x)                               [deg]
#  10 FWHM_WORLD             FWHM assuming a gaussian core                              [deg]
#  11 ELONGATION             A_IMAGE/B_IMAGE                                           
#  12 ELLIPTICITY            1 - B_IMAGE/A_IMAGE                                       
         1  -8.3591     97.0315     14.7958   3.5372341392e+01   5.9161686153e+01    0.2523483    0.1702423 -44.25 0.0006501636    1.609    0.379
         2  -7.8651     83.5452     11.0381   3.7257658688e+01   6.3022936834e+01    0.1946162     0.107949 -51.48  0.000514265    2.318    0.569
         3  -8.3999     55.7407      9.8536   4.7229869163e+01   6.9682165044e+01    0.2366315    0.1841244 -49.49 0.0007237524    1.547    0.353
         4  -8.4206     90.9080      8.5706   3.3924463879e+01   6.1430649756e+01    0.2846557    0.1669819 -45.25  0.001061903    1.919    0.479
         5  -7.5825     47.5559      9.5267   5.1264664764e+01   7.1421495941e+01    0.1338504    0.1255277  19.21  0.000255912    1.076    0.071
         6  -7.9465    101.4790      7.9918   3.1117645217e+01   5.8743289436e+01    0.1919435    0.1039806 -51.20  0.000385867    2.188    0.543
         7  -8.3656     33.6284      4.8892   5.6839510189e+01   7.4719837916e+01    0.2403835    0.1597589 -50.86  0.001160128    1.918    0.479
         8  -8.4918     79.2139      3.7791   3.4632145162e+01   6.4896434292e+01    0.2377256    0.1791682 -39.31  0.001157338    1.458    0.314
         9  -7.8804     44.5927      2.8210   4.8332777188e+01   7.2962111912e+01     0.174955    0.1228384 -40.45 0.0003835377    1.603    0.376
        10  -7.8047     16.2773      3.3336   7.0238079724e+01   7.7527444888e+01    0.1328447   0.08651102 -19.89 0.0002383815    1.605    0.377
        11  -7.7630    115.3252      1.7179   2.5693777019e+01   5.5654665359e+01    0.1451262     0.098879 -66.41 0.0003098566    1.597    0.374
        12  -8.2247     62.5220      1.4547   3.8911211645e+01   6.9193134102e+01    0.2275954    0.1318387  72.03 0.0007008915    2.111    0.526
        13  -9.0148    147.0055    245.7790   7.8580172651e+01   8.0997988116e+00    0.2513646    0.1601174  51.37  0.001327228    2.307    0.567
        14  -8.6867    248.6254    249.2520   6.1584940881e+01  -3.0139311041e+00    0.2910917    0.1260692 -10.69  0.001793778    2.402    0.584
        15  -9.8277    248.6712    241.8195   6.0574613137e+01  -2.3430407966e+00    0.3425122    0.1636374 -31.40  0.001368532    2.173    0.540
        16  -9.0870    247.8053    234.1979   5.9644602901e+01  -1.5470527664e+00    0.1966701    0.1209472  -9.78  0.001301617    1.241    0.194
        17 -10.1241    246.3814    228.6334   5.9064938122e+01  -8.7175333952e-01    0.4110973    0.1847294 -33.79  0.002523192    2.352    0.575
        18  -8.3601    184.3754    250.1717   7.2141616041e+01   3.3433237210e+00    0.2041728   0.06061226  28.30 0.0009832821    2.636    0.621
        19  -8.5047     94.0495    249.4713   8.9587940595e+01   1.3650413483e+01    0.1910993    0.1337323  58.08 0.0007023644    1.657    0.397
        20  -7.7317     72.4764    250.5097   9.4108983666e+01   1.5821091833e+01    0.1125564   0.08230407  34.09 0.0002772386    1.009    0.009
        21  -9.8507     10.9828    245.2730   1.0646977030e+02   2.2429937365e+01    0.4490113    0.0761741  54.02  0.001945446    3.761    0.734
        22  -9.4025    120.1239    245.0582   8.3855218306e+01   1.1329718469e+01    0.2611671    0.1876543  70.22  0.001507214    2.265    0.559
        23  -8.6775     67.5523    244.3074   9.4732946667e+01   1.7312459777e+01    0.1658964    0.1094141 -87.14 0.0007627824    1.997    0.499
        24  -8.1831     58.5999    244.7897   9.6643732312e+01   1.8157584982e+01    0.1392283   0.09167669  69.62 0.0009387573    1.714    0.417
        25  -8.4189    202.0510    243.2941   6.8191578383e+01   2.1911508937e+00    0.1573031    0.1365892 -35.81 0.0008250445    1.924    0.480
        26  -8.4462    139.4426    244.2275   7.9892384110e+01   9.1882389481e+00    0.1224358    0.1127246 -85.51 0.0009471556    1.717    0.418
        27  -9.6092     77.8868    243.0238   9.2465546178e+01   1.6415261589e+01    0.2898379    0.1254584  48.97  0.001265902    2.194    0.544
        28  -8.3232     23.0000    244.0466   1.0400392463e+02   2.1630111501e+01    0.1419661   0.05801858 -83.01 0.0004709561    2.894    0.654
        29  -8.5722    168.8983    243.1183   7.4096703497e+01   5.9044867778e+00    0.1621053    0.1222093  28.49 0.0006534985    1.304    0.233
        30  -7.9498     34.3308    243.6933   1.0165749913e+02   2.0681484168e+01    0.1189514    0.0547237  48.47 0.0007038901    1.661    0.398
        31  -9.1051    194.1545    239.8731   6.9110732937e+01   3.4326315893e+00    0.2208825    0.1548306 -46.27  0.001535241    2.322    0.569
        32  -9.2723    183.2395    240.0728   7.1081037425e+01   4.6337241953e+00    0.3366274    0.2166782  50.16  0.001964438    2.967    0.663
        33  -9.2482    160.2784    240.2836   7.5381930622e+01   7.2611430146e+00    0.2374186     0.205264 -88.33  0.001298095    2.249    0.555
        34  -8.7469    153.2786    241.7415   7.6902506340e+01   7.8944106133e+00    0.1603531    0.1393178 -27.30  0.001250655    1.462    0.316
        35  -8.1586     88.1537    242.1230   9.0228463357e+01   1.5426776105e+01    0.1516269    0.1081895  48.64 0.0006311607    1.344    0.256
        36  -8.3201    214.1740    241.1784   6.5875522728e+01   1.1318670946e+00    0.1318277    0.1045679  12.99 0.0006795608    1.368    0.269
        37  -9.0008    146.9195    240.0296   7.7946376238e+01   8.8720288755e+00    0.2478747    0.1735133  70.04  0.001378452    3.329    0.700
        38  -8.3429    240.6125    239.8625   6.1510651133e+01  -1.3961792939e+00    0.1764917   0.07717422 -25.53  0.001148469    2.092    0.522
        39  -8.5377    243.2026    235.7851   6.0554181879e+01  -1.2554011022e+00    0.2250662    0.1017014   5.08  0.001296685    2.443    0.591
        40  -9.2366    135.2580    238.6359   8.0116091525e+01   1.0453628272e+01    0.1890811    0.1396207  34.34  0.000695982    1.237    0.192
        41  -9.3673    231.2409    236.3419   6.2468631387e+01  -1.2681556858e-01    0.3154823    0.1991697 -28.65  0.001711136    1.726    0.421
        42  -8.3024    209.1338    238.1415   6.6306390468e+01   1.9894047215e+00    0.1315952    0.1059139  10.88 0.0005305153    1.339    0.253
        43  -8.5071    128.8589    237.9981   8.1347545425e+01   1.1310014240e+01    0.1712778    0.1206675  57.93  0.001082329    2.025    0.506
        44  -8.9351    115.0116    237.2883   8.4138996314e+01   1.3066754365e+01    0.3845937    0.1452966  46.23   0.00172511    3.045    0.672
        45  -9.0945    108.5914    234.1300   8.5180240575e+01   1.4312330374e+01     0.299183    0.1714542  54.38 0.0009730611    2.197    0.545
        46  -8.4499     25.7053    236.7684   1.0319856957e+02   2.2627396902e+01    0.2192665   0.08547553  62.78  0.001029613    2.515    0.602
        47  -8.0293     13.3466    237.6639   1.0580483889e+02   2.3521737039e+01    0.1223888   0.04966025  49.52 0.0007048425    1.775    0.437
        48  -9.3236    216.6902    235.3537   6.4668876394e+01   1.4817602030e+00    0.1989198    0.1615393  32.34  0.001433159    1.834    0.455
        49  -9.3942    213.6600    231.6029   6.4650189035e+01   2.2114623910e+00    0.2221842    0.2035573 -31.13  0.001145497    1.952    0.488
        50  -8.9766    203.1498    234.4900   6.6828247358e+01   3.0442576807e+00     0.220577    0.1645872 -44.58  0.001147818    2.217    0.549
        51  -9.8407    175.7632    233.2219   7.1567849238e+01   6.3324234962e+00    0.3657281    0.2167749 -52.67  0.002154785    2.902    0.655
        52  -8.2201     58.4666    237.0000   9.6210714350e+01   1.9456204317e+01    0.2574444   0.05061955  27.21 0.0009318161    3.911    0.744
        53  -7.9205    170.2832    235.6335   7.2905886716e+01   6.6757908711e+00   0.09945405   0.08059846  42.68 0.0005591028    1.691    0.409
        54  -8.7930     78.7802    234.3425   9.1624291257e+01   1.7723109348e+01    0.2294215    0.1407567  74.30  0.001174193    2.247    0.555
        55  -8.1677    122.9512    233.9260   8.2131839414e+01   1.2617648308e+01    0.1771628    0.1180155  49.25  0.000626731    1.708    0.415
        56  -8.3031     99.6745    234.2943   8.7101617960e+01   1.5340388067e+01    0.1881435    0.1078213  50.14  0.001091818    1.830    0.454
        57 -10.0176     67.9992    231.4894   9.3771699138e+01   1.9384638371e+01    0.4652832    0.1936063  61.04  0.002079267    3.441    0.709
        58  -8.6394    145.0045    233.1816   7.7526975546e+01   1.0040709020e+01    0.2842376    0.1433935  50.73  0.001337092    3.330    0.700
        59  -9.0125    140.2502    229.9988   7.8112295818e+01   1.1075634881e+01    0.2209968    0.1475848  39.59 0.0006971926    1.455    0.313
        60  -9.0850    139.3188    226.0935   7.7835472017e+01   1.1759958157e+01     0.412142    0.1397227  32.86 0.0001902892    2.275    0.560
        61  -8.5578    132.5004    232.4910   7.9992396583e+01   1.1667057912e+01    0.1545117    0.1185801 -73.44 0.0007023403    2.125    0.529
        62  -8.7959     92.9080    232.0338   8.8358656621e+01   1.6493479560e+01    0.3508004    0.1680245  55.89  0.001715391    2.787    0.641
        63  -9.4998    186.4915    230.5185   6.9233204966e+01   5.4052511708e+00    0.2466288    0.2194322 -71.67  0.001551347    2.343    0.573
        64  -8.5540    157.9569    231.9504   7.4808110328e+01   8.6322464950e+00     0.164155    0.1233449  44.25 0.0007946861    1.663    0.399
        65  -9.1320    236.2002    230.3829   6.0859242482e+01  -2.8888565105e-02    0.2315109    0.1614605 -22.04  0.001206119    1.487    0.328
        66  -9.2432      9.9958    230.9770   1.0633612104e+02   2.4957508939e+01    0.1420413    0.1197057 -27.13  0.001080055    1.713    0.416
        67  -8.8348      1.5593    230.2743   1.0808823807e+02   2.5736522550e+01    0.2178775    0.1073634  76.55  0.001320785    1.965    0.491
        68  -9.0673    151.4794    228.9853   7.5718727711e+01   9.8314495079e+00    0.2207658    0.1875687  77.81   0.00142526    2.076    0.518
        69  -9.4107    148.4523    224.2769   7.5737507285e+01   1.0875532918e+01    0.2759784    0.2148179  61.57  0.001225965    2.061    0.515
        70  -8.0625    229.9291    228.9295   6.1631264381e+01   7.6436283188e-01    0.1343272    0.1176492   8.17 0.0008590578    1.676    0.403
        71  -8.7429    162.3149    227.6875   7.3413087557e+01   8.6732920108e+00    0.2556727    0.1671809  47.40  0.001547547    2.076    0.518
        72  -8.9327    127.8518    227.0601   8.0344049508e+01   1.3049399671e+01    0.2792235    0.1865752  53.26  0.001129063    1.922    0.480
        73  -8.0898    223.5070    226.7657   6.2347614291e+01   1.6718148108e+00    0.1805653   0.08603735 -26.34 0.0007228036    1.988    0.497
        74  -8.7858    180.5270    224.0842   6.9451744318e+01   6.9190027088e+00    0.2594873    0.1594152  40.25  0.001017822    1.859    0.462
        75  -8.2552     49.6797    226.6836   9.7523534838e+01   2.2138017472e+01    0.2340378    0.1056569  65.35  0.001175466    2.642    0.622
        76  -8.6070    206.1529    225.6637   6.5082616633e+01   3.7117991519e+00    0.1804087    0.1681417 -26.27  0.001298774    1.811    0.448
        77  -8.1780    200.0100    226.0647   6.6204795613e+01   4.3681142044e+00    0.1457836    0.1239162  30.62 0.0006452141    1.635    0.388
        78  -8.3677     39.1205    225.0372   9.9790660371e+01   2.3470010069e+01    0.3252239   0.09935544  52.82  0.001444481    2.966    0.663
        79  -8.9108     93.7311    223.7776   8.7419563564e+01   1.7764593511e+01    0.2399581    0.1643961  64.78  0.000869692    1.836    0.455
        80  -9.1589    216.4226    223.1951   6.2992939722e+01   2.8370590259e+00    0.2145776    0.1673838 -26.19  0.001291691    1.572    0.364
        81  -8.8338    104.9600    223.5473   8.4904430201e+01   1.6442404360e+01    0.2599464    0.1707328  67.93  0.001475975    2.261    0.558
        82  -8.5338    194.7659    232.6487   6.8039200614e+01   4.1963764698e+00    0.1505936    0.1434436  44.28  0.001185823    1.928    0.481
        83  -9.4917    192.7248    221.3431   6.6828738379e+01   5.7931135964e+00     0.280704    0.2509665  53.07  0.001161623    2.012    0.503
        84  -9.0897    173.1718    222.7373   7.0655220523e+01   7.9954515827e+00    0.1914953     0.175679  52.41 0.0008680783    1.741    0.426
        85  -9.1455    159.3838    220.3440   7.3022484057e+01   1.0051284736e+01    0.2796471     0.168341  48.25  0.001372184    2.291    0.564
        86  -9.2346    239.0372    220.8615   5.9041745458e+01   6.5255848714e-01     0.276049    0.1525872 -23.92  0.001476159    1.601    0.375
        87  -9.2984    243.1966    215.7698   5.7650644941e+01   7.4676957393e-01     0.186301    0.1051595  11.89 0.0009313175    1.472    0.321
        88  -8.6042    249.7709    218.5633   5.7090718162e+01  -2.1189026717e-01    0.1541239   0.08404876  35.84  0.001028843    2.217    0.549
        89  -9.4676    225.6552    221.6800   6.1262575012e+01   1.9886459727e+00    0.2000229    0.1635495  19.99   0.00108441    1.525    0.344
        90  -8.4914      8.6675    222.3022   1.0640664247e+02   2.6625128505e+01    0.1224649   0.05438956  49.42 0.0003504296    1.655    0.396
        91  -9.2407    120.6858    219.1991   8.0975549839e+01   1.5181980889e+01    0.4208202    0.1996452  51.43  0.001896491    3.000    0.667
        92  -8.2429    202.8363    220.0878   6.4854275592e+01   4.7480781854e+00    0.1547811    0.1272392   9.86 0.0005307998    1.268    0.211
        93  -7.9488     73.2922    220.6422   9.1763567140e+01   2.0691139995e+01     0.125556   0.07295073  53.20 0.0007029411    1.691    0.409
        94  -8.4384     27.2102    220.9236   1.0226669922e+02   2.5323567650e+01    0.2416276    0.1347358 -62.31  0.001457536    2.215    0.549
        95  -8.3497    210.1342    218.9613   6.3431497880e+01   4.0324902658e+00    0.1813396    0.1231256 -16.46 0.0007501934    1.329    0.247
        96  -8.2964      3.8078    219.2231   1.0739310283e+02   2.7567975979e+01    0.1647583   0.08257414   9.61 0.0008852894    2.530    0.605
        97  -8.9033    169.2519    215.9412   7.0468704163e+01   9.4074294467e+00    0.2340215    0.1876006 -59.02  0.001023724    2.065    0.516
        98  -9.3504    132.9287    215.8363   7.7917356607e+01   1.4137893493e+01    0.4098554     0.258903  63.58  0.001966951    3.029    0.670
        99  -8.6119     62.1536    217.3266   9.4071455427e+01   2.2527037202e+01    0.2824199    0.1222047  46.26  0.001151418    1.951    0.487
       100  -9.0068     51.6753    216.9439   9.6473611108e+01   2.3708643805e+01    0.2422155    0.1406093  86.77  0.001139622    2.087    0.521
       101  -8.0149    179.4704    217.5216   6.8729222194e+01   7.9021706677e+00    0.1162364   0.09037506  14.62 0.0008084294    1.075    0.070
       102  -8.6668    143.0683    216.5103   7.5851769373e+01   1.2712298929e+01    0.2202413     0.177614  61.53 0.0009403987    1.834    0.455
       103  -8.6956     83.0293    220.4257   8.9524201290e+01   1.9608679503e+01    0.3096635    0.1505316  54.30  0.001317903    2.353    0.575
       104  -8.4162     18.5926    215.3523   1.0399638125e+02   2.7114405135e+01    0.2093284    0.0983284  84.85  0.001153813    2.289    0.563
       105  -8.6023    232.3467    214.5818   5.9140689471e+01   2.0306523666e+00    0.1845906    0.1424108 -17.60  0.001053091    1.390    0.280
       106  -7.9298    154.3899    215.1371   7.3326555729e+01   1.1441685722e+01    0.1385586    0.1173708 -58.35 0.0009340644    1.752    0.429
       107  -8.1130     41.4405    215.2107   9.8743058730e+01   2.5062845434e+01    0.1555852   0.09741867  71.78 0.0008281824    1.669    0.401
       108  -9.4443    214.1308    212.1832   6.1740886008e+01   4.3615709843e+00    0.3138144    0.2150171  44.41  0.001717626    2.291    0.564
       109  -8.2866    185.4891    214.1419   6.7112169446e+01   7.5936653251e+00    0.1708463    0.1393555  27.13 0.0008810034    1.355    0.262
       110  -9.1157     93.2570    213.7994   8.6550267702e+01   1.9548172531e+01    0.3192866    0.1541444  50.17  0.001553282    2.226    0.551
       111  -9.5203     73.5376    211.9460   9.0979765583e+01   2.2243949718e+01     0.684634     0.191776  48.55  0.002446294    3.994    0.750
       112  -8.2131    225.1321    212.2717   5.9939306079e+01   3.0866715457e+00    0.1607159    0.1348387 -39.50 0.0008551474    1.999    0.500
       113  -8.1004    106.5277    212.7112   8.3391802045e+01   1.8072220328e+01    0.1398103    0.1194112  78.59 0.0009219489    1.515    0.340
       114  -8.9451    204.2683    210.6163   6.3195265194e+01   5.7251128251e+00    0.2240934    0.1640279 -37.91 0.0008713866    1.769    0.435
       115  -8.5436    161.5400    212.1573   7.1464156509e+01   1.0940794688e+01    0.1818038    0.1452268  35.83 0.0006949456    1.366    0.268
       116  -9.3389    175.1766    209.6044   6.8403041817e+01   9.5206633901e+00    0.2726689    0.2372881  53.27  0.001478123    1.786    0.440
       117  -8.6941    148.0493    210.5067   7.4005398984e+01   1.2970463975e+01    0.2281791    0.1831262  62.39  0.001427642    1.906    0.475
       118  -8.8291    116.1809    210.1113   8.0901829343e+01   1.7267483620e+01    0.2740032     0.187521  62.53 0.0009862339    2.052    0.513
       119  -9.4583      6.5538    208.8104   1.0653655385e+02   2.9334851536e+01    0.4030431   0.08368653  59.17  0.001547072    4.057    0.754
       120  -8.2987     85.5830    209.0534   8.7867969859e+01   2.1346381296e+01    0.2605911    0.1596441  66.89   0.00124665    2.157    0.536
       121  -8.1691     46.5928    209.4933   9.7191185889e+01   2.5642430995e+01    0.2269307    0.1067586  61.37  0.001132054    2.262    0.558
       122  -9.0866    236.5855    208.0858   5.7485597205e+01   2.2736002115e+00    0.2096958    0.1836139 -39.22  0.001242214    2.085    0.520
       123  -8.2192    126.5201    208.4759   7.8384042406e+01   1.6172896243e+01    0.1746468    0.1261397 -72.79 0.0007604011    2.140    0.533
       124  -9.4189    246.3898    207.0691   5.5843242398e+01   1.3207861294e+00    0.2238998      0.14763 -15.66 0.0006095475    1.226    0.185
       125  -9.3105    250.2102    201.5640   5.4419928410e+01   1.4949629777e+00    0.3305559     0.123907 -28.95  0.001528553    2.316    0.568
       126  -9.4774    245.9400    193.7975   5.3802690326e+01   2.8026580632e+00    0.3020415    0.2442655 -50.90    0.0016206    2.598    0.615
       127  -7.9922    156.5840    207.8113   7.1855308176e+01   1.2237577329e+01    0.1389163    0.1198521 -55.00 0.0006084137    1.655    0.396
       128  -8.3887    139.2391    207.7917   7.5509218144e+01   1.4575843611e+01    0.2180832    0.1736605  52.96   0.00114195    1.594    0.373
       129  -9.1393     99.3174    205.7528   8.4281374750e+01   2.0226667678e+01    0.3259659    0.2099591  72.01  0.001064608    2.348    0.574
       130  -8.4399     56.7090    205.4206   9.4477792467e+01   2.5373409970e+01    0.2385296    0.1142171  57.48  0.001167172    2.203    0.546
       131  -8.1761    192.3863    210.2374   6.5260816602e+01   7.2375807305e+00    0.1375034    0.1044906 -36.08 0.0004679059    1.628    0.386
       132  -9.5238    195.0709    203.1656   6.3686993209e+01   7.8183740393e+00    0.3043351    0.2597353 -22.95  0.001440149    1.401    0.286
       133  -9.3522    192.3922    197.0578   6.3211058864e+01   8.9816823781e+00    0.2614087    0.1956637 -38.34  0.000826691    1.628    0.386
       134  -8.0722    109.0281    205.0561   8.1932163948e+01   1.9085855400e+01    0.1945063    0.1340509  54.86    0.0010675    1.675    0.403
       135  -8.9517    183.6252    203.5284   6.5868376407e+01   9.2546434133e+00    0.2466538    0.1874129  48.37  0.001384633    1.926    0.481
       136  -9.5675    163.8921    202.8269   6.9633447154e+01   1.1995112119e+01    0.3964346    0.2249589  46.13  0.001235175    2.204    0.546
       137  -8.5257    131.4060    203.8352   7.6689977115e+01   1.6284127707e+01    0.2380155     0.168627  47.76  0.001039998    1.568    0.362
       138  -8.2117     66.7239    204.0169   9.1930576360e+01   2.4532451508e+01    0.1696047    0.1485752  56.24 0.0006971284    1.139    0.122
       139  -7.8103     25.3005    204.6803   1.0201133500e+02   2.8608115672e+01    0.1280203   0.06525718  52.36 0.0003897402    1.623    0.384
       140  -8.3648     48.6358    202.5423   9.6238164987e+01   2.6795978735e+01    0.2120169    0.1233639  63.97  0.001171381    1.769    0.435
       141  -9.1645    243.1163    200.5270   5.5304379274e+01   2.3785798118e+00    0.2657441     0.128942 -28.71  0.001074364    1.822    0.451
       142  -8.4151    211.0166    201.6802   6.0638845362e+01   6.0024254960e+00     0.171682    0.1395859 -20.09 0.0005687429    1.358    0.264
       143  -8.7399    140.5773    200.9116   7.4265588086e+01   1.5503532114e+01     0.293538    0.1964861  54.98  0.001272413    2.095    0.523
       144  -8.5644     80.2222    201.0769   8.8364281322e+01   2.3502919198e+01    0.3207858    0.1476005  55.74  0.001400388    2.707    0.631
       145  -8.4525     32.3791    210.2162   1.0059602353e+02   2.6881906974e+01    0.1617075   0.09434955  73.88 0.0009457577    1.770    0.435
       146  -7.9850    222.1230    201.2150   5.8705632999e+01   4.7125269201e+00    0.1371347    0.1167884  -5.43 0.0004920174    1.352    0.261
       147  -9.5068    149.5499    198.3294   7.1951744022e+01   1.4669618477e+01    0.3735326    0.2690415  63.88    0.0014918    2.411    0.585
       148  -8.7373    124.1034    199.0650   7.7693921438e+01   1.8099910316e+01     0.275469     0.204638  72.50 0.0009933844    2.087    0.521
       149  -9.4924    113.0880    198.2982   8.0147249544e+01   1.9749461050e+01    0.4173648     0.238082  59.41  0.001824629    2.692    0.629
       150  -9.1688    237.0482    198.0321   5.5827105728e+01   3.3376994288e+00    0.2588108    0.1303816 -34.19  0.001355133    1.986    0.496
       151  -8.2781    176.9794    198.9349   6.6433634707e+01   1.0785708240e+01    0.1658048    0.1420814  45.91 0.0005472092    1.617    0.381
       152  -9.0735     88.7341    198.4331   8.6007848135e+01   2.2946999251e+01    0.3028867    0.1982075  63.01  0.001264304    1.849    0.459
       153  -8.3959    202.4962    197.8189   6.1505929367e+01   7.5635370285e+00    0.1721826    0.1471804  58.18 0.0009132096    2.173    0.540
       154  -9.0933     61.1074    196.0379   9.2638486027e+01   2.6751988243e+01    0.4787823     0.264394 -87.29  0.002368595    2.302    0.566
       155  -8.9129     12.8252    197.5078   1.0472440088e+02   3.1095595658e+01    0.2470064   0.08738545  55.20  0.001171855    2.343    0.573
       156  -8.3248     53.8940    196.7894   9.4512711989e+01   2.7396233373e+01    0.2469487    0.1278272  61.93  0.001224044    2.111    0.526
       157  -8.6846    215.9305    195.4836   5.8808784837e+01   6.1603050980e+00    0.1893327     0.147762 -36.81 0.0008525422    1.692    0.409
       158  -8.5003    133.1126    195.7144   7.5182381815e+01   1.7418119289e+01    0.1910425    0.1777308  88.14 0.0008275117    1.456    0.313
       159  -7.9936     36.3713    196.2578   9.8868141568e+01   2.9292455099e+01    0.1661648    0.1013351  76.64 0.0009399257    1.717    0.418
       160  -8.6105    224.6440    194.0490   5.7137475543e+01   5.2633617646e+00    0.2125285    0.1201603 -39.12 0.0009279473    2.088    0.521
       161  -7.6214    209.4776    195.4927   5.9908532198e+01   6.9705058479e+00     0.115318   0.09115418   3.61 2.851944e-05    1.077    0.071
       162  -8.8938    185.2082    194.5977   6.4160449559e+01   1.0284855881e+01    0.2016104    0.1821321 -30.16   0.00072209    1.454    0.312
       163  -8.7328    160.8917    194.0518   6.8909553549e+01   1.3746235508e+01    0.2419012      0.19463  59.67 0.0008886295    1.896    0.473
       164  -8.3082    231.2123    193.9888   5.6079220510e+01   4.4815695495e+00    0.1568274    0.1154974  -5.01 0.0005227316    1.045    0.043
       165  -9.0084     77.1422    193.7821   8.8388627086e+01   2.5311481885e+01    0.2618294    0.1779686  50.12 0.0006678664    1.382    0.276
       166  -8.8036     43.8789    193.1932   9.6778264156e+01   2.9184536544e+01    0.3694902    0.1586346  57.34  0.001692815    2.389    0.581
       167  -8.4666    172.4473    191.5710   6.6159928578e+01   1.2491859733e+01    0.1986817    0.1733044 -88.78 0.0007664374    2.072    0.517
       168  -7.6598    205.2961    191.6413   6.0004032577e+01   8.0058527708e+00   0.09710427    0.0962728 -19.80 0.0003720942    1.703    0.413
       169  -8.1004    199.1695    191.2683   6.1032023464e+01   8.8636211307e+00    0.1441837    0.1315302   4.18 0.0005253443    1.367    0.268
       170  -8.1897    179.2022    191.2360   6.4771616827e+01   1.1593910602e+01    0.1669465   0.09406671 -48.80 0.0005162211    2.424    0.587
       171  -9.0876    139.4081    190.2841   7.2969204307e+01   1.7445872683e+01    0.2875784    0.2312757  71.21   0.00117112    1.894    0.472
       172 -10.3496     92.5409    188.7332   8.3947685605e+01   2.4338457598e+01    0.9549811    0.2106184  40.93  0.003127139    3.769    0.735
       173  -8.9493    237.3200    188.4149   5.4212307577e+01   4.4057417436e+00     0.194202    0.1136504 -29.23 0.0006586774    1.564    0.361
       174  -8.4301    148.3426    189.0233   7.0798031110e+01   1.6359079875e+01    0.2113843     0.165702  49.66 0.0007774988    1.551    0.355
       175  -8.7412    129.3469    188.3873   7.4979968005e+01   1.9237721207e+01    0.2554403    0.1900494  55.49 0.0009155445    1.664    0.399
       176  -8.7860     34.3883    188.2402   9.8885341279e+01   3.1156494624e+01    0.3418706     0.128017  58.15  0.001450673    2.762    0.638
       177  -8.9070    216.6370    187.4708   5.7362677208e+01   7.0736311843e+00     0.232601    0.1551118 -33.24 0.0009894609    1.573    0.364
       178  -8.7992    191.4723    187.0830   6.1744255228e+01   1.0483887598e+01    0.2280018    0.1924244 -57.10 0.0009545216    1.943    0.485
       179  -9.2142    155.9718    187.3437   6.8884393718e+01   1.5520621909e+01    0.2641177    0.2035738 -57.78 0.0007968599    1.826    0.452
       180  -9.5258    120.6544    185.9444   7.6668425119e+01   2.0943742777e+01    0.4217486    0.2732097 -77.03  0.002033778    2.627    0.619
       181  -9.1346     54.7494    186.6060   9.3463863050e+01   2.9414352216e+01    0.4022284    0.1874483  62.64  0.001409643    2.600    0.615
       182  -8.2525    230.4221    187.1880   5.5077115905e+01   5.3809096327e+00    0.1437929   0.09346239 -34.93 0.0009352467    1.690    0.408
       183  -8.6701    165.0814    186.6693   6.6860998463e+01   1.4298937652e+01    0.2217073     0.197933  74.27  0.001133895    1.772    0.436
       184  -9.2891    109.5485    185.7032   7.9325206255e+01   2.2584097477e+01    0.3613206    0.2455988  68.25  0.001204946    2.141    0.533
       185  -9.0721    249.3089    185.2922   5.1911361713e+01   3.3644541393e+00    0.2105764     0.149064 -24.22  0.000866813    1.344    0.256
       186  -8.9546    210.1157    184.1589   5.7907563487e+01   8.3517060084e+00    0.2191067    0.1481112 -29.74 0.0005202179    1.449    0.310
       187  -8.7494    203.0632    184.6193   5.9218850589e+01   9.2364743774e+00    0.2032748    0.1875984 -55.19 0.0009687059    1.795    0.443
       188  -8.6350    182.9826    184.5630   6.2929828625e+01   1.2038228574e+01    0.2029008     0.169359 -43.14 0.0006389729    1.564    0.361
       189  -9.1287     66.8073    184.4562   9.0099666060e+01   2.8481504340e+01    0.3377532     0.157948  49.22  0.001025107    2.059    0.514
       190  -8.6166    224.1225    183.4438   5.5448509174e+01   6.6224150162e+00     0.194836    0.1339303 -21.39 0.0005156813    1.275    0.216
       191  -8.8754    174.2628    183.3312   6.4436909135e+01   1.3479444786e+01    0.2290535    0.2134758 -58.46 0.0007660654    1.577    0.366
       192  -8.0536    242.7129    183.3215   5.2546566589e+01   4.3551920548e+00   0.09369544    0.0808465 -26.75 0.0007005176    1.599    0.375
       193  -8.3597    196.9821    182.9989   6.0035406681e+01   1.0292238103e+01     0.156807     0.154521  67.51 0.0005762899    1.647    0.393
       194  -9.0511     44.3509    181.9755   9.5836295564e+01   3.1517384171e+01    0.3443558    0.1983639  63.94  0.001001174    1.777    0.437
       195  -8.0662      1.9096    183.4918   1.0699137907e+02   3.4826611336e+01    0.1732019   0.09875606  29.20  0.001011663    1.546    0.353
       196  -8.3409    235.3784    181.2583   5.3302917344e+01   5.4814851757e+00     0.149362   0.09030972 -33.99  0.000858666    1.677    0.404
       197  -9.2460    147.4757    180.3015   6.9593308234e+01   1.7962408386e+01    0.2964157    0.2426817  68.63  0.001107919    1.828    0.453
       198  -7.6565     83.3026    181.6682   8.5465883933e+01   2.6993086336e+01    0.1384363   0.09025469  56.89 0.0003614705    1.654    0.395
       199  -9.3712     25.5117    178.5619   1.0064742704e+02   3.4059160856e+01    0.5907168    0.1921317  69.12  0.002088008    4.144    0.759
       200  -8.5891    137.5912    178.9979   7.1621613401e+01   1.9691315018e+01    0.2709137    0.2089027  63.59  0.001488683    1.831    0.454
       201  -9.3875    191.4273    178.1498   6.0220075677e+01   1.1764320446e+01    0.2777177    0.2222148  50.38 0.0009163882    1.794    0.443
       202  -8.2213    169.6387    178.5352   6.4556120150e+01   1.4908561807e+01    0.1790823    0.1607246 -65.10 0.0008694251    1.660    0.397
       203  -9.2061     36.0961    176.9616   9.7690767127e+01   3.3440665355e+01    0.5104335    0.1991237  65.43  0.002013369    3.177    0.685
       204  -8.7367    250.5137    172.4984   4.9565379388e+01   4.6709634220e+00    0.2200546    0.1207889 -24.32 0.0005641472    1.487    0.327
       205  -9.3284    248.9202    177.1275   5.0588821867e+01   4.3308114278e+00    0.2453142    0.2106552 -38.21 0.0009085819    1.809    0.447
       206  -8.3015    247.3201    173.6904   5.0226816774e+01   4.9168697415e+00    0.1463179   0.09770869  31.46 0.0005738249    1.613    0.380
       207  -8.6092    217.5018    177.0042   5.5418966059e+01   8.3020946245e+00    0.2045103     0.172513 -35.77  0.000698716    1.562    0.360
       208  -8.7517    205.1205    177.6160   5.7642889718e+01   9.9056766152e+00    0.1928169    0.1475347 -29.37 0.0005440289    1.359    0.264
       209  -8.6701    129.4094    177.3980   7.3282741174e+01   2.1227141947e+01    0.2755014    0.1888402  65.40 0.0009522967    2.303    0.566
       210  -8.2272     97.4144    177.4635   8.1255463962e+01   2.5934103292e+01    0.2734261    0.1782757  -3.75  0.001277707    2.225    0.551
       211  -8.5862    231.0594    176.6426   5.3174230347e+01   6.5799632190e+00    0.2027983    0.1365351 -35.67 0.0007705434    1.637    0.389
       212  -9.0729     89.2472    176.7412   8.3292299955e+01   2.7219691900e+01    0.2838981    0.1828261  54.60  0.000855315    1.669    0.401
       213  -9.3594     58.4715    174.9769   9.1396326314e+01   3.1506770702e+01    0.5295728     0.217666  56.65  0.002062964    2.970    0.663
       214  -9.3424     55.7926    170.4026   9.1686073205e+01   3.2833026186e+01    0.3873032    0.2206001  69.33  0.001839862    2.068    0.516
       215  -8.9967     12.7709    176.1022   1.0392787302e+02   3.5643433184e+01    0.2888937    0.1226344  67.69  0.001359393    2.284    0.562
       216  -8.8963    183.0975    175.8353   6.1399539352e+01   1.3320621165e+01    0.2111176    0.2014028 -32.81 0.0007280685    1.422    0.297
       217  -9.4121    104.1658    174.6027   7.9110825455e+01   2.5546349332e+01    0.5384069    0.2647249  50.34   0.00228304    2.360    0.576
       218  -9.2837    158.3878    174.4491   6.6213945766e+01   1.7286814723e+01    0.3102105    0.2468447  72.67  0.001320999    2.135    0.532
       219 -10.6708     75.8468    170.0727   8.6061630446e+01   3.0444066727e+01     1.142069    0.4768579 -81.14  0.003705771    4.800    0.792
       220  -9.8086     81.5572    155.1002   8.2429875063e+01   3.3011350414e+01    0.5477903    0.4900459 -12.70  0.002297419    1.263    0.208
       221  -8.4008    224.4526    174.0456   5.3763141968e+01   7.7599762252e+00     0.168217    0.0982728 -30.54 0.0005252323    1.567    0.362
       222  -9.4232    175.6563    172.1286   6.2209450793e+01   1.5009257649e+01    0.2805959    0.2166726 -33.93 0.0006975426    1.366    0.268
       223  -8.4602    143.1409    172.6477   6.9292389375e+01   1.9972726098e+01    0.2098236    0.1850305 -60.03 0.0006815263    1.449    0.310
       224  -8.6307    134.9201    171.5337   7.1017432461e+01   2.1463448012e+01    0.2253817    0.1966922 -82.66 0.0007278415    1.571    0.363
       225  -9.2285     45.1737    170.9503   9.4715747838e+01   3.3873393567e+01    0.3611876    0.1845879  68.22  0.001351315    2.265    0.558
       226  -8.7123    198.5249    170.0127   5.7460932134e+01   1.1907772379e+01    0.2201351    0.1888578 -42.35  0.000873498    1.541    0.351
       227  -9.4919    121.3817    170.2946   7.4093604358e+01   2.3810256376e+01    0.3232866    0.2517926  70.22 0.0008986784    1.750    0.429
       228  -8.5436    237.2899    169.3003   5.0929488589e+01   6.6835608639e+00    0.1902571    0.1303521 -22.52 0.0006907978    1.237    0.192
       229  -8.8738    230.1753    168.6513   5.1899488284e+01   7.6872813825e+00    0.3555396     0.124315 -40.40   0.00158431    3.195    0.687
       230  -8.4007    205.6587    169.9690   5.6182899426e+01   1.0883641370e+01     0.208808    0.1433937 -44.35 0.0007449763    1.845    0.458
       231  -8.8667    149.9558    169.4288   6.7189623486e+01   1.9470134175e+01    0.2214296    0.1951257 -76.10 0.0008505867    1.613    0.380
       232  -8.4151    244.6087    169.3494   4.9859713227e+01   5.7563099387e+00    0.1444469    0.1246711 -32.38 0.0006607529    1.593    0.372
       233  -9.1155    167.0698    168.1690   6.3255062379e+01   1.6977028531e+01    0.2989486    0.2396196  61.39  0.001287349    1.855    0.461
       234  -8.2448     88.8535    168.7268   8.2324812176e+01   2.8969835140e+01    0.2546044    0.1671758  71.38  0.001213041    2.057    0.514
       235  -8.4023    218.8831    168.2027   5.3620781052e+01   9.2667765042e+00    0.1676321    0.1448885  -9.84 0.0005378349    1.220    0.180
       236  -7.9305    211.4954    168.0167   5.4820745437e+01   1.0322599607e+01    0.1527993    0.1009889 -52.22 0.0008098928    2.520    0.603
       237  -9.1287    111.4880    167.0615   7.6077483704e+01   2.5980379989e+01    0.2935248    0.2132743  71.32  0.001421648    1.928    0.481
       238  -9.0605    191.9063    166.5704   5.8047119858e+01   1.3392175314e+01     0.217997    0.1700989 -32.72 0.0005304184    1.346    0.257
       239  -8.4073    185.0777    166.3326   5.9299102832e+01   1.4466936353e+01    0.1998322    0.1758906 -53.60  0.000657352    1.600    0.375
       240  -8.9993     20.6612    166.0840   1.0127748144e+02   3.7276045356e+01    0.3457743    0.1342235  48.19  0.001247232    2.183    0.542
       241  -9.7065    137.1764    164.4799   6.9266709931e+01   2.2419140125e+01    0.6308038     0.278469  51.01  0.002274018    3.388    0.705
       242 -10.2177     95.0746    163.2814   7.9847413581e+01   2.9244928999e+01      0.74566    0.4292835  64.60   0.00298238    2.651    0.623
       243  -8.2011    234.0218    164.9447   5.0641908857e+01   7.6444032660e+00     0.157521    0.1351976 -42.85 0.0007387295    1.708    0.415
       244  -9.4327     33.5956    163.3936   9.7401084016e+01   3.6759506174e+01    0.5772689    0.1699556  46.70  0.002184003    2.946    0.661
       245  -8.0608    240.0612    163.7242   4.9520477298e+01   7.0071674590e+00    0.1578937    0.1239236   0.93 0.0006914522    1.090    0.083
       246  -8.6249    212.8768    163.5189   5.3759997882e+01   1.0739771050e+01    0.2120509    0.1558917 -30.81 0.0005997967    1.349    0.259
       247  -8.5792    159.4672    163.8802   6.4089387381e+01   1.8911585295e+01    0.2257789    0.2072698  66.13 0.0007935385    1.474    0.321
       248  -8.3269     56.9384    163.6881   9.0665738004e+01   3.4225954508e+01    0.3396764    0.1722536  -1.78  0.001135577    4.385    0.772
       249  -9.2583    246.2228    162.6240   4.8432815292e+01   6.3526799055e+00    0.2357039    0.1231579 -29.34 0.0005783642    1.610    0.379
       250  -8.9132    242.2302    159.9943   4.8529586939e+01   7.1807426030e+00    0.1625651    0.1171251 -16.17 0.0004452696    1.101    0.092
       251  -9.7805    250.2184    157.3371   4.6920744946e+01   6.4752767637e+00     0.301114     0.131845 -31.01 0.0008864178    1.899    0.473
       252  -9.3230    246.7394    155.3391   4.7039699133e+01   7.1597799429e+00    0.1642071    0.1349126 -11.41 0.0004597259    1.155    0.134
       253  -8.4136    205.0880    162.6593   5.4936268270e+01   1.1992422255e+01    0.1995081     0.152208 -32.35 0.0006156967    1.354    0.262
       254  -9.2591      3.3745    162.2074   1.0596319785e+02   3.9433888307e+01    0.4340236      0.14064  49.23   0.00190246    2.464    0.594
       255  -9.0519    177.4777    160.3476   5.9669915344e+01   1.6597228998e+01    0.2515888    0.2267918 -51.01 0.0008660042    1.462    0.316
       256  -8.8999    151.8244    160.7810   6.5204105849e+01   2.0702502103e+01    0.2647329    0.2275995  74.65  0.001066785    1.675    0.403
       257  -8.8765     60.8713    160.1342   8.9125948415e+01   3.4576945657e+01    0.3907366     0.200721  61.94  0.001238755    2.394    0.582
       258  -8.8190    227.4369    158.9879   5.0561155644e+01   9.2911438678e+00    0.2615631    0.1681105 -46.96  0.001068399    2.186    0.543
       259  -8.6017    236.9487    158.6856   4.9062162867e+01   8.0369592611e+00    0.2017764    0.1250939 -36.25 0.0007494026    1.630    0.386
       260  -8.3821    128.3225    158.8150   7.0409583396e+01   2.4951823486e+01    0.2468845    0.2107955  80.06 0.0009306694    1.559    0.358
       261  -9.7650    105.9399    157.7802   7.6029699895e+01   2.8769196436e+01     0.527365    0.3087635  57.83  0.001569871    2.276    0.561
       262  -8.6765    196.7294    157.6960   5.5486787450e+01   1.3974809897e+01    0.2263416    0.1588673 -40.46 0.0007048578    1.566    0.361
       263  -9.2011    167.6257    156.9749   6.1043915232e+01   1.8754639201e+01    0.3098608      0.24074 -61.26  0.001117759    1.866    0.464
       264  -8.5141    217.9575    156.4870   5.1600309508e+01   1.0965498943e+01    0.2211632    0.1479673 -40.64  0.000808948    1.681    0.405
       265  -8.1227    188.0277    157.3360   5.7035168046e+01   1.5390933229e+01    0.1758689     0.154503   6.35 0.0006521819    1.082    0.076
       266  -9.1727    157.5617    155.3834   6.2902446217e+01   2.0707027032e+01    0.3110159    0.2205859 -46.64   0.00120925    1.582    0.368
       267  -9.3258    119.5641    154.8703   7.1924166496e+01   2.7184979724e+01    0.3787016    0.2867703  85.96  0.001260093    1.975    0.494
       268  -9.2624     49.8987    155.2081   9.1836320479e+01   3.7009284474e+01    0.4779842    0.1924691  47.97  0.001929758    2.397    0.583
       269  -9.5738    241.3656    153.8033   4.7517266632e+01   8.0537762832e+00    0.3013763    0.2366983  67.17  0.001880925    2.604    0.616
       270  -8.0548    204.6612    154.9399   5.3544243084e+01   1.3159826155e+01    0.1719015    0.1043105 -41.56 0.0009281817    1.798    0.444
       271  -8.6380    144.4403    154.4603   6.5707727676e+01   2.3092129465e+01    0.2811008    0.2061093  72.32 0.0009770029    2.295    0.564
       272  -9.5244     68.2066    153.8034   8.6172912980e+01   3.5126497149e+01    0.4654374    0.2391526  58.78  0.001383451    2.402    0.584
       273  -9.6480    132.7746    152.7760   6.8193908709e+01   2.5394733543e+01    0.4262721    0.2963922  62.14  0.001247587    2.030    0.507
       274  -9.0995    133.4862    148.0145   6.7102952814e+01   2.6210224404e+01     0.319181     0.226497 -34.08  0.001034629    1.511    0.338
       275  -8.9785    152.2678    135.5327   6.0042726876e+01   2.5247084066e+01     0.426064    0.1675713  33.93   0.00152983    2.835    0.647
       276  -8.1647    151.7956    152.7616   6.3683470864e+01   2.2153937326e+01    0.2172645    0.1659374 -44.97 0.0007247787    1.435    0.303
       277 -10.5892    149.2096    144.9935   6.2728641754e+01   2.4034342819e+01    0.6515386    0.4682862 -78.67  0.001949278    2.576    0.612
       278  -9.6701     29.2837    150.3671   9.7674742994e+01   4.0243072345e+01    0.5614996    0.2013029  60.21  0.002030249    3.328    0.700
       279  -9.1147     20.0697    152.0948   1.0061199837e+02   4.0604611777e+01    0.2272727    0.1206327  56.63  0.001096409    1.745    0.427
       280  -8.5119      9.0374    153.0000   1.0396610495e+02   4.1201846536e+01    0.1958411   0.06802517  18.30  0.000786967    2.903    0.655
       281  -8.7661      2.9046    150.5188   1.0568003651e+02   4.2185174533e+01    0.4006003    0.1171734 -81.15  0.001565747    3.173    0.685
       282  -9.6091    248.9055    149.2627   4.5620515370e+01   7.6100492600e+00    0.3099559    0.1327977 -29.10 0.0008106763    1.935    0.483
       283  -8.7779    247.1084    143.5253   4.4790563339e+01   8.5470835521e+00    0.2172745    0.1358242 -26.91 0.0005061323    1.308    0.236
       284  -8.7664    189.6049    150.1416   5.5328030547e+01   1.6251636225e+01    0.2497303    0.2014809 -53.87 0.0008409967    1.686    0.407
       285  -8.1711    182.4214    151.1658   5.6907323908e+01   1.7266457146e+01    0.1743649    0.1200443 -46.82 0.0007946076    1.715    0.417
       286  -8.5277     98.2193    150.6368   7.6956825522e+01   3.1526081252e+01    0.2845852    0.2109109  75.38 0.0009628458    1.763    0.433
       287  -8.7974    243.1023    149.5806   4.6483817666e+01   8.3426375804e+00    0.2317698    0.1365303 -34.08  0.001424672    1.552    0.356
       288 -10.3090    241.3040    143.8043   4.5644821090e+01   9.3069593829e+00    0.4496699    0.2587182  -2.46  0.002467478    2.077    0.519
       289  -8.5061    162.3768    150.0706   6.0808108414e+01   2.0823943613e+01    0.2289603    0.1923247  63.17 0.0008061809    1.614    0.381
       290  -8.5355    198.8488    148.6446   5.3336402698e+01   1.4990518579e+01    0.2248231    0.1674486 -35.98 0.0005056274    1.373    0.272
       291 -10.0954     89.3066    146.1245   7.8760396028e+01   3.3918104709e+01    0.6534491    0.3802083  81.25  0.002405079    3.309    0.698
       292  -9.4891     39.9105    147.5559   9.4120259772e+01   3.9912344183e+01    0.5714818     0.244449  59.27  0.001900415    2.730    0.634
       293  -8.9694    233.4935    147.5541   4.7485937414e+01   9.9229990163e+00    0.2293881     0.098588 -31.99 0.0006155901    2.005    0.501
       294 -10.3773     55.0269    144.5763   8.9023255790e+01   3.8972311061e+01    0.7795617    0.3392911  61.58  0.002727265    3.368    0.703
       295  -9.8122     54.6749    136.3371   8.8059117639e+01   4.1036389387e+01    0.6172034    0.3238845  -5.33  0.002075678    4.006    0.750
       296  -9.9867    139.3584    145.0132   6.5066838408e+01   2.5770985365e+01    0.3870191    0.2963185 -81.41  0.001538937    2.058    0.514
       297 -10.3398    106.2762    143.7280   7.3465665961e+01   3.1747009997e+01    0.8198045    0.4982822  71.73  0.002580909    3.114    0.679
       298  -8.7448     78.1538    146.7384   8.2177676004e+01   3.5422317869e+01    0.2928607    0.2040355  71.23 0.0009815566    1.744    0.427
       299  -9.0356     13.2647    146.1370   1.0233572989e+02   4.2551365427e+01    0.3466069     0.158886  61.25  0.001392507    2.096    0.523
       300  -8.2098    223.4722    146.1975   4.8743382439e+01   1.1549866580e+01    0.1800776    0.1030022 -29.72  0.000960351    1.531    0.347
       301  -7.9663    206.6786    146.0784   5.1457913981e+01   1.4128299320e+01    0.1759438    0.1388983 -19.90 0.0006786041    1.121    0.108
       302  -8.0923    175.5096    145.9874   5.7237433601e+01   1.9271408993e+01     0.190849    0.1265764 -38.86 0.0005426367    1.527    0.345
       303  -9.9507    125.1704    142.3981   6.8106334233e+01   2.8794448852e+01      0.49219    0.3679667 -86.35  0.001527115    2.068    0.516
       304 -10.7903     69.4266    139.7048   8.3789789054e+01   3.8312151405e+01     0.905533    0.4539034 -65.36  0.003290747    2.115    0.527
       305  -8.6332    165.9198    143.9652   5.8809849582e+01   2.1275267714e+01    0.2384856    0.2098368  86.32 0.0007767671    1.654    0.395
       306  -7.8716    194.3046    143.6743   5.3155606204e+01   1.6480303326e+01    0.1176908    0.1047907 -67.20 0.0004909039    1.645    0.392
       307  -7.9106    230.4117    142.1873   4.6905269235e+01   1.1064054412e+01    0.1664632   0.09665298 -38.25 0.0009412373    1.694    0.410
       308  -8.2797    182.0741    141.5753   5.5027043853e+01   1.8871712243e+01    0.2200797    0.1712351 -41.56 0.0005728271    1.391    0.281
       309  -9.1801      2.5428    141.4081   1.0543350639e+02   4.4387803056e+01    0.3915159    0.1517929  58.73  0.001710315    2.373    0.579
       310  -8.0471    250.4941    140.9181   4.3843697349e+01   8.4083420826e+00    0.1709923   0.09085142 -30.00 0.0007081825    1.538    0.350
       311  -8.4468    213.0798    149.6412   5.1084588501e+01   1.2632528657e+01    0.1920845    0.1543664 -30.17 0.0003940598    1.267    0.211
       312  -8.7912    172.2411    137.9396   5.6228017836e+01   2.1196510688e+01    0.2812544    0.2063084 -59.20  0.000837005    1.906    0.475
       313  -7.8328    134.2702    139.3588   6.5166560656e+01   2.7791670309e+01    0.1465554    0.1086392  -9.77 0.0006996932    1.645    0.392
       314  -9.7139     23.4269    137.8472   9.8534973084e+01   4.3814737970e+01    0.5189098    0.1913714  52.20  0.001990706    2.696    0.629
       315  -7.7606    218.7173    138.3597   4.7934487810e+01   1.3341751892e+01    0.1158623   0.09255725 -50.72 0.0007017571    1.674    0.403
       316  -8.2036    207.5068    137.5605   4.9593724505e+01   1.5234324520e+01    0.2086677    0.1075755 -42.92 0.0005290286    2.081    0.520
       317  -8.6627    197.5031    137.4495   5.1297381074e+01   1.6900553782e+01    0.2209225    0.2003944 -50.78 0.0006562177    1.413    0.292
       318  -9.1136    248.4528    134.7162   4.2928872047e+01   9.4443890497e+00    0.2528715    0.1570885 -28.89 0.0006392337    1.320    0.243
       319  -8.3908    247.0771    129.8774   4.2169549173e+01   1.0235326386e+01    0.1802533    0.1366229 -21.86 0.0005852993    1.069    0.065
       320  -8.2668    187.8277    135.3934   5.2629722842e+01   1.8872502638e+01    0.2432418   0.09148987 -39.73 0.0006275065    2.582    0.613
       321  -8.3528    162.6594    136.1781   5.7869573971e+01   2.3227770548e+01    0.2046051    0.1737591 -54.99 0.0006739875    1.423    0.297
       322  -8.7783     39.2774    135.9079   9.3106018503e+01   4.2852651743e+01    0.2972663    0.1671129  51.96 0.0007905372    1.750    0.429
       323 -10.4079     83.5120    132.8371   7.8202950551e+01   3.7905487828e+01    0.5317417    0.3520022 -81.81  0.001297922    1.970    0.492
       324  -8.5774    179.1467    133.5990   5.3911560271e+01   2.0694391788e+01    0.2458999     0.180209 -50.15 0.0007549949    1.625    0.384
       325  -8.8155    112.9374    133.0460   6.9504724139e+01   3.2938049029e+01    0.3384325     0.230746  65.96 0.0008087928    2.055    0.513
       326  -8.0019    231.4573    133.5643   4.5047607948e+01   1.2045333482e+01    0.1203857   0.09817629 -13.84 3.869428e-05    1.015    0.015
       327 -10.1281    132.5198    131.2568   6.3888030928e+01   2.9743589093e+01    0.5141375    0.3706982  83.13  0.001052273    2.396    0.583
       328  -9.2811    143.0813    131.5402   6.1331656618e+01   2.7713055618e+01    0.2829357    0.2597407  82.26 0.0006455425    1.348    0.258
       329 -10.0857     98.0688    129.8262   7.3156815429e+01   3.6244190238e+01    0.6213315    0.4012426 -57.59  0.001954262    1.663    0.399
       330  -8.7255    100.5800    119.6578   7.0250702565e+01   3.8138154605e+01    0.6064599    0.3230683  11.72   0.00173213    4.719    0.788
       331  -8.7774    250.7686    129.5309   4.1625128999e+01   9.7579388812e+00    0.3650068   0.07749327 -32.32  0.001358814    3.813    0.738
       332 -10.0371     12.7106    128.5429   1.0143192825e+02   4.6938175609e+01    0.5813302    0.2521845  64.71  0.001922645    2.396    0.583
       333  -7.7797    220.6221    129.8088   4.5895295814e+01   1.4228104901e+01    0.1698436    0.1014823 -37.75 0.0004335519    1.582    0.368
       334  -7.9789    204.5304    130.0414   4.8524498979e+01   1.6833195296e+01    0.1906405    0.1143787 -34.37 0.0004928151    1.531    0.347
       335  -8.1286    192.9845    130.0281   5.0533332587e+01   1.8819964529e+01    0.1879196    0.1593245 -61.08 0.0004578035    1.597    0.374
       336  -9.3107    168.3127    129.2383   5.5151726141e+01   2.3411694144e+01    0.2735525    0.2264944 -63.32  0.000466506    1.590    0.371
       337  -9.6694    152.9745    128.3598   5.8304331804e+01   2.6452967051e+01    0.5463036     0.262484 -44.75  0.001478877    2.159    0.537
       338 -10.0597     73.1714    128.7118   8.0781044343e+01   4.0453773424e+01    0.4853576    0.3306823  81.99  0.001646993    1.895    0.472
       339  -7.9181    211.5860    128.8517   4.7112285198e+01   1.5828920250e+01    0.1753368    0.1062804 -41.54 0.0007487329    1.687    0.407
       340  -8.9661    161.6060    128.6525   5.6448775453e+01   2.4769047828e+01      0.30272    0.1701263 -45.94  0.001365388    1.897    0.473
       341 -10.7797     45.1502    123.5549   8.9556539065e+01   4.5356770657e+01      1.21446     0.527783  66.90  0.003926058    3.881    0.742
       342  -7.8213      1.3555    129.7012   1.0531913935e+02   4.7322738751e+01    0.1421528   0.07600249  52.68 0.0007036038    1.701    0.412
       343 -10.4825     60.3196    125.1494   8.4495533064e+01   4.3117006652e+01    0.7719744    0.4027356  65.57  0.002864182    2.804    0.643
       344  -9.8182    117.7638    124.9435   6.6422546345e+01   3.3816673771e+01    0.5157041     0.345401  70.48  0.001325741    2.370    0.578
       345  -7.7230    228.5265    125.4805   4.3831190228e+01   1.3570727031e+01    0.1227399    0.1013784 -16.67 0.0001923532    1.019    0.018
       346  -8.9083    179.2943    124.4771   5.1874517276e+01   2.2183344398e+01    0.2534055    0.2203198 -59.46 0.0004812026    1.439    0.305
       347  -9.4666    133.8828    124.5273   6.2040900479e+01   3.0849937248e+01    0.4455939    0.2681713  22.32  0.001851097    2.126    0.530
       348  -9.8798    131.0807    118.5148   6.1365523387e+01   3.2618467367e+01    0.4796285    0.3362398  80.21  0.001640398    2.480    0.597
       349 -10.2973     28.5974    122.0792   9.5296029263e+01   4.7371686747e+01    0.8427729    0.3321438  63.95  0.002912362    3.455    0.711
       350  -8.8570     85.4681    122.3755   7.5576818429e+01   4.0088880236e+01    0.5664425    0.3126441   9.42  0.001905972    3.429    0.708
       351  -7.3482    188.3660    123.7165   4.9990880074e+01   2.0641320701e+01    0.1262212    0.1085872 -81.41 0.0007017817    1.690    0.408
       352  -8.6876    171.9053    121.4156   5.2645681504e+01   2.4090710636e+01     0.241876    0.1886385 -33.46 0.0004944454    1.243    0.195
       353  -9.4765    158.5661    121.3615   5.5451802034e+01   2.6670653929e+01    0.3026167    0.2607272 -78.63  0.001063908    1.549    0.354
       354  -7.7757    194.8448    121.5982   4.8357061188e+01   1.9803466631e+01     0.162363    0.1281103  56.96 0.0003231125    1.578    0.366
       355  -9.6819     71.2903    119.5031   7.9732748968e+01   4.2994876359e+01    0.4523496    0.2728307 -84.48  0.001438313    2.293    0.564
       356 -10.0882    141.2865    117.4004   5.8527520537e+01   3.0824110811e+01    0.6700205    0.3499844 -56.42  0.001911113    2.628    0.620
       357  -9.6802      2.9747    117.0321   1.0413653263e+02   5.0420315576e+01    0.5807888    0.2089555  64.12  0.002251561    2.913    0.657
       358  -8.1540    231.4016    117.2064   4.1711078760e+01   1.4221752557e+01    0.1708944   0.09619777 -38.78 0.0006306277    1.642    0.391
       359  -8.3796    185.5364    115.5406   4.8657605552e+01   2.2479896900e+01     0.230458    0.1177682 -45.48 0.0005666875    2.106    0.525
       360  -9.0020    109.9577    106.7365   6.4364547521e+01   3.9288954076e+01    0.3988086    0.2532665  12.01  0.001520191    2.549    0.608
       361  -9.0417     59.4205    115.0417   8.3088020458e+01   4.5786286215e+01     0.371758    0.2323647  -3.03  0.001464209    2.418    0.587
       362  -8.1810    250.3209    114.9200   3.8795711097e+01   1.1616693131e+01    0.1658034    0.1241172 -20.76 0.0009803226    1.067    0.063
       363  -8.2174    193.0654    115.2787   4.7247121709e+01   2.1112677814e+01    0.1782605    0.1670969  -5.28 0.0003885667    1.074    0.069
       364 -10.1104     92.7930    112.5346   7.1091673032e+01   4.1178040685e+01    0.5232313    0.3611917 -76.18  0.001496414    1.901    0.474
       365  -8.7158     93.6906    104.1577   6.8808296865e+01   4.2976119074e+01    0.4528306    0.2792282 -13.72  0.001573349    3.206    0.688
       366  -9.9494     78.9863    112.2814   7.5633197420e+01   4.3580474846e+01    0.5952973    0.3888744  79.62  0.001782786    2.305    0.566
       367  -8.2811     78.4838    104.9919   7.4190203810e+01   4.5441502664e+01    0.3425471    0.2272589 -16.00  0.001376165    2.314    0.568
       368  -8.1396    167.0853    114.3038   5.1968359961e+01   2.6261245326e+01    0.1987559    0.1803691  31.71 0.0006622903    1.110    0.099
       369 -10.0688    133.5499    109.6833   5.8577087431e+01   3.3919920070e+01    0.6777292    0.3506925 -44.71  0.002247439    1.974    0.493
       370 -10.1415    121.9032    112.2229   6.2305779554e+01   3.5741945406e+01    0.4394206    0.3471884  83.28 0.0007446364    1.731    0.422
       371  -8.8747    108.4272     92.0200   6.0914637056e+01   4.2819064703e+01    0.4770621     0.272162  29.00  0.001852261    2.168    0.539
       372  -9.9610    118.6620    105.8054   6.1603941338e+01   3.7755712547e+01    0.3530383    0.2966097  35.05  0.001266917    1.168    0.144
       373 -10.6700    109.3714     98.9027   6.2512134531e+01   4.1127884212e+01     1.025783    0.5252436  62.66  0.002677643    3.825    0.739
       374  -8.4352    174.7803    111.7063   4.9798538943e+01   2.5189412922e+01     0.249201    0.1701977 -58.07 0.0006983269    1.945    0.486
       375  -8.7393    159.1634    111.6662   5.3012050005e+01   2.8314846343e+01     0.240691    0.1887455 -46.45 0.0005016822    1.338    0.253
       376 -10.0249     66.5084    110.5934   7.9680571871e+01   4.5919083094e+01    0.4468102    0.3111492  80.56  0.001359146    1.826    0.452
       377  -9.1106     67.4074    105.1503   7.8226205230e+01   4.7151265154e+01     0.375101    0.1989183  17.03  0.001404986    2.547    0.607
       378 -10.0257     14.1825    110.7943   9.9541016779e+01   5.1381745481e+01    0.4909684    0.2582943  59.58  0.002270203    1.947    0.486
       379 -10.0159    248.6009    108.1490   3.7632463091e+01   1.2709510837e+01    0.4464182    0.2105807 -21.63  0.002268515    2.079    0.519
       380 -10.7116    248.8888    102.0015   3.6337302196e+01   1.3424799644e+01    0.3931818     0.257379 -21.30  0.002474919    1.313    0.238
       381 -10.8113     22.8590    102.1964   9.5229708706e+01   5.3012891810e+01     0.920875    0.4111644  66.34  0.002651488    2.873    0.652
       382  -9.0182     22.5726     89.7600   9.3715808134e+01   5.6302946378e+01    0.3366995    0.2370802 -20.73  0.001065204    1.652    0.395
       383  -9.7218    150.5681    102.8010   5.2701756074e+01   3.1715784487e+01    0.5195097    0.3122592 -59.61  0.001836872    2.376    0.579
       384  -8.8800    166.7913    103.4988   4.9386044249e+01   2.8204827166e+01    0.3857227    0.1804101 -39.52   0.00128288    2.070    0.517
       385  -9.7241      6.7946    101.9251   1.0169921543e+02   5.4110173443e+01      0.46521    0.2149161  85.99  0.001932934    2.154    0.536
       386  -7.8077    175.5834    101.8184   4.7236506587e+01   2.6687386329e+01    0.1952512    0.1245752 -46.16 0.0005811627    1.632    0.387
       387 -10.0480    128.7761    100.7109   5.7508235153e+01   3.6727365994e+01    0.6093621    0.3571809 -32.41   0.00183109    1.949    0.487
       388  -8.2736    159.8084    100.5799   5.0096935777e+01   3.0172605058e+01    0.2278082    0.1642035 -42.43  0.000304942    1.384    0.278
       389  -9.1521     82.1723    100.0013   7.1701857525e+01   4.6024457741e+01    0.3568302    0.2593144 -83.34 0.0008900503    1.792    0.442
       390  -9.8824    109.3110    113.9542   6.6318935838e+01   3.7814511086e+01    0.5350111    0.3698409 -82.71  0.001697317    2.290    0.563
       391  -9.2104     95.1538     96.8902   6.6467881573e+01   4.4382857504e+01    0.3492515    0.2620522 -64.71 0.0006872121    1.507    0.336
       392 -10.1092     63.9286     95.4743   7.7394037923e+01   5.0099672596e+01    0.6207409    0.3825198  81.84  0.001622122    2.602    0.616
       393  -9.1458     67.3073     87.0277   7.3983965359e+01   5.1674026100e+01    0.7844568    0.3549397  19.72  0.002467142    3.609    0.723
       394  -8.6168     43.3055    109.0090   8.8081285282e+01   4.9308252147e+01    0.3680208    0.1822099   1.54  0.001280954    3.434    0.709
       395  -9.5103    139.8637    104.0157   5.5547835136e+01   3.3736668661e+01    0.4632055    0.2865539 -49.10  0.001538384    1.728    0.421
       396  -8.2699    164.8695     94.0977   4.7367505278e+01   3.0230933664e+01     0.217204    0.1887975 -62.59   0.00047676    1.304    0.233
       397  -9.5532    139.0999     91.7219   5.2440909141e+01   3.6273298372e+01    0.5144846    0.3209629 -54.01  0.001205843    1.864    0.463
       398 -10.1847    123.8335     91.1931   5.6231032698e+01   3.9717495894e+01    0.5966485    0.4345265  28.75  0.001111311    1.529    0.346
       399  -9.3785     45.3848     92.8230   8.4352196468e+01   5.3273207327e+01    0.5332394    0.2988407  -5.27  0.002015331    2.897    0.655
       400  -7.8328    188.4224     93.2301   4.2799117158e+01   2.5454670265e+01    0.1989231    0.1168738 -44.04 0.0009398241    1.691    0.408
       401  -8.1469    176.4877     92.9124   4.4822172076e+01   2.7967032355e+01    0.2107116    0.1309711 -37.34 0.0005118523    1.523    0.344
       402  -8.1034    189.3823    107.2811   4.6036848366e+01   2.3064849479e+01    0.1887108    0.1181134 -41.45  0.000624613    1.560    0.359
       403  -9.7550     34.7602     89.5541   8.8300413412e+01   5.5285017127e+01    0.4867215    0.2755144  82.70  0.001660632    2.291    0.564
       404  -9.6171      4.9116     91.7851   1.0166822781e+02   5.6838952916e+01    0.3349165    0.1893502  42.30  0.001194515    1.791    0.442
       405  -8.0287    157.9508     91.3285   4.8058784014e+01   3.2206515666e+01    0.1964515    0.1921316  15.16 0.0004989119    1.029    0.028
       406  -8.2025    150.9638     89.1185   4.8965786966e+01   3.4134919180e+01    0.2226379    0.1992877 -69.16 0.0006075301    1.253    0.202
       407 -10.1264     86.4850     85.8491   6.6408750096e+01   4.8580866502e+01    0.6324613    0.4228387 -65.98  0.001775986    1.811    0.448
       408 -10.5713     45.9748    102.2331   8.5890851394e+01   5.0763643375e+01    0.9000235    0.4108479  61.53  0.002996651    3.512    0.715
       409  -9.7642     48.5445     84.1031   8.1115004506e+01   5.5127004883e+01    0.5742144    0.3291818  65.33  0.001928179    2.556    0.609
       410  -9.7552    104.9443     83.1091   5.9404646309e+01   4.5465747589e+01    0.4585562    0.3257776 -76.09 0.0008574883    2.041    0.510
       411  -8.9262    105.4101     76.8507   5.7333269450e+01   4.6684635607e+01    0.3895805       0.2566  14.21   0.00150758    2.437    0.590
       412  -8.1059    157.8510     83.7831   4.6018253765e+01   3.3538736739e+01    0.1949938    0.1697829 -69.85 0.0004104881    1.302    0.232
       413  -9.1248    140.9460     82.4528   4.9367234241e+01   3.7594437844e+01    0.3712504    0.2314183 -50.16 0.0009630343    1.740    0.425
       414  -7.6591    185.2829     82.3378   4.0563951618e+01   2.7781105897e+01    0.1386744    0.1052826   6.45 0.0003363815    1.625    0.385
       415  -7.8805     64.0421     82.5182   7.4112819606e+01   5.3302110642e+01    0.2152645    0.1461531  33.46 0.0003919992    1.471    0.320
       416  -9.6048     24.6931     80.2316   9.1250702956e+01   5.8636860729e+01    0.4987915    0.2814836  74.98    0.0014709    2.226    0.551
       417  -9.5703     10.1328     81.0742   9.8261209054e+01   5.9385202661e+01    0.4459744    0.1901813  45.23  0.001709162    2.498    0.600
       418  -8.8608     74.6743     80.2141   6.9192789320e+01   5.2071530783e+01    0.3233164    0.2452081 -87.72  0.000846673    1.741    0.426
       419  -8.2367    166.9244     79.5008   4.3043704320e+01   3.2224896390e+01    0.2249224     0.179555 -34.52 0.0004939758    1.207    0.172
       420  -8.3419    150.1248     80.0849   4.6607367537e+01   3.5926116802e+01    0.2337784    0.1765816 -68.05 0.0007917544    1.659    0.397
       421  -8.6311    119.3696     79.3338   5.3975979485e+01   4.3085437112e+01    0.4338085    0.2355731 -43.48  0.001473284    1.870    0.465
       422  -7.9753    184.2109     78.0160   3.9613553240e+01   2.8665695296e+01    0.1882386    0.1052018 -32.90 0.0007930409    1.677    0.404
       423  -9.4336    128.1816     75.1648   5.0325347611e+01   4.1878201144e+01    0.4009289    0.2416755 -52.41 0.0006753775    1.879    0.468
       424  -8.0739     49.6162     77.7163   7.9084641976e+01   5.6606481968e+01    0.1543682    0.1093509 -21.16  0.000700924    1.734    0.423
       425  -7.8025    157.1645     76.1685   4.4009854111e+01   3.4984297508e+01    0.2009686    0.1671189 -62.47 0.0004391514    1.326    0.246
       426  -8.5175    140.5031     75.1293   4.7305125831e+01   3.9020824949e+01    0.2335557    0.2035352 -77.66 0.0005792858    1.301    0.231
       427  -9.7744     82.4592     72.4773   6.3824811716e+01   5.2398398146e+01    0.4775929     0.340541 -79.91  0.001029679    2.044    0.511
       428 -10.0564     63.0127     73.1139   7.1880462085e+01   5.5750863146e+01    0.6125907    0.3316412 -65.10  0.001195061    2.224    0.550
       429  -8.5573     64.2695     63.3041   6.8212843630e+01   5.7843773586e+01    0.4593024    0.2746693 -18.22  0.001667195    2.959    0.662
       430  -8.3126    163.5257     73.2670   4.1940619259e+01   3.4002199117e+01    0.2638806    0.1313239 -39.62 0.0008334538    1.920    0.479
       431  -7.8172    151.4478     73.2167   4.4325445361e+01   3.6801371334e+01    0.2079545    0.1339626 -47.06 0.0009046048    1.596    0.373
       432  -8.5113    115.9174     72.8022   5.2903347191e+01   4.5153812304e+01    0.2619926    0.2186722 -43.18 0.0005089099    1.219    0.180
       433  -8.5128     42.8136     72.7304   8.0977062036e+01   5.8735406464e+01    0.2790892    0.1834113  81.08  0.001219345    2.097    0.523
       434  -7.8137    175.4721     72.4692   3.9578593733e+01   3.1424040299e+01    0.1393454    0.1327791 -33.47 0.0004183361    1.009    0.009
       435  -9.0502    105.9573     71.5674   5.5465629511e+01   4.7648039140e+01    0.2846975    0.2141253 -62.13 0.0007117658    1.559    0.359
       436  -9.2078     95.1810     70.9498   5.8765320344e+01   5.0126258551e+01    0.3993817    0.2537659 -61.45   0.00100565    1.998    0.499
       437  -9.3409     29.4612     70.1305   8.6945443262e+01   6.0843379526e+01    0.6522228    0.2903805 -18.52  0.002020865    4.487    0.777
       438  -9.5248     51.4056     69.3094   7.5974444460e+01   5.8449617536e+01    0.5083317    0.3022032 -83.02  0.001689399    2.646    0.622
       439  -9.0846     16.6123     69.9624   9.3498786732e+01   6.1908163687e+01    0.3340559    0.2067041  79.27  0.001058856    1.844    0.458
       440  -8.0799    157.3753     69.7390   4.2103058678e+01   3.5993976459e+01    0.1935463    0.1379272 -24.82  0.000411473    1.493    0.330
       441  -8.8577    147.3774     68.1036   4.3650451205e+01   3.8617451266e+01    0.3300056    0.2136175 -57.47 0.0005473771    1.846    0.458
       442  -7.4332    203.2676     66.6674   3.3896949245e+01   2.6260462141e+01    0.1355579   0.09060939 -54.26 0.0002802355    1.585    0.369
       443  -8.9761    138.7380     65.9551   4.4881183260e+01   4.1041024576e+01    0.2830544    0.1952944 -53.19 0.0008301898    1.586    0.370
       444  -8.7883    121.6742     65.7028   4.8999932184e+01   4.5158415750e+01    0.2986974    0.2246499 -60.91 0.0006546574    1.543    0.352
       445  -8.9554    110.0646     63.2242   5.1415111097e+01   4.8348422674e+01    0.3164169     0.215365 -49.26 0.0007121217    1.559    0.359
       446  -8.0478     95.3082     64.3067   5.6464962680e+01   5.1475211291e+01    0.1542363    0.1216143   5.69 0.0007019521    1.611    0.379
       447  -9.2015     37.3739     63.7762   8.1327997952e+01   6.1630904071e+01    0.3124672     0.220995  67.87  0.001497525    1.800    0.445
       448  -7.1042    170.3131     70.6847   3.9975205926e+01   3.2861176042e+01    0.1463921    0.1072419 -65.75 0.0006105226    1.641    0.390
       449  -8.1177    157.8200     61.5952   3.9597099782e+01   3.7179865315e+01    0.1906964    0.1399462  74.94 0.0003771936    1.536    0.349
       450  -9.2203     97.5288     60.2943   5.4299371302e+01   5.1784565859e+01     0.300393    0.2494678  72.01 0.0007060374    1.375    0.273
       451  -9.7099     73.3314     59.2127   6.2894249289e+01   5.7095601427e+01    0.4328297      0.26899 -57.60  0.001138693    1.844    0.458
       452  -7.8094    146.8610     58.7926   4.0867301164e+01   4.0259026230e+01    0.2026209    0.1679953 -64.75 0.0004511262    1.301    0.231
       453  -7.8049     89.3088     59.6472   5.6893033927e+01   5.3726351471e+01    0.1558806    0.1225066 -86.16 0.0007043487    1.719    0.418
       454  -9.8361     23.4139     56.1782   8.6955785962e+01   6.4933864748e+01    0.5283046    0.2869642  72.37  0.002047484    2.913    0.657
       455  -9.5726      7.4057     56.7551   9.6339869136e+01   6.5822716613e+01     0.347471    0.2220544  81.86  0.001411206    1.704    0.413
       456  -8.6201    130.7438     57.0022   4.3812255997e+01   4.4492975776e+01    0.2836266    0.1804299 -40.47  0.000917474    1.578    0.366
       457  -8.2374    140.0576     56.0075   4.1390142976e+01   4.2366483395e+01    0.2367374    0.1718555 -65.69 0.0005188276    1.643    0.391
       458  -9.1575    119.1891     55.1649   4.6052646109e+01   4.7631553056e+01    0.4494834    0.2341331 -49.24  0.001372835    2.170    0.539
       459  -8.9474     44.0901     54.8695   7.5116391787e+01   6.2958126868e+01    0.4183385    0.1961343 -59.75  0.001676557    2.198    0.545
       460  -9.3327     62.7031     53.7299   6.5501833292e+01   6.0268747452e+01    0.5518059    0.2327611 -57.48  0.001883829    3.043    0.671
       461  -9.0757     53.9822     53.2469   6.9484238879e+01   6.1859432958e+01    0.4137536    0.2204834 -65.86  0.001182874    2.612    0.617
       462  -8.7424    105.9244     53.2269   4.9067516912e+01   5.1170314412e+01    0.2743944    0.2080683 -65.15 0.0006508303    1.604    0.377
       463  -9.4530     92.4651     50.2989   5.2254593363e+01   5.4845555343e+01    0.4498481    0.2612369 -54.45  0.001094101    2.120    0.528
       464  -9.0263     92.8586     42.6741   4.9053696090e+01   5.6127665776e+01    0.4711383    0.2292759 -20.47  0.001481536    3.769    0.735
       465  -8.4661    144.6318     48.7605   3.8071935186e+01   4.2350053185e+01    0.2114158    0.1285374 -42.56 0.0005870441    1.634    0.388
       466  -8.4518    129.9657     48.9453   4.1225820742e+01   4.5990656818e+01    0.2393895    0.1746857 -66.18 0.0006793829    1.635    0.388
       467  -8.5948    120.8747     47.3151   4.2802599667e+01   4.8522594185e+01    0.2557442    0.1983658 -45.43 0.0006300405    1.327    0.246
       468  -8.3541    112.3434     46.4812   4.4705808871e+01   5.0776527954e+01    0.2568798    0.1681492 -53.92 0.0006647168    1.762    0.432
       469  -9.0643     82.3948     46.3749   5.4302583416e+01   5.7834829255e+01    0.3436741    0.2722731 -76.30 0.0007926467    1.668    0.400
       470  -8.2082    156.4995     46.5168   3.5181995916e+01   3.9728858493e+01    0.1417445    0.1376331 -72.58 -6.043043e-05    1.016    0.016
       471  -8.7971     45.0017     44.5311   7.0868481287e+01   6.5212344646e+01    0.2554572     0.202224 -72.65 0.0005790009    1.530    0.347
       472  -8.9991     16.7808     44.5393   8.7992152444e+01   6.8350736072e+01    0.2464893    0.2089612  88.92 0.0005427752    1.307    0.235
       473  -8.4811    132.9800     42.9944   3.8472149507e+01   4.6136431526e+01    0.2356594    0.1716854 -67.51 0.0004631916    1.609    0.379
       474  -9.3870     69.6716     41.2793   5.7296526327e+01   6.1503476376e+01    0.4457294    0.3025671 -59.76  0.001579692    1.877    0.467
       475  -8.8176     58.3017     42.6256   6.3136815675e+01   6.3427419981e+01    0.3000085    0.2384178 -86.20  0.001107004    1.788    0.441
       476  -9.5978      5.2452     41.8957   9.4994886241e+01   6.9661608533e+01    0.3651473    0.2205186  82.53  0.001349725    1.930    0.482
       477  -8.6130    105.9451     41.2807   4.4461444472e+01   5.3203820092e+01    0.2565123    0.2002802 -50.23 0.0006006805    1.372    0.271
       478  -7.5751    140.4705     41.4152   3.6408722214e+01   4.4463007761e+01    0.1453891    0.1378578 -89.30  0.000114321    1.027    0.026
       479  -8.4864     36.7790     40.4669   7.4010412528e+01   6.7277150353e+01    0.2571282    0.1883984 -53.80 0.0006801859    1.348    0.258
       480  -7.7686    156.0000     38.9789   3.2863665164e+01   4.0879744262e+01    0.2262523   0.07993711 -29.05 0.0003986229    2.833    0.647
       481  -8.5974     95.6083     37.8543   4.6145734475e+01   5.6283687663e+01    0.2748553    0.2153224 -65.63 0.0005916646    1.544    0.352
       482  -8.0526     80.7020     36.1889   5.0558010031e+01   6.0054750639e+01    0.2300914    0.1807946 -57.29 0.0008496426    1.487    0.327
       483  -9.4156     26.2270     35.1999   7.8683810785e+01   6.9734534142e+01     0.325827    0.2308584 -79.14 0.0009106494    1.793    0.442
       484  -8.1438    126.0680     35.3450   3.7168255160e+01   4.9001592222e+01    0.2046802    0.1838978  73.57 0.0005004173    1.082    0.075
       485  -8.8478    111.9604     34.5105   4.0136873111e+01   5.2734766745e+01    0.2711075    0.1984644 -52.24 0.0005756505    1.492    0.330
       486  -7.6695     88.7144     34.3280   4.6865841922e+01   5.8507024900e+01     0.147361    0.1164835 -73.02 0.0004355187    1.610    0.379
       487  -8.7977     48.7446     33.1787   6.3868793816e+01   6.7031409986e+01    0.2663559    0.2220021 -60.66 0.0007316468    1.400    0.286
       488  -8.7110    118.9526     32.3558   3.7602071540e+01   5.1250097845e+01    0.3567011    0.1716507 -39.76 0.0009949976    2.104    0.525
       489  -8.6212     60.8853     32.4389   5.7236631698e+01   6.4939235587e+01    0.2566527    0.1996957 -58.26  0.000734426    1.546    0.353
       490  -8.6004     72.0765     30.9990   5.1544539474e+01   6.2863425355e+01    0.2185683    0.2133851  31.01  0.000511892    1.056    0.053
       491  -9.2570     12.9510     30.0485   8.6329838663e+01   7.2108510774e+01    0.3492489    0.1903973 -81.43  0.001575205    2.354    0.575
       492  -8.3921    101.7935     29.1440   4.0585920463e+01   5.6085018523e+01    0.2236388    0.1951063 -68.88 0.0006031197    1.263    0.208
       493  -7.5935     42.2730     29.6385   6.5904454428e+01   6.8807365170e+01     0.133328    0.1125213  87.63 0.0003293992    1.657    0.396
       494  -8.8372     81.6134     27.1723   4.6024788920e+01   6.1314549997e+01    0.3136759    0.2283197 -60.47  0.001020434    1.748    0.428
       495  -9.1592      3.8407     27.5090   9.2653368255e+01   7.3221638945e+01    0.2828835    0.2092494  71.83  0.001029856    1.647    0.393
       496  -7.5123    110.3098     27.3092   3.7600461878e+01   5.4165969898e+01    0.1521982    0.1088383  30.56 0.0002364836    1.620    0.383
       497  -8.8000     91.8870     26.2893   4.2198668133e+01   5.8966150864e+01     0.310313    0.1938841 -48.22 0.0008289757    1.820    0.451
       498  -7.9776     34.5627     22.7962   6.7344355474e+01   7.1353946114e+01    0.1755116    0.1311078 -58.89  0.000547145    1.575    0.365
       499  -8.5017    104.4866     22.5333   3.6998092864e+01   5.6293044486e+01    0.1461262    0.1372634  62.07   3.5212e-05    1.006    0.006
       500  -9.0643     63.6499     20.6244   4.9855003221e+01   6.6390699480e+01    0.3449017    0.2254001 -50.06  0.001017003    1.846    0.458
       501  -8.8345     48.4788     21.2809   5.7875417250e+01   6.9329274791e+01    0.2657582    0.2353853 -51.35 0.0008764841    1.302    0.232
       502  -7.8885    120.6275     20.8499   3.2678786286e+01   5.2291667298e+01    0.2067075    0.1234767 -41.36 0.0006727016    1.720    0.419
       503  -7.9130    117.2963     21.6785   3.3695200138e+01   5.3066927009e+01      0.15049    0.1067929 -64.83  0.000334247    1.618    0.382
       504  -8.0163     19.4456     21.2247   7.7721812897e+01   7.3555024136e+01    0.1765741     0.127096 -71.60 0.0008123256    1.693    0.409
       505  -8.8171     74.2397     19.4155   4.4835428250e+01   6.4191468042e+01    0.2671375    0.2182013 -51.88 0.0006559997    1.408    0.290
       506  -8.4683     38.8828     18.1650   6.1898472107e+01   7.1567762059e+01    0.1908327    0.1892749 -72.79 0.0004964973    1.233    0.189
       507  -8.2488     87.9019     17.1903   3.9071271111e+01   6.1187107267e+01    0.2205348    0.1875087 -70.62 0.0005774485    1.356    0.262
       508  -7.7077    112.9845     16.7214   3.2536517055e+01   5.4781083037e+01    0.1824885    0.1206446  65.23 0.0003720836    1.406    0.289
       509  -8.2658     30.3781     16.1472   6.6592552932e+01   7.3258523446e+01    0.1768968    0.1255513 -56.52 0.0004964363    1.663    0.399
       510  -7.7157      1.6873     16.3292   9.1126095472e+01   7.5924571964e+01    0.1226295   0.09252192  56.60 0.0007043299    1.671    0.402
       511  -9.1695    211.1662    246.6447   6.7095848677e+01   8.7530363054e-01    0.2628931    0.1690351 -46.67  0.001508758    2.972    0.664
       512  -8.0908     17.1443     14.1208   7.6074097781e+01   7.5296851636e+01    0.1626011    0.1557767  48.63 0.0004395797    1.286    0.223
       513  -7.4396    189.6558     11.2776   2.0561690886e+01   3.5827708138e+01    0.1388613   0.08188153 -60.50 0.0003696087    1.628    0.386
       514  -7.8153    191.3633    249.6994   7.0854049005e+01   2.6396254378e+00   0.09687889   0.07049298  35.76 0.0007035162    1.725    0.420
       515  -8.9829    175.6441    247.4478   7.3379481781e+01   4.6200099148e+00    0.2287284     0.185029  57.11  0.001142982    2.368    0.578
       516  -8.7627    156.3912    247.9868   7.7025566199e+01   6.7347554604e+00    0.2045653    0.1535595  48.44 0.0007341461    1.872    0.466
       517  -8.3203    113.3680    248.1374   8.5521871675e+01   1.1668931416e+01    0.1935158    0.1129556 -74.21   0.00111974    3.085    0.676
       518  -9.3124    103.8085    246.4760   8.7327930687e+01   1.2999945988e+01    0.3516981    0.2130261  88.29  0.001969768    3.238    0.691
       519  -9.2922    243.2703    246.1919   6.1970541278e+01  -2.2430997510e+00    0.3102743    0.1284954 -21.91  0.001985569    2.251    0.556
       520  -9.3988    233.1472    245.8965   6.3473423207e+01  -1.2524137569e+00     0.366282    0.1603004 -15.25  0.001804502    2.421    0.587
       521  -9.0367    218.6224    247.0686   6.5930035283e+01   6.9855349061e-02     0.252912     0.107606 -34.75  0.001579676    2.582    0.613
       522  -8.6756    132.3093    247.6621   8.1669829521e+01   9.5538854011e+00    0.2478357    0.1464384  45.99   0.00108949    1.889    0.471
       523 -10.0103    223.7899    243.7517   6.4658642501e+01  -1.1848462094e-01     0.324408    0.1817113 -37.03    0.0022491    2.318    0.569
