#   1 NUMBER                 Running object number                                     
#   2 MAG_AUTO               Kron-like elliptical aperture magnitude                    [mag]
#   3 X_IMAGE                Object position along x                                    [pixel]
#   4 Y_IMAGE                Object position along y                                    [pixel]
#   5 X_WORLD                Barycenter position along world x axis                     [deg]
#   6 Y_WORLD                Barycenter position along world y axis                     [deg]
#   7 A_WORLD                Profile RMS along major axis (world units)                 [deg]
#   8 B_WORLD                Profile RMS along minor axis (world units)                 [deg]
#   9 THETA_WORLD            Position angle (CCW/world-x)                               [deg]
#  10 FWHM_WORLD             FWHM assuming a gaussian core                              [deg]
#  11 ELONGATION             A_IMAGE/B_IMAGE                                           
#  12 ELLIPTICITY            1 - B_IMAGE/A_IMAGE                                       
         1 -14.4529    164.3427     46.6784   7.9369773535e+01   3.8499491658e+01     1.863502     1.199989  19.08   0.00634643    2.390    0.582
         2 -14.2289    178.0335     31.2459   7.2587445766e+01   3.7141020805e+01     0.892757    0.8771511 -86.98  0.003455977    1.112    0.101
         3 -13.5819    181.5432     24.3356   7.0157565990e+01   3.7097525522e+01    0.5749463    0.4917478  78.60  0.001461865    1.051    0.048
         4 -12.8286    189.6713     14.7799   6.6511165024e+01   3.6158158880e+01    0.3403479     0.247095 -77.79 0.0009873674    1.393    0.282
         5 -13.2885    196.4931      2.8667   6.2697804902e+01   3.5714475662e+01    0.7797386    0.3204069  66.43  0.003552779    2.021    0.505
         6 -10.5761    190.5086    228.4972   1.1664825234e+02  -1.4602400557e+00    0.1313853    0.1133593  34.13 3.009845e-05    1.007    0.007
         7 -11.3539    158.3126    246.6677   1.2551619512e+02   1.3099017497e+00    0.1914949    0.1339068  69.22 0.0006890827    1.728    0.421
         8 -19.6773     47.3561    162.4774   1.3707799123e+02   3.6226437667e+01       19.681     5.400687 -69.17   0.06899451    3.561    0.719
         9 -12.1378    111.4061    197.1986   1.2778673879e+02   1.8893118578e+01    0.4183063    0.2832692  17.84  0.001892159    2.555    0.609
        10 -11.1840    115.3434    193.3249   1.2634569129e+02   1.9035771759e+01    0.2345451      0.19943 -41.43 0.0006623938    1.446    0.309
        11 -11.3479    179.7995    193.1004   1.1253077839e+02   6.7304517641e+00    0.5658066    0.3161003 -67.30  0.002043846    3.480    0.713
        12 -10.8393    158.0047    193.4524   1.1717169912e+02   1.0971926529e+01    0.2515422    0.1966007 -73.31 4.045615e-05    1.508    0.337
        13  -9.4750     18.6110    224.8083   1.4857660581e+02   2.6036718591e+01    0.0849099   0.07984262  65.86 0.0006737493    1.592    0.372
        14 -12.1408    212.1357    181.3695   1.0368440640e+02   2.4862095091e+00    0.4057992    0.3241323 -15.36  0.001356193    1.336    0.252
        15 -11.9054    207.7133    185.1420   1.0531895133e+02   2.6780619744e+00    0.3839355    0.3212381 -31.05   0.00124178    1.215    0.177
        16 -11.1284    197.9702    176.6908   1.0553928381e+02   6.1842023500e+00    0.4360293    0.2875961 -55.45  0.001625107    1.811    0.448
        17 -10.3975    145.5281    178.4483   1.1711077452e+02   1.6556745114e+01    0.1465204    0.1384802  62.39 0.0001230829    1.025    0.024
        18 -12.7508    136.2869    171.0018   1.1777434273e+02   2.0011256011e+01    0.7141287    0.3722433  44.44  0.002391649    1.865    0.464
        19 -11.1695    187.8052    221.8300   1.1606042470e+02   1.0587696866e-01    0.1800964     0.152859  64.20 0.0004998013    1.359    0.264
        20 -11.1091    177.5880    225.7313   1.1869851469e+02   1.3171464283e+00    0.2355597    0.1291779 -40.57  0.001145159    2.130    0.530
        21 -11.0229    228.1783    171.0142   9.8465134056e+01   1.1887521971e+00     0.229064    0.1627519 -62.73  0.001084264    2.004    0.501
        22 -11.5730    145.1674    168.2618   1.1521063918e+02   1.8837895647e+01    0.3486355    0.2544958  60.36 0.0008687732    1.432    0.302
        23 -10.2129    225.3120    166.3201   9.8001072902e+01   2.5805751884e+00    0.1464775    0.1084732   2.99 0.0003018864    1.649    0.393
        24  -9.7678    122.7814    165.7829   1.1990268254e+02   2.3796736896e+01    0.2012283    0.1618923  76.89 0.0003482208    1.310    0.237
        25 -11.7126    157.6494    219.0073   1.2156903619e+02   6.1498160540e+00    0.2571955    0.1765767  62.84  0.001108505    1.601    0.375
        26  -9.9267      8.0479    160.8794   1.4554719944e+02   4.0456729023e+01    0.1569402    0.1147972 -53.40 0.0007016631    1.544    0.352
        27 -11.5801    102.0438    157.9383   1.2337404309e+02   2.9373707849e+01    0.3082518    0.2913721  64.48 0.0004593877    1.113    0.101
        28 -12.2198    103.7426    153.8570   1.2219240761e+02   3.0032702937e+01    0.4977236    0.3495831  60.06  0.001521138    1.513    0.339
        29 -12.0073    163.5812    155.9590   1.0845924475e+02   1.7652695707e+01    0.3778539    0.3054878 -57.39  0.001081534    1.284    0.221
        30 -10.0348    140.0001    156.3629   1.1396693641e+02   2.2531405707e+01    0.2120445    0.1845677  54.80 0.0003845028    1.129    0.114
        31 -12.0130    121.0549    217.4682   1.2871091165e+02   1.3040090504e+01    0.4472742    0.2609488  85.37  0.001940898    2.673    0.626
        32 -12.2435    133.8536    144.9662   1.1297954787e+02   2.6365665329e+01     1.160453    0.3040357 -54.63  0.002868279    5.120    0.805
        33 -12.4070    105.1784    202.1580   1.2982783040e+02   1.8900206373e+01    0.4945627    0.3128813  54.65  0.002568415    1.456    0.313
        34 -11.6195    174.0905    148.9803   1.0456613009e+02   1.6844448275e+01    0.3630542    0.2682118  47.43  0.001111313    1.345    0.256
        35 -12.0835    144.8922    146.3487   1.1064072060e+02   2.3758756516e+01    0.4453763    0.3192359  84.63  0.001913025    1.920    0.479
        36 -10.1440      6.0559    145.9823   1.4451716270e+02   4.3901534145e+01    0.1704679    0.1333353 -76.93 0.0005178028    1.073    0.068
        37 -12.4397    112.1826    140.6958   1.1742195984e+02   3.1587140333e+01      0.54295     0.322484 -39.90  0.002313825    1.915    0.478
        38 -12.5544    101.4025    141.0541   1.2023694530e+02   3.3445236517e+01    0.2828691     0.275618  74.62 0.0004113952    1.096    0.087
        39 -11.0098     90.5163    147.8856   1.2434045791e+02   3.3665458303e+01    0.3183327    0.1811317  49.56 0.0003523881    1.856    0.461
        40 -13.4218    109.8722    208.6693   1.2976503939e+02   1.6741700279e+01     0.921813    0.6742812  -4.13  0.004244617    2.969    0.663
        41 -11.7241     16.6927    136.2258   1.4093114618e+02   4.5261150120e+01     0.203985    0.1650634 -76.99 0.0002377679    1.051    0.049
        42 -11.8282    118.1712    130.4510   1.1361476207e+02   3.2820746151e+01    0.4240202    0.3359155 -30.52  0.001151089    1.457    0.313
        43 -12.1271    106.3158    129.0741   1.1637788443e+02   3.5367367294e+01    0.6620709    0.3514776 -55.37  0.002763693    1.832    0.454
        44 -12.0426    103.4593    207.6401   1.3094298524e+02   1.8033747821e+01    0.4777106    0.3070944  45.37  0.002550883    1.463    0.316
        45 -11.7408    160.2120    128.0144   1.0273295306e+02   2.4435366761e+01    0.4516679    0.3027341 -41.24  0.001977278    1.508    0.337
        46 -11.8760    135.4713    122.6829   1.0736111874e+02   3.1055056046e+01    0.5606635    0.2266208 -51.04  0.001901182    2.571    0.611
        47 -11.2647    125.4382    127.2526   1.1100510115e+02   3.2110482324e+01    0.3081773    0.2205178  87.17  0.001045327    1.967    0.492
        48 -10.7338    141.0815    126.1742   1.0683416342e+02   2.9078190228e+01    0.2796021    0.2360615  88.85 0.0009920415    1.346    0.257
        49 -10.6777    112.4539    119.5965   1.1253445274e+02   3.6399131713e+01    0.2497802    0.2444018 -78.07 0.0001629324    1.034    0.033
        50 -10.4918    133.4614    213.4716   1.2561698197e+02   1.1627041109e+01    0.1365356    0.1195735  60.92 3.905279e-05    1.006    0.006
        51 -11.2275    168.5408    113.4774   9.7170060700e+01   2.5578890791e+01    0.4017861    0.2992687  81.19 0.0008116413    1.728    0.421
        52 -11.1417      2.0507    112.7833   1.4160863790e+02   5.1494075133e+01    0.2163999    0.1511198 -53.44  0.001487943    1.274    0.215
        53 -10.6009    205.4663    110.1539   8.8741505923e+01   1.7487155437e+01    0.3275244    0.2206896  43.79 0.0008866111    1.591    0.372
        54 -10.3126     10.5187    213.7910   1.4921455102e+02   2.9049038029e+01   0.08719084   0.07975979 -48.70 0.0004504207    1.793    0.442
        55 -10.3491    165.1565    208.1235   1.1825720051e+02   6.7481329236e+00    0.2035249    0.1824577  18.15  0.000291549    1.220    0.180
        56 -10.5661    134.5186    102.9591   1.0248024604e+02   3.5534331629e+01    0.2403745    0.1497867 -44.56   0.00102834    1.579    0.367
        57 -13.7121     11.0846    206.1066   1.4860040007e+02   3.0546384086e+01     0.516124    0.2670085  36.61  0.003190127    2.248    0.555
        58 -13.0974    124.8405    204.6001   1.2606212182e+02   1.4962872704e+01    0.6964973    0.2898001  48.77  0.002849637    2.229    0.551
        59  -9.4834    149.2826     78.3239   9.1897645704e+01   3.7026765307e+01    0.1516187    0.1199609  10.06 0.0003941903    1.595    0.373
        60 -10.3976     85.3201     77.0403   1.0883561190e+02   5.0312506391e+01    0.1911095    0.1677055 -36.51 0.0004683322    1.069    0.064
        61 -13.5351    195.5943    195.1680   1.0970704677e+02   3.2444507815e+00     1.071813    0.7934253  84.16  0.003980768    2.193    0.544
        62 -10.0287     13.6335     59.9224   1.2827551735e+02   6.1808617815e+01    0.1618074    0.1119115 -51.86 0.0004533251    1.163    0.140
        63 -11.5850    136.6772    197.3296   1.2239813068e+02   1.4287288655e+01     0.402911    0.2448586  74.40  0.001682529    2.446    0.591
        64  -9.5919      1.5852    248.6374   1.5257262116e+02   2.3339148361e+01   0.09598365   0.07027601  80.53 0.0007817795    1.189    0.159
        65 -11.1220    182.3076    241.7278   1.2029854271e+02  -2.0763747906e+00    0.2435075    0.2001043 -78.73  0.001121101    1.699    0.411
        66 -12.2040     21.4735     36.8769   1.1856780433e+02   6.5392756697e+01    0.3593585    0.1716209  21.31  0.001281709    2.334    0.572
        67 -10.2862    185.4172    236.2361   1.1886412654e+02  -1.7740900133e+00    0.1564698    0.1250949 -60.47 0.0005396442    1.622    0.383
