#   1 NUMBER                 Running object number                                     
#   2 MAG_AUTO               Kron-like elliptical aperture magnitude                    [mag]
#   3 X_IMAGE                Object position along x                                    [pixel]
#   4 Y_IMAGE                Object position along y                                    [pixel]
#   5 X_WORLD                Barycenter position along world x axis                     [deg]
#   6 Y_WORLD                Barycenter position along world y axis                     [deg]
#   7 A_WORLD                Profile RMS along major axis (world units)                 [deg]
#   8 B_WORLD                Profile RMS along minor axis (world units)                 [deg]
#   9 THETA_WORLD            Position angle (CCW/world-x)                               [deg]
#  10 FWHM_WORLD             FWHM assuming a gaussian core                              [deg]
#  11 ELONGATION             A_IMAGE/B_IMAGE                                           
#  12 ELLIPTICITY            1 - B_IMAGE/A_IMAGE                                       
         1 -14.0622    164.9353     37.2381   8.0953166084e+01   3.9287901349e+01      1.45403    0.9820512  -5.89  0.004550586    1.738    0.425
         2 -13.3433    178.5864      5.4626   6.7805707182e+01   3.9367776394e+01    0.9799157    0.7907338  70.95  0.004780218    1.240    0.194
         3  99.0000      9.5780    194.0434   1.4469107566e+02   3.5002235399e+01    0.2361969    0.1000768 -82.64  0.001592864    2.029    0.507
         4  -9.9185    150.5128    250.5654   1.2637809330e+02   9.8520728044e+00    0.1007162   0.06953348  48.09 3.464833e-05    1.041    0.039
         5 -19.8950     68.0245    171.0712   1.3259558551e+02   3.2792225203e+01     15.10043      3.47729 -67.45   0.05893296    4.604    0.783
         6 -12.0508    179.3147    192.1265   1.1488866248e+02   1.2329176081e+01    0.4763671    0.3060502  76.86  0.002234877    3.163    0.684
         7 -11.0924    157.7326    192.9324   1.1868096913e+02   1.5813014624e+01    0.2041944    0.1672609  63.45 0.0003711077    1.246    0.198
         8 -11.9438    159.1883    235.5667   1.2358138239e+02   1.0267106497e+01    0.2617789       0.1628  38.66 0.0008941658    1.302    0.232
         9 -10.4502    124.2418    185.1664   1.2360032774e+02   2.2357624723e+01    0.2233414    0.1224948  62.35  0.001059489    1.992    0.498
        10 -12.2036    206.5917    181.7985   1.0874860417e+02   8.9432939577e+00    0.3263066     0.288286   7.68  0.002351253    1.164    0.141
        11 -12.4647    210.7613    179.1959   1.0763585243e+02   8.5277647530e+00    0.5318072    0.3324653  19.17  0.001312367    1.799    0.444
        12 -11.4390     28.5960    183.8262   1.4091731920e+02   3.4952682264e+01    0.2128802    0.1477137  49.41 0.0007612287    1.361    0.265
        13 -11.6278    176.1709    233.8781   1.2080267674e+02   7.9579003970e+00     0.163155    0.1434574 -48.22  0.001243764    1.575    0.365
        14 -12.1767    198.0520    175.8070   1.0916401331e+02   1.1164842494e+01    0.3455804    0.3152679 -39.87  0.001230062    1.351    0.260
        15 -12.3358    168.2159    233.6267   1.2198852980e+02   9.1593601009e+00     0.319566    0.1732317  51.46  0.001020764    1.557    0.358
        16 -11.3126     22.9880    232.0494   1.4414467796e+02   2.7824927748e+01    0.1703153    0.1004719  47.43  0.001072406    1.420    0.296
        17 -10.3996    170.0525    204.7861   1.1819868514e+02   1.2253800391e+01    0.1991551    0.1375977 -81.97  0.001163845    2.652    0.623
        18 -11.5620    139.9893    173.9776   1.1918432686e+02   2.1569170264e+01    0.3866408    0.2010701  66.31  0.001704736    3.021    0.669
        19 -12.1288    203.5623    167.7787   1.0685189811e+02   1.1191606394e+01     0.533704    0.4314128  59.42   0.00264341    1.440    0.305
        20 -11.1285    136.4169    197.7773   1.2299928875e+02   1.8549199440e+01     0.338141    0.2205208  59.31    0.0018858    1.426    0.299
        21 -11.8244    144.2041    168.6988   1.1760852624e+02   2.1689117268e+01    0.3501177    0.1897763  50.67  0.001859875    1.640    0.390
        22 -11.5895    184.4593    228.4874   1.1890560044e+02   7.2912681187e+00    0.2168995    0.1731822 -86.87  0.001615081    2.046    0.511
        23 -11.3105    192.3435    224.5199   1.1720821846e+02   6.5130677229e+00    0.1787127    0.1352665 -23.97  0.001371074    1.703    0.413
        24 -10.4625    225.0008    165.9566   1.0301575816e+02   7.5623861583e+00     0.170741    0.1532717  89.11 0.0008472256    1.696    0.410
        25 -10.1411    123.1446    166.2212   1.2126247167e+02   2.5636595980e+01     0.286384    0.1257959  59.13  0.001217065    2.875    0.652
        26 -10.2126    124.0719    159.1001   1.2003045529e+02   2.6708843054e+01    0.1990225    0.1361987  74.25 0.0008928184    1.695    0.410
        27 -11.2272    139.6248    217.0579   1.2468393174e+02   1.5405659529e+01    0.3856723     0.214715 -77.18   0.00206066    3.513    0.715
        28 -12.1220    134.0344    145.2592   1.1576790530e+02   2.7421126158e+01     0.941817    0.2290026 -54.85   0.00261276    6.613    0.849
        29 -10.4740    174.8923    149.1137   1.0849718567e+02   1.9154359876e+01    0.1992255    0.1718334  66.79 0.0007325953    1.274    0.215
        30 -10.1286    136.0413    219.6978   1.2555011593e+02   1.5591729036e+01    0.1520301    0.1059759  48.43 0.0004334676    1.090    0.083
        31 -11.2541    143.1166    144.8530   1.1385544942e+02   2.5845052609e+01    0.2063831      0.17069  73.58 0.0009054686    1.276    0.216
        32  -9.8381     20.7368    219.3501   1.4397266511e+02   2.9929990521e+01    0.1004159   0.06880619  50.80 0.0002950812    1.334    0.251
        33 -12.0819    107.1757    138.2501   1.2023708679e+02   3.3326946917e+01    0.3194449    0.2499973  67.14  0.000519654    1.216    0.177
        34 -11.9656    116.8926    138.2251   1.1813430163e+02   3.1708526352e+01    0.3852521    0.2477186 -41.90  0.002044027    1.875    0.467
        35 -11.4171     16.7470    217.4285   1.4450425082e+02   3.0603850562e+01    0.1377555    0.1053631  83.20 0.0004713161    1.304    0.233
        36 -12.0856    106.4177    130.9021   1.1915472877e+02   3.4876669962e+01    0.3774889    0.3177792  72.75  0.001341458    1.117    0.105
        37 -11.8953    120.3866    129.4405   1.1579510081e+02   3.2767505834e+01    0.3448868    0.2524724  58.53  0.001711228    1.331    0.248
        38 -11.3455     13.6771    245.0139   1.4592065103e+02   2.6880682776e+01    0.2166785   0.06708765 -76.94  0.001447432    3.160    0.684
        39 -11.7603    164.4754    205.3175   1.1919018652e+02   1.3080048039e+01    0.2716327    0.2192365 -60.32 0.0006777291    1.619    0.382
        40 -11.0679    125.4407    127.3376   1.1428654818e+02   3.2260485382e+01    0.3418895     0.213347 -89.15  0.001405576    2.742    0.635
        41 -11.4784    109.9199    125.1629   1.1733027817e+02   3.5415954965e+01    0.2655865     0.246576 -67.20  0.001041075    1.124    0.110
        42 -11.6586    135.5133    122.7536   1.1117448187e+02   3.1242442292e+01     0.492842    0.1643257 -51.08  0.001750412    3.343    0.701
        43  -9.6010    173.0101    118.3107   1.0246879368e+02   2.4434921499e+01    0.1930224    0.1679646  49.63  0.000365773    1.111    0.100
        44 -11.1342    114.2363    118.5335   1.1506440581e+02   3.5973886702e+01    0.2312502    0.1840952 -59.24 0.0006191345    1.248    0.199
        45 -10.6994    120.0454    205.5015   1.2670027305e+02   1.9912004463e+01    0.1579355     0.155498 -38.59  0.000375456    1.414    0.293
        46 -10.0006    205.6561    110.1358   9.4550330133e+01   1.8676116275e+01    0.2341146    0.1901858  58.15  0.000735668    1.329    0.248
        47  -9.9389     19.2594    108.5825   1.3694083198e+02   5.0452613959e+01    0.1237237     0.111585   6.21 0.0009433305    1.617    0.382
        48  -9.1711    158.2919    106.6954   1.0271818859e+02   2.9539491572e+01    0.1393971    0.1117498 -82.20 0.0002405577    1.574    0.365
        49 -13.9715    193.6148    193.7180   1.1275343921e+02   9.7360955365e+00     0.989063    0.6387068 -65.66  0.005234148    3.205    0.688
        50  -9.8243    155.1085    104.8445   1.0293730573e+02   3.0545497590e+01    0.2024563    0.1862394  86.08 0.0002806637    1.166    0.142
        51 -11.2721    169.9285    195.9107   1.1701182149e+02   1.3404649044e+01    0.2020596    0.1653081 -53.89 0.0007342097    1.552    0.356
        52  -9.6301    146.5484    238.4540   1.2581023994e+02   1.1759785836e+01    0.1029337   0.07456395  47.02 4.021042e-05    1.019    0.019
        53 -12.9561    153.2748     52.9992   8.8529787668e+01   3.9884989553e+01     0.530578     0.472344  67.28 0.0009963383    1.193    0.162
        54 -11.3972    196.9064    246.3636   1.1914381889e+02   3.7170310908e+00    0.1676304    0.1363314  10.07  0.001263581    1.402    0.287
        55 -11.8969    168.4929     29.8253   7.7779259600e+01   3.9343613058e+01    0.4166404    0.3252159   9.92 0.0009110117    1.423    0.297
        56  -9.5928    143.8611     33.6296   8.3769180613e+01   4.5117893180e+01    0.2083843    0.1441934  75.84 0.0009375821    1.761    0.432
