#   1 NUMBER                 Running object number                                     
#   2 MAG_AUTO               Kron-like elliptical aperture magnitude                    [mag]
#   3 X_IMAGE                Object position along x                                    [pixel]
#   4 Y_IMAGE                Object position along y                                    [pixel]
#   5 X_WORLD                Barycenter position along world x axis                     [deg]
#   6 Y_WORLD                Barycenter position along world y axis                     [deg]
#   7 A_WORLD                Profile RMS along major axis (world units)                 [deg]
#   8 B_WORLD                Profile RMS along minor axis (world units)                 [deg]
#   9 THETA_WORLD            Position angle (CCW/world-x)                               [deg]
#  10 FWHM_WORLD             FWHM assuming a gaussian core                              [deg]
#  11 ELONGATION             A_IMAGE/B_IMAGE                                           
#  12 ELLIPTICITY            1 - B_IMAGE/A_IMAGE                                       
         1 -11.5311      6.4307     30.2390   1.1106689789e+02   6.7952919868e+01    0.5882511    0.3601823 -79.25  0.002925694    2.320    0.569
         2 -11.8533    129.5229     24.7126   6.5500868541e+01   4.9989885520e+01    0.5575146    0.3632074 -36.76  0.002050732    1.601    0.375
         3 -11.0469    129.3644     19.2171   6.3428250019e+01   5.0695079660e+01    0.3533521    0.2634921 -19.53  0.001782236    1.364    0.267
         4 -11.7784     60.6994     22.8439   8.5427794474e+01   6.3803319385e+01    0.5204263    0.3362334 -58.05  0.002553211    2.664    0.625
         5 -11.1314     63.2192     15.1426   8.1006838825e+01   6.4558223092e+01    0.5064316    0.2515106   8.18  0.001712327    4.892    0.796
         6 -11.5138      4.0437     17.9605   1.0817316669e+02   7.0381570288e+01    0.3460423    0.2334286 -10.14  0.001557757    1.586    0.369
         7 -11.9549     20.8951     18.6341   1.0048733986e+02   6.9084080412e+01    0.4881841    0.3912309 -70.12    0.0016981    1.856    0.461
         8 -12.2355     81.2059      6.8466   7.0894380737e+01   6.2500549150e+01    0.5442826      0.31656  23.30     0.002757    1.825    0.452
         9 -11.3682     74.1606      7.0823   7.3298271887e+01   6.3764764412e+01    0.3048978    0.1925671 -18.99 0.0003255626    1.457    0.314
        10 -11.2656     75.8278     15.3285   7.6601529065e+01   6.2440533536e+01    0.4982859    0.2862084 -12.53  0.001731034    1.897    0.473
        11 -11.9492     70.3807     14.8269   7.8257835955e+01   6.3442190829e+01    0.3710317    0.2151077 -20.93  0.001079992    1.635    0.389
        12  -9.9026     34.9084     15.7523   9.2895412972e+01   6.8221815784e+01    0.3148878    0.1742558 -22.65  0.001111249    1.786    0.440
        13 -10.2952    100.4501     12.8496   6.7958429757e+01   5.7973184146e+01    0.2828215    0.1967099   0.52 0.0009522737    1.478    0.324
        14 -10.5927     26.4204     13.9651   9.5958499716e+01   6.9378327530e+01     0.200546    0.1297735 -21.17  0.000340585    1.370    0.270
        15 -11.2714    117.7923     10.9778   6.2787863213e+01   5.4340242111e+01    0.5772986    0.2317334 -34.15  0.002252791    2.542    0.607
        16 -11.5581    115.9807      3.0260   5.9919076294e+01   5.5545941193e+01    0.2929679    0.1958904  -7.96 0.0003667457    1.550    0.355
        17  -9.8492     50.8513     11.2336   8.3981864937e+01   6.6931657665e+01    0.2316621    0.1321605 -11.31 0.0009023078    1.980    0.495
        18  -9.6799      5.2640     11.6983   1.0524643905e+02   7.1421638890e+01    0.1564905   0.09029581 -33.48  0.001036931    1.357    0.263
        19  -9.6031    185.7987     10.8208   5.0754430314e+01   3.7102339233e+01    0.1915487    0.1561857 -64.64 0.0003248077    1.276    0.216
        20 -10.4136     10.8478      9.8309   1.0168664675e+02   7.1368049953e+01    0.2784576    0.2617904  44.60  0.001709775    1.667    0.400
        21 -13.0589     31.9829      2.0600   8.7643155516e+01   7.0605543905e+01     0.647059     0.331678  -0.87 0.0006040098    3.002    0.667
        22 -12.0698     27.0386      3.4778   9.0717731836e+01   7.0943847956e+01    0.8167127    0.4037159   0.83  0.003749336    3.432    0.709
        23 -12.2949     12.0014      2.3048   9.7699379221e+01   7.2503510987e+01    0.4990228    0.3926563  10.91  0.003324815    1.440    0.305
        24 -11.0536     16.9566      1.6453   9.4813021565e+01   7.2189531032e+01    0.1649912    0.1340273  -6.37  0.001265892    1.223    0.182
        25 -10.0363    108.0287      9.5998   6.4572666858e+01   5.6694426365e+01    0.2562382     0.187458  -7.57  0.001162852    1.357    0.263
        26 -10.3175     59.5881     10.2386   8.0053812753e+01   6.5790281525e+01    0.2084468    0.1611578  29.63 0.0006708171    1.334    0.250
        27 -10.3723    128.0381      8.7385   5.9630793626e+01   5.2149624019e+01    0.2346967    0.1881259 -53.59  0.000700449    1.507    0.337
        28 -10.4273    123.4545      7.5069   6.0113832002e+01   5.3367970894e+01    0.3405597    0.1654938  30.08  0.001375319    2.438    0.590
        29 -10.1548     91.2364      7.3609   6.8108320088e+01   6.0487105613e+01    0.2913575    0.2171246  19.24  0.001681783    1.243    0.196
        30  -9.7688    228.9264      5.6532   4.4570010450e+01   2.6514741857e+01    0.1914265    0.1559302 -84.58 0.0004238889    1.144    0.126
        31 -10.3624    146.3337      5.0986   5.4777123773e+01   4.7959881176e+01    0.2804275    0.1341785  -8.09  0.001109266    2.636    0.621
        32  -9.7768     59.8362      5.5856   7.7672155814e+01   6.6350207616e+01    0.2331166    0.1078427  39.22  0.001163748    2.172    0.540
        33  -9.9445    176.8105      4.1710   4.9857017121e+01   4.0126415668e+01    0.1960151    0.1525327  39.91   0.00036556    1.327    0.247
        34  -9.2374    167.7629      2.0090   5.0383640897e+01   4.2699966239e+01    0.1718118    0.1193073 -20.11 0.0005834372    1.560    0.359
        35  -9.7800     72.2924      1.7349   7.1313175961e+01   6.4700558830e+01    0.2107488    0.1545023  58.50  0.001232497    1.796    0.443
        36  -9.3377    139.4547      1.5489   5.4668581951e+01   5.0013084548e+01    0.1381051    0.1260669  46.14 0.0001631805    1.016    0.016
        37  -9.6051     13.3743    221.7431   1.3236681478e+02   2.8037735400e+01    0.1247784   0.07273819 -78.69 0.0005678898    1.564    0.361
        38 -10.7644    250.3710    246.0616   9.5365325621e+01  -9.7874935963e+00     0.320018    0.1710704 -19.62  0.002042363    2.102    0.524
        39 -10.0699     72.6106    250.0853   1.2483220676e+02   1.6550585560e+01    0.1550155     0.132904  40.91  0.001261367    1.640    0.390
        40  -9.3668     46.3130    250.3387   1.2884833319e+02   1.9756998012e+01   0.08029621   0.07488736  86.87 0.0007046487    1.695    0.410
        41 -11.8535     27.8933    247.1750   1.3139504624e+02   2.2323248494e+01    0.6115592    0.2386043  78.95  0.003657274    2.478    0.596
        42 -10.5505      5.7650    235.3653   1.3409260482e+02   2.6478991968e+01    0.4499174    0.1307355  54.18  0.002740856    2.291    0.564
        43 -13.3255     20.0975    248.3635   1.3257068706e+02   2.2959700542e+01     1.145438    0.4897501  66.89   0.00790374    1.734    0.423
        44 -12.4129      5.8557    244.9188   1.3444393795e+02   2.4929723469e+01    0.5177026    0.3086177  84.97  0.002609531    1.289    0.224
        45 -10.5912      1.4585    244.9830   1.3505830566e+02   2.5338976103e+01    0.1825084   0.09857682  85.47 0.0006067104    1.401    0.286
        46 -10.0739    141.8279    220.8568   1.1027863011e+02   1.0840444302e+01    0.1834421    0.1462739  40.27 0.0008406932    1.197    0.164
        47  -9.4966    250.4700    219.4611   9.1110530126e+01  -7.1919531526e+00    0.1186515   0.08928164  18.76 0.0002670016    1.015    0.015
        48 -11.2719    235.3157    216.6761   9.3140685873e+01  -4.4861404428e+00    0.3000752    0.1818397 -13.04  0.001745009    1.884    0.469
        49  -9.7342    174.2052    219.6375   1.0426922034e+02   5.5096689753e+00    0.1828153   0.09534037  37.28 0.0008477534    1.693    0.409
        50 -10.8269      9.6172    216.9913   1.3272687673e+02   2.9228694213e+01    0.2624482    0.1215763  62.02  0.001054336    1.602    0.376
        51  -9.5211     38.0081    217.4828   1.2819179387e+02   2.6196954976e+01     0.147392    0.0853914  47.79 0.0005792558    1.535    0.349
        52  -9.2699     41.6769    220.7035   1.2779451951e+02   2.5211040883e+01   0.08626185   0.07950595 -76.62 0.0007021572    1.622    0.383
        53 -10.6012     31.0085    215.8909   1.2924503986e+02   2.7251362695e+01    0.2390592    0.1310726  41.08  0.001612658    1.863    0.463
        54  -9.5607    201.5468    215.5395   9.8771220476e+01   1.3332977357e+00    0.1256717   0.09946382  28.70 0.0003779219    1.074    0.069
        55 -10.0108    194.5369    215.5011   1.0000848063e+02   2.5542539835e+00    0.1249735    0.1016943  34.35 1.092502e-05    1.005    0.005
        56 -10.7518    241.3581    211.8969   9.1319786634e+01  -4.9231277408e+00    0.2703834    0.2434002  76.11  0.001828647    1.886    0.470
        57  -9.6485    170.4693    213.4773   1.0404767162e+02   7.0560243222e+00    0.1259821    0.1039042  43.28 0.0008094473    1.005    0.005
        58 -11.0374     21.2767    212.3408   1.3063062610e+02   2.8906715842e+01    0.2963439    0.1220076  60.29  0.001808997    1.921    0.479
        59 -10.1725    208.9740    212.0765   9.6902695277e+01   4.9966585712e-01    0.1893618    0.1516668  27.61 0.0004817357    1.039    0.038
        60  -9.1765     76.3493    212.3169   1.2118509132e+02   2.2355700748e+01   0.09674644   0.09229182 -11.16 0.0007047763    1.731    0.422
        61  -9.4088      2.3014    212.3283   1.3365776357e+02   3.0729263854e+01     0.102712   0.06844348  75.89 0.0006069883    1.008    0.008
        62 -12.0657      4.8388    207.5257   1.3303916476e+02   3.1356186635e+01    0.4671159    0.1909184  85.50  0.002862588    2.023    0.506
        63 -11.3753     18.6888    202.9220   1.3052713172e+02   3.0883709473e+01    0.3101993    0.1960333 -72.66  0.001070555    1.560    0.359
        64  -9.4351    223.5813    201.7823   9.2587223704e+01  -7.1148098693e-01    0.1524261    0.1175667 -42.30 0.0007440787    1.662    0.398
        65 -10.1606    175.2835    202.6883   1.0150271276e+02   7.8278986483e+00     0.211151    0.1734084  57.38 0.0005349012    1.240    0.194
        66  -9.6731     34.6179    201.0667   1.2767597505e+02   2.9577179558e+01    0.1473075    0.1066344  85.39 0.0005333118    1.106    0.096
        67  -9.5124    227.1549    196.8640   9.1085017778e+01  -7.0271421086e-01    0.1815838    0.1284234  16.38 0.0007065203    1.361    0.265
        68  -9.7891    204.0255    195.5706   9.4982258848e+01   3.6280738989e+00    0.3415674    0.1022006  39.61  0.001238534    3.105    0.678
        69 -10.0834    215.5487    194.3076   9.2673063463e+01   1.7064582605e+00    0.1672822    0.1180505 -13.93 0.0009429767    1.587    0.370
        70 -10.5486    187.3283    190.1865   9.7139439427e+01   7.5352522639e+00    0.2459482    0.1207896 -31.98  0.001083842    2.605    0.616
        71  -9.3035    245.6850    190.6706   8.6767242009e+01  -3.1271503388e+00    0.1325707   0.08323112  12.26 0.0007045054    1.677    0.404
        72  -9.3142    218.3111    207.3293   9.4470074282e+01  -5.0635022548e-01    0.1289693   0.08411823  15.21 0.0003104362    1.668    0.400
        73  -9.6191     61.6454    184.8310   1.2130035691e+02   2.9545951752e+01    0.1695995   0.09429416 -84.52 0.0009455388    1.744    0.427
        74  -9.3320      8.6290    184.2928   1.3118381743e+02   3.5358066063e+01    0.1143243    0.0548253  66.42 0.0007025651    1.725    0.420
        75  -9.9490    167.0067    183.7246   9.9943268496e+01   1.2446535146e+01    0.1804816    0.1072604  44.79 0.0006744016    1.491    0.329
        76 -11.0996     15.9366    182.5529   1.2976421476e+02   3.5033184305e+01    0.3558049    0.1598707  82.33  0.002042065    1.987    0.497
        77  -9.6151      1.9838    180.3067   1.3213667787e+02   3.6702098351e+01    0.1443264    0.1029374  74.71 0.0005895947    1.090    0.083
        78 -10.0757    244.4185    178.2846   8.4590332749e+01  -1.3347372495e+00    0.2301332    0.1173886 -24.04  0.001107721    2.053    0.513
        79 -10.7914    224.2353    178.3536   8.8114266383e+01   2.3335079474e+00    0.2279022    0.2152342  15.79 0.0005258941    1.180    0.153
        80  -9.1040     36.4362    178.4684   1.2561831773e+02   3.3793577817e+01    0.1139807   0.08665659  83.07 0.0002436913    1.020    0.019
        81 -10.1171    200.1740    176.8218   9.2243214456e+01   7.1604334131e+00     0.190596    0.1496931  14.32 0.0005424091    1.335    0.251
        82  -9.7923     70.1911    177.5993   1.1882422984e+02   2.9890993790e+01    0.1465834    0.1135975  35.59 0.0004943804    1.577    0.366
        83  -9.8385     46.2349    177.3686   1.2360860554e+02   3.2927011435e+01    0.1589795   0.08845955  52.08 0.0009136104    1.624    0.384
        84 -10.9205     18.5319    173.2952   1.2864888073e+02   3.6633686450e+01    0.3028978    0.1091072  59.53  0.001520986    2.676    0.626
        85  -9.4549     75.0167    170.9725   1.1704311937e+02   3.0602034606e+01    0.1780569    0.1501149 -36.48  0.001116336    1.725    0.420
        86 -11.1882     36.6575    166.1313   1.2448683267e+02   3.6307187165e+01    0.3581079     0.188283  76.30  0.001996539    1.869    0.465
        87 -11.6216     36.9049    158.2865   1.2368303480e+02   3.7936517233e+01    0.3562765    0.1527537 -72.68 0.0005214687    1.965    0.491
        88  -9.7554     67.1680    165.1437   1.1799427226e+02   3.2893271963e+01    0.1790874    0.1241569  74.53 0.0007380382    1.340    0.254
        89 -10.6772     51.6707    163.8419   1.2113972908e+02   3.5109280506e+01    0.3611074    0.1902047 -65.38   0.00201439    1.710    0.415
        90 -11.2619     44.5984    162.9827   1.2253708121e+02   3.6105561898e+01    0.3081992    0.1626541 -76.43  0.001570981    1.642    0.391
        91 -10.2367     48.0225    159.7573   1.2147106407e+02   3.6404347812e+01    0.2337593    0.2117556  39.99  0.001124898    1.436    0.304
        92  -9.5825    200.5626    162.7661   8.9369504475e+01   9.3346455072e+00    0.1755515    0.1343299 -48.48 0.0004392572    1.521    0.342
        93  -9.9544    238.1692    158.8482   8.1678645664e+01   2.4802669055e+00    0.1985593    0.1462597   9.16 0.0008544815    1.379    0.275
        94 -11.3727     22.2488    156.4784   1.2658456555e+02   3.9759318333e+01    0.3629083    0.2976691  73.36  0.002470471    1.175    0.149
        95  -9.0432    147.6745    156.3343   9.8917875680e+01   2.1268564142e+01    0.1472737     0.109754  82.10 0.0007051303    1.714    0.417
        96 -10.3509     12.0477    153.2220   1.2842233282e+02   4.1335758186e+01    0.2236875      0.15363  15.91    0.0014931    2.331    0.571
        97 -10.3292    178.1669    151.4732   9.1463025063e+01   1.5935807649e+01    0.2595501    0.2118607 -49.68 0.0006214674    1.333    0.250
        98 -10.2072     41.2739    146.2992   1.2144971008e+02   4.0065396783e+01    0.1894268    0.1361628 -84.21 0.0003242298    1.138    0.121
        99 -10.1680     18.3311    146.5560   1.2653838251e+02   4.2214994551e+01    0.2154469    0.1775528  -7.26 0.0009730955    1.995    0.499
       100 -10.9848     12.3341    145.7883   1.2775750001e+02   4.2880158319e+01    0.3750202    0.1500466  89.17 0.0009935059    2.480    0.597
       101  -9.2718    229.3531    146.6732   8.0577278637e+01   6.0245101358e+00    0.1358759    0.1136509 -75.51 0.0007047153    1.767    0.434
       102 -10.0786    207.0220    146.0633   8.4547212827e+01   1.0761478394e+01     0.222785    0.2054952  22.34 0.0006668711    1.020    0.020
       103 -10.5011     22.4614    144.2340   1.2542315837e+02   4.2351734746e+01    0.1619956    0.1210142  60.69 0.0004982822    1.321    0.243
       104  -9.9382     49.6299    141.6819   1.1897235889e+02   4.0163625167e+01    0.2236418    0.1612523 -44.18 0.0009738388    1.751    0.429
       105  -9.6155    239.9822    140.7707   7.7415384331e+01   4.7750121601e+00    0.1757012    0.1116018  44.93 0.0004728545    1.589    0.371
       106 -10.5938     15.8893    139.8089   1.2645561665e+02   4.3869043372e+01    0.2481686    0.1120798  18.72  0.001227658    3.772    0.735
       107  -9.9822     57.0140    138.4322   1.1679242788e+02   4.0021364968e+01    0.3470756    0.1906692  72.86  0.001665768    2.261    0.558
       108  -9.4144    236.5642    138.5238   7.7489885755e+01   5.8037279682e+00    0.1419947    0.1250271   1.71 0.0002646974    1.037    0.036
       109  -9.1475     87.9645    137.9951   1.0925951428e+02   3.5868852934e+01    0.1575662    0.1418478  81.78 0.0003818437    1.050    0.048
       110 -10.4285      9.1730    136.8448   1.2767587682e+02   4.5037235125e+01    0.1681202    0.1374334 -74.81 0.0003374693    1.219    0.180
       111 -10.5780      2.7724    136.2610   1.2903472467e+02   4.5630308933e+01    0.2327612    0.1088147 -71.10  0.001390382    1.625    0.384
       112 -10.7059     21.0364    135.7865   1.2490463175e+02   4.4309243261e+01     0.206091     0.134843 -79.03 0.0005820904    1.189    0.159
       113  -9.3349    250.4730    134.4680   7.4254693921e+01   3.6199607798e+00    0.1385409    0.1219235  -4.07 0.0008091929    1.001    0.001
       114 -10.0179    107.0956    133.3325   1.0373267969e+02   3.3762021170e+01    0.2329293    0.1936452 -46.84 0.0009999855    1.273    0.214
       115 -10.2428     33.0697    133.5509   1.2185669612e+02   4.3708036253e+01    0.2877432     0.141399 -78.53 -4.597155e-05    1.786    0.440
       116 -11.4369     37.1724    130.3400   1.2047933118e+02   4.4021108733e+01    0.4220298    0.2367172 -67.63  0.002310355    1.459    0.315
       117 -11.3754     33.2070    125.9101   1.2088247850e+02   4.5396664691e+01    0.2291589    0.1825371  67.21 0.0003373282    1.268    0.211
       118  -9.6857     53.2688    133.0042   1.1692508480e+02   4.1684700331e+01    0.1853133     0.135511 -69.69  0.001091704    1.172    0.146
       119 -10.2568     74.0178    129.6257   1.1125114305e+02   3.9798898645e+01    0.2483437    0.1753861 -59.17 0.0007045277    1.302    0.232
       120  -9.0166      6.6258    126.2708   1.2729482788e+02   4.7502052027e+01    0.1144121   0.06667576  68.84 0.0006997147    1.681    0.405
       121 -10.4951      1.5822    125.3095   1.2837537981e+02   4.8053153764e+01    0.2743713    0.1257561 -78.37  0.001589629    1.639    0.390
       122 -10.0096      3.2401    121.0181   1.2759581259e+02   4.8869485602e+01    0.2354377   0.08273222 -72.57  0.001197375    2.067    0.516
       123  -9.7164     81.9521    125.3438   1.0847459498e+02   3.9629150978e+01    0.1803464    0.1692187 -89.58 0.0005276977    1.086    0.079
       124  -9.9516    226.0274    124.2216   7.5982662907e+01   1.0265623507e+01    0.1926144    0.1176019  48.46 0.0008722384    1.667    0.400
       125 -11.2457     10.6165    122.3359   1.2596643709e+02   4.8072565627e+01    0.2353895    0.1858195 -84.47  0.001058482    1.061    0.058
       126  -9.5088     20.1663    121.8063   1.2359054933e+02   4.7455855596e+01    0.1576988    0.1163227 -57.10  0.001063741    1.364    0.267
       127  -9.5473     33.2122    118.8143   1.1994335785e+02   4.6987683842e+01    0.1623183    0.1200126 -57.05 0.0005490828    1.305    0.234
       128 -11.9469     17.1528    115.8898   1.2364798930e+02   4.9003546927e+01    0.3635828    0.2300919 -69.71  0.001140696    1.230    0.187
       129  -9.8948    249.7871    118.5826   7.0687442291e+01   6.1016562861e+00    0.1800594    0.1390533  65.05 0.0009435256    1.635    0.388
       130  -9.6069    220.4484    116.9839   7.5212492619e+01   1.2680561716e+01    0.2218195    0.1397711 -34.49 0.0004532193    1.535    0.349
       131 -10.2456     86.0461    116.4827   1.0567218280e+02   4.1021080727e+01     0.210115    0.1683809 -61.87 0.0002968312    1.137    0.120
       132 -10.0893     51.1529    115.2168   1.1471851153e+02   4.5960575925e+01    0.2511733    0.1356935 -58.21  0.001305799    1.576    0.366
       133  -9.2181    214.4310    115.5171   7.5934618445e+01   1.4286117448e+01    0.1501139    0.1394103  -0.93 0.0001739771    1.041    0.039
       134  -8.9500    166.2948    115.6682   8.5688079310e+01   2.5389010323e+01    0.1554165    0.1224871 -78.88 0.0002960925    1.637    0.389
       135 -10.1202     35.0206    114.0739   1.1880536680e+02   4.7886178579e+01    0.2525269    0.1420224 -69.60   0.00092115    1.443    0.307
       136 -11.8898     35.4118    108.3894   1.1784663812e+02   4.9133615645e+01    0.4036503    0.2338079  83.93 0.0009503863    2.053    0.513
       137 -12.5141     15.3199    108.8589   1.2326467423e+02   5.0698579641e+01    0.5538514    0.3700269  74.50 0.0009174103    1.528    0.345
       138 -10.9174    249.0513    111.8430   6.9200668101e+01   7.2636704419e+00    0.2527668    0.1909406 -27.52 0.0005975681    1.212    0.175
       139  -9.2767     94.2765    111.6168   1.0244276772e+02   4.0806114535e+01    0.1465449    0.1058805 -87.93 0.0007001525    1.715    0.417
       140 -10.2851     56.1410    108.7406   1.1223781141e+02   4.6863154716e+01    0.3145404    0.1476236 -61.96  0.001484427    1.810    0.447
       141 -11.6384     23.3769    107.1516   1.2090853289e+02   5.0460449789e+01    0.3432037    0.2262363  64.68  0.001580008    1.677    0.404
       142 -12.2734      3.0340    100.4522   1.2549334632e+02   5.3359635328e+01    0.2594906    0.1988993  89.42 0.0004196092    1.169    0.144
       143 -10.8651      1.5166     94.8984   1.2524478815e+02   5.4658681330e+01    0.3585784    0.1089634 -66.73  0.001089818    2.217    0.549
       144 -10.4659      6.4055    106.6471   1.2532044333e+02   5.1796447470e+01    0.2460161    0.1440134 -78.61  0.001400989    1.315    0.240
       145 -11.0749      2.4277    105.3859   1.2620905360e+02   5.2318897581e+01    0.2305037    0.1572456 -83.81 0.0002851802    1.151    0.131
       146  -9.8258     62.5221    106.4830   1.1004283742e+02   4.6600479642e+01    0.1329275    0.1135271 -60.50 0.0002183746    1.069    0.064
       147 -10.4014    243.4957    104.5165   6.8288634542e+01   9.5614341974e+00     0.144567    0.1311358 -10.52  0.000126699    1.037    0.036
       148 -10.0496    223.3470    103.9406   7.1440099517e+01   1.4166207893e+01    0.2269348    0.2110071  77.78 0.0004123394    1.224    0.183
       149 -10.8516    247.6988    102.1424   6.7061783115e+01   9.0132119811e+00    0.2342862    0.2034327  72.86 0.0007663467    1.385    0.278
       150 -10.5134     35.4167    101.3494   1.1671474511e+02   5.0724084761e+01    0.2667437    0.1996429  61.90  0.001633388    1.502    0.334
       151  -9.7272    119.7493    101.4217   9.3216814102e+01   3.8417531980e+01    0.2040823    0.1435605  31.84 0.0009405583    1.645    0.392
       152  -9.4768     43.5537    100.9579   1.1434409813e+02   5.0020106912e+01    0.1889485    0.1032775 -63.03 0.0001325964    1.495    0.331
       153  -9.4991     57.4882     96.5098   1.0946004952e+02   4.9485731125e+01    0.1740988    0.1209836  49.13 0.0009690893    1.653    0.395
       154 -11.0595     61.9160     98.7910   1.0865227135e+02   4.8426738346e+01    0.3017143    0.2647103  31.50  0.001022634    1.348    0.258
       155 -10.8701     66.7247     97.2968   1.0693931057e+02   4.8147406303e+01     0.486675    0.1422486 -51.46  0.001772142    2.880    0.653
       156  -9.6212     50.2714     99.6967   1.1218963318e+02   4.9592431239e+01     0.208451    0.1240657 -36.73  0.001048509    2.066    0.516
       157 -10.1855    145.3265     99.6771   8.6324839169e+01   3.3356239534e+01    0.1585254    0.1230767 -82.72 0.0006481577    1.689    0.408
       158 -11.6094     20.4495     96.9278   1.2023948821e+02   5.2972309353e+01    0.3535342    0.1763393 -80.19  0.001413679    1.904    0.475
       159  -9.8962     30.1968     98.1459   1.1766410615e+02   5.1912778145e+01    0.1740631    0.1321976 -59.06 0.0003341052    1.145    0.126
       160 -10.7394     92.7422     96.0197   9.9170526099e+01   4.4550009719e+01    0.3390664    0.1452759 -40.89  0.001032117    2.582    0.613
       161  -9.3836    249.5155     95.5221   6.5168434888e+01   9.6163439827e+00     0.142665    0.1296508 -21.11 0.0001507933    1.006    0.006
       162 -10.8811     31.2221     92.2954   1.1637352251e+02   5.3137394680e+01    0.3452383    0.1815417 -76.64  0.001779278    1.862    0.463
       163 -11.3221     25.6237     91.6209   1.1790593685e+02   5.3754510729e+01    0.2341685    0.1931711 -57.79 0.0008228521    1.136    0.120
       164  -9.7355    104.0139     92.0203   9.4967275696e+01   4.3454253784e+01    0.2154872    0.1720786 -14.70  0.001082917    1.554    0.357
       165 -11.4829     10.9531     90.8245   1.2205291867e+02   5.4985889312e+01      0.31626       0.2172  28.26   0.00210228    1.869    0.465
       166 -11.1321      4.4873     85.9164   1.2323452301e+02   5.6450375846e+01    0.3882628    0.2084836 -68.29  0.002386234    1.362    0.266
       167 -11.8035     12.2592     78.6631   1.1977527786e+02   5.7570795083e+01     0.389661      0.20635 -51.20  0.001096918    1.575    0.365
       168 -11.2712      3.1027     78.8878   1.2263498911e+02   5.8053440394e+01    0.2392682    0.2100247  73.02     0.001114    1.333    0.250
       169 -11.7044      7.1879     73.8376   1.2056483353e+02   5.8921861747e+01     0.373045    0.2676367  -8.96  0.002570985    1.874    0.466
       170 -10.5969     96.2854     90.4071   9.6711777952e+01   4.5180635553e+01    0.3929714    0.2455984   0.64  0.001391402    3.765    0.734
       171 -11.2412     30.6917     66.2587   1.1123869337e+02   5.8914295544e+01    0.4635938    0.2342688 -40.22  0.001680209    1.920    0.479
       172 -12.4654     44.7273     75.3314   1.0868527494e+02   5.5629950798e+01    0.2755593    0.2500692 -34.15 0.0003274593    1.175    0.149
       173 -11.3841     37.9838     70.2399   1.0970512249e+02   5.7403868665e+01    0.6023321    0.3926682  65.18  0.003244555    2.300    0.565
       174 -11.5871     48.1567     87.0710   1.1025243722e+02   5.2670178470e+01    0.7636757    0.3461714 -67.05  0.002991355    2.189    0.543
       175 -11.1669     42.4102     82.4924   1.1104840482e+02   5.4286453986e+01    0.5293316    0.2491651  54.90  0.002242971    3.473    0.712
       176  -9.2821     21.3006     91.3225   1.1912474089e+02   5.4156317834e+01    0.1219242   0.07190957 -47.17 0.0003971165    1.629    0.386
       177  -9.2454    103.6896     88.6953   9.4152667393e+01   4.4229948574e+01    0.1447334    0.1136951 -12.41 0.0003320687    1.612    0.380
       178 -10.7314     22.9332     86.7293   1.1787551320e+02   5.5053153016e+01    0.2392698    0.1560244 -51.42 0.0004501152    1.347    0.258
       179 -10.3793    111.9762     85.5430   9.0959734975e+01   4.3328062502e+01    0.3578329    0.2574227  77.13  0.001604986    2.030    0.508
       180 -10.7519     66.7087     85.4156   1.0418074839e+02   5.0811883567e+01    0.3078149    0.2138507 -30.88 0.0009419439    1.660    0.397
       181 -10.0177    166.4742     84.1586   7.7054239890e+01   3.1398904782e+01    0.2989325    0.1956527  78.47  0.001155483    2.291    0.563
       182  -9.8372     15.0108     83.9373   1.1980166310e+02   5.6236541986e+01    0.1757207    0.1586505  -7.69  0.001323711    1.441    0.306
       183 -10.3800    117.9545     82.8381   8.8539733073e+01   4.2695512007e+01    0.2770801    0.2076568 -39.43 0.0008806403    1.286    0.223
       184  -8.9874     62.3261     82.6533   1.0485172642e+02   5.1992916221e+01    0.1337004   0.09965201  87.03 0.0007049986    1.748    0.428
       185 -10.2883     29.5343     81.7415   1.1493290075e+02   5.5632226841e+01    0.1822892    0.1726706  26.51 0.0009540095    1.326    0.246
       186 -10.0389     74.6882     81.3169   1.0068389016e+02   5.0603811078e+01    0.1341977    0.1049827 -89.57 0.0006973384    1.641    0.391
       187 -12.2484     21.5091     77.8851   1.1672613665e+02   5.7111161427e+01    0.4565556    0.3036123 -68.91  0.001464391    1.229    0.186
       188 -10.3245    150.6469     77.8546   7.8758214324e+01   3.6401643553e+01    0.3139841    0.2497635 -49.68  0.001506732    1.303    0.232
       189 -10.9580     91.1830     77.4604   9.4594551535e+01   4.8832673606e+01    0.3903922    0.3517394  74.77  0.002238967    1.298    0.230
       190  -9.9419     70.8206     79.3842   1.0136713516e+02   5.1575580182e+01    0.1695555    0.1304605  14.97 0.0005397455    1.616    0.381
       191  -9.9270    122.0747     76.4686   8.5510514960e+01   4.3125393090e+01    0.2310129    0.2024928 -39.29 0.0009177275    1.097    0.089
       192 -12.0764     57.8836     74.2536   1.0413027819e+02   5.4383647896e+01    0.4446302    0.3200811  63.42 0.0004640597    1.899    0.474
       193 -11.9989     62.4432     71.6555   1.0194854240e+02   5.4370106345e+01     0.324856    0.2606374 -46.71 0.0007743342    1.070    0.065
       194 -11.0000    138.8324     75.0486   8.0746255568e+01   3.9698782423e+01    0.2502339    0.2374248  71.82 0.0002938639    1.129    0.114
       195 -10.7984    109.0945     74.7063   8.8543664721e+01   4.6122610747e+01    0.2855804    0.2512985 -60.02   0.00154406    1.208    0.172
       196  -9.7087     33.5998     75.2976   1.1230820149e+02   5.6702536614e+01     0.175764   0.08974715 -53.40 0.0005271328    1.543    0.352
       197  -9.9499     16.3433     73.1403   1.1749494949e+02   5.8508897317e+01    0.2884989   0.08513373 -64.41  0.001258288    2.497    0.600
       198 -12.2305     17.5163     67.2289   1.1594775461e+02   5.9707709255e+01      0.46558    0.2933964 -12.20   0.00125788    2.173    0.540
       199 -10.7401     20.0462     61.5798   1.1386273475e+02   6.0739948055e+01    0.4584844    0.2308951  51.18  0.002299541    3.098    0.677
       200  -9.5475    145.5206     73.4791   7.8627821360e+01   3.8433961484e+01    0.1535545    0.1501266 -11.54 0.0001484866    1.003    0.003
       201 -10.4080    144.8234     69.6793   7.7601985202e+01   3.9297331624e+01    0.3358496    0.2151038 -22.57  0.001182643    1.809    0.447
       202 -10.5091    102.6702     73.1277   8.9900162939e+01   4.7674112715e+01     0.246696    0.1987012  54.85 0.0009663382    1.407    0.289
       203 -10.5467    158.0155     90.1501   8.0677957469e+01   3.2310251741e+01     0.287075    0.2300136 -37.03  0.001379599    1.239    0.193
       204  -9.6342    128.8214     71.7748   8.2262952426e+01   4.2579839092e+01    0.1995436    0.1753069 -70.82 0.0002301874    1.310    0.236
       205 -10.1122     83.9746     72.3335   9.5279788976e+01   5.1101096656e+01    0.1796932    0.1736578   5.63 0.0002883237    1.120    0.107
       206 -11.6962     76.6221     70.9443   9.7175689744e+01   5.2537601308e+01    0.4987401    0.3438199  64.22  0.001962594    2.136    0.532
       207 -10.5940     77.1620     63.8255   9.4836963240e+01   5.3924849598e+01    0.3982159    0.2340013 -44.02  0.000924487    1.510    0.338
       208  -9.0792    167.9888     70.2111   7.2557664712e+01   3.3520869058e+01    0.2025057    0.1258723  55.06 0.0004015633    1.619    0.382
       209 -10.0676    160.9349     69.8225   7.3954434416e+01   3.5352098981e+01    0.2317581    0.2032367  16.11 0.0003794958    1.233    0.189
       210 -11.5972     94.4876     68.1165   9.0761599169e+01   5.0182771460e+01     0.432626     0.258857 -35.30  0.001994897    1.654    0.395
       211 -10.1636     68.7667     69.8705   9.9386207073e+01   5.3901178634e+01    0.2607445    0.1506299 -53.77 0.0002845508    1.579    0.367
       212 -11.4905     50.7697     68.0784   1.0485088586e+02   5.6546627728e+01    0.4027891    0.2365896 -29.85  0.001819832    2.028    0.507
       213 -11.1356     51.1523     63.8229   1.0355530042e+02   5.7405090245e+01    0.5103639    0.2207961 -39.83   0.00224695    2.309    0.567
       214 -10.3465    123.0404     68.4371   8.2720330152e+01   4.4478360580e+01    0.2838065    0.2035558 -44.84 0.0006062721    1.382    0.276
       215  -9.8440    120.3085     65.0299   8.2345098329e+01   4.5708070757e+01    0.2100561    0.1860057 -34.28 0.0003594292    1.087    0.080
       216 -12.1398      3.9716     64.9623   1.2008239905e+02   6.0999696623e+01    0.3944232    0.2546431  78.26 0.0005089617    1.931    0.482
       217 -12.1179     61.7890     60.5270   9.8935359517e+01   5.6786204742e+01    0.6869469    0.4871901   9.11   0.00377672    1.790    0.441
       218  -9.4418    128.5000     66.5696   8.0675842739e+01   4.3631117076e+01    0.1500808    0.1441667  -5.58  0.000806462    1.019    0.019
       219  -9.0644    135.4612     65.4813   7.8545444956e+01   4.2252173042e+01    0.1524914    0.1456738  -4.42 2.816233e-05    1.030    0.029
       220 -10.1584     99.7335     64.4111   8.7994069821e+01   4.9959304714e+01    0.2477379    0.1662081 -22.72 0.0006997165    1.719    0.418
       221  -9.6563    216.3255     64.5911   6.2117370054e+01   2.2127850088e+01    0.2897355    0.1514714  67.53  0.001137018    2.193    0.544
       222 -11.0720     84.5772     61.8366   9.1819071424e+01   5.3139811596e+01    0.3733549    0.2781813  41.84  0.002016691    1.489    0.328
       223 -11.9571     87.0913     53.9249   8.8351314933e+01   5.4242141049e+01    0.6834425    0.2454653 -38.90  0.001957254    2.640    0.621
       224 -10.5218     11.1831     62.7074   1.1719532654e+02   6.1078076716e+01    0.1872671    0.1556693  86.52 0.0003413459    1.376    0.273
       225 -11.0488     11.2509     44.3890   1.1299694374e+02   6.4881034763e+01    0.4081633    0.1802096 -43.66  0.001602167    1.815    0.449
       226 -11.0521      5.9262     58.0201   1.1809108729e+02   6.2365935548e+01    0.3498388    0.2388507 -83.59  0.002316521    1.533    0.348
       227 -11.7514      5.1859     51.5472   1.1700707213e+02   6.3755120989e+01    0.3464708    0.2156822 -50.41 0.0007051203    1.230    0.187
       228 -10.6886      4.6038     47.1714   1.1625025421e+02   6.4685523263e+01    0.2760696    0.1228297 -46.38  0.001584335    1.735    0.424
       229 -10.6889      6.9948     41.2249   1.1387293940e+02   6.5763274410e+01    0.3027039    0.1089609 -57.42 0.0007622178    1.928    0.481
       230  -9.9295    201.2799     61.9812   6.3807376813e+01   2.6345813863e+01    0.2092894    0.1903255 -32.20 0.0002763325    1.086    0.079
       231 -10.5720     45.3844     50.7727   1.0174685947e+02   6.0727351696e+01    0.3151637    0.1796649 -37.03  0.001321526    1.594    0.373
       232 -11.4754     29.8312     60.8684   1.1023509074e+02   6.0135017147e+01    0.6318393    0.2592267  13.11  0.002670842    4.172    0.760
       233 -12.7687     37.2410     51.1483   1.0488888622e+02   6.1485417003e+01    0.7464772    0.5062652 -37.28  0.003551539    1.292    0.226
       234 -10.4242     47.7605     58.2586   1.0314856123e+02   5.8944971885e+01    0.2592718    0.1912492 -64.58  0.001537705    1.425    0.298
       235 -10.1232     43.7547     57.0627   1.0423192615e+02   5.9621954801e+01     0.191708    0.1571485 -42.16 0.0003174523    1.030    0.029
       236 -10.8171    128.7719     56.8525   7.7365160713e+01   4.5317510937e+01    0.3745212    0.2547037   1.25  0.001346447    2.066    0.516
       237  -9.6715     22.8881     58.0789   1.1203350118e+02   6.1273160535e+01    0.1770071     0.123596  62.10  0.001067105    2.058    0.514
       238 -10.4359    123.1249     56.3482   7.8666174411e+01   4.6671091735e+01    0.2652922     0.206708 -41.44 0.0003468925    1.282    0.220
       239 -12.0127    128.4510     50.4280   7.5221693637e+01   4.6481141734e+01    0.5905271    0.3725822  -7.48  0.001403582    2.212    0.548
       240 -10.8434     98.7049     54.9873   8.5115787842e+01   5.1940681320e+01    0.5468256     0.335098  68.09   0.00216597    3.040    0.671
       241 -10.1495     75.2008     55.9555   9.2929084880e+01   5.5793160512e+01    0.1946669     0.168706 -49.94 0.0003623975    1.185    0.156
       242 -11.3193    117.9483     53.5317   7.9078358804e+01   4.8294240917e+01    0.4410184    0.2959714  45.55  0.002097329    1.520    0.342
       243 -10.0855     42.0843     65.0694   1.0701831788e+02   5.8114302201e+01    0.2854148    0.1653554 -70.31  0.001048477    1.982    0.495
       244 -10.7613     12.7196     51.7494   1.1424965772e+02   6.3285518355e+01    0.3031953    0.1640846 -67.07  0.001745819    1.609    0.378
       245 -10.3493    103.8728     45.8541   8.0290070896e+01   5.2546692868e+01    0.3020879    0.2002125 -29.10 0.0007956979    1.459    0.314
       246 -10.8005     69.8363     50.1693   9.2775107463e+01   5.7716131199e+01    0.3540545    0.2842214 -75.03  0.001976383    1.777    0.437
       247 -10.4636     82.3511     50.1820   8.8565569317e+01   5.5745116382e+01     0.250335    0.1040994  38.95  0.001010032    2.641    0.621
       248 -10.3840    220.9358     48.9415   5.7115778351e+01   2.3248514385e+01    0.2131112    0.2032363 -52.95  0.000299385    1.007    0.007
       249 -11.2856    152.9639     47.9125   6.8601749124e+01   4.0968001377e+01    0.5414439    0.2964865  53.65  0.001635831    1.775    0.437
       250  -9.8778    113.8649     48.4984   7.8408019463e+01   5.0032246695e+01    0.2366519    0.2021796 -55.83  0.001258459    1.354    0.261
       251  -9.3620     78.5180     47.4528   8.8854910383e+01   5.6878795424e+01    0.1368378    0.1194441 -21.95 0.0001639385    1.017    0.017
       252 -10.0292     62.3018     47.3200   9.4430545935e+01   5.9328622895e+01     0.226474    0.1699824  19.65  0.001322687    1.492    0.330
       253 -10.6718     59.7234     45.2316   9.4626369099e+01   6.0072303085e+01    0.2695498    0.2076641 -16.06  0.001299632    1.307    0.235
       254  -9.5865    233.3678     45.7512   5.4620162748e+01   2.0596943421e+01    0.1926461    0.1342037 -18.38 0.0007438246    1.571    0.364
       255 -10.1299    142.6623     45.6928   7.0129582343e+01   4.3865204458e+01    0.3092337    0.2415601 -66.17 0.0008534179    1.607    0.378
       256  -9.3751     18.4935     46.4262   1.1070363470e+02   6.3997429192e+01    0.1165172   0.09122515 -50.70 6.638055e-05    1.040    0.039
       257 -10.9541     85.9587     44.9645   8.5487981770e+01   5.6070481526e+01     0.250053    0.1853111 -26.84 0.0008632539    1.255    0.203
       258 -10.1441     51.2663     44.9831   9.7658808618e+01   6.1191003551e+01    0.1938947    0.1587386 -30.28 0.0003153849    1.051    0.049
       259 -10.9296     51.8319     40.8141   9.5980875069e+01   6.1911469959e+01    0.2682087    0.2182731 -66.67 0.0004896286    1.612    0.379
       260 -10.4750    122.1363     43.0505   7.4199427492e+01   4.9107485342e+01    0.3695231    0.2737894 -42.59  0.001843137    1.414    0.293
       261  -8.8459    175.2914     43.6861   6.2789708975e+01   3.5845431766e+01    0.1554393    0.1150283 -63.82 0.0005089152    1.592    0.372
       262 -10.3971    183.9861     41.4773   6.0571451611e+01   3.3872831434e+01    0.2360166    0.2004554 -29.02 0.0004605751    1.196    0.164
       263  -9.8724    110.4328     41.7533   7.6879536942e+01   5.1869523684e+01    0.2453046    0.1789238  62.58 0.0005328068    1.683    0.406
       264 -11.3221     97.4732     41.0277   8.0385531640e+01   5.4616026827e+01    0.3796303     0.271625  32.92 0.0007150677    1.443    0.307
       265 -11.6843    101.8226     36.8609   7.7478220156e+01   5.4423526623e+01    0.5715688    0.3116191  26.79  0.002361406    2.415    0.586
       266 -11.7115     96.9343     36.8517   7.8933604882e+01   5.5395962870e+01    0.2943905    0.2640782 -37.48 0.0003724549    1.202    0.168
       267 -11.3195     98.0238     31.8154   7.6606225734e+01   5.5957275695e+01    0.2851325    0.2381535  16.14 0.0003641549    1.157    0.136
       268 -10.3428    101.0360     28.4981   7.4377661842e+01   5.5833746078e+01    0.2831799    0.2378547 -57.40 0.0008864679    1.537    0.349
       269 -11.2195     66.8917     40.7307   9.0396443493e+01   5.9895808277e+01    0.5026629    0.2707807 -12.80  0.001907539    3.559    0.719
       270 -10.4742     34.2104     34.3841   1.0063578200e+02   6.5047016177e+01    0.5357084    0.1656693  42.44  0.001891759    5.932    0.831
       271 -12.0730     20.5914     37.7142   1.0735078089e+02   6.5579510389e+01     0.394671    0.2600724 -74.62  0.001982853    2.009    0.502
       272 -12.6361     25.3048     35.9100   1.0483127600e+02   6.5557698472e+01    0.4470809    0.3985967 -89.54   0.00290753    1.566    0.361
       273  -9.4667    220.4544     41.5166   5.5133555684e+01   2.4385435248e+01    0.1439579    0.1377196 -59.55 5.255038e-05    1.013    0.013
       274  -9.8019     85.0084     35.1838   8.2026740040e+01   5.7891892067e+01    0.1659314    0.1481329   9.16 0.0004669164    1.091    0.084
       275 -12.1179     81.5252     38.0770   8.4317664535e+01   5.8024437731e+01    0.5492344    0.3795833 -45.97  0.001524702    1.536    0.349
       276 -10.4666     78.0261     32.5215   8.3281045679e+01   5.9534846751e+01    0.4724144    0.2286937 -20.11  0.001841959    2.932    0.659
       277 -10.6912     42.8554     38.5006   9.8622881061e+01   6.3384980276e+01    0.4975277    0.3073623 -61.51  0.002058088    2.017    0.504
       278  -9.9345    226.0690     40.0469   5.4008520007e+01   2.3166881186e+01    0.2340513    0.1582586 -61.76 0.0007023857    1.600    0.375
       279 -10.9581     89.3926     39.1560   8.2176339616e+01   5.6449063679e+01    0.3323432    0.2047683 -40.38  0.001071367    1.573    0.364
       280  -9.6527    249.5649     38.4905   5.0876231852e+01   1.7674482393e+01    0.1394498    0.1218695 -52.94 0.0001124848    1.037    0.035
       281  -9.4708     61.8311     37.8301   9.1132743268e+01   6.1140971200e+01    0.1621893    0.1378859 -44.21 0.0002824395    1.249    0.200
       282 -10.4979      3.1416     37.1160   1.1437728423e+02   6.6784944501e+01    0.3704526     0.153115 -54.85  0.001535048    1.657    0.397
       283 -11.2273     10.5341     34.6247   1.1060843132e+02   6.6864144154e+01    0.3588922     0.218396  10.29  0.001935529    2.039    0.510
       284 -12.4567    226.4938    246.2778   9.9202386047e+01  -6.2736155692e+00    0.4660681    0.3151012  11.87  0.003209773    1.473    0.321
       285 -10.2436      2.2899     28.6549   1.1240865817e+02   6.8478110999e+01    0.3433969    0.1563423 -74.42  0.001502009    3.356    0.702
       286 -10.1981    130.0765     33.1521   6.8554422587e+01   4.8738817965e+01    0.3573347     0.189153 -41.75  0.001495332    2.038    0.509
       287  -9.7524     60.4314     33.5355   8.9980890048e+01   6.2089255361e+01    0.1289949    0.1077926 -24.29 8.856259e-05    1.024    0.023
       288  -9.6958    206.1821     33.7878   5.4871716051e+01   2.9069770727e+01    0.1952775    0.1642251  36.00  0.000225476    1.310    0.237
       289  -9.9502    150.5305     34.4891   6.4504757779e+01   4.3528260345e+01    0.1484394    0.1420864  29.97 0.0008097957    1.004    0.004
       290  -9.5426     65.2952     33.3740   8.8118648617e+01   6.1414993670e+01    0.1667465    0.1218937  45.46  0.000949103    1.690    0.408
       291 -10.9219     18.6523     31.7179   1.0625292085e+02   6.6877294057e+01    0.2894131    0.2382771  37.40  0.001970727    1.648    0.393
       292  -9.9785    179.3283     32.6771   5.8580234719e+01   3.6280995099e+01    0.2481172    0.1562537  70.61  0.001093518    1.646    0.393
       293 -10.1938    177.0000     30.5278   5.8278159799e+01   3.7170771241e+01    0.2794017    0.1520447 -26.88  0.001169201    1.890    0.471
       294  -9.9838    145.0436     32.0358   6.4783788537e+01   4.5240127568e+01    0.2152807    0.2064066  28.96 0.0003213665    1.011    0.011
       295  -9.6441    125.2287     32.6591   6.9542893659e+01   4.9945575204e+01    0.2155423    0.1226997  45.36 0.0009483455    1.700    0.412
       296 -10.0603     56.2026     31.0203   9.0578583911e+01   6.3102429443e+01    0.2800337    0.1425038 -32.03  0.001382003    1.815    0.449
       297 -10.1533     42.6067     31.8164   9.6261271261e+01   6.4639803046e+01    0.1840837    0.1466085 -11.16 0.0005440618    1.214    0.176
       298 -11.4363     50.2902     29.0104   9.2074365153e+01   6.4217510236e+01    0.4019356    0.2024889 -32.65 0.0007549688    1.800    0.444
       299 -10.1598    139.9448     29.2938   6.4886125688e+01   4.6869455456e+01    0.3411716    0.1969096  -3.36  0.001357063    2.397    0.583
       300  -9.6393     82.7929     30.1730   8.0720488394e+01   5.9079049947e+01    0.3180423    0.2120266 -74.44  0.001191081    4.342    0.770
       301  -9.6288     79.9388     25.9905   7.9917135685e+01   6.0218374507e+01    0.1893012     0.171725 -36.39 0.0007388353    1.281    0.219
       302  -9.9540    153.6843     28.9488   6.1937111530e+01   4.3454112857e+01    0.2061425    0.1887693 -25.36 0.0004458873    1.124    0.110
       303 -11.4043    213.9948     26.7710   5.1854871813e+01   2.7921926337e+01    0.4907891    0.2773944 -68.40  0.001033289    2.239    0.553
       304  -9.7139    205.8217    246.1844   1.0256554627e+02  -3.0626652606e+00    0.1527738    0.1059321  24.92 0.0004254642    1.287    0.223
       305 -10.3593    147.7655    245.2437   1.1215379686e+02   6.3129659577e+00    0.1464429   0.09104369 -37.14 0.0008903793    2.442    0.591
       306 -10.9184     70.3720     26.0626   8.3257589725e+01   6.1816519632e+01    0.4623538    0.2569883  35.29  0.001974137    1.898    0.473
       307  -9.3199    247.7072     27.3365   4.8284026530e+01   1.9504976975e+01    0.1469545   0.08927465 -57.35 0.0002646524    1.643    0.391
       308  -9.7888     24.8387     26.9000   1.0189425034e+02   6.7281295264e+01    0.1762614    0.1230957 -33.83 0.0004602012    1.136    0.119
       309  -9.6576    146.1159     26.1270   6.2443037694e+01   4.5733331013e+01    0.1898166    0.1701714 -67.38            0    1.267    0.211
       310 -10.4050     87.9870     25.1218   7.6927489821e+01   5.8881017703e+01    0.3724212    0.2799779 -82.57  0.001450513    2.595    0.615
       311 -11.1311     84.5446     20.6429   7.6098464297e+01   6.0151525090e+01    0.4918886     0.312327  26.84  0.002553284    1.643    0.391
       312  -9.4675    115.4197    244.7444   1.1750643462e+02   1.1370455905e+01    0.1231593    0.1050898 -57.16 0.0008687811    1.591    0.372
       313 -12.0286     74.3399    238.3558   1.2370426816e+02   1.8173363906e+01    0.4094997    0.2854185  87.81  0.002795257    1.341    0.254
       314 -10.7973     10.2607     25.2197   1.0778060699e+02   6.8674416848e+01    0.2314934    0.1691159 -28.97 0.0006077625    1.214    0.176
       315 -10.9605     10.1588     15.4414   1.0430227115e+02   7.0451627939e+01    0.2117524    0.1317838 -30.53 0.0005811053    1.316    0.240
       316 -10.6372      8.1271     20.6308   1.0718440455e+02   6.9653864864e+01    0.2835093      0.10825 -49.22   0.00100154    1.830    0.453
       317 -11.2583     35.5175    239.9836   1.2990210806e+02   2.2642881734e+01    0.2720631    0.1800029 -49.12  0.001846771    2.995    0.666
       318  -9.3332    237.4829     25.4586   4.8844058434e+01   2.2184539135e+01    0.1378628    0.1256655 -63.53 0.0001190902    1.005    0.005
       319 -10.2476    197.2024     25.2109   5.3585843279e+01   3.2487348454e+01     0.201992    0.1602911 -59.68 0.0005265229    1.301    0.231
       320  -9.3200    112.0000     24.9475   6.9905678836e+01   5.3989260365e+01    0.2204037    0.0773486 -28.58 0.0005943486    2.818    0.645
       321 -10.3386    173.6428     24.1868   5.6777920907e+01   3.8836234215e+01    0.2585166    0.1953305  66.11 0.0002317754    1.279    0.218
       322  -9.3312    158.7995     24.3597   5.9383370838e+01   4.2703228032e+01    0.2093856    0.1231412  51.61 0.0003450616    1.590    0.371
       323  -9.7179     93.6237     23.8244   7.4635345078e+01   5.7978187037e+01    0.1929271    0.1165858 -37.61 0.0009445899    1.691    0.409
       324  -9.9529    109.9041    242.9500   1.1825114068e+02   1.2457957675e+01    0.1826854    0.1050671  65.98 0.0008410514    1.691    0.409
       325  -9.6487     26.7136     18.6179   9.7814931915e+01   6.8573757361e+01     0.188165    0.1058247 -23.79  0.001033681    1.742    0.426
       326  -9.4340    120.0601     28.0089   6.9043775271e+01   5.1773879334e+01    0.1644905    0.1507595  21.45            0    1.023    0.022
       327  -9.4040     16.5455     26.5486   1.0542205166e+02   6.8000679003e+01    0.1165005   0.08566328 -38.93 9.609147e-05    1.022    0.022
       328  -9.1359     35.8347     22.8162   9.5519379881e+01   6.6951943783e+01    0.2373481    0.1295167   0.42  0.001160682    2.741    0.635
       329  -9.7168    120.2655     21.8257   6.6565458124e+01   5.2524277976e+01     0.233483    0.1503412  12.11   0.00106617    1.872    0.466
       330 -10.1700     65.5761     21.2550   8.2905862462e+01   6.3306449400e+01    0.2083212    0.1598064  45.87  0.001244516    1.611    0.379
       331 -10.5477     46.0070     20.8809   9.0398718010e+01   6.6105308618e+01     0.229566    0.1702284  23.72  0.000509536    1.457    0.314
       332 -10.2223    162.2318     19.4417   5.7095167455e+01   4.2383585590e+01     0.263105    0.1811132  -1.51 0.0007723485    1.728    0.421
       333 -10.2613    226.7078     19.0343   4.8291900362e+01   2.5604273018e+01    0.2405211    0.1843169  78.51 0.0006490534    1.279    0.218
       334 -10.3261    166.9560     16.4714   5.5311536442e+01   4.1476271571e+01    0.4086922    0.2168203 -88.91  0.001497488    2.890    0.654
       335 -10.0646    108.4068     17.4987   6.7802418156e+01   5.5717225931e+01    0.2585872    0.1317551  54.65 0.0007600827    1.962    0.490
       336 -11.2884     74.0152    232.7054   1.2332044868e+02   1.9141696786e+01    0.2146075    0.1450306  60.40 0.0007435271    1.106    0.096
       337 -10.3955     88.8816    241.4126   1.2157930143e+02   1.5712210723e+01    0.1814907    0.1348479 -52.64  0.001304201    1.974    0.494
       338 -10.8218    156.5079    241.0351   1.1018684794e+02   5.4890736054e+00    0.1428547    0.1165609 -55.27  0.001030869    1.586    0.369
       339  -9.5587     46.8202    241.4142   1.2825926675e+02   2.1115821465e+01    0.1226548   0.08311974  44.70 0.0002685967    1.553    0.356
       340 -10.5142    181.0214    248.4832   1.0697637712e+02   6.0403612224e-01    0.2262396    0.1172462 -26.95  0.001189397    3.322    0.699
       341  -9.9808    217.5549     16.5039   4.8593541772e+01   2.8207288554e+01     0.252123    0.1091604  57.46  0.001005404    2.210    0.548
       342  -9.6843     49.9881     15.4849   8.6338547663e+01   6.6430789079e+01    0.1710309     0.114828  30.55 0.0006614375    1.594    0.373
       343  -9.5027    140.0418     13.7072   5.9106379496e+01   4.8691266656e+01    0.1976195    0.1714056  54.98 0.0003958292    1.102    0.093
       344  -9.2529     50.3275    240.2932   1.2764993994e+02   2.0882044676e+01   0.08283838    0.0774567  68.06 0.0004401303    1.624    0.384
       345 -10.4618    195.8120    238.2978   1.0314725269e+02  -5.5744479780e-01    0.2508478    0.1587819  32.89  0.001586079    1.315    0.239
       346  -9.9595     30.6398     12.9796   9.3571643849e+01   6.9117840877e+01    0.1693911    0.1312072 -20.04 0.0005069295    1.043    0.041
       347  -9.7612    168.7591     13.3937   5.4003923741e+01   4.1331454295e+01    0.2166553    0.1183053  54.88 0.0007330016    1.670    0.401
       348 -10.5398     31.4973    237.4549   1.3037688726e+02   2.3500919620e+01    0.2276981    0.1309508  73.31 0.0007833597    1.289    0.224
       349 -10.4448     29.1796    232.8888   1.3049073619e+02   2.4510381063e+01    0.2497221    0.1150824  62.87  0.001667899    1.628    0.386
       350 -10.6102     54.9975     13.1013   8.3208681358e+01   6.6080526561e+01     0.187699    0.1519997  -7.23 0.0003644266    1.029    0.028
       351 -10.0113    218.6605    237.3056   9.9175839229e+01  -4.1154647859e+00    0.1056558   0.08342967  57.13 0.0007041158    1.679    0.404
       352 -10.2768    159.9244    235.8746   1.0897014734e+02   5.6385856582e+00    0.1796363    0.1375871  32.59 0.0006831316    1.282    0.220
       353  -9.4457    231.3184    235.3344   9.6792011007e+01  -5.8897720388e+00    0.1197909   0.07139256  17.41 0.0005356062    1.697    0.411
       354 -10.1740    177.6952    234.9603   1.0578442983e+02   2.8326153684e+00      0.21046    0.1394746  28.75 0.0009810777    1.496    0.332
       355 -11.2685    153.4760    234.0559   1.0986195079e+02   6.9489312437e+00    0.2183203    0.1948034 -27.92  0.001057258    1.498    0.332
       356  -9.8752     24.0160    232.4412   1.3125600180e+02   2.5134975751e+01    0.1501755   0.09890228  82.20 0.0006321971    1.171    0.146
       357  -9.7881    142.3345    232.2844   1.1158863271e+02   9.0209052410e+00     0.111043   0.08346482  26.00 0.0002439999    1.621    0.383
       358  -9.2099    243.6570    237.3114   9.5095248584e+01  -7.9732198352e+00   0.09888694   0.08369143  51.00 0.0007045891    1.701    0.412
       359 -10.0498     79.9324    231.4908   1.2223764414e+02   1.8546943068e+01    0.1635551   0.08537248  48.28  0.000433568    1.530    0.346
       360 -10.0823    190.5434    227.0887   1.0245825801e+02   1.7078378866e+00    0.3081309    0.1201581 -41.58  0.001469747    3.196    0.687
       361 -10.0508    129.7973    226.8668   1.1315912547e+02   1.1867376896e+01    0.2496459    0.1225272  60.38   0.00124693    2.234    0.552
       362 -10.2272     87.5960    227.2363   1.2057138323e+02   1.8194235981e+01    0.1366071   0.09949392 -63.32  0.000949609    1.650    0.394
       363 -10.3794     66.7030    226.5818   1.2405928685e+02   2.1132457257e+01    0.2876425    0.1204617  55.03  0.001211694    1.910    0.477
       364 -10.8301      5.0651    226.2335   1.3382747445e+02   2.8067270438e+01    0.2821383   0.06881343  56.04  0.001524738    2.813    0.644
       365 -10.8772    120.0685    226.4976   1.1483756920e+02   1.3468958803e+01    0.1766488   0.09427482  46.22 0.0004577542    1.510    0.338
       366  -9.9342    181.0000    224.9422   1.0382175750e+02   3.6082976809e+00    0.1659228   0.07057089 -42.95 0.0008005465    2.929    0.659
       367  -9.4889    156.2939    224.3622   1.0813147559e+02   7.8826276144e+00     0.114938   0.08886488  15.02 0.0007030181    1.706    0.414
       368 -10.6285    123.6591    221.4541   1.1362851642e+02   1.3714203226e+01    0.4617074    0.2037099  50.70  0.002351842    1.889    0.471
       369 -11.0909     37.6532    242.8381   1.2973317423e+02   2.1940913112e+01    0.1984958    0.1437483  67.85   0.00140121    1.117    0.105
