#   1 NUMBER                 Running object number                                     
#   2 MAG_AUTO               Kron-like elliptical aperture magnitude                    [mag]
#   3 X_IMAGE                Object position along x                                    [pixel]
#   4 Y_IMAGE                Object position along y                                    [pixel]
#   5 X_WORLD                Barycenter position along world x axis                     [deg]
#   6 Y_WORLD                Barycenter position along world y axis                     [deg]
#   7 A_WORLD                Profile RMS along major axis (world units)                 [deg]
#   8 B_WORLD                Profile RMS along minor axis (world units)                 [deg]
#   9 THETA_WORLD            Position angle (CCW/world-x)                               [deg]
#  10 FWHM_WORLD             FWHM assuming a gaussian core                              [deg]
#  11 ELONGATION             A_IMAGE/B_IMAGE                                           
#  12 ELLIPTICITY            1 - B_IMAGE/A_IMAGE                                       
         1 -13.3840    223.2988      7.0988   3.5265468768e+01   2.8970656608e+01     1.175975    0.9106921  57.88  0.004956467    1.459    0.315
         2 -14.2954    196.3410     37.9065   4.5762469054e+01   3.1712743442e+01     2.932586     1.744345  24.11   0.01185458    3.074    0.675
         3 -10.5192     74.4990     13.0829   6.2879331905e+01   6.3097425362e+01    0.3850535    0.2085322  58.51  0.001778579    2.314    0.568
         4  99.0000     50.9553    218.8263   1.1825357911e+02   2.2508468273e+01    0.6143578    0.2417496  58.75  0.002304757    2.612    0.617
         5 -19.4344     12.1448    147.6736   1.2056633822e+02   4.2443814771e+01     19.17208     4.568106 -77.13   0.06536421    3.960    0.747
         6  -9.8622    183.8057    211.7099   8.9422143183e+01   3.3276293344e+00    0.3261206    0.1885607 -56.74  0.001491258    2.596    0.615
         7  -9.5334    168.0921    233.1248   9.6031664712e+01   2.3980965257e+00    0.2566814    0.1751102  47.79 0.0009425092    1.479    0.324
         8  -9.9816     56.4592    209.0417   1.1626534194e+02   2.3872511830e+01    0.4559948    0.2140599  88.80  0.001367674    2.680    0.627
         9 -10.8214     66.0061    207.0524   1.1405204937e+02   2.3072890325e+01    0.3039826    0.2500495 -44.51 0.0003310891    1.593    0.372
        10 -11.5089     64.3961    202.8089   1.1395789470e+02   2.4197315416e+01    0.2438798    0.2013442 -81.04 0.0005181025    1.168    0.144
        11 -10.1914     42.2675    208.4144   1.1914523426e+02   2.5702362316e+01    0.2830266    0.1454372  66.58  0.001414704    1.899    0.473
        12 -10.1187     35.7490    208.7257   1.2049335872e+02   2.6366933744e+01     0.161924    0.1032342  63.45 0.0006234997    1.338    0.253
        13  -8.8084     93.6400    205.7849   1.0790379715e+02   1.9439729125e+01    0.1846258    0.1610879 -52.93 0.0004974304    1.322    0.244
        14  -8.7464     96.4966    202.0175   1.0678453503e+02   1.9805147207e+01     0.240824    0.1248747 -57.42  0.001135043    2.010    0.502
        15 -11.3840    195.9556    204.7457   8.5740309649e+01   2.4396789397e+00    0.5332216    0.2167684  31.20  0.002103564    2.641    0.621
        16 -10.9190    193.0423    195.2037   8.4560916584e+01   4.5616874243e+00     1.047138    0.5451626 -61.11  0.003422451    4.959    0.798
        17 -10.2397     26.4409    203.5313   1.2198291960e+02   2.8457172645e+01    0.3453969    0.1076104  50.40  0.001508702    2.780    0.640
        18 -12.5634     52.8598    197.6042   1.1593394273e+02   2.6792117024e+01    0.4489972     0.286761 -46.63  0.001840691    2.050    0.512
        19  -9.9820     38.9179    199.8533   1.1912367918e+02   2.7920638162e+01    0.2047169    0.1540665  64.12  0.001147932    1.142    0.124
        20 -10.9672    202.7987    199.0001   8.3319896882e+01   2.2341836829e+00    0.4302169    0.1901343  37.86  0.001868802    2.139    0.533
        21 -11.5484    134.0236    195.8817   9.7418964953e+01   1.4925161398e+01    0.3718462    0.2834847 -78.58  0.001860802    1.635    0.389
        22  -8.9910     44.7514    197.8645   1.1770995599e+02   2.7695681876e+01    0.1698464    0.1466752 -83.42 0.0005133619    1.169    0.144
        23  -9.2252     81.4788    194.1559   1.0915777740e+02   2.3752244174e+01    0.3412974    0.2095527  73.97  0.001660908    1.909    0.476
        24  -8.4947     68.3487    193.1647   1.1202000097e+02   2.5799750255e+01    0.1730349    0.1111326 -84.56 0.0001765983    1.580    0.367
        25 -11.4844     73.8704    188.5032   1.1019501018e+02   2.6096979274e+01    0.4995164    0.2609598  68.80  0.002131082    2.517    0.603
        26 -12.7265     63.8363    184.4844   1.1203502155e+02   2.8365221942e+01    0.8364246    0.6803474 -45.08  0.004989774    1.500    0.333
        27 -10.8206    149.5457    187.8914   9.2539876623e+01   1.3789653920e+01    0.3794614    0.2962526 -72.32  0.001240496    1.615    0.381
        28 -11.2523    122.7660    186.7342   9.8489556234e+01   1.8807639885e+01    0.5486253    0.1570646  46.08  0.001713993    3.603    0.722
        29  -9.2309     92.7083    185.1739   1.0532910195e+02   2.4092138456e+01    0.2662058    0.1898751  37.05 0.0009166795    1.413    0.292
        30 -10.7824     98.9069    181.1718   1.0325208644e+02   2.4027518850e+01    0.3792826    0.2964709   4.89  0.001600097    1.794    0.443
        31 -10.4519    143.1772    179.1127   9.2384307698e+01   1.6778950774e+01    0.2961327     0.197589 -35.93  0.000988888    1.699    0.412
        32 -10.1617    188.7969    176.8188   8.1831522368e+01   8.6481397023e+00    0.4424969    0.3733386 -66.34  0.002370853    1.558    0.358
        33  -9.1801    149.1724    176.8177   9.0562820281e+01   1.6144581155e+01    0.2084183    0.1945237  78.29 0.0004519657    1.182    0.154
        34 -10.5290     56.3163    166.5571   1.1162150651e+02   3.3529228798e+01    0.4146391    0.2224791 -38.03  0.001756398    2.876    0.652
        35 -10.5244     53.6009    172.8056   1.1306542827e+02   3.2373940161e+01     0.405973    0.2330962  74.76 0.0006799889    1.990    0.497
        36 -10.0145     47.4220    173.2435   1.1460138009e+02   3.2998626817e+01    0.4088238    0.3087942 -41.10  0.001731855    1.683    0.406
        37  -9.6599     58.5689    228.8709   1.1758986169e+02   1.9553107284e+01     0.156661    0.1157907  88.82  0.000530191    1.256    0.204
        38 -10.2395    138.0367    169.6622   9.1795094671e+01   1.9774065812e+01    0.3625327    0.2687789  39.26  0.000976123    1.314    0.239
        39 -10.5719    240.4995    169.1492   7.0334776183e+01   7.4798617248e-01    0.2213182    0.1680635   2.75 0.0005545893    1.307    0.235
        40  -9.3666     84.2877    173.9051   1.0570613600e+02   2.7969305432e+01    0.1914879    0.1649461 -70.61 0.0004527894    1.126    0.112
        41  -9.6593    187.9419    163.0641   7.9129295733e+01   1.1427729483e+01    0.3302386    0.2186358 -51.30  0.001142891    1.709    0.415
        42 -11.6064     93.6977    151.5159   9.9550131039e+01   3.1858806048e+01    0.7000383    0.5874741 -19.55  0.003671669    1.482    0.325
        43 -10.7738    133.8859    145.6518   8.7830920473e+01   2.5966132135e+01     1.237644    0.3184827 -54.47  0.002900626    5.693    0.824
        44  -9.5090    186.9910    151.5081   7.6782656101e+01   1.3875000057e+01    0.2250251    0.1468242  43.00 0.0006703595    1.560    0.359
        45  -8.7535    112.7195    150.7381   9.4369180331e+01   2.8786511821e+01    0.2029561    0.1720961  79.74  0.000638085    1.302    0.232
        46  -9.3598    175.0224    149.2776   7.8870404155e+01   1.6775591137e+01    0.2144932    0.1981007  33.97 0.0005706802    1.090    0.083
        47  -8.4102    109.5534    147.9917   9.4644463163e+01   3.0006122197e+01     0.217987    0.1444909 -55.17 6.621969e-06    1.481    0.325
        48 -10.6099    105.7443    137.9695   9.3570561025e+01   3.3085124208e+01    0.5297014    0.3391456 -25.82  0.002145953    2.281    0.562
        49 -11.6310     93.6045    137.6374   9.6861335306e+01   3.5250204368e+01    0.2859647    0.2618572 -35.74  0.001563421    1.158    0.137
        50  -9.0109    117.8763    134.1758   8.9426516046e+01   3.1749594844e+01    0.3913511    0.1992365  62.06  0.001202221    3.721    0.731
        51 -10.5245    105.9675    130.7543   9.1914622149e+01   3.4777344475e+01    0.3889507    0.3336417 -61.41  0.001155701    1.149    0.129
        52 -10.2683    135.7709    128.2172   8.3280572011e+01   2.9558436978e+01    0.5798083     0.169224 -48.54  0.001662697    3.472    0.712
        53  -9.3443    160.8337    128.2930   7.7120382745e+01   2.4190707111e+01    0.2864902    0.2135431 -53.48  0.001312293    1.418    0.295
        54  -8.4967     97.5862    129.5031   9.3998049251e+01   3.6556602769e+01    0.1505046    0.1407134 -69.09 0.0001889334    1.044    0.042
        55 -10.3707    101.1215    124.9553   9.1954969280e+01   3.7035816963e+01    0.3120954    0.2530301 -19.15 0.0006252496    1.469    0.319
        56 -10.9155    119.5624    123.2207   8.6364261293e+01   3.3989021928e+01    0.5088076     0.348107 -10.66  0.001925751    2.325    0.570
        57 -10.3086    113.6979    129.1162   8.9392772479e+01   3.3738095806e+01    0.3565189    0.3114542 -11.38 0.0008539945    1.311    0.237
        58  -9.4382    109.1557    118.1260   8.8012436589e+01   3.7187756428e+01    0.2252505    0.2140343 -48.59 0.0004128218    1.014    0.013
        59 -10.1582    231.3871    113.6535   5.9600917704e+01   1.1796867956e+01    0.2877717    0.2646113  39.00 0.0008519726    1.207    0.172
        60  -9.8759    134.6226    106.8046   7.8025383254e+01   3.4568433569e+01    0.3497319    0.1552005 -45.40  0.001012708    2.217    0.549
        61  -9.2858    167.4050    112.6302   7.1599052394e+01   2.6000285567e+01    0.3342682    0.2594969 -80.32  0.001382046    1.733    0.423
        62 -11.7931    118.3248    109.7456   8.3253207096e+01   3.7332492585e+01    0.6892251    0.5918963  80.17  0.002771123    1.393    0.282
        63  -9.5885    205.4819    110.2314   6.3217668991e+01   1.7880545615e+01    0.3094622    0.2421364  37.93  0.001235218    1.392    0.281
        64  -9.6940     72.1616    250.1918   1.1676925874e+02   1.3811261806e+01      0.19096    0.1240603  53.90 0.0003063738    1.215    0.177
        65  -8.8977     76.4552    221.8030   1.1336933751e+02   1.8608508771e+01    0.3296899    0.1368803 -56.95 0.0005926368    2.616    0.618
        66  -9.3011     59.5547    220.2948   1.1665744063e+02   2.1144007562e+01    0.3015161    0.1918816  23.38  0.001667115    2.141    0.533
        67  -8.4622    156.3056     82.3175   6.5677218221e+01   3.4554977641e+01    0.1572852    0.1223199  11.46 0.0003050723    1.629    0.386
        68  -8.8228    184.6032     77.1689   5.8394608060e+01   2.8643305688e+01    0.2162159    0.1439528 -22.33 0.0007854532    1.751    0.429
        69  -9.5789     65.0395     70.0902   8.8821896555e+01   5.5419729272e+01    0.2108239    0.1855522 -23.86 0.0003135442    1.022    0.021
        70  -8.1314     84.2627    245.6617   1.1411771219e+02   1.2997561819e+01    0.1201039   0.07439375  66.64 0.0001937229    1.587    0.370
        71 -12.6128    180.6828     51.7875   5.1946637725e+01   3.3644816893e+01    0.7662669    0.6895198   2.25 0.0009571796    1.290    0.225
        72 -10.6786    249.1169    243.1978   8.2570930078e+01  -1.0833120316e+01    0.2897453    0.1246725 -17.29  0.001354319    3.007    0.667
        73  -9.4134    189.6531     15.0450   4.0482544715e+01   3.6042499001e+01    0.2246544    0.1683215 -88.01 0.0007397719    1.261    0.207
        74 -10.5296    246.9863    236.7675   8.1869981852e+01  -9.7944163581e+00    0.1474905    0.1268861 -30.67  0.001053033    1.636    0.389
