#   1 NUMBER                 Running object number                                     
#   2 MAG_AUTO               Kron-like elliptical aperture magnitude                    [mag]
#   3 X_IMAGE                Object position along x                                    [pixel]
#   4 Y_IMAGE                Object position along y                                    [pixel]
#   5 X_WORLD                Barycenter position along world x axis                     [deg]
#   6 Y_WORLD                Barycenter position along world y axis                     [deg]
#   7 A_WORLD                Profile RMS along major axis (world units)                 [deg]
#   8 B_WORLD                Profile RMS along minor axis (world units)                 [deg]
#   9 THETA_WORLD            Position angle (CCW/world-x)                               [deg]
#  10 FWHM_WORLD             FWHM assuming a gaussian core                              [deg]
#  11 ELONGATION             A_IMAGE/B_IMAGE                                           
#  12 ELLIPTICITY            1 - B_IMAGE/A_IMAGE                                       
         1  -8.2457    139.2400     34.6025   7.9314397234e+01   4.6623561856e+01    0.2066098    0.1253739  49.76 0.0004373811    1.538    0.350
         2 -12.3460    247.3814    222.6767   1.0448326951e+02  -7.5945790541e+00     1.419415    0.4331779 -36.92   0.00616667    3.638    0.725
         3 -12.2614    249.0971    244.1391   1.0770268411e+02  -1.0190839793e+01     1.086837    0.7547635  42.17  0.007442145    1.678    0.404
         4 -13.3070      5.4333    140.3964   1.4469809341e+02   4.5509500905e+01     3.735007    0.7585571 -79.27   0.01217648    4.907    0.796
         5  -9.3484     38.5001    241.5527   1.4507365808e+02   2.1537134348e+01     0.229354    0.1296901  64.95 0.0009104286    1.336    0.252
         6  -9.8743     45.5666    237.9137   1.4364181298e+02   2.1345577979e+01    0.3104401    0.1671261  69.11  0.001293581    1.549    0.354
         7  -8.4637     83.5745    237.7874   1.3683695262e+02   1.6377077949e+01    0.1541673   0.09698337  86.94 0.0009448441    1.689    0.408
         8 -10.1988     64.2382    233.5654   1.4001694179e+02   1.9774360015e+01    0.3674803     0.230209  81.88  0.001603646    1.494    0.331
         9  -8.4780     39.4806    235.4926   1.4454618522e+02   2.2501467546e+01    0.1108749   0.07971688  67.62 0.0001035387    1.013    0.013
        10  -9.7582     48.5957    230.5777   1.4262134451e+02   2.2306226352e+01    0.2802801    0.1553573  78.30  0.001344037    1.642    0.391
        11  -9.5292     40.5408    229.6919   1.4399843502e+02   2.3434287314e+01    0.2421828     0.143163  70.66 0.0008074606    1.355    0.262
        12  -9.0531     67.6713    250.0956   1.4064632093e+02   1.6441530522e+01    0.1966936    0.1110274  55.68  0.001083765    1.319    0.242
        13  -8.8191    149.6958    228.3419   1.2323440977e+02   7.5920105321e+00    0.1256145   0.08846024  66.78 0.0003652704    1.681    0.405
        14  -8.7580    165.8860    226.8526   1.1991507233e+02   5.0812649785e+00    0.1983872    0.1550439  24.99  0.001234547    1.273    0.214
        15  -9.2610     54.7231    222.7356   1.4092949718e+02   2.3007324302e+01    0.2723579    0.1614653  74.00  0.001074282    1.493    0.330
        16  -8.6812     39.1160    223.6700   1.4386315454e+02   2.4722967489e+01    0.2535893    0.1090624 -81.62  0.001385225    2.250    0.556
        17  -8.9329     53.0189    250.3404   1.4315678573e+02   1.8274304613e+01    0.1559218    0.1035704  57.42 0.0005865418    1.103    0.093
        18  -8.2979    183.5860    222.8251   1.1594135520e+02   2.6643195866e+00     0.150246    0.1237741 -57.65 0.0007543913    1.620    0.383
        19  -9.4745     76.2516    224.1801   1.3698653692e+02   1.9867899206e+01    0.2972881    0.1836216  70.57  0.001448645    1.501    0.334
        20  -9.3717    150.1925    222.6232   1.2235512744e+02   8.4348877544e+00    0.1870781    0.1041656  34.95   0.00094582    1.679    0.404
        21  -9.3030     45.3918    221.2401   1.4255003250e+02   2.4441726010e+01    0.2247745    0.1471573  68.89  0.000900156    1.196    0.164
        22 -11.2765     18.5775    192.7873   1.4570981011e+02   3.3037289060e+01     1.491241    0.4480539  75.92  0.004557874    6.671    0.850
        23  -8.5717     63.9563    221.4668   1.3908974722e+02   2.2053422533e+01    0.1701073   0.09529716  45.94 0.0005838216    1.508    0.337
        24 -11.4584    248.4720    249.5678   1.0864640130e+02  -1.0658851390e+01     1.795088    0.4473953  43.82  0.006836545    4.688    0.787
        25  -9.5549     33.6893    216.8712   1.4440796338e+02   2.6638824207e+01     0.309544    0.1502071  78.88  0.001759794    1.918    0.479
        26  -8.9022    197.8076    217.6363   1.1243749663e+02   9.8790066852e-01    0.2048937    0.1637548  -9.71  0.001096503    1.361    0.265
        27 -12.6833    239.9126    229.3331   1.0685503933e+02  -7.2607969156e+00     1.034553    0.5756062 -25.79  0.006144491    1.891    0.471
        28 -11.1194    146.7830    214.0012   1.2180723521e+02   1.0475787418e+01    0.3174649    0.2230584  17.09  0.001675997    1.926    0.481
        29 -11.5048    150.4523    206.8036   1.1999326516e+02   1.1081742184e+01    0.4215144    0.2749967  44.06  0.002093875    1.315    0.239
        30  -9.2601     28.0918    213.6023   1.4522871871e+02   2.7887705677e+01    0.3234163    0.1220308  63.11  0.001625314    2.427    0.588
        31 -11.3551    157.2897    212.2106   1.1943542021e+02   8.9322617107e+00     0.332823    0.2958989 -77.45  0.002117645    1.356    0.262
        32  -9.0814     57.6772    212.2902   1.3952068731e+02   2.4648491620e+01    0.2566339    0.1420797  65.49  0.001001151    1.610    0.379
        33  -8.5216     44.8766    213.1232   1.4205339432e+02   2.6072524276e+01    0.1844528    0.1149957  67.30 0.0007653894    1.300    0.231
        34  -8.8408     68.7800    211.8317   1.3729735504e+02   2.3268249761e+01    0.2450163    0.1136541  59.38  0.001219385    2.031    0.508
        35  -8.1396    182.6647    216.6871   1.1515508596e+02   3.7419159160e+00     0.131419   0.09166076  14.25 0.0007045672    1.686    0.407
        36  -9.1283    181.0473    210.3241   1.1444106521e+02   5.0113234078e+00    0.2577404    0.2093966  53.13  0.001084082    1.295    0.228
        37  -9.5998    170.3965    210.2135   1.1651543592e+02   6.9295773208e+00    0.1709882    0.1270035 -61.69 0.0008604239    1.775    0.437
        38 -11.3020    164.4196    208.8758   1.1749240196e+02   8.2213223253e+00    0.4212507    0.3076778  -6.19  0.002240844    1.968    0.492
        39 -10.5141    158.4884    205.5112   1.1815582307e+02   9.8621952500e+00     0.236111    0.1603016  35.82 0.0008434918    1.345    0.257
        40  -8.6911    196.6498    209.1064   1.1123371577e+02   2.4378058819e+00    0.1755128    0.1564497   3.27 0.0008409412    1.135    0.119
        41  -8.9879     35.7875    208.5137   1.4344904975e+02   2.8038775739e+01    0.2327829    0.1169379  61.40 0.0009897511    1.670    0.401
        42  -9.8950    174.6073    214.9305   1.1643569242e+02   5.4256945539e+00    0.2632199    0.1984383  28.65  0.001497873    1.234    0.189
        43  -9.4548    174.1391    206.9006   1.1523800770e+02   6.7988738371e+00    0.1863333    0.1472721  18.15  0.001067519    1.337    0.252
        44  -8.6082     51.2388    206.4067   1.4028726443e+02   2.6632590415e+01    0.1736384    0.0844418  50.89 0.0009468289    1.714    0.417
        45  -9.9411     87.4331    204.4604   1.3275038354e+02   2.2061108568e+01    0.3665319    0.1294072  59.52  0.001198365    4.473    0.776
        46  -9.0507    189.1464    203.3807   1.1169596666e+02   4.6535433210e+00    0.2243121    0.1989223 -48.00 0.0007897038    1.365    0.267
        47  -8.3091    200.3902    202.3898   1.0935832284e+02   2.7891713336e+00    0.2383993    0.1137792 -24.55 0.0009547124    3.179    0.685
        48  -9.0136    181.9844    203.0742   1.1304642352e+02   6.0003110680e+00    0.2100401    0.1821812  31.56  0.001012478    1.007    0.007
        49 -11.0516    142.0110    202.0936   1.2101375524e+02   1.3440637496e+01    0.3346184    0.2438688  37.02  0.001239468    1.286    0.223
        50 -12.1041      4.2046    180.5830   1.4779843783e+02   3.6873743764e+01     1.157282    0.5388313  83.48  0.006641418    1.810    0.448
        51  -9.3559    175.0152    201.2890   1.1412828890e+02   7.5671978148e+00     0.299199    0.1911651 -64.78  0.001416003    2.465    0.594
        52  -8.3450     60.7111    201.9601   1.3799149164e+02   2.6327843500e+01    0.2319126   0.08463182  61.67 0.0008889189    3.462    0.711
        53  -8.4915     31.1572    202.4222   1.4390975546e+02   2.9772351109e+01    0.1612979   0.07802144  52.61 0.0008038149    1.713    0.416
        54 -10.4239     12.8319    216.7079   1.4814931299e+02   2.8862959012e+01    0.4557297    0.1785075  54.72  0.002105524    1.951    0.487
        55  -9.6893     18.7104    201.2525   1.4621707872e+02   3.1303244421e+01    0.2388452    0.1383418  60.34 0.0008676286    1.386    0.279
        56 -11.1973    166.5697    199.9183   1.1560273392e+02   9.3537083420e+00    0.3602803    0.2968111  75.30  0.001761425    1.501    0.334
        57  -9.5922    132.5634    200.7942   1.2279587097e+02   1.5362961178e+01    0.3660608    0.1748577  36.47    0.0016092    2.073    0.518
        58  -8.3025     53.1604    198.7457   1.3923592320e+02   2.7954858780e+01    0.2175179   0.09098885  65.88 0.0009459316    2.766    0.638
        59 -10.4482     82.2515    198.5001   1.3315719632e+02   2.4040029165e+01    0.3411147    0.1418732  42.45  0.001572613    2.111    0.526
        60  -9.6877    178.8072    196.3631   1.1251935300e+02   7.6925046713e+00     0.292176    0.1897202 -62.48  0.001399814    2.299    0.565
        61 -10.7359    150.5986    197.1190   1.1843818815e+02   1.2795020904e+01    0.3239446    0.1758319  45.67  0.001532962    1.625    0.385
        62  -8.2345    206.3481    196.1815   1.0711100295e+02   2.6676790154e+00    0.1720949     0.121834 -45.72 0.0009378446    1.700    0.412
        63 -10.0092    171.6047    195.8992   1.1389468175e+02   9.1138191780e+00    0.2411878    0.1735033  32.83 0.0007340313    1.302    0.232
        64  -8.3232     92.0000    196.9313   1.3089936200e+02   2.2889232156e+01    0.1999533   0.07126851 -62.43 0.0008049383    2.960    0.662
        65  -8.8019    188.1682    194.6954   1.1035836468e+02   6.2292858875e+00    0.2133299    0.1872075 -49.05 0.0009084676    1.352    0.261
        66  -9.2995    124.9832    194.6657   1.2349729139e+02   1.7879460672e+01    0.2257024      0.19454 -16.02 0.0009486545    1.588    0.370
        67  -8.5691     39.2224    193.8096   1.4165532040e+02   3.0644825892e+01    0.2163955    0.0863926  66.34 0.0009522106    2.806    0.644
        68 -12.1948      6.7113    224.4200   1.4956621421e+02   2.8012403489e+01     2.263054    0.3151692  58.14  0.007619294    6.326    0.842
        69  -8.4067    196.4488    193.2189   1.0846711778e+02   4.9349444419e+00     0.170361    0.1299139 -52.88 0.0009334842    1.662    0.398
        70  -8.8183    133.7336    193.3898   1.2142094320e+02   1.6571640071e+01    0.1964031    0.1204203  34.72  0.000948733    1.659    0.397
        71  -8.5621    112.4972    193.0382   1.2596060662e+02   2.0359150303e+01    0.1924809    0.1306625 -59.84  0.001030764    1.593    0.372
        72  -8.0190     29.0000    192.9543   1.4365468320e+02   3.1943810671e+01    0.1783944   0.05563328 -75.01 0.0007879542    2.843    0.648
        73  -9.9357    153.3222    192.1026   1.1703742333e+02   1.3214316914e+01     0.187749    0.1814918  81.62  0.001159409    1.127    0.113
        74 -10.3558    148.3611    190.9359   1.1789381151e+02   1.4358413722e+01    0.3317138    0.2081932  13.19  0.001339323    2.989    0.665
        75  -8.0245    202.2735    190.3271   1.0680534325e+02   4.3200485177e+00    0.1348665   0.09774739   6.04  0.000546037    1.584    0.369
        76  -9.9608    175.0888    189.1841   1.1199669370e+02   9.6248079029e+00    0.2333581    0.2130371 -80.70  0.001208562    1.331    0.249
        77 -10.0902    164.0373    189.7123   1.1437639195e+02   1.1632835462e+01    0.3001279    0.2037117  59.61  0.001213931    1.667    0.400
        78  -9.0564    181.6144    188.8085   1.1060045125e+02   8.4482175155e+00     0.179809    0.1320633 -54.19 0.0009438248    1.661    0.398
        79  -8.2010    188.5314    188.5389   1.0916251162e+02   7.1818276542e+00    0.1377792     0.122253  27.94 0.0001831797    1.004    0.004
        80  -8.4505     23.3270    187.8765   1.4442882859e+02   3.3587357980e+01    0.1939308    0.1080056  76.08  0.001153245    1.542    0.352
        81  -9.8929    158.9333    186.5430   1.1489193366e+02   1.3186270175e+01    0.2047336    0.1948693 -48.77 0.0007347153    1.169    0.144
        82  -8.9451     73.6659    187.6806   1.3375810075e+02   2.7549922663e+01    0.1168625    0.1013971 -30.62 0.0004386872    1.699    0.411
        83  -8.0161    196.2969    186.6677   1.0727773235e+02   6.0251938195e+00    0.1283221    0.1097527  83.41 0.0007028943    1.643    0.391
        84  -8.1721    120.7002    186.6477   1.2321496008e+02   2.0239460498e+01    0.1306313    0.1099419  -9.10 0.0007037231    1.696    0.410
        85 -12.7480      6.0718    242.8811   1.5043134986e+02   2.4777177786e+01     1.316349    0.6061694  88.23  0.008835626    1.804    0.446
        86  -8.7757    152.4708    185.5251   1.1609158320e+02   1.4609466383e+01    0.1404705    0.1267267  43.84 9.408654e-05    1.021    0.020
        87  -8.8093    129.0210    185.4790   1.2119263196e+02   1.8987361937e+01    0.1887741    0.1207452  19.55 0.0008092533    2.458    0.593
        88  -8.5922     18.5004    184.9900   1.4520358984e+02   3.4666415464e+01    0.2034894   0.09842875  69.77 0.0006616011    1.865    0.464
        89  -9.3415     16.6195    180.7914   1.4529684159e+02   3.5730471852e+01    0.2937419     0.139893  77.19   0.00142614    1.932    0.482
        90 -10.1716    168.7538    183.7792   1.1232503405e+02   1.1806634089e+01    0.2644526    0.2230161  70.21  0.001003453    1.376    0.273
        91  -9.9200    140.7320    183.8383   1.1834616502e+02   1.7153943456e+01    0.2553267    0.1782576  35.02  0.001298049    1.434    0.303
        92  -9.3186     99.6978    183.1677   1.2738745279e+02   2.4540601880e+01    0.2622783    0.1206442 -69.04  0.001079793    2.617    0.618
        93  -8.9532    185.9570    182.9781   1.0863597372e+02   8.6194420192e+00    0.2102042    0.1730459  80.13  0.001124804    1.667    0.400
        94  -9.2903    178.6883    179.5228   1.0946201435e+02   1.0640192617e+01    0.2236924    0.1772791 -73.16 0.0009710388    1.726    0.421
        95 -10.7604     34.3241    249.1002   1.4618471731e+02   2.0710853598e+01    0.8193985     0.394843  58.33  0.005391443    1.506    0.336
        96  -8.4964    194.3801    177.2557   1.0584096285e+02   7.9682233500e+00    0.1845126    0.1318404 -49.44 0.0007396504    1.636    0.389
        97  -9.3088    171.0441    176.0148   1.1038615006e+02   1.2785796268e+01    0.2249346    0.1762005  79.82  0.001119419    1.723    0.419
        98  -9.1574    152.1475    176.1479   1.1448096813e+02   1.6483216080e+01    0.2170303    0.1944006  21.45  0.000952605    1.198    0.165
        99 -10.1033     17.1461    175.1145   1.4478186682e+02   3.6893305772e+01    0.2159137    0.1269148 -89.61   0.00123963    1.384    0.278
       100  -9.8374    164.1017    173.3555   1.1135589490e+02   1.4665806709e+01    0.2319018    0.2051295 -18.62 0.0007656646    1.268    0.211
       101  -8.7831    185.7738    173.8158   1.0689575363e+02   1.0260372900e+01    0.1878455    0.1694738  75.70 0.0008561771    1.331    0.248
       102  -8.5675    181.6459    168.2921   1.0663873921e+02   1.2085041987e+01    0.1431173    0.1139481  77.23 0.0007029435    1.682    0.405
       103  -8.5068    140.9492    174.7619   1.1671124657e+02   1.8928075014e+01    0.1940701    0.1126665  42.29 0.0006924022    1.599    0.374
       104  -9.3615    171.2674    166.1875   1.0840229268e+02   1.4588908700e+01    0.2837435    0.1882113  67.51  0.001234772    2.103    0.524
       105  -8.3044    195.5377    162.5201   1.0260947023e+02   1.0302358082e+01     0.141889    0.1347904  24.46 0.0001639062    1.047    0.045
       106  -8.6466    174.6672    162.3351   1.0688734387e+02   1.4624432697e+01    0.1481426    0.1169017  84.78 0.0007052199    1.735    0.424
       107  -8.1601    139.6910    161.6750   1.1455155948e+02   2.1876682199e+01    0.1442738    0.1177288  -1.25 0.0007037843    1.653    0.395
       108  -8.6849    151.4899    166.5181   1.1280455730e+02   1.8529473240e+01    0.1460102    0.1361265  49.75 0.0001353403    1.001    0.001
       109 -10.6140     16.5800    159.2432   1.4366687275e+02   4.0412795096e+01    0.3359438    0.2033849  69.83  0.002051769    1.483    0.326
       110  -8.9592    179.2533    156.9846   1.0478771287e+02   1.4686274378e+01    0.1882118    0.1271879 -41.65 0.0006559649    1.546    0.353
       111  -9.1917    170.1643    157.3993   1.0682439370e+02   1.6511126410e+01    0.2147469    0.1350353  54.58  0.000945656    1.685    0.406
       112  -8.1809    146.6749    151.6843   1.1090890913e+02   2.2568395599e+01    0.1499397    0.1201122   2.97 0.0007043477    1.669    0.401
       113 -11.7325     24.0945    229.7724   1.4687227501e+02   2.5264391400e+01     1.472218    0.3795582  60.51   0.00626791    3.726    0.732
       114 -10.0216     18.1926    141.6403   1.4168440961e+02   4.4239141560e+01    0.2684197    0.1488557  75.12  0.001471572    1.795    0.443
       115 -10.6930     29.4919    227.2931   1.4579935389e+02   2.5134859662e+01       1.0466    0.2312985  59.24  0.003753928    5.093    0.804
       116 -13.1842      8.7980    201.9090   1.4810829097e+02   3.2124368870e+01     3.107529     1.170639  77.68   0.01569338    2.551    0.608
       117 -12.5281     14.8043    243.8227   1.4908606940e+02   2.3736780975e+01     1.040292    0.5673548  66.99  0.007521688    1.306    0.234
       118  -9.8347     46.0751    245.8786   1.4405039231e+02   1.9886163331e+01    0.2550205    0.1652344  60.59  0.000964688    1.111    0.100
       119 -10.4769      5.1796    110.9645   1.4189233630e+02   5.2194850122e+01    0.3413357     0.167003 -88.15  0.001791131    1.934    0.483
       120 -10.0115     54.7491    240.8907   1.4224044297e+02   1.9688303395e+01    0.3261923    0.1787096  86.22  0.001631071    1.788    0.441
       121  -9.1240     75.0023    241.4957   1.3870333943e+02   1.6924994638e+01    0.2123204    0.1324942  78.98  0.001013094    1.557    0.358
       122  -9.2753    243.1331     58.2357   6.9814952117e+01   1.7174020410e+01    0.2184428    0.2031581 -47.65  0.000460065    1.086    0.079
