#   1 NUMBER                 Running object number                                     
#   2 MAG_AUTO               Kron-like elliptical aperture magnitude                    [mag]
#   3 X_IMAGE                Object position along x                                    [pixel]
#   4 Y_IMAGE                Object position along y                                    [pixel]
#   5 X_WORLD                Barycenter position along world x axis                     [deg]
#   6 Y_WORLD                Barycenter position along world y axis                     [deg]
#   7 A_WORLD                Profile RMS along major axis (world units)                 [deg]
#   8 B_WORLD                Profile RMS along minor axis (world units)                 [deg]
#   9 THETA_WORLD            Position angle (CCW/world-x)                               [deg]
#  10 FWHM_WORLD             FWHM assuming a gaussian core                              [deg]
#  11 ELONGATION             A_IMAGE/B_IMAGE                                           
#  12 ELLIPTICITY            1 - B_IMAGE/A_IMAGE                                       
         1 -16.1494     11.2575     75.6544   1.2290704033e+02   5.9527484219e+01     4.660098    0.9649151 -50.33   0.01853178    3.041    0.671
         2 -15.0960    123.1566     17.7100   6.8898457167e+01   5.0752371657e+01     3.413913     2.923834 -25.84   0.02281525    1.362    0.266
         3 -13.7305     63.6770      8.1497   8.0215383193e+01   6.3360135178e+01     2.573341    0.8899771  37.04   0.01183095    2.660    0.624
         4 -13.6797    149.2114     63.5524   7.6868697472e+01   3.9069251259e+01     1.420765     1.137078 -30.39  0.004588673    1.393    0.282
         5 -13.3790    160.8887     49.2480   7.0807977190e+01   3.8462945019e+01       1.0172      0.97916  70.08  0.003701677    1.113    0.101
         6 -12.8312    174.2208     19.2103   6.1220364776e+01   3.9060353699e+01    0.8269594    0.7015932  80.66  0.004197753    1.035    0.034
         7  -9.6486    189.3139     15.9258   5.8644503060e+01   3.5998169058e+01    0.1691457     0.144522 -76.02 0.0006504599    1.121    0.108
         8 -11.7753    232.5481    250.3569   1.0102072775e+02  -1.2627670492e+01    0.2020135    0.1422779  23.76  0.001281903    1.296    0.229
         9 -12.7862    187.9684    249.4117   1.0942093165e+02  -6.0278551542e+00    0.8598568    0.3215877  39.68  0.003659297    2.443    0.591
        10 -10.7362    127.9805    246.9154   1.2136671677e+02   4.1546818047e+00    0.2760003    0.1849523 -44.28  0.001476561    1.763    0.433
        11 -11.3342    115.0398    250.4587   1.2451675616e+02   5.5705211540e+00    0.1839999    0.1445805  39.19  0.001088334    1.192    0.161
        12 -19.3187     71.2014    223.9545   1.3050375408e+02   1.7964107350e+01      5.83269     5.035058  50.47   0.02675912    1.193    0.162
        13 -11.1099    164.7088    188.5620   1.0349535880e+02   9.7651191114e+00    0.2797374    0.2634513 -82.36 0.0002242249    1.146    0.127
        14 -11.7308    174.4358    186.9084   1.0101448492e+02   8.2595484246e+00    0.4263728    0.3234615 -83.70  0.001706652    1.878    0.467
        15 -10.4004      6.1261    230.1493   1.4410808452e+02   2.4595771730e+01    0.1670961     0.125334  79.05 0.0004510694    1.027    0.027
        16 -12.3037    189.0452    178.6078   9.6195763562e+01   7.2210780425e+00    0.8022162    0.4653815 -56.62  0.002210505    2.009    0.502
        17 -10.5995    185.4784    170.4944   9.5252239506e+01   9.6279644913e+00    0.4351115    0.2549625 -57.81  0.001629899    2.000    0.500
        18 -11.0433    199.0061    227.0266   1.0342612021e+02  -3.9500429002e+00    0.2106154       0.1886   0.02 0.0007406446    1.017    0.017
        19 -10.7590    135.1052    181.0529   1.0889311126e+02   1.7179194023e+01    0.2686946    0.2160238  45.39 0.0006580616    1.239    0.193
        20 -10.0000    203.5516    175.3023   9.2551632723e+01   5.1592841802e+00    0.2867019    0.1340279 -48.73  0.001132678    2.136    0.532
        21 -10.7805    167.9959    236.5031   1.1140778897e+02  -5.5041267884e-01    0.2367858    0.1968648 -40.55 0.0004995083    1.295    0.228
        22 -10.7001    195.4722    174.0076   9.3911322592e+01   6.9499606101e+00    0.3502298    0.2700609 -52.08 0.0009368073    1.311    0.237
        23 -11.7489    238.6162    173.6895   8.5716434332e+01  -7.1383776378e-01    0.3416637    0.2408894  54.32  0.001193678    1.805    0.446
        24 -10.2911    207.7189    172.7849   9.1209678557e+01   4.8913242769e+00    0.3663223    0.2221053 -57.19  0.001116572    1.950    0.487
        25 -10.9266    176.8374    170.0993   9.7023761949e+01   1.1426189966e+01    0.3325819    0.2041626 -57.02  0.001204298    1.808    0.447
        26 -10.9927    230.6554    169.0593   8.6175346268e+01   1.4979261521e+00    0.3258449     0.154056 -50.68  0.001351431    2.214    0.548
        27 -10.7139    239.6514    169.1049   8.4622543485e+01  -3.9508281077e-02    0.2019473    0.1923756  70.75 0.0005353895    1.279    0.218
        28 -10.7988    191.7952    165.0929   9.2784282396e+01   9.5282165151e+00    0.6434199    0.3047807 -57.25  0.002260906    2.809    0.644
        29 -11.5148    189.2323    156.2109   9.1391869124e+01   1.1924301379e+01    0.5285227    0.4927948   1.38  0.002006951    1.164    0.141
        30 -11.4149    196.2275    234.0422   1.0520907218e+02  -4.7308522002e+00    0.2300261     0.190912 -60.55  0.001231857    1.582    0.368
        31  -9.8846    239.9539    164.0459   8.3554818056e+01   8.4745089806e-01    0.1642744     0.143778 -36.05 0.0003962965    1.013    0.013
        32  -9.8265      3.8246    163.1366   1.3903907499e+02   4.0139978460e+01    0.2953538    0.1530504  74.99  0.001453949    2.197    0.545
        33 -13.1183     11.7088    206.7323   1.4130519233e+02   2.9218564891e+01    0.4491431    0.3595319  27.16  0.001435466    1.672    0.402
        34 -10.0971    207.9360    161.8908   8.8883092020e+01   7.0497314343e+00    0.2128414    0.1990789 -41.78 0.0003907217    1.026    0.025
        35 -10.4259     23.9614    203.6842   1.3849037124e+02   2.8660564672e+01    0.3017552    0.2364776  34.48  0.001223485    1.544    0.352
        36 -12.5946    133.6390    146.3988   1.0193391685e+02   2.5700696875e+01     1.532947    0.4129605 -55.09  0.003621508    5.256    0.810
        37 -10.2049    137.2956    147.2892   1.0122119557e+02   2.4740935728e+01     0.250176    0.1974088 -32.57  0.000209517    1.397    0.284
        38  -9.5320     22.9137    157.1059   1.3360065972e+02   3.9967711947e+01    0.1981563    0.1639341 -71.97 0.0006167346    1.034    0.033
        39 -10.7378     17.2561    154.9014   1.3477174943e+02   4.1016056056e+01     0.368533    0.2191397 -66.59 0.0006613929    1.358    0.263
        40 -11.5161     27.4425    146.9874   1.3101334859e+02   4.2013467422e+01    0.4893777    0.3286058 -55.54  0.001966638    1.310    0.237
        41 -10.7076      8.0901    149.5008   1.3646155196e+02   4.3068759334e+01    0.2587644    0.1685172 -67.83 0.0007512325    1.217    0.178
        42 -11.2046    143.4406    146.1711   9.9451097088e+01   2.3728662107e+01    0.7200685    0.3223622 -60.68  0.002222597    3.254    0.693
        43  -8.5728    227.2730    144.3114   8.1638314011e+01   6.8628427344e+00    0.1362337    0.1068766 -15.39  0.000235283    1.553    0.356
        44 -10.2845     35.5257    142.5215   1.2810399816e+02   4.2300664173e+01    0.2449125     0.136965  26.34  0.001196558    2.121    0.528
        45  -9.2839    140.1612    247.2587   1.1887625182e+02   2.0829626059e+00    0.2662256     0.129465  53.73  0.001107421    2.410    0.585
        46 -10.3813    133.6555    199.7181   1.1271523787e+02   1.3132395624e+01    0.4743598    0.2954732  21.81  0.001800127    2.187    0.543
        47 -11.2516    135.2572    122.9047   9.5920613533e+01   3.0785026369e+01    0.6954379    0.2067123 -49.08  0.001996643    3.446    0.710
        48  -9.2193     24.9510    140.4890   1.3073523157e+02   4.3830246166e+01    0.1664282    0.1340477  18.49  0.001006904    1.531    0.347
        49 -10.6043     11.8607    137.1081   1.3386494727e+02   4.5743847079e+01    0.2243207    0.1603904 -52.33 0.0003580656    1.263    0.208
        50 -10.6595    160.3137    129.1174   9.1442289034e+01   2.3965067027e+01    0.4168072     0.295244 -57.30  0.001879581    1.462    0.316
        51 -11.8775    121.4262    127.9676   1.0074757163e+02   3.2508929738e+01    0.5477147    0.3426594  27.01  0.002219975    2.056    0.514
        52 -10.7550     29.6533    128.4788   1.2745889479e+02   4.6291380485e+01    0.3309292    0.2246296 -10.48   0.00175506    1.986    0.496
        53 -11.1543    110.4730    123.3747   1.0258061429e+02   3.5741122800e+01     0.325811    0.2929176 -24.31 0.0006219807    1.185    0.156
        54 -10.4032    114.7291    118.1945   1.0011939625e+02   3.6087569954e+01     0.268365    0.2530655  30.33 0.0004022601    1.102    0.092
        55 -10.7484     31.1686    249.5988   1.4089596124e+02   1.7736435360e+01    0.2033291    0.1471948  88.73 0.0004613633    1.168    0.144
        56 -10.7897    134.5614    113.7885   9.3788394482e+01   3.2939741463e+01    0.4677922    0.1495584 -44.31  0.001437202    3.104    0.678
        57 -10.5192    220.0094    198.8173   9.4055385561e+01  -2.2779259361e+00    0.2519363    0.1783425 -39.01 0.0007808642    1.319    0.242
        58  -9.3221    167.7628    113.8742   8.6078195379e+01   2.5550515918e+01    0.2969953    0.2025383  83.87  0.001183012    2.107    0.525
        59  -8.7085    169.2522     96.7079   8.1486089971e+01   2.8627507467e+01    0.1463915    0.1120705 -74.67 0.0001803007    1.484    0.326
        60  -9.3607    163.3137    244.6959   1.1368428076e+02  -1.2672892711e+00    0.2639388    0.1491292  19.44  0.000991574    2.389    0.581
        61  -9.2745    225.2448     89.2307   7.0165622458e+01   1.7520147542e+01      0.18404    0.1671234 -60.97 0.0003661776    1.116    0.104
        62  -8.8460    135.6479     86.2788   8.6171984193e+01   3.8261819621e+01    0.1499301      0.11621  89.05 0.0007010825    1.648    0.393
        63  -9.4793    144.1146     83.1322   8.3330325959e+01   3.6933779696e+01    0.2169414     0.201246  19.42 0.0004773141    1.194    0.163
        64 -12.1983    135.6997    129.9985   9.7554802532e+01   2.9088681537e+01     1.403849    0.2663967 -50.64  0.002950539    6.532    0.847
        65  -9.7499    140.3605    241.3023   1.1796864962e+02   3.1836919351e+00    0.2040336    0.1773073 -37.96 0.0006527199    1.306    0.234
        66 -12.1092    165.7414     40.4951   6.7723737413e+01   3.8504853102e+01    0.4081242    0.3680959 -88.22 0.0008372741    1.058    0.055
        67 -11.7994    135.4973    239.2085   1.1869074687e+02   4.4074925573e+00    0.4092554    0.3473677 -79.09   0.00127803    1.340    0.254
        68  -8.9564    221.4697     41.0218   6.0461348806e+01   2.5821951269e+01    0.1833749    0.1153335 -42.45  0.001029942    1.594    0.373
        69 -15.4832     67.1592    140.1940   1.1869416046e+02   3.8992823071e+01     3.676725     2.711662 -61.25   0.01896875    1.242    0.195
