#   1 NUMBER                 Running object number                                     
#   2 MAG_AUTO               Kron-like elliptical aperture magnitude                    [mag]
#   3 X_IMAGE                Object position along x                                    [pixel]
#   4 Y_IMAGE                Object position along y                                    [pixel]
#   5 X_WORLD                Barycenter position along world x axis                     [deg]
#   6 Y_WORLD                Barycenter position along world y axis                     [deg]
#   7 A_WORLD                Profile RMS along major axis (world units)                 [deg]
#   8 B_WORLD                Profile RMS along minor axis (world units)                 [deg]
#   9 THETA_WORLD            Position angle (CCW/world-x)                               [deg]
#  10 FWHM_WORLD             FWHM assuming a gaussian core                              [deg]
#  11 ELONGATION             A_IMAGE/B_IMAGE                                           
#  12 ELLIPTICITY            1 - B_IMAGE/A_IMAGE                                       
         1 -17.3514    169.2445     70.3039   6.9829986589e+01   3.3198324272e+01      7.64546     3.381837  46.89   0.02869549    2.307    0.567
         2 -16.4256    200.3075     93.3126   7.0674439941e+01   2.2517214739e+01     2.633212     2.090982 -21.26   0.01421516    1.170    0.145
         3 -16.5011    229.8859    123.4763   7.3170998570e+01   1.2441124189e+01     2.448017     1.635794 -27.33   0.01372573    1.381    0.276
         4 -19.0564    182.1934    134.8677   8.4086632921e+01   1.9813122627e+01     7.604816     5.123786  28.46   0.03935111    1.484    0.326
         5 -12.0539    214.0970     19.6686   4.7815718066e+01   2.8699556761e+01    0.2684423    0.2483157  -0.15 0.0003350373    1.130    0.115
         6 -12.4500    238.7523     17.5420   4.5147222570e+01   2.3209807221e+01    0.4845129    0.1719498 -28.91  0.002029758    2.215    0.549
         7 -11.0100     12.1945     15.7846   1.0606768021e+02   7.3291538555e+01    0.3656203    0.1598019 -59.02  0.001784356    1.862    0.463
         8  -9.9096      1.7426     14.9894   1.1289276105e+02   7.4099477854e+01     0.171371    0.1259917 -58.01 0.0003537154    1.070    0.065
         9 -13.0613    238.1919      4.2755   4.1675744835e+01   2.4546661796e+01    0.4663895    0.3057949 -32.12  0.002411296    1.295    0.228
        10 -12.6655    248.5281      4.7289   4.1170519212e+01   2.2256440292e+01    0.5943273    0.2585441 -14.96  0.002662695    2.323    0.570
        11  -9.8165    208.2709      9.6808   4.5388405111e+01   3.1080702488e+01    0.1457232   0.09046599 -49.62 0.0002004625    1.564    0.361
        12 -12.1389    227.7977      6.3194   4.2911505080e+01   2.6722863581e+01    0.2307542    0.1818152 -21.22 0.0006863849    1.193    0.161
        13  -9.8471     26.6653      7.2878   9.2060623806e+01   7.3633301000e+01    0.1127003    0.1009327 -85.28 0.0003543431    1.629    0.386
        14 -10.1500    178.4420      6.2197   4.7132246849e+01   3.9017425433e+01    0.2141393    0.1178085 -34.90 0.0009453878    1.701    0.412
        15 -10.4342     62.8279      6.8141   7.2568740765e+01   6.7919687702e+01      0.20207    0.1672371   3.80 0.0003416316    1.137    0.120
        16 -11.2890    201.9789      3.9404   4.4184946040e+01   3.3157732991e+01    0.2085541    0.1945868 -51.17 0.0004794221    1.018    0.018
        17 -11.4276     40.1948      2.7491   8.0913940782e+01   7.2543334867e+01    0.2588178    0.2155221  40.92 0.0007746457    1.432    0.302
        18 -11.9840     86.0761    180.1412   1.1246115279e+02   2.7853328445e+01    0.4043934    0.2104257 -74.67  0.002101906    2.360    0.576
        19 -11.6696    201.9135    249.3853   9.9242929071e+01   2.4173731335e+00    0.1742962    0.1258945  22.52 0.0002810463    1.063    0.059
        20 -11.3712    193.7183    249.9372   1.0059369842e+02   3.3923308665e+00    0.1987991    0.1428374  31.89 0.0006769115    1.174    0.148
        21 -10.9657    190.2247    249.0252   1.0104063211e+02   3.9201282179e+00    0.1574034    0.1065166  28.26  0.001234207    1.035    0.034
        22 -11.9901    245.4236    235.9625   9.0906762748e+01  -1.7674241346e+00    0.2310023    0.1532156 -17.79  0.001165461    1.607    0.378
        23 -11.4803    232.6579    236.0162   9.2807910763e+01  -2.2085622544e-01    0.2523905    0.1563978  16.46  0.001055183    1.211    0.175
        24 -10.7420    102.7844    236.3594   1.1454164533e+02   1.6625202854e+01    0.2130339    0.1299707  62.78  0.001454458    1.787    0.440
        25 -10.0502    118.8155    235.1516   1.1160256359e+02   1.4767160400e+01    0.1370631    0.1084248  24.97 0.0007493844    1.299    0.230
        26 -11.4918    175.1456    230.8718   1.0134789815e+02   7.7904672797e+00    0.2694615    0.2465157   0.18  0.002277159    1.331    0.249
        27 -10.1497    227.9877    232.3077   9.3008104430e+01   6.8446730283e-01    0.1473882   0.09627969  24.41 0.0003590129    1.106    0.096
        28 -10.1638     81.8779    230.1277   1.1778933700e+02   2.0051607233e+01    0.1566427    0.1053625  51.77 -0.0006383859    1.158    0.136
        29 -10.4876     69.3183    230.1383   1.2004952011e+02   2.1503964160e+01     0.166549    0.1136266  36.91 0.0003783717    1.295    0.228
        30 -12.5475    244.5278    223.2007   8.9217570672e+01  -5.9520435014e-01    0.4762946    0.2667272   4.91  0.001399508    1.651    0.394
        31 -11.6652    237.2239    220.7038   8.9946761921e+01   5.4752717556e-01    0.2510067     0.238459 -86.48  0.001532246    2.431    0.589
        32 -11.7424    197.0728    226.5036   9.7125614475e+01   5.2923958606e+00    0.2353082    0.1530248  28.48 0.0003560361    1.145    0.126
        33 -11.7159    203.1846    225.6246   9.6006667813e+01   4.5587764215e+00    0.2917871    0.1640552  33.74  0.001006086    1.363    0.267
        34 -12.7586    205.4426    221.2240   9.5031207537e+01   4.7064649649e+00    0.4542667    0.2316612 -22.11  0.002032034    2.356    0.576
        35 -10.0318     91.5040    227.5525   1.1584687751e+02   1.9272976000e+01    0.1073379   0.08015092  47.02  4.73055e-05    1.008    0.008
        36 -10.1014    219.1001    226.1021   9.3524595126e+01   2.3971998676e+00     0.167486    0.1060032  18.59 0.0006938993    1.234    0.190
        37 -12.5254    181.6687    221.9738   9.9107966240e+01   7.9039204810e+00    0.4823752    0.1851269  34.89 0.0008761036    2.066    0.516
        38 -13.2571    168.0263    223.9146   1.0170915860e+02   9.5749888230e+00    0.8476107    0.2064681  39.43  0.003606651    3.155    0.683
        39 -10.5590    175.5517    220.5103   9.9968664847e+01   8.9290770725e+00    0.1586791   0.08420001  29.87 0.0001094722    1.559    0.359
        40 -10.5543    216.8643    221.9657   9.3294515908e+01   3.0922652056e+00    0.1588657    0.1190917  20.52   0.00044393    1.084    0.078
        41 -11.3784    198.8353    221.4178   9.6144711903e+01   5.5897272157e+00    0.2914696    0.1447728  23.02  0.001673904    1.951    0.487
        42 -12.5400    131.1984    220.8204   1.0793331318e+02   1.5073763868e+01    0.4089478    0.2802933  39.64  0.002864707    1.130    0.115
        43 -13.0935    123.7936    215.7698   1.0875670972e+02   1.6802298713e+01    0.5438702    0.4406641  29.82  0.004047818    1.167    0.143
        44 -11.7727    128.8611    211.2989   1.0730503602e+02   1.6749605704e+01    0.2114123    0.1962858 -89.44   0.00061371    1.329    0.248
        45 -10.5943    230.5648    220.0592   9.0871177263e+01   1.4671154336e+00    0.1925278    0.1261274  39.82  0.001055464    1.644    0.392
        46 -10.9479    173.0673    247.3483   1.0361340345e+02   6.2779672980e+00    0.1511782    0.1306649  23.90 0.0003276229    1.257    0.204
        47 -12.0215     88.1387    173.8601   1.1129152678e+02   2.8752682015e+01    0.2837411    0.2144601 -88.66  0.001791988    1.429    0.300
        48 -11.2351     30.4024    213.9898   1.2625424974e+02   2.8176558259e+01    0.1802813    0.1193557  43.82  0.000161888    1.245    0.197
        49 -10.7911     16.9758    176.5414   1.2718706161e+02   3.6181058658e+01    0.1467067   0.09272095  37.51 7.540186e-06    1.496    0.331
        50  -9.5015     79.2672    213.6895   1.1701487581e+02   2.2906098317e+01    0.1090413   0.06565067  60.36 0.0002363943    1.541    0.351
        51 -10.0261     50.4808    213.4839   1.2247771854e+02   2.6224975447e+01    0.1056518   0.08000375  55.73 0.0008100863    1.019    0.019
        52 -10.3219     38.1176    165.8711   1.2187160216e+02   3.6329871370e+01     0.179764    0.1242349  63.79 0.0002848498    1.215    0.177
        53 -12.9309     91.8676    163.1297   1.0910387664e+02   3.0303982999e+01    0.4066575     0.324092 -79.58  0.002553368    1.329    0.248
        54 -10.3493     43.4698    165.0812   1.2057942293e+02   3.5938217285e+01    0.1646042    0.1259957  80.14 0.0004246014    1.144    0.126
        55 -11.6485     42.3457    160.3774   1.2045420251e+02   3.7024240660e+01    0.5268432    0.1792941 -87.97  0.001930856    4.386    0.772
        56 -10.9850     65.0899    163.1375   1.1535962334e+02   3.3867993920e+01    0.2180722    0.1586321  89.17 0.0005858775    1.354    0.262
        57 -10.6969     98.3877    160.8377   1.0727865056e+02   2.9803967939e+01    0.2202716    0.1531107  49.59 0.0006526888    1.311    0.237
        58 -10.6824    248.5856    159.4769   7.7813275667e+01   5.0596515260e+00    0.2134027    0.1932729 -62.02  0.001445355    2.032    0.508
        59 -11.1499    134.1212    208.8574   1.0602359431e+02   1.6361254367e+01     0.177599     0.132316  48.93 0.0005993752    1.239    0.193
        60 -11.3542    102.5598    155.7922   1.0556855513e+02   3.0167492967e+01    0.3199726     0.213568 -83.80  0.001663789    1.947    0.486
        61 -11.5423     15.8675    156.2919   1.2639300460e+02   4.0351316673e+01    0.1941936    0.1226023  78.78 0.0005592458    1.317    0.241
        62 -12.7880     96.2491    139.6906   1.0455618835e+02   3.4429267321e+01    0.5400231    0.3732946  75.23  0.002709904    1.778    0.438
        63 -11.2548     94.0120    145.9960   1.0613069786e+02   3.3453755208e+01    0.2846819    0.1703522  44.37 0.0006968916    1.553    0.356
        64 -12.3738     90.7726    142.1551   1.0633819921e+02   3.4745406753e+01    0.4592032    0.2500043 -59.15  0.002246753    1.880    0.468
        65 -11.3420     97.2918    149.6231   1.0588832927e+02   3.2210393456e+01    0.3139199    0.1909595 -69.73   0.00103124    1.885    0.469
        66 -12.1799     82.5237    151.7826   1.0980302507e+02   3.3920597371e+01    0.3525933     0.243903  67.64 0.0006138332    1.516    0.340
        67 -11.9477     89.9520    151.0229   1.0788227362e+02   3.3017140499e+01     0.360074    0.2264777 -33.59  0.001750472    2.405    0.584
        68 -11.0567     50.2882    149.9836   1.1756765347e+02   3.8361867556e+01    0.1730886    0.1382297  88.11 0.0005010355    1.131    0.116
        69 -11.6915     86.9700    140.5077   1.0704473531e+02   3.5660064492e+01    0.2353108    0.2158249 -83.96 0.0006023215    1.080    0.074
        70  -9.5771     71.6184    152.7070   1.1259664899e+02   3.5199344551e+01    0.1196496    0.0979509 -18.44 0.0007018524    1.753    0.429
        71 -11.2084     56.7084    145.8582   1.1550665402e+02   3.8515885834e+01    0.1939316    0.1670266  32.10 0.0007198225    1.312    0.238
        72 -11.3423     81.6445    144.1985   1.0895402843e+02   3.5640126755e+01    0.3000846    0.2161189  20.47 0.0005165833    1.732    0.423
        73 -10.4099     11.6455    207.7205   1.2947312900e+02   3.0943609986e+01   0.08081952   0.07687978 -35.50   0.00028083    1.655    0.396
        74 -10.2043     14.2944    140.8985   1.2586332750e+02   4.3761879257e+01    0.1624178    0.1223298  88.54 0.0003531464    1.115    0.103
        75 -11.8402    100.8128    136.0654   1.0277851526e+02   3.4470742665e+01    0.2830479    0.2477532  55.37  0.001128713    1.086    0.079
        76 -10.7386     80.3296    137.3334   1.0826756325e+02   3.7305536174e+01    0.2146801    0.1876232 -72.72 0.0002323681    1.137    0.120
        77 -11.5203     70.9971    137.9833   1.1080659908e+02   3.8447138668e+01    0.3306101    0.1752828  49.16  0.001236529    1.825    0.452
        78 -12.8905    100.7971    150.1978   1.0513005356e+02   3.1556517123e+01    0.5715337    0.3831308 -28.59  0.002849555    2.237    0.553
        79 -10.3996     66.4358    134.4933   1.1152386330e+02   3.9818044090e+01    0.1293349    0.1144202  79.36 0.0001131198    1.013    0.013
        80 -11.2219    126.1838    204.8697   1.0706897394e+02   1.8083779205e+01    0.3027594    0.1949239  83.41  0.001641143    2.773    0.639
        81  -9.9944     47.4937    133.4783   1.1649614740e+02   4.2310271732e+01    0.1260027    0.1080732  79.89 0.0008102586    1.003    0.003
        82 -10.8154     77.9145    131.8821   1.0805644058e+02   3.8845635493e+01    0.1860894    0.1747495 -40.90 0.0002756481    1.237    0.192
        83 -10.6967     92.7502    128.7016   1.0355662113e+02   3.7330176659e+01    0.2755065    0.1374733 -65.41  0.001172761    2.282    0.562
        84 -12.3055     93.9231    124.1376   1.0239938179e+02   3.8141650886e+01    0.4542243    0.3248065  84.22  0.001222828    1.744    0.427
        85 -11.0438     87.5519    128.1839   1.0485180776e+02   3.8247636096e+01    0.3181633    0.2385691  -4.62   0.00160968    2.040    0.510
        86 -10.4992    249.8945    130.8055   7.1792654013e+01   8.0674339180e+00    0.2318644    0.1448019   1.36 0.0007771581    1.586    0.370
        87 -16.6620    188.9160    113.8202   7.7933427320e+01   2.1795399126e+01     1.564575     1.316869 -60.88  0.008532792    1.551    0.355
        88 -10.3383     81.1795    125.0816   1.0604155550e+02   3.9890430742e+01    0.1888312    0.1745259 -50.53 0.0002755852    1.181    0.153
        89  -9.9852      6.6900    124.3487   1.2681594908e+02   4.7995081303e+01    0.1282267   0.06699131  64.38 0.0006374987    1.712    0.416
        90 -10.9973     63.0065    122.5813   1.1072005590e+02   4.2958498550e+01    0.3301507    0.1390433  24.11  0.001265963    3.362    0.703
        91  -9.9638     30.0960    121.8634   1.2005540130e+02   4.6720163602e+01    0.1559155    0.1330481 -61.27  0.001029387    1.271    0.213
        92 -10.2725     68.9849    121.0012   1.0876580436e+02   4.2536281060e+01    0.2001607    0.1803284  81.80 0.0003418455    1.023    0.022
        93 -11.7507     86.1012    115.9118   1.0297563734e+02   4.1209093900e+01     0.472639    0.3193394  -6.92  0.002038808    2.748    0.636
        94 -11.0518      9.8147    117.0006   1.2543975966e+02   4.9460241996e+01    0.1959798     0.169317  46.89 0.0002780228    1.276    0.216
        95 -11.5334      5.9727    114.4797   1.2636605093e+02   5.0295807089e+01    0.2316629    0.1408792 -84.71  0.000749093    1.340    0.254
        96 -11.6228     12.2794    203.1280   1.2920120863e+02   3.1683631298e+01    0.3113364    0.1000319  65.25  0.001638758    2.700    0.630
        97 -10.5133     76.6039    201.6876   1.1653920163e+02   2.5223944509e+01    0.2293788    0.1068449 -72.72  0.001257864    2.549    0.608
        98 -10.0563     67.3216    114.6852   1.0818007243e+02   4.4219587679e+01    0.1411927   0.09609862  71.03 0.0004016545    1.658    0.397
        99 -10.5641     34.1324    197.9184   1.2475462933e+02   3.0596654672e+01    0.1631009    0.1054817  60.23 0.0002560016    1.203    0.169
       100 -10.4641     71.0273    117.3144   1.0755519312e+02   4.3105383312e+01    0.1825134     0.167612  67.33 0.0004631449    1.066    0.062
       101  -9.7315     36.6722    112.2757   1.1701385685e+02   4.8348485233e+01    0.1314011   0.08359796  64.85 0.0003302907    1.590    0.371
       102 -10.3125    132.9244    246.6463   1.1022899607e+02   1.1505541505e+01    0.1502404   0.09407871  39.91 0.0005808995    1.161    0.139
       103 -10.5287     33.0756    108.9099   1.1768911578e+02   4.9491007624e+01    0.1903396    0.1598461 -86.25  0.000432119    1.015    0.015
       104 -10.6498     85.1949    106.6439   1.0134164746e+02   4.3457362855e+01    0.3843251    0.1698443 -50.24 0.0008871349    2.204    0.546
       105 -10.8975    241.3779    104.7741   6.7167040067e+01   1.2680366849e+01     0.308866    0.1442776 -27.06  0.001438685    1.857    0.461
       106 -10.6772     95.8904    196.0051   1.1209961388e+02   2.3716922390e+01    0.1672791    0.1406885  49.38 0.0002668538    1.033    0.032
       107 -10.5935     85.3208    100.4475   9.9937453196e+01   4.4855360249e+01    0.2434141    0.1702874 -81.02 0.0007618386    1.740    0.425
       108 -16.5883    143.5839    142.7639   9.3830606895e+01   2.5739314814e+01     2.404736     2.146508  61.59   0.01436087    1.226    0.184
       109  -9.6987     48.5703    100.2865   1.1149591911e+02   4.9961283942e+01    0.1443894    0.0884264  64.09 0.0006942449    1.870    0.465
       110 -11.5457     72.6958     97.9213   1.0328050142e+02   4.7389311709e+01    0.2816572    0.2538056  82.40 0.0009219249    1.107    0.096
       111 -11.6252     46.1984    200.3452   1.2250535759e+02   2.8933568443e+01    0.2500485    0.2097081 -49.56 0.0009036304    1.680    0.405
       112 -11.4402    155.9636    245.1800   1.0620449676e+02   8.7210915347e+00    0.2392738    0.1557445  21.11  0.001080788    1.475    0.322
       113 -10.7746     60.8843     97.4506   1.0696954473e+02   4.9138980311e+01    0.2261572    0.1715572 -77.36  0.000327795    1.275    0.216
       114 -10.1409     32.7084     95.4673   1.1597259445e+02   5.2755827104e+01    0.2343424    0.1003674 -69.94  0.001052153    1.997    0.499
       115 -10.4311    227.2346     94.9263   6.6816468200e+01   1.6664514870e+01    0.2077383    0.1781736  -1.97 0.0003102126    1.048    0.046
       116 -12.3702    227.2222     90.5786   6.5731608874e+01   1.7235672960e+01    0.3594245    0.2896909  64.47  0.002041359    1.559    0.359
       117 -11.1880     75.5576     93.9809   1.0148997110e+02   4.7885134006e+01    0.3439493    0.2124819  49.71  0.000644939    1.750    0.429
       118 -10.9814    105.5167     93.0527   9.2135595883e+01   4.2961225690e+01    0.2145676    0.2028886  51.16  0.000580556    1.084    0.077
       119 -11.6440     92.1726     92.9872   9.6065574455e+01   4.5402078848e+01    0.2313258    0.2085132  42.93            0    1.156    0.135
       120 -11.2468     98.8830     91.4312   9.3646696405e+01   4.4551574461e+01     0.263151    0.2059138 -51.86   0.00073194    1.236    0.191
       121 -11.3442     87.9931     89.0654   9.6348976658e+01   4.7010328402e+01    0.3759853    0.2457737  25.06  0.001719987    1.924    0.480
       122 -10.1668     66.5504     89.9812   1.0351481084e+02   5.0147310531e+01    0.2211011    0.1269244 -59.16  0.001030375    1.599    0.375
       123 -10.0876     79.5192     88.0462   9.8785710918e+01   4.8647410061e+01     0.218856    0.1335118 -55.39 0.0004044643    1.540    0.351
       124 -10.4757     50.1317     88.1323   1.0871728658e+02   5.2714085125e+01    0.1808571    0.1451751  80.50            0    1.291    0.226
       125 -10.7682    239.8022     83.2525   6.2173167225e+01   1.5637512070e+01    0.4318756    0.1771264 -25.57  0.001710427    2.125    0.529
       126 -10.6398    231.0924     85.2682   6.3845199838e+01   1.7134388206e+01    0.2801434    0.1785433  50.24 0.0007826799    1.709    0.415
       127 -16.3831    225.3581    180.0742   8.5257124789e+01   6.3081858359e+00     2.750492     1.628552 -21.00   0.01664315    1.659    0.397
       128 -10.2826     27.1278     79.0964   1.1536343723e+02   5.7235350257e+01    0.2025338    0.1456679 -51.17 0.0007144512    1.347    0.258
       129 -12.5274    222.8100     77.0033   6.2864146081e+01   1.9927965413e+01    0.3556108    0.2819868 -48.73 0.0007467428    1.407    0.289
       130 -13.2368    117.7982    191.7675   1.0714701796e+02   2.1362604237e+01     0.522799    0.4078952  33.63  0.002282407    1.169    0.145
       131 -13.0721    111.1801    184.8795   1.0765442133e+02   2.3488039548e+01    0.5478043    0.3718933 -82.98  0.003184622    1.987    0.497
       132 -11.7565     87.8837     73.1067   9.1894095131e+01   5.0612207176e+01    0.2784791    0.2269932 -17.99  0.001013752    1.439    0.305
       133 -11.3838    100.0674     71.6060   8.7532781310e+01   4.8631967062e+01    0.2690456    0.2287611 -49.46 0.0002745921    1.139    0.122
       134 -11.5185     53.4342     68.6274   1.0296447190e+02   5.6995362124e+01    0.3658034    0.2221703 -56.50 0.0009452768    1.448    0.309
       135 -10.2067     43.8205     68.8358   1.0678411081e+02   5.8102756295e+01     0.179218    0.1490424  85.72 0.0003276591    1.284    0.221
       136 -16.4390    130.4799    105.5744   8.8661081484e+01   3.5432499757e+01     4.151132      1.94821  42.79   0.01281518    2.135    0.532
       137 -11.1662      6.7946     67.9743   1.2159233819e+02   6.1339307959e+01    0.1940423    0.1727773 -44.03  0.000287116    1.266    0.210
       138 -11.3285    243.1306     65.9084   5.7393764261e+01   1.7053634822e+01    0.4215311    0.2633966 -78.30   0.00192511    2.787    0.641
       139 -17.7375    190.6521    169.6593   8.9393528053e+01   1.3145361916e+01     3.409008       2.3481 -14.35    0.0199484    1.562    0.360
       140 -17.1418    172.7395    154.5217   8.9989088487e+01   1.8467804399e+01     4.044891      1.94639  21.60    0.0143084    3.851    0.740
       141 -16.8005    212.7614    141.8744   7.9992143861e+01   1.3113335664e+01     1.840527     1.228275 -22.93  0.009364488    1.430    0.301
       142 -10.6154     29.9666     62.6516   1.1100162931e+02   6.0997098879e+01    0.1758905    0.1596894 -65.13 0.0004959339    1.074    0.069
       143 -11.4650    130.0227     61.9876   7.5862678020e+01   4.4014211909e+01    0.2260499    0.2186088  -3.74 0.0003302979    1.020    0.020
       144 -10.7514      9.9575     59.5096   1.1899846300e+02   6.3221804972e+01    0.2628092    0.1279788 -57.85  0.001070186    1.659    0.397
       145 -10.8915    234.1761     58.2044   5.6432108684e+01   1.9832078700e+01    0.4128598    0.2053493  36.80  0.001179078    2.533    0.605
       146 -10.6840     34.4491     58.3422   1.0804001855e+02   6.1612293196e+01    0.2486196    0.1534435 -47.65 0.0005717769    1.472    0.321
       147 -10.8164     18.4793     57.9632   1.1496787766e+02   6.3055555652e+01    0.2057438    0.1651812  56.99 0.0003619335    1.416    0.294
       148 -10.3216      1.5658     57.8657   1.2240988663e+02   6.4037811117e+01    0.1780132    0.1258883 -78.81 0.0006039826    1.140    0.123
       149  -9.3498     71.6879    193.2661   1.1680834645e+02   2.7297850691e+01       0.1172   0.06867214  58.11 0.0001881482    1.542    0.351
       150 -12.1076    138.4420     57.8103   7.2360876376e+01   4.2741629564e+01    0.3810305    0.2776671  -5.11 0.0009098497    1.671    0.402
       151 -10.1091    225.9793     56.0094   5.6816207156e+01   2.1878930850e+01      0.21791    0.1548748  12.70 0.0008851351    1.620    0.383
       152 -10.5949    119.0151     56.0645   7.6667680770e+01   4.7647942560e+01    0.2317515    0.2073072 -63.29 0.0004553927    1.237    0.191
       153 -13.4723    126.7180     52.6774   7.3403531991e+01   4.6445706780e+01    0.4763752    0.4329439 -14.26  0.000617435    1.089    0.082
       154 -12.9566    118.9182     51.0081   7.4830981641e+01   4.8579842149e+01    0.8419811    0.5380548 -73.44   0.00300555    2.893    0.654
       155 -11.4659    112.1630     55.1567   7.8252879079e+01   4.9370606871e+01     0.371979    0.2637361  60.96 0.0008521883    1.630    0.386
       156 -12.2466    249.3530     52.9401   5.3421482087e+01   1.7266431853e+01    0.2469156    0.1938739 -29.30 0.0003613329    1.090    0.083
       157 -12.1427    140.8989     48.8474   6.8620543543e+01   4.3614686108e+01    0.4275298    0.2761209 -24.20  0.001124873    1.581    0.368
       158 -12.6788    242.4068     48.4446   5.2970865561e+01   1.9203912112e+01    0.2960606    0.2485539  19.87 0.0006759291    1.298    0.230
       159 -11.9435    243.7297    243.3688   9.2162938234e+01  -2.1557547634e+00     0.211002    0.1338753  28.61 0.0007544252    1.271    0.213
       160 -10.0339     29.4776     49.4825   1.0791242473e+02   6.4196886708e+01    0.1325912    0.1119972 -59.28   8.5508e-06    1.016    0.016
       161 -11.1376    230.2970     47.3319   5.3957724107e+01   2.1945590459e+01    0.2602843    0.2019937 -45.40 0.0008271633    1.272    0.214
       162 -12.8098    147.5251     46.2972   6.6269839708e+01   4.2343869600e+01    0.5164528    0.3423896  17.88  0.001552177    1.991    0.498
       163 -11.7306    145.5715     42.8135   6.5415640919e+01   4.3362765171e+01    0.2856866    0.2562397 -67.43 0.0004826871    1.235    0.190
       164 -10.8990    239.8026    189.3786   8.4582272371e+01   3.2011439188e+00    0.2657768    0.1702459  24.96  0.001217978    1.266    0.210
       165 -11.6735     58.5012    216.3189   1.2114297768e+02   2.4886215857e+01    0.3750416    0.2486314  15.37  0.001310096    2.263    0.558
       166 -10.9628     66.7053     42.4801   8.8896568154e+01   6.0905013452e+01    0.4802274    0.3015813 -76.07  0.001811657    3.329    0.700
       167 -12.1452    117.4483     40.1575   7.1005644564e+01   5.0771408074e+01    0.5619415    0.3215675  20.79  0.001727349    2.903    0.656
       168  -9.8454     37.2466     42.4637   1.0204140053e+02   6.5039337069e+01      0.15755    0.1272736  45.42 0.0003789574    1.472    0.321
       169 -12.3075    124.8797     43.6427   7.0467423622e+01   4.8407079511e+01    0.6597794    0.2054588 -36.76  0.001712637    2.963    0.663
       170 -10.9377     93.6806     40.9744   7.8362272648e+01   5.6033338244e+01    0.2111301      0.18106 -32.74 0.0003302273    1.101    0.092
       171 -11.5952    191.6503     40.1239   5.6626800188e+01   3.1949940464e+01    0.2258961    0.2022981 -82.10 0.0003634431    1.227    0.185
       172 -11.9858    133.0354     39.5894   6.6941947275e+01   4.7022904319e+01    0.3697142    0.2756986  35.53    0.0011282    1.418    0.295
       173 -11.1538    165.8566     38.3696   6.0007939643e+01   3.8759505872e+01    0.3429692    0.2928596  54.59  0.000874576    1.197    0.165
       174 -11.0557     55.5689     39.0578   9.2238973866e+01   6.3393740815e+01    0.2130306    0.1924891  51.76 0.0007253053    1.309    0.236
       175 -10.8965     46.8646    195.1101   1.2203680957e+02   2.9798691901e+01    0.2018341    0.1467191 -30.68 0.0003675147    2.399    0.583
       176 -10.4165    248.7958    185.2712   8.2507153105e+01   2.3523776976e+00    0.2990703   0.09602535  33.01    0.0013713    2.906    0.656
       177  -9.2041     72.6822     38.6978   8.4932345208e+01   6.0619538363e+01    0.1452241    0.1088121  -6.44 0.0002965521    1.622    0.384
       178 -12.1778    133.0273     33.1595   6.4424231815e+01   4.7967671936e+01    0.3648388     0.308992  26.25 0.0002589174    1.224    0.183
       179 -12.0787     85.6929     33.2448   7.7701657607e+01   5.9094995521e+01    0.3068497    0.2397439 -28.39  0.000198898    1.208    0.173
       180 -12.5973    198.6995     32.6752   5.3387731054e+01   3.1078901465e+01     0.416071    0.3165308  63.91 0.0007524146    1.390    0.281
       181 -11.2014    188.0340     33.1425   5.4904583811e+01   3.3707233358e+01    0.2334949    0.1997677 -28.16 0.0003291005    1.103    0.094
       182 -12.5350    214.4044     31.6152   5.1269734264e+01   2.7371255143e+01     0.310055    0.2745417  79.96 0.0002092875    1.239    0.193
       183 -11.8422    141.0398     31.7646   6.2184388619e+01   4.6097843198e+01     0.385092     0.250715   4.20  0.001614291    1.966    0.491
       184 -11.0417     68.3700     31.2534   8.3337643130e+01   6.2830807143e+01    0.2892501    0.1808895  43.14  0.001393385    1.739    0.425
       185 -10.3626    117.9317     30.4706   6.6871870371e+01   5.2151062428e+01    0.2315498     0.150442  59.00  0.001034034    1.609    0.378
       186 -10.9712     28.8868     28.2699   1.0108431838e+02   6.9102000089e+01    0.2348253     0.157322 -49.02 0.0002659377    1.235    0.190
       187 -11.6350     94.2512    214.3244   1.1420557000e+02   2.0940505426e+01    0.2862827    0.1698265  35.32 0.0008772409    1.443    0.307
       188 -12.0517    216.5674     25.7147   4.9335508166e+01   2.7488336706e+01    0.3588194    0.2213197 -44.43 0.0005618455    1.535    0.349
       189 -10.3356    121.7166    243.5661   1.1186062364e+02   1.3303811221e+01    0.1884359   0.09549862  42.75 0.0007577636    1.456    0.313
       190 -11.0644     71.0059     26.9186   8.0207569582e+01   6.3132780012e+01     0.213572    0.1918668 -16.21 0.0002976029    1.019    0.018
       191 -11.1451    209.6099     25.2712   4.9910521961e+01   2.9209010764e+01    0.3332598    0.1911402  81.12   0.00105975    2.052    0.513
       192 -11.9147    201.9670     23.0885   5.0060667935e+01   3.1319845174e+01    0.4200416    0.1912501 -14.94  0.001535292    2.372    0.578
       193 -10.4878     62.7858     24.3669   8.2358954619e+01   6.5098889938e+01     0.184793    0.1275582  28.89  0.000325338    1.600    0.375
       194 -10.0200     17.2327    184.7561   1.2751021259e+02   3.4588041214e+01     0.127098    0.1100831 -87.81 0.0003250441    1.305    0.234
       195 -11.0681    175.1478     22.3903   5.3070551958e+01   3.8269645331e+01     0.262242    0.2155047 -42.31 0.0003667299    1.194    0.162
       196  -9.9860    239.9041    183.9001   8.3622445726e+01   3.7491868551e+00    0.1711824    0.1172711   8.34 0.0003565761    1.191    0.160
       197  -9.8290    201.6256    243.1343   9.8527957949e+01   3.0365494029e+00    0.1246143   0.08222454  -6.25 0.0004303848    1.661    0.398
       198 -15.7412    232.0452    166.2893   8.1664874694e+01   6.8484809194e+00      1.49529     1.215097  40.15   0.01010071    1.484    0.326
       199 -11.0991    189.5623     27.0329   5.2741575935e+01   3.4020782617e+01    0.2844172    0.1853673  49.76 0.0007375287    1.599    0.375
       200  -9.9714     70.5278     19.9532   7.6872053328e+01   6.4411652588e+01     0.208319    0.1291524 -33.04 0.0003366139    1.492    0.330
       201 -10.5911     20.4483     18.6963   1.0199012515e+02   7.1987031119e+01    0.2062283    0.1333933 -49.26 0.0004839285    1.252    0.201
       202 -10.9298     16.1761     18.9552   1.0479953827e+02   7.2297558488e+01    0.1906161    0.1687102 -28.81 0.0003511435    1.145    0.127
       203  -9.8076    160.9847     16.9652   5.3122783209e+01   4.2607550677e+01    0.1807109    0.1678994 -20.25  0.000376336    1.062    0.058
       204 -11.3661     49.1834     16.5749   8.4578118557e+01   6.8789101531e+01    0.2651394    0.2119449 -17.75 0.0002041745    1.169    0.145
       205 -10.0485     52.7004     15.6892   8.2359155192e+01   6.8371038676e+01    0.1958918    0.1361511  33.55 0.0005203672    1.545    0.353
       206 -10.5445     81.8009    242.8841   1.1869480595e+02   1.8227441763e+01    0.1398999    0.1090732  43.19 0.0002781192    1.136    0.120
       207 -10.0520    181.9903     15.8272   4.9981754399e+01   3.7170095366e+01    0.2467733    0.1528018 -67.04  0.001085686    1.912    0.477
       208  -9.9754     62.0081     15.8031   7.8164572440e+01   6.6711100538e+01    0.1855898    0.1668735  -8.95  0.000396487    1.032    0.031
       209  -9.5992     21.5303    243.4165   1.2889356561e+02   2.4387135649e+01   0.09417731   0.06401021  54.01  9.41997e-05    1.027    0.027
       210  -9.7049     64.4804     11.5117   7.4675348219e+01   6.6914724856e+01    0.1392103    0.1230827  -9.78 0.0001421631    1.008    0.008
       211 -10.3061     23.6586     11.6876   9.6512925435e+01   7.3120015058e+01    0.1345966   0.08290471 -25.22 0.0003961058    1.700    0.412
       212 -11.2523    188.6367    241.9869   1.0046452580e+02   4.8177751540e+00    0.2967615    0.1202567  31.41  0.001540504    1.944    0.486
       213 -10.3153     32.6730    242.6860   1.2703141576e+02   2.3454227063e+01   0.07719734   0.07190106  13.51 0.0007043189    1.669    0.401
       214  -9.8219      2.5202    242.4933   1.3194024252e+02   2.6174721292e+01   0.09106337   0.06254549  56.64 1.115414e-05    1.061    0.057
       215 -10.0168    207.9555    241.4902   9.7326187404e+01   2.3861984306e+00    0.1587067    0.0746102  33.97 0.0006813535    1.558    0.358
       216 -10.2139    110.1568    240.7864   1.1361850434e+02   1.5111767454e+01    0.1319868   0.09907214  29.48 0.0003430797    1.282    0.220
       217  -9.8607     61.5126    240.9017   1.2206795390e+02   2.0775109211e+01    0.1216021   0.08931597  89.21 0.0004324238    1.509    0.337
       218 -12.6622    126.9689    237.6034   1.1040095332e+02   1.3395671515e+01    0.2146259    0.1781662  57.45 0.0004470288    1.297    0.229
       219 -10.7482     13.4240    216.7164   1.2944049236e+02   2.9276733091e+01    0.1183221   0.08083731 -81.43 0.0009425685    1.569    0.363
       220 -10.5061    181.9601    237.6534   1.0103365831e+02   6.1387008085e+00    0.2832098    0.1232781  23.90  0.001475853    2.606    0.616
       221 -10.4707     43.1602    237.9562   1.2506704691e+02   2.3124914240e+01    0.1660512   0.07412888  63.47  0.001076914    1.991    0.498
       222 -10.4418    245.0177    191.0096   8.4061356662e+01   2.3097703188e+00    0.1771317    0.1268694  10.00 0.0004988621    1.042    0.041
