#   1 NUMBER                 Running object number                                     
#   2 MAG_AUTO               Kron-like elliptical aperture magnitude                    [mag]
#   3 X_IMAGE                Object position along x                                    [pixel]
#   4 Y_IMAGE                Object position along y                                    [pixel]
#   5 X_WORLD                Barycenter position along world x axis                     [deg]
#   6 Y_WORLD                Barycenter position along world y axis                     [deg]
#   7 A_WORLD                Profile RMS along major axis (world units)                 [deg]
#   8 B_WORLD                Profile RMS along minor axis (world units)                 [deg]
#   9 THETA_WORLD            Position angle (CCW/world-x)                               [deg]
#  10 FWHM_WORLD             FWHM assuming a gaussian core                              [deg]
#  11 ELONGATION             A_IMAGE/B_IMAGE                                           
#  12 ELLIPTICITY            1 - B_IMAGE/A_IMAGE                                       
         1 -14.6578     68.3994    144.3372   1.0569557421e+02   3.7368506158e+01     5.081315     2.568825  70.87   0.01509298    3.932    0.746
         2 -14.4908    216.2819     23.6374   4.0019166129e+01   2.8909723861e+01     1.949708     1.355289  26.30   0.01011346    2.188    0.543
         3 -14.4920    202.8932     36.8368   4.4904894043e+01   3.0450956407e+01     2.306431     1.414829  31.82  0.009054884    2.440    0.590
         4 -10.5247      2.1300      4.2126   9.3366337209e+01   7.3981541015e+01     0.346159   0.04426432 -47.17  0.001202717    5.150    0.806
         5 -10.4201     55.0305      5.1746   6.6664805911e+01   6.7511594259e+01    0.2414174    0.1672539  68.09  0.001233448    2.973    0.664
         6 -12.0958    241.0388      2.2479   3.3049370429e+01   2.5745362464e+01     0.625875    0.2366389  76.23  0.002874571    2.526    0.604
         7  -9.1531    106.6806    210.2876   1.0614605993e+02   1.6606127398e+01    0.1354996   0.09145309  64.52 0.0003026842    1.596    0.373
         8 -10.3847    139.7714    249.8795   1.0438891545e+02   4.3507497238e+00    0.2066289     0.165687  76.83  0.001348382    1.575    0.365
         9 -14.4171     85.6107    228.7339   1.1269052828e+02   1.6051578419e+01     1.690221     1.314358  65.97  0.006225178    1.141    0.124
        10 -13.3258      7.6904    188.3387   1.2516769837e+02   3.3410281831e+01    0.6912372    0.3449121 -58.42  0.003903166    2.122    0.529
        11 -15.8246      7.5684    161.6956   1.2332330474e+02   3.9393177859e+01      5.45492     1.706974 -78.16   0.02348226    2.654    0.623
        12 -16.3300      8.8129    240.5629   1.2771833149e+02   2.2802933839e+01     3.017517     2.333683   6.46   0.02172782    2.429    0.588
        13 -14.1990     29.1899    247.9802   1.2465513605e+02   1.9384600263e+01    0.8525703    0.6376646  24.75  0.003572579    1.914    0.478
        14  -9.5779    113.3007    207.5971   1.0434068610e+02   1.6114033378e+01    0.2218674    0.1589911 -80.03 0.0006644255    1.652    0.395
        15 -11.7269    193.5324    195.4652   8.5052420615e+01   4.6551951658e+00     1.139122    0.6245708 -64.59  0.003325232    6.525    0.847
        16 -10.2108     62.9560    201.0473   1.1456185884e+02   2.4778819658e+01    0.1998717      0.16175 -89.17 0.0003478837    1.124    0.111
        17 -10.8939     64.8352    196.4019   1.1365679499e+02   2.5553899993e+01    0.3855654    0.3451987 -34.87  0.002483382    1.483    0.326
        18 -10.7125    208.8054    197.4497   8.2383987593e+01   1.7102853709e+00    0.2328853    0.2154798 -59.09 0.0007072628    1.498    0.332
        19  -8.8814    159.9910    197.0026   9.2405292852e+01   1.0297261819e+01    0.1623081    0.1538147  12.18 0.0003149793    1.049    0.047
        20  -9.8185    111.6858    197.3196   1.0323547683e+02   1.8504656125e+01    0.2762895    0.1744873  51.79 0.0007605428    1.544    0.352
        21  -9.7065    110.2972    194.6103   1.0315144646e+02   1.9305826174e+01    0.2681775    0.1729114  89.18 0.0008843257    2.183    0.542
        22  -8.7996     92.2894    184.2900   1.0582788876e+02   2.4409497698e+01    0.1274403    0.1076596 -24.37 0.0002405782    1.542    0.351
        23 -10.5060    145.6379    181.1919   9.2757949827e+01   1.6042945580e+01     0.320457    0.2385808 -63.93  0.001599661    1.579    0.367
        24  -9.9099     99.5071    180.7014   1.0357244988e+02   2.4103208233e+01    0.2342994    0.2083898  41.51 0.0005613428    1.143    0.125
        25 -12.3083     65.5993    177.3655   1.1124462353e+02   2.9776873576e+01    0.4482507    0.2876547 -46.77  0.001465721    1.819    0.450
        26 -12.1038     70.2807    172.1859   1.0943010585e+02   3.0373195128e+01    0.3210731    0.3077312 -35.62 0.0006548204    1.261    0.207
        27 -12.8742     86.3540    155.8736   1.0283146522e+02   3.1983595854e+01     1.498768    0.7975361 -62.06  0.002870826    1.821    0.451
        28 -12.4068     79.3714    162.5309   1.0573698872e+02   3.1409635627e+01    0.6115265     0.446319  57.11  0.000472034    1.401    0.286
        29 -13.6416     66.8849    158.4535   1.0833182676e+02   3.4113190330e+01    0.5742593    0.4830593 -58.36  0.001489629    1.183    0.155
        30 -10.2650    134.2446    247.7095   1.0519452313e+02   5.5308770888e+00    0.3146049    0.1853606 -77.45  0.001553541    3.028    0.670
        31 -10.0267     34.7372    171.7072   1.1791428007e+02   3.4672901431e+01    0.2174218    0.1517129 -82.82 0.0005837953    1.223    0.182
        32 -10.3713    230.5444    166.7764   7.2094219265e+01   3.0615224995e+00    0.3250801    0.1139588 -44.62  0.001147803    3.239    0.691
        33 -10.1610    158.3057    161.1407   8.5833497167e+01   1.7858044516e+01     0.345205     0.269916 -71.01  0.001276353    1.639    0.390
        34 -11.4052     33.5459    156.2726   1.1656714142e+02   3.8443504562e+01    0.3117031     0.255363  70.44  0.001144418    1.173    0.148
        35 -11.1015    133.5727    143.9311   8.8094013664e+01   2.6541471004e+01     1.161402    0.2803171 -53.96  0.002615834    6.117    0.837
        36 -10.0467    174.5735    148.5872   7.9350587400e+01   1.7198385772e+01    0.3783181    0.2525336 -68.22  0.001527265    2.353    0.575
        37 -12.3119     54.9761    144.3235   1.0937463801e+02   3.9058127866e+01    0.6901476    0.4293264  54.16  0.003462679    1.761    0.432
        38 -10.3388     99.7618    141.9996   9.6626464076e+01   3.3202097359e+01    0.3216323    0.2754023 -65.42 0.0008725322    1.139    0.122
        39 -10.0089    102.3231    139.0064   9.5304696902e+01   3.3489617718e+01    0.3812911    0.2423502 -29.44  0.001259257    2.125    0.529
        40 -12.2297     88.1124    140.7786   9.9591435044e+01   3.5390968506e+01    0.2908074    0.2527638 -41.88 0.0003998526    1.195    0.163
        41 -10.5742     81.5452    141.3982   1.0153431388e+02   3.6239795058e+01    0.2995227    0.2258415  64.97 0.0005710869    1.488    0.328
        42 -13.8093     24.9010    225.4803   1.2413103504e+02   2.4077566067e+01     1.100596    0.3800266  53.00  0.005606629    2.365    0.577
        43 -11.0890    126.9918    173.3463   9.5702155235e+01   2.1114783292e+01    0.4982727    0.2283758  28.26  0.001757814    2.940    0.660
        44 -10.2324    110.4869    130.8645   9.1261709900e+01   3.3994413724e+01     0.356945    0.2628825  10.98 0.0009463625    1.808    0.447
        45 -10.2269    105.9958    130.8167   9.2499421244e+01   3.4817453408e+01    0.3458568    0.2904774 -62.40  0.001398129    1.186    0.157
        46 -10.1702     35.4214    131.9023   1.1298115651e+02   4.4192793091e+01    0.2062283    0.1698394  55.35 0.0005639248    1.322    0.244
        47 -11.1181    135.8802    127.3401   8.3599556976e+01   2.9858474448e+01    0.4798938    0.2675429 -54.19   0.00188161    1.936    0.484
        48 -10.8098     97.8649    126.9306   9.3922852712e+01   3.7172725477e+01     0.320781    0.2678704 -14.18  0.001621781    1.421    0.296
        49  -9.7894    116.7899    124.7753   8.8082232642e+01   3.4252987465e+01    0.2565814    0.1676196 -10.16 0.0009409552    2.705    0.630
        50 -10.9906    139.5173    171.4842   9.2354350174e+01   1.9238494577e+01    0.3810641     0.259819  52.52  0.001705103    1.560    0.359
        51 -10.0081    160.4899    127.9939   7.7664183158e+01   2.4496234256e+01    0.2522494    0.1521992 -43.35 0.0001577896    1.624    0.384
        52  -9.9405    107.2033    119.5160   8.9495486573e+01   3.7291341663e+01    0.2432474    0.2007764 -48.47 0.0003597974    1.157    0.136
        53  -8.7669     86.6278    120.2484   9.5697689048e+01   4.0645085655e+01    0.1477747    0.1122002  68.11 0.0004403432    1.632    0.387
        54  -9.7099    168.3248    113.2695   7.2069865326e+01   2.5838888650e+01    0.3119943    0.2275426 -79.31  0.001097004    2.063    0.515
        55 -10.1875    135.0000    112.4834   8.0014744886e+01   3.3369380099e+01    0.3549375   0.08824959 -44.77 0.0009330998    3.922    0.745
        56 -15.8542     60.0544    247.3618   1.1919374095e+02   1.5933257824e+01      9.14143     2.871871  27.74  0.008368068   10.112    0.901
        57 -15.3021      9.5195    208.0543   1.2597856499e+02   2.9075925176e+01     2.007329     1.344906 -43.42  0.009227925    2.343    0.573
        58  -9.3515    114.5839    110.2281   8.5013990210e+01   3.8054191218e+01    0.2359123    0.1402667 -37.40 0.0009608201    1.752    0.429
        59 -10.6911     33.4998    108.4077   1.0983987983e+02   5.0122148203e+01     0.261614    0.1725453 -64.24  0.001038091    1.263    0.209
        60  -9.1102     59.3051    108.3215   1.0152304780e+02   4.7417394077e+01    0.1463165   0.09808204 -33.51  0.000262014    1.637    0.389
        61 -10.1228    205.5177    110.2581   6.3665244691e+01   1.8076719930e+01     0.303295    0.2404279  38.93 0.0009368109    1.358    0.263
        62  -9.9436    134.5746    106.2483   7.8436176482e+01   3.4826208213e+01    0.3148778    0.1496634 -47.69  0.001142546    2.120    0.528
        63 -10.2745     41.9324    103.3808   1.0615874183e+02   5.0551322325e+01    0.2175759     0.174078 -77.76  0.001258154    1.261    0.207
        64 -10.5651     36.4488    101.2681   1.0755886852e+02   5.1584676069e+01    0.2342897    0.2099905  64.88 0.0008945034    1.295    0.228
        65 -11.3581    245.0236    100.9856   5.4984905150e+01   1.1406566472e+01    0.2208605    0.1667519   3.20  0.001150781    1.736    0.424
        66  -9.6631    126.9898     94.4707   7.7136561017e+01   3.8983038256e+01    0.2112888    0.1399763  71.15 0.0004529292    2.390    0.582
        67 -10.5242     52.9876     91.1282   9.9681465650e+01   5.2283152564e+01    0.2613313    0.1793036 -53.30 0.0006599447    1.262    0.208
        68 -10.4893     41.6334     91.8318   1.0381842604e+02   5.3341639740e+01    0.2175451    0.2091403  85.32 0.0004398833    1.205    0.170
        69 -10.0625    249.7732     87.9721   5.1350965970e+01   1.2543897782e+01    0.1859587   0.09867887 -35.56 0.0004335687    1.633    0.388
        70  -8.9027     75.6032     85.2491   9.0265964976e+01   5.0584781000e+01     0.139175    0.1120952  68.01 0.0006945763    1.686    0.407
        71  -8.7393     36.6587     83.2946   1.0364035324e+02   5.5811722340e+01    0.1252451   0.09964933  73.70 0.0005141365    1.658    0.397
        72  -9.8853    159.3484     81.6267   6.5261571673e+01   3.4125080939e+01    0.2337807    0.1841483 -73.66 0.0008300435    1.590    0.371
        73  -9.4008    112.7863     82.2252   7.7472369723e+01   4.4519628670e+01    0.2365998    0.1672757 -87.64 0.0006299057    2.615    0.618
        74 -10.7755    243.1542     77.7984   4.9863120772e+01   1.5466288841e+01     0.180483     0.159857  -3.08 0.0004628743    1.343    0.256
        75  -8.9979     98.6746     71.2811   7.8262153281e+01   4.9531289477e+01    0.1399855    0.1203656  89.27  0.000318172    1.595    0.373
        76 -10.3352     51.9273     64.3117   9.2596505046e+01   5.8375567881e+01    0.3280856    0.2103001  47.11  0.001564062    2.111    0.526
        77 -10.3717     13.5203     59.9521   1.0705092872e+02   6.2793944865e+01    0.2156849    0.1817289 -52.23 0.0004315392    1.123    0.110
        78  -9.4085    204.3491     57.2820   5.0098579538e+01   2.7267681071e+01    0.1414833    0.1087043  29.68 0.0006197992    1.648    0.393
        79  -9.2672    173.5155    244.5066   9.7159968946e+01   2.9932200217e-02     0.192961    0.1239811 -48.92 0.0006229313    1.973    0.493
        80 -12.1526    194.3378     42.9556   4.7699583739e+01   3.1713730312e+01    0.6102678     0.421003  63.86   0.00113096    1.419    0.295
        81  -9.8163    171.6826    240.9241   9.7001737105e+01   8.4699104393e-01    0.2019863    0.1709397 -59.88  0.001000059    1.602    0.376
        82 -11.2021    139.7038     45.3333   5.8223910215e+01   4.4874759586e+01    0.3962383    0.2901461 -71.69  0.001005266    1.850    0.460
        83 -10.2349    143.3182     40.4031   5.5790604710e+01   4.4683670945e+01    0.2495585    0.2334693 -77.30 0.0003276975    1.162    0.140
        84 -13.6204     39.1254    204.6552   1.1991930844e+02   2.6832974663e+01    0.6162449    0.5146023  79.38  0.001415589    1.070    0.066
        85  -8.5658    115.6667     31.2835   5.8930034751e+01   5.2432210136e+01     0.133859    0.1107032 -77.07 0.0004142605    1.617    0.382
        86 -14.9990     49.2357    193.8723   1.1682346208e+02   2.8033257502e+01     2.053584     1.362175  80.90   0.01123345    1.410    0.291
        87  -9.7352    189.6724     15.0144   4.0704928403e+01   3.6206551423e+01    0.1811163    0.1666177 -51.83 0.0006769923    1.135    0.119
        88  -9.7319    197.7047    223.0124   8.9125240758e+01  -5.1361501864e-01    0.1721258    0.1493527   2.18 0.0004298396    1.094    0.086
        89  -8.8107    111.5570    217.5082   1.0603887226e+02   1.4412405578e+01    0.1292043    0.1139931  53.56 9.451732e-05    1.010    0.010
