#   1 NUMBER                 Running object number                                     
#   2 MAG_AUTO               Kron-like elliptical aperture magnitude                    [mag]
#   3 X_IMAGE                Object position along x                                    [pixel]
#   4 Y_IMAGE                Object position along y                                    [pixel]
#   5 X_WORLD                Barycenter position along world x axis                     [deg]
#   6 Y_WORLD                Barycenter position along world y axis                     [deg]
#   7 A_WORLD                Profile RMS along major axis (world units)                 [deg]
#   8 B_WORLD                Profile RMS along minor axis (world units)                 [deg]
#   9 THETA_WORLD            Position angle (CCW/world-x)                               [deg]
#  10 FWHM_WORLD             FWHM assuming a gaussian core                              [deg]
#  11 ELONGATION             A_IMAGE/B_IMAGE                                           
#  12 ELLIPTICITY            1 - B_IMAGE/A_IMAGE                                       
         1 -12.6666    211.6505     33.3817   4.2736560380e+01   2.8383302139e+01    0.9962217     0.674938 -56.67  0.004203764    1.397    0.284
         2 -12.7388    231.1925     13.4003   3.6088393326e+01   2.6299735921e+01    0.7111771    0.5676106 -62.88  0.002647565    1.060    0.056
         3 -12.3459    218.5328     26.3575   4.0265439203e+01   2.7652247316e+01    0.6261969    0.5400361  19.18  0.002096413    1.573    0.364
         4 -10.5262      2.1267      6.7686   9.2147506264e+01   7.3487934656e+01    0.3748031   0.06670962 -46.69  0.001434802    4.279    0.766
         5  -9.0122    124.3180      4.6663   4.6584585906e+01   5.2762503632e+01    0.1310612   0.09640821 -65.72 0.0003206272    1.694    0.410
         6 -13.5346    197.8450    231.5270   9.0127674500e+01  -2.3461985458e+00     1.126059    0.7741791  35.64  0.004281233    1.301    0.232
         7 -12.1797    178.2096    248.7683   9.6450721366e+01  -1.8116073167e+00    0.7616767    0.4009311  38.05  0.002913594    1.571    0.364
         8 -10.3381    177.9668    241.9611   9.5513819131e+01  -7.8939658097e-01    0.3314362    0.2969526  85.40  0.001602361    1.607    0.378
         9 -13.3581     92.0889    248.8948   1.1278663164e+02   1.1145384110e+01     2.107844    0.5861878  34.44  0.007721515    4.084    0.755
        10 -11.2418     70.1744    248.2888   1.1677280248e+02   1.4246569203e+01    0.4694368    0.3642799  76.81  0.002669638    1.158    0.137
        11 -10.8315     40.5101    246.0300   1.2190022526e+02   1.8344423179e+01    0.4376293    0.2278889 -56.67  0.002569149    2.521    0.603
        12 -11.2216     33.6980    243.9473   1.2295505164e+02   1.9509258445e+01    0.3819906    0.2245876  79.20  0.002315525    1.460    0.315
        13 -11.3562     32.2811    249.9966   1.2355483220e+02   1.8563553121e+01    0.5815261    0.2215517  32.89  0.002952375    3.004    0.667
        14 -10.8170     29.4036    247.2311   1.2388456289e+02   1.9385505934e+01    0.3358591    0.2100965 -75.35  0.002045083    1.603    0.376
        15 -12.7292     88.0789    228.8240   1.1154574727e+02   1.5403591268e+01     1.162947    0.6016442  64.19  0.003633962    2.215    0.548
        16 -12.2244     19.4152    219.8746   1.2404030691e+02   2.5707270822e+01    0.5717751    0.3402608  72.96  0.002018387    1.358    0.264
        17 -14.0729      6.8091    240.5346   1.2732835378e+02   2.2970002437e+01     1.892593      1.13166 -84.98   0.01358474    1.443    0.307
        18 -13.6767      9.1944    206.9525   1.2516933044e+02   2.9354895487e+01     1.058542    0.9916987  19.46  0.006399273    1.615    0.381
        19 -15.1351     33.7905    188.5637   1.1884517881e+02   3.0880960128e+01     9.015793     3.219367  84.73   0.02713827    5.818    0.828
        20 -12.2216    246.9327    219.7099   7.9220683868e+01  -7.9723281121e+00    0.7117291    0.4432944 -20.37  0.002803101    1.457    0.313
        21 -13.0153    248.6889    204.4084   7.6128286157e+01  -6.1606081254e+00     1.533749    0.4836105 -39.64  0.006240359    3.267    0.694
        22  -9.8382     62.2192    236.0393   1.1723334920e+02   1.7549855800e+01    0.2306044    0.1514493  77.67 0.0007330948    1.413    0.292
        23 -11.9967    134.2903    229.2716   1.0229688959e+02   8.2261106168e+00    0.4686552    0.3839438  11.93  0.002879281    1.451    0.311
        24 -13.1489    118.2410    231.0119   1.0575649503e+02   1.0455476177e+01     2.778759   0.09542638  42.20   0.00597385    9.372    0.893
        25 -11.6563    122.4800    225.8704   1.0424306492e+02   1.0732020245e+01    0.4233132    0.3429031 -76.77  0.002343128    1.408    0.290
        26 -12.3910     30.1250    208.9508   1.2126662917e+02   2.6834747664e+01    0.5204336    0.3523335 -50.93  0.001330292    1.973    0.493
        27 -10.0499     33.7328    226.9124   1.2185511367e+02   2.2766780748e+01    0.1616882    0.1342561  88.52  0.000523239    1.212    0.175
        28 -13.3388    223.0334    211.5793   8.1992423437e+01  -3.3400798462e+00     1.634941    0.7987168 -31.04  0.005892507    2.058    0.514
        29 -13.3998    226.0278    190.0258   7.7371783926e+01  -5.3199143228e-01     1.645201     1.010418  41.08  0.007846421    1.711    0.415
        30 -13.1342      3.9838    180.3588   1.2452719443e+02   3.5544484563e+01     2.240009     0.566134 -79.98  0.008742359    3.485    0.713
        31 -11.5391     30.3781    219.2452   1.2195583113e+02   2.4676247323e+01    0.4726113    0.2789989  84.10  0.002439786    1.470    0.320
        32 -11.3529     53.9270    240.2002   1.1909893981e+02   1.7812489430e+01    0.3920113    0.2546301  45.50  0.001761166    1.359    0.264
        33  -9.6233    150.8044    221.3800   9.7809648615e+01   6.9210893428e+00    0.1977691    0.1121373  30.44 0.0009580927    1.766    0.434
        34  -9.0776     94.2157    221.1772   1.0946055877e+02   1.5998409357e+01    0.1798555    0.1293119  66.80 0.0006542772    1.338    0.253
        35 -11.3591     41.3359    236.1648   1.2109791736e+02   2.0095432692e+01    0.2700917    0.1742479  77.07  0.000566841    1.311    0.237
        36  -9.3699    209.2554    207.7753   8.3872965539e+01  -5.7429037814e-01    0.2149205    0.2030172  31.37  0.001397362    1.299    0.230
        37  -9.4691    183.2956    208.3367   8.9058626683e+01   3.6801635764e+00    0.1366816   0.09802224   0.70 0.0003458131    1.650    0.394
        38 -11.5871    193.4318    199.7062   8.5469631410e+01   3.4030820603e+00    0.6589066    0.6177436 -72.72  0.004059866    1.416    0.294
        39 -10.9458     58.6821    180.9050   1.1247094248e+02   2.9705322494e+01    0.3733687    0.2657628 -33.93  0.001649344    2.071    0.517
        40 -10.9582     64.2285    175.1148   1.1044221885e+02   3.0334923445e+01    0.2815785    0.2421542 -43.83  0.000638937    1.410    0.291
        41 -10.7133    245.8888    178.2547   7.1520990893e+01  -1.9108671611e+00    0.3085898    0.2275918  -7.58   0.00127113    1.264    0.209
        42 -11.6778    244.2186    138.0376   6.3282143363e+01   4.8555802566e+00    0.9097221    0.3077025 -46.17  0.003120508    3.379    0.704
        43 -11.3600    247.6327    147.1537   6.4725927521e+01   2.7457142600e+00    0.4884509    0.3541657 -50.75  0.002125158    1.589    0.371
        44 -12.5409    246.4250    165.5469   6.8826135809e+01  -1.4043943142e-02    0.9014308    0.7442333 -46.77  0.005424541    1.443    0.307
        45 -12.7270    242.0258    154.3211   6.7187348684e+01   2.5447053535e+00      1.33086    0.7863754 -21.12  0.006412179    1.770    0.435
        46 -10.5318     74.4569    165.1169   1.0653114679e+02   3.1303151037e+01    0.2716604    0.2307606 -56.31  0.000415469    1.220    0.180
        47 -12.5638     61.3670    161.4156   1.0927622333e+02   3.3983412503e+01    0.5060903     0.284309 -45.29  0.001487217    2.094    0.522
        48 -11.6313     80.3805    158.0841   1.0391017360e+02   3.2134062307e+01    0.9823519    0.5940436  51.13  0.001199798    1.724    0.420
        49 -12.4065     68.1608    144.2415   1.0480485694e+02   3.7280462987e+01    0.8266788    0.5410333  83.18  0.003060689    1.882    0.469
        50  -9.2131    134.0000    146.0474   8.7794634501e+01   2.5573511568e+01    0.2567893   0.08646134 -48.88 0.0007036176    2.933    0.659
        51 -10.7199     30.3896    143.9614   1.1491198839e+02   4.1735974024e+01    0.3016003    0.2445624 -49.24   0.00187741    1.346    0.257
        52  -9.2333     96.7905    143.9057   9.6987270499e+01   3.2969461085e+01    0.2283056    0.1994536 -37.08 0.0007666928    1.241    0.194
        53 -11.3331     84.6297    142.4738   9.9994669544e+01   3.5297081212e+01    0.2996875    0.2439665 -51.29   0.00049825    1.202    0.168
        54  -9.8338     38.3934    231.2854   1.2129730697e+02   2.1378585614e+01    0.2201242    0.1396201  78.27 0.0007903659    1.340    0.254
        55  -8.4733     75.5615    136.5038   1.0135627218e+02   3.8141393324e+01    0.1972852    0.1316864  50.36 0.0005778931    1.622    0.384
        56  -9.2096     73.2909    134.3007   1.0157266373e+02   3.9015996821e+01    0.2045501    0.1633441  80.70 0.0004082097    1.371    0.270
        57  -9.8397    107.3227    131.6805   9.1514333367e+01   3.4065181564e+01    0.4370128    0.2753346  47.05  0.001926234    1.673    0.402
        58 -11.8998    241.2605    232.8152   8.2474991333e+01  -8.8681806658e+00     0.690267    0.4735937  14.65  0.002971941    1.214    0.176
        59  -9.9682    250.2301    127.1437   5.9939548102e+01   5.5702971256e+00    0.3872014    0.1682674 -38.47  0.001671015    1.952    0.488
        60  -9.6858     95.6899    128.2162   9.3958837878e+01   3.6967151730e+01    0.3145034    0.2457527 -26.33   0.00153101    1.523    0.344
        61 -11.1355     54.0197    120.3381   1.0451580665e+02   4.5023273361e+01    0.6043732    0.2044222 -72.44  0.001516193    6.102    0.836
        62  -8.6242    105.8804    120.1736   8.9197189159e+01   3.7072419926e+01    0.1983638    0.1729741 -22.40  0.000275147    1.262    0.207
        63  -8.9013    168.0458    113.0567   7.1580034136e+01   2.5468311132e+01    0.2569379    0.1957457 -77.41  0.001130934    1.757    0.431
        64  -9.2588    205.4166    110.2934   6.3362683425e+01   1.7569888440e+01    0.2652376    0.1806889  38.16 0.0006745048    1.663    0.399
        65  -8.6036    134.4973    102.5058   7.6736884479e+01   3.5247413777e+01       0.1571    0.1518314 -27.17 2.548788e-05    1.020    0.019
        66  -8.7517     24.5968     82.7480   1.0651388877e+02   5.6976456800e+01    0.1695807    0.1085444 -70.07 0.0002696501    1.502    0.334
        67 -10.9890    250.2004    190.2917   7.3177868137e+01  -4.3763848817e+00    0.6362159    0.2252866 -36.18  0.002503621    2.567    0.610
        68 -10.3448     13.3344     60.1988   1.0552090045e+02   6.2796293521e+01    0.2057588    0.1754382 -41.70 0.0004443504    1.100    0.091
        69  -9.8985      2.0000     49.5373   1.0760158872e+02   6.5689687186e+01    0.2635891   0.05329539 -62.28 0.0009338005    3.927    0.745
        70 -11.8241    196.3861     47.5307   4.8368873318e+01   3.0141848585e+01    0.4608946    0.3954509  52.69  0.002601604    1.248    0.198
        71 -12.6071    203.7450     38.0492   4.4872987610e+01   2.9657114920e+01    0.7226032    0.6200249 -65.12  0.002580056    1.075    0.070
        72 -11.6600     63.8080    246.0813   1.1775294052e+02   1.5474986869e+01    0.5141519    0.2269161  38.32  0.002758381    2.041    0.510
        73 -10.0488    134.7706     41.4979   5.7449499437e+01   4.6186191621e+01    0.3740097    0.2633713 -80.98  0.001317778    2.036    0.509
        74 -12.7067     81.9666    245.1013   1.1432235461e+02   1.3230777926e+01     1.092334    0.4689773  28.98  0.004732871    3.326    0.699
        75 -11.4433     63.5117    250.4878   1.1814866524e+02   1.4718892967e+01    0.8074105    0.1419132  41.61  0.001486883    3.706    0.730
        76 -11.9540    193.7007    238.3934   9.1997044027e+01  -2.6968997541e+00    0.5644624    0.3915331  34.11  0.002236738    1.242    0.195
