#   1 NUMBER                 Running object number                                     
#   2 MAG_AUTO               Kron-like elliptical aperture magnitude                    [mag]
#   3 X_IMAGE                Object position along x                                    [pixel]
#   4 Y_IMAGE                Object position along y                                    [pixel]
#   5 X_WORLD                Barycenter position along world x axis                     [deg]
#   6 Y_WORLD                Barycenter position along world y axis                     [deg]
#   7 A_WORLD                Profile RMS along major axis (world units)                 [deg]
#   8 B_WORLD                Profile RMS along minor axis (world units)                 [deg]
#   9 THETA_WORLD            Position angle (CCW/world-x)                               [deg]
#  10 FWHM_WORLD             FWHM assuming a gaussian core                              [deg]
#  11 ELONGATION             A_IMAGE/B_IMAGE                                           
#  12 ELLIPTICITY            1 - B_IMAGE/A_IMAGE                                       
         1 -13.2634    249.3919     15.6380   2.9616107398e+01   2.3195148229e+01      1.00733    0.7067797 -17.11 0.0006466642    2.250    0.556
         2 -15.5569    229.0972    103.5529   5.0225748832e+01   1.4557497854e+01     5.855945     1.235129 -42.54   0.01135389    3.949    0.747
         3 -17.4764    245.9116     73.0603   4.1434402106e+01   1.6230151729e+01     6.143851      5.35373 -37.89   0.03172492    1.221    0.181
         4 -16.1309    247.4645     50.6883   3.6658110486e+01   1.9161856236e+01     4.622462     1.821069 -65.69   0.01643623    4.424    0.774
         5 -11.5829    196.1804     27.4255   3.6801589776e+01   3.3095352562e+01    0.6243166    0.3980736   8.11  0.002441294    3.275    0.695
         6 -10.0574    155.0676     10.9298   3.7571079959e+01   4.4541314545e+01    0.1954702    0.1693629  69.08 0.0004950677    1.057    0.054
         7  -9.4881    226.7360      5.8723   2.9275739281e+01   2.8801593822e+01    0.1824056    0.1358538  72.48 0.0006222673    1.366    0.268
         8  -8.7108    103.0635    208.0061   9.9630317170e+01   1.6563539998e+01     0.165976    0.1535069  49.73 0.0003467578    1.002    0.002
         9 -10.2212    164.9608    198.8472   8.3494133891e+01   8.1631304181e+00    0.3988904    0.2556079  68.98  0.001500444    3.379    0.704
        10 -11.5684    192.1300    193.4054   7.6518560191e+01   4.5816176115e+00    0.9430842     0.479143 -62.57   0.00250785    7.006    0.857
        11  -8.9431    173.8958    198.1223   8.1360138086e+01   6.7721843786e+00    0.1930635    0.1550413  -5.95  0.001026657    1.264    0.209
        12  -9.0879     35.5168    195.9338   1.1441264523e+02   2.8408342776e+01    0.1868871    0.1138231 -73.17 0.0007111215    1.496    0.332
        13  -8.6563    194.3331    233.6459   8.3326253043e+01  -2.7756793284e+00    0.1182652     0.103088  61.38  0.000704499    1.788    0.441
        14 -10.2476    214.4103    227.5277   7.8304960592e+01  -4.6749454012e+00     0.215189    0.1895402   1.61 0.0002141187    1.209    0.173
        15  -9.0490    182.4064    227.5330   8.4758332825e+01   9.4305967934e-03    0.1322918    0.1129639   7.65 0.0001096349    1.018    0.018
        16 -12.0612    180.3822    145.3168   6.8822606860e+01   1.6390146028e+01    0.4548287    0.3142178 -50.50 0.0004867255    1.499    0.333
        17 -11.5411     67.6223    144.0184   9.8798482667e+01   3.7588661114e+01    0.8112959    0.5082889  66.83  0.003416913    2.175    0.540
        18 -11.9041     46.4025    137.5400   1.0415466824e+02   4.1898355327e+01    0.4008261    0.3810202  -3.47 0.0008713604    1.188    0.158
        19 -14.0256     58.1015    134.0209   9.9881701973e+01   4.1423975709e+01     2.070158     1.259448   7.42  0.004702703    2.307    0.566
        20 -12.1109    186.2862    141.9934   6.6789603358e+01   1.5886298145e+01     0.526854     0.271647 -46.06  0.002124712    1.892    0.471
        21  -9.0783    184.4875    218.4968   8.2773343630e+01   1.2518270489e+00     0.136523    0.1175127   7.03 0.0004152348    1.011    0.011
        22  -9.7673    150.9204    138.1042   7.3972926836e+01   2.4025779180e+01    0.2379987    0.2150278 -85.01 0.0004643518    1.289    0.224
        23  -8.4964     37.7629    180.0417   1.1227702511e+02   3.2011438084e+01    0.1626129    0.1012094 -75.50 0.0008314615    1.454    0.312
        24 -13.9720    184.9100    123.9160   6.2788251682e+01   1.9847301114e+01     1.633672    0.7722429 -28.84   0.00559147    2.848    0.649
        25 -12.1119    202.5775    131.8345   6.1168142950e+01   1.4637685511e+01    0.4532077    0.3527698 -41.14  0.001335144    1.182    0.154
        26 -11.4018    160.8547    128.3168   6.9178842560e+01   2.4084083234e+01    0.4162524    0.3183711 -68.02  0.001884884    1.625    0.384
        27  -9.5995    211.0941    163.0043   6.6452902381e+01   7.0477150649e+00    0.2098999    0.1871212 -19.85 0.0003984639    1.022    0.022
        28  -9.7896    205.9729    160.5391   6.6921822704e+01   8.4314510975e+00    0.2044533    0.1419134  39.56 0.0004131091    1.547    0.354
        29  -9.5113     95.4839    122.4964   8.5590128917e+01   3.8669285641e+01    0.1555825    0.1491563 -37.42 0.0008104631    1.004    0.004
        30 -10.4142    136.0000    129.4846   7.5686162336e+01   2.9100808160e+01    0.5316589   0.08969895 -46.71  0.001144756    5.820    0.828
        31 -11.2643    166.6763    115.8104   6.4687023275e+01   2.5462565764e+01     0.337943    0.2502199  14.52  0.001488334    1.800    0.444
        32 -12.9438    125.6920    105.1993   7.2096520288e+01   3.6757677544e+01     1.136457    0.6474243  49.41  0.004556683    1.860    0.462
        33 -12.9824    191.3509    142.3542   6.5818109467e+01   1.4797854004e+01    0.9012442    0.3982165 -52.29  0.002438041    2.795    0.642
        34 -10.8090    176.1886    108.6363   6.0791958865e+01   2.4800075822e+01    0.3261583    0.2595758 -49.34 0.0005794329    1.234    0.189
        35 -11.9636    134.3282    105.9389   6.9958902523e+01   3.4726041120e+01     1.378222    0.3461389 -47.53  0.003540316    4.368    0.771
        36 -10.5520    146.3391    107.1043   6.7195767764e+01   3.1816885710e+01     0.299735    0.2346468  54.03 0.0006463726    1.343    0.255
        37 -10.3541    139.4067     98.2282   6.6490863524e+01   3.5221444404e+01    0.3131875    0.2631936  77.97 0.0007786367    1.423    0.297
        38 -12.2450    115.4646    108.1156   7.5813909557e+01   3.8249678306e+01     0.662554     0.441832  55.72  0.002815665    1.773    0.436
        39 -10.1208     90.7042     93.0823   7.9250423897e+01   4.6431229939e+01     0.246508    0.2117433  22.97 0.0002842328    1.179    0.152
        40 -13.3110    192.1328    153.0199   6.8070764085e+01   1.2494891369e+01    0.8069054    0.5297102 -50.86   0.00371439    1.625    0.385
        41 -10.0878    126.8905     74.8916   6.2842086252e+01   4.2606512918e+01    0.2856017    0.2106984 -41.62 0.0005081938    1.390    0.280
        42  -9.2421    158.4702     73.0934   5.4902541689e+01   3.5517517524e+01    0.2167414    0.1452384 -38.09 0.0003548217    1.507    0.337
        43  -9.2039    151.0162     71.4737   5.6021078484e+01   3.7569281088e+01     0.227692    0.1926877 -39.16 0.0005428984    1.204    0.169
        44  -8.8506    111.1973     69.9821   6.5620772445e+01   4.6990154826e+01    0.2013117    0.1164953 -38.26 0.0008591512    1.763    0.433
        45 -10.3003    185.9969     64.8357   4.7591842337e+01   3.0342781402e+01     0.228255    0.1967136 -43.98 0.0002934166    1.152    0.132
        46 -10.8886    134.4812    148.3321   8.0568457791e+01   2.5007531075e+01     1.085928    0.3642814 -56.93  0.002781922    4.629    0.784
        47 -12.3249    178.1201     49.3057   4.4761932266e+01   3.4506935591e+01    0.5842359    0.2492548  54.79  0.002417831    2.240    0.554
        48 -12.2866    184.5366     49.9045   4.3945037092e+01   3.2903027741e+01    0.9520557    0.2408456 -42.56 0.0005731491    3.638    0.725
        49 -12.7935    190.5637     39.1040   4.0351222628e+01   3.2948514352e+01    0.6299595    0.6017998  31.37  0.002540148    1.288    0.223
        50 -10.5558    198.0192     36.1379   3.8689761825e+01   3.1607107423e+01    0.2560196    0.2027122  55.22  0.001523874    1.381    0.276
        51 -11.1818    180.4596     37.2244   4.1230178243e+01   3.5564297125e+01    0.3532239    0.2357766 -29.82 0.0004578508    1.662    0.398
        52 -10.5042    182.0150     32.0038   3.9665268949e+01   3.5844115289e+01    0.2383122    0.2341003 -28.76 0.0004299719    1.220    0.180
        53  -9.2334    228.8012    215.8514   7.3495003062e+01  -4.8604418768e+00    0.1556377    0.1416956  -0.67 0.0004355392    1.311    0.237
        54 -12.7750    161.7059     50.3451   4.7785069729e+01   3.8302490632e+01    0.5998812    0.4654518 -26.88  0.003209668    1.435    0.303
        55 -11.5497    151.9756     47.4974   4.8750970823e+01   4.1058043364e+01    0.3244443    0.2397583  78.96  0.001608042    1.448    0.309
        56 -11.2576    154.1735     43.5796   4.7185115262e+01   4.1061056830e+01    0.2901598    0.2218639 -14.69  0.001038656    1.594    0.372
        57 -11.7339    168.6558     39.0455   4.3455600776e+01   3.8153429486e+01    0.3999865     0.299001  20.02   0.00169715    1.858    0.462
        58 -10.4574    123.0354     41.2626   5.2907777889e+01   4.8828723440e+01    0.2005943    0.1746827  48.78 0.0004945056    1.051    0.048
        59 -11.7412    136.9797     40.1089   4.9456159416e+01   4.5672288538e+01    0.3690342    0.2935872  -3.23  0.001997299    1.517    0.341
        60 -10.5919    122.0696     36.6736   5.1585347454e+01   4.9651050113e+01    0.2241416    0.1915692 -47.71 0.0005159221    1.318    0.241
        61 -13.2697     19.0145    145.6272   1.1345684143e+02   4.2408570034e+01     0.849122    0.7441795 -76.75  0.003896629    1.046    0.044
        62 -10.4641    123.0400     30.7889   4.9374437772e+01   5.0140634873e+01    0.2194699    0.2021242  -4.55 0.0007038493    1.186    0.157
        63 -10.0641    186.5069     25.0195   3.7329702938e+01   3.5612738864e+01    0.1998594    0.1556883  78.51 0.0004448243    1.152    0.132
        64 -10.3021    179.6357     24.1738   3.7951975541e+01   3.7321731084e+01    0.3294355    0.2732059  67.74  0.001743873    1.151    0.131
        65 -10.0499    151.2704    212.4152   8.9005008120e+01   7.7745470615e+00    0.2281875    0.2207475  27.86 0.0002704922    1.123    0.109
