#   1 NUMBER                 Running object number                                     
#   2 MAG_AUTO               Kron-like elliptical aperture magnitude                    [mag]
#   3 X_IMAGE                Object position along x                                    [pixel]
#   4 Y_IMAGE                Object position along y                                    [pixel]
#   5 X_WORLD                Barycenter position along world x axis                     [deg]
#   6 Y_WORLD                Barycenter position along world y axis                     [deg]
#   7 A_WORLD                Profile RMS along major axis (world units)                 [deg]
#   8 B_WORLD                Profile RMS along minor axis (world units)                 [deg]
#   9 THETA_WORLD            Position angle (CCW/world-x)                               [deg]
#  10 FWHM_WORLD             FWHM assuming a gaussian core                              [deg]
#  11 ELONGATION             A_IMAGE/B_IMAGE                                           
#  12 ELLIPTICITY            1 - B_IMAGE/A_IMAGE                                       
         1 -10.5533     32.9729     63.9573   1.0547596274e+02   6.0028313608e+01     1.301552    0.5145515 -33.11  0.004530406    3.576    0.720
         2 -10.3881     18.2496      5.3856   9.0516575498e+01   7.2240491445e+01    0.5792521    0.4810513 -45.11  0.002885421    1.606    0.377
         3 -10.4589     10.2575     18.9521   1.0085808380e+02   7.0678619959e+01      1.30539     0.407595 -27.46  0.004034067    6.874    0.855
         4 -10.6750     37.2623      9.7985   8.3271926513e+01   6.9509750558e+01      0.77072    0.2631607 -40.02   0.00179712    2.752    0.637
         5 -10.1775     27.4789     11.0792   8.8611321789e+01   7.0457944493e+01    0.6653294    0.4533289  18.62  0.004432705    1.505    0.335
         6  -9.9062     26.0837     24.6751   9.5392041113e+01   6.8381708223e+01    0.9587573    0.3548917 -28.22  0.003639501    3.980    0.749
         7 -10.3594      4.8909     41.7619   1.1090049557e+02   6.6664978738e+01    0.7812042     0.277814 -62.10  0.002983353    2.257    0.557
         8  -9.7376      2.2229     14.2883   1.0320978686e+02   7.2010472131e+01    0.6376585    0.2149353 -59.70  0.002770622    3.557    0.719
         9 -10.3051      6.1809      5.2009   9.7067228219e+01   7.3273634893e+01    0.3848482    0.2479454 -26.19  0.001546378    1.187    0.158
        10  -9.8529      2.6618      3.1306   9.8096032951e+01   7.3847853921e+01    0.2571408    0.1398598 -36.25 0.0009710764    1.344    0.256
        11  -8.4117     72.1209      8.2979   6.8479791914e+01   6.4286234857e+01    0.2448595    0.1720385 -15.49 0.0006562903    1.331    0.249
        12 -10.2224     69.7961     40.6073   8.3612198242e+01   6.0056607379e+01     1.007957    0.4046372 -37.38  0.003041116    2.309    0.567
        13 -10.1774     73.6199     17.7533   7.2427622981e+01   6.2873908176e+01    0.9585486    0.2131022 -31.76   0.00313063    4.270    0.766
        14  -9.6052     77.8775      4.2372   6.4629949733e+01   6.3632568590e+01    0.6197819    0.3114412  -7.91  0.002295682    2.320    0.569
        15  -9.8912     79.2511     24.1647   7.3373951028e+01   6.0990192741e+01     0.572021     0.287901  25.41  0.002121086    2.613    0.617
        16  -9.7691     60.3028     33.5170   8.4323972536e+01   6.2723244476e+01    0.6859908    0.2503937 -40.08  0.002862691    2.480    0.597
        17 -10.2569     50.8210     15.2086   7.9959787792e+01   6.6920318348e+01     1.101157    0.5828415   0.87  0.004759819    3.084    0.676
        18 -10.1996     46.3510     29.8401   8.8458316913e+01   6.5258678939e+01    0.5397173    0.3206811 -58.03  0.002455129    2.645    0.622
        19  -8.8418     58.3050      7.1977   7.2962346296e+01   6.6805202781e+01    0.3298623    0.2470226  50.76 0.0006337742    1.710    0.415
        20 -10.1410     63.0964      3.0315   6.9038841847e+01   6.6468859005e+01    0.4446244    0.3918331  -9.65  0.003054296    1.225    0.184
        21  -9.8842     63.1989     21.3980   7.7913523505e+01   6.4153433434e+01    0.6491303    0.2794775 -43.51  0.002331331    2.721    0.632
        22  -9.8711     64.6209     13.3961   7.3621182205e+01   6.4998492480e+01    0.3792502    0.2741879 -12.31 0.0002064496    1.246    0.197
        23 -10.3993    152.5234     28.6401   5.6430577451e+01   4.3780232334e+01    0.5816798    0.2998413  -6.74  0.001892939    3.085    0.676
        24 -10.1429    103.1426     20.5515   6.4542458031e+01   5.6630877174e+01    0.9626991    0.4482319 -14.35  0.002711609    2.784    0.641
        25  -8.7967    115.1879      4.2760   5.4887369717e+01   5.5596360532e+01    0.2724873    0.2292733 -49.54 0.0006327496    1.420    0.296
        26  -8.8971    102.1798      8.2107   5.9571906247e+01   5.8193866824e+01    0.3784866    0.2170572 -31.26   0.00119678    1.837    0.456
        27  -9.7296    113.8850     10.0556   5.7522706757e+01   5.5358197070e+01    0.4350154    0.3443678  60.93  0.001752958    1.266    0.210
        28  -8.4775    111.2135      4.5416   5.5869779795e+01   5.6496748891e+01    0.3335511    0.1675864  13.91  0.001356839    2.801    0.643
        29  -9.0869    106.2656      2.1437   5.5993268082e+01   5.7839273517e+01    0.5724688    0.2260799  58.13  0.002439721    2.240    0.554
        30  -9.7114    119.0252     20.0892   6.0335764450e+01   5.3082187078e+01    0.6261423    0.3174239 -16.97  0.001939743    2.263    0.558
        31  -8.8114    131.2240      5.9758   5.2329928034e+01   5.1588882720e+01    0.4354938     0.284375   1.52  0.001740235    1.798    0.444
        32 -10.3142    136.7179      8.7304   5.2333752795e+01   4.9972770153e+01    0.5595913    0.5023203  17.28  0.003338086    1.149    0.130
        33  -8.8673    132.8016     17.2975   5.6249971201e+01   5.0073536071e+01    0.3263963    0.2500674 -17.52  0.000909206    1.386    0.279
        34  -9.3104    126.8321      8.9319   5.4301495601e+01   5.2388203883e+01     0.324488     0.217929  29.72 0.0007703286    1.545    0.353
        35  -9.2417    125.8380      5.0656   5.3014492418e+01   5.2986317806e+01    0.3185751    0.1915288  37.59 0.0009370178    1.628    0.386
        36  -9.3057     96.2514     14.8825   6.4035957551e+01   5.8774565442e+01    0.5676651    0.2557626 -15.16  0.002310894    2.702    0.630
        37  -9.2824     87.1692      3.8843   6.1677187371e+01   6.1814063889e+01    0.5985637    0.3397677  26.13  0.003013061    1.806    0.446
        38  -9.5602     85.2506     13.0011   6.6432511201e+01   6.1248191958e+01      0.43588    0.2629106 -50.47   0.00156761    2.546    0.607
        39  -8.0824     80.5700     12.8264   6.7824441931e+01   6.2184148493e+01    0.2646466     0.164275 -36.14 0.0008415175    1.752    0.429
        40  -8.7903    141.6320     12.4182   5.2774669735e+01   4.8380618188e+01    0.2889471    0.2169857 -11.08  0.001261279    1.472    0.321
        41  -8.2259    146.2045      8.4197   5.0566434122e+01   4.7613901986e+01    0.3562661    0.1298411  67.38   0.00131728    2.604    0.616
        42  -8.7507    155.7782      7.8685   4.8850977816e+01   4.5218524527e+01    0.2899255    0.1739143 -15.89  0.001376493    1.914    0.477
        43  -8.0150     67.9646      9.0578   7.0298064186e+01   6.4947265092e+01    0.1931549    0.1587922   6.17 0.0003868697    1.012    0.012
        44  -8.4823     97.5466      5.9642   5.9785778293e+01   5.9425472787e+01    0.2837694    0.1770314  21.77 0.0009518149    1.672    0.402
        45  -8.7676     96.0166      3.0244   5.8882168259e+01   6.0029877153e+01    0.2824618    0.2056573  58.72 0.0009370161    1.405    0.288
        46  -8.1823    120.4374      6.2875   5.4580411485e+01   5.4174524033e+01    0.2267602    0.1644852  89.29 0.0006714777    1.756    0.431
        47  -8.9012    137.0387      1.8300   4.9761512726e+01   5.0510617638e+01    0.3169756    0.1846328  81.44  0.001055186    1.961    0.490
        48  -9.3521    130.2819     97.0580   8.3733388242e+01   3.7282754971e+01    0.5356639    0.3071231  23.95  0.001845566    2.983    0.665
        49  -7.9648    215.6673    250.2998   9.6492773178e+01  -6.6640525110e+00    0.1038578   0.08194649  51.91 0.0005260183    1.650    0.394
        50 -10.7508    198.6646    247.8862   9.9080094531e+01  -3.7917763546e+00    0.5162394    0.3191354  53.76  0.003030517    1.961    0.490
        51 -10.6504    171.0345    248.3786   1.0401295118e+02   4.9636603794e-01    0.4294113    0.3420401  77.22  0.002884175    1.757    0.431
        52 -11.1460    120.8936    110.0308   8.9729483452e+01   3.6414003794e+01      2.04622    0.6779208 -46.20  0.004545589    2.927    0.658
        53  -9.9309    123.8373     91.2232   8.3776247065e+01   3.9924300208e+01    0.5184383    0.4261936 -58.35  0.001072782    1.271    0.213
        54  -9.6712     41.6809    122.3144   1.1446713332e+02   4.5727443410e+01    0.5992026    0.2725092 -85.64  0.002344894    3.056    0.673
        55  -7.2692    222.7398    125.7294   7.1228516302e+01   1.0472434906e+01    0.1400875     0.109644   4.44 0.0006838483    1.460    0.315
        56 -11.0633    139.3824    103.2876   8.3129067017e+01   3.3935410987e+01     1.222861    0.8804031   8.76  0.001239949    2.098    0.523
        57 -10.9559    133.5391    109.6186   8.6315694904e+01   3.3849364476e+01    0.9852998    0.4699682 -42.08  0.002718152    2.103    0.525
        58 -10.2552    135.0972    122.1711   8.9109430092e+01   3.0743625907e+01    0.5499087    0.3730285 -53.84  0.002253452    1.497    0.332
        59  -9.9372    130.3514    118.5763   8.9423275527e+01   3.2542735366e+01    0.4237366    0.3339863 -78.36 0.0007991249    1.509    0.337
        60  -7.7436    158.2147    122.2055   8.3538209232e+01   2.5669852475e+01    0.2199001    0.1869332 -85.43  0.000726604    1.381    0.276
        61  -7.9178    152.0214    121.2631   8.4754759533e+01   2.7257939110e+01    0.2032641    0.1356996  46.39 0.0004079597    1.505    0.335
        62 -10.0328    140.6361    118.1151   8.6721046653e+01   3.0448460068e+01    0.6445524     0.370046 -64.12  0.001217968    2.465    0.594
        63  -8.7520    141.5008    112.4865   8.5060854287e+01   3.1483832383e+01    0.2962883    0.2608604 -82.37  0.001477419    1.256    0.204
        64  -8.4938      1.7653    117.2212   1.2457050486e+02   5.0187705510e+01    0.3434679    0.1291851 -88.16  0.001513176    2.741    0.635
        65 -10.1223     91.9251    113.2745   9.8516410297e+01   4.1071363806e+01    0.5865524    0.4101967 -81.94   0.00174435    1.792    0.442
        66  -9.9685     27.3771    122.9660   1.1844848539e+02   4.6950324480e+01    0.5051536    0.2573477  72.05  0.002111379    2.511    0.602
        67  -8.7741    152.7197    115.1781   8.3036779233e+01   2.8394549314e+01    0.2540481    0.1953123 -61.26 0.0007742504    1.439    0.305
        68 -10.2224     78.1467    113.0475   1.0240366406e+02   4.3321649441e+01    0.5076029    0.3126737 -78.89  0.001408296    2.072    0.517
        69  -7.6320     77.4863    106.0189   1.0102539594e+02   4.5084478721e+01     0.304433    0.1551894 -41.35  0.001259171    2.154    0.536
        70  -9.4972     81.4989     99.5311   9.8274071551e+01   4.5985336031e+01    0.8068576    0.2751782 -51.84  0.002091767    2.608    0.617
        71  -8.4020     68.6860     80.5042   9.7340082722e+01   5.2238308435e+01    0.2638702    0.1259625 -57.04 0.0006378212    2.045    0.511
        72 -10.5094     62.9313     95.7078   1.0307844875e+02   4.9555044553e+01    0.8077105    0.4608158 -86.41  0.001646142    3.257    0.693
        73  -8.9284     64.7025     86.2427   1.0018747477e+02   5.1500488061e+01    0.7568029    0.4450342 -40.31  0.003405833    1.682    0.405
        74 -10.1871     65.8344    109.6393   1.0526874951e+02   4.5884556860e+01    0.9166411    0.4111875 -66.69  0.001826689    2.358    0.576
        75  -9.1809     59.4404    109.7040   1.0716945857e+02   4.6699747168e+01    0.4606408    0.3173512 -77.46  0.001550118    1.477    0.323
        76  -9.9300     14.2647    111.5183   1.2054287324e+02   5.0671296742e+01    0.4524983    0.2315344  79.62  0.001760762    2.317    0.568
        77  -8.8839     14.2248    105.1978   1.1971971597e+02   5.2138307388e+01    0.2671141    0.1452391 -47.46  0.001093286    1.819    0.450
        78  -8.2651    158.9080    112.0666   8.0770307801e+01   2.7630607348e+01     0.241867    0.2084788 -74.65 0.0004958572    1.309    0.236
        79  -9.3890     35.1014    111.4594   1.1461456644e+02   4.8957972803e+01    0.4586828    0.2533768  36.28  0.002443598    2.064    0.515
        80  -9.5906     42.1855     53.3498   9.8823661497e+01   6.1343052828e+01     0.476679    0.3437035  48.89  0.001277974    1.891    0.471
        81  -9.3140     53.8380     37.3667   8.8442367235e+01   6.2979074102e+01    0.5950816    0.1989676 -37.60  0.002331534    2.812    0.644
        82 -10.4235     25.9707     78.2031   1.1138415990e+02   5.7471770031e+01    0.6421844    0.3745678  78.97  0.001887078    2.792    0.642
        83  -9.8914    184.0792    247.5373   1.0159204548e+02  -1.4622539191e+00    0.3055848    0.1701805 -33.99  0.001773037    2.323    0.570
        84  -8.0266     23.4581     69.0260   1.1026145574e+02   5.9713849278e+01    0.1775538    0.1271142 -59.50 3.324023e-05    1.132    0.116
        85 -10.9656     21.0949    100.9481   1.1707757150e+02   5.2623197953e+01     1.345547    0.6319971  80.73  0.003936409    3.567    0.720
        86 -10.4067     19.6015     86.1838   1.1508236025e+02   5.6140548302e+01     1.067649    0.1498056 -55.39   0.00339304    3.697    0.729
        87 -10.2231     50.0721     54.0803   9.5992338572e+01   6.0294423584e+01    0.6033192    0.3573431 -61.42  0.002120632    2.008    0.502
        88  -9.6263    211.8418    109.0612   6.9075191423e+01   1.5815237460e+01    0.2528708    0.2466896  10.36 0.0003601684    1.052    0.050
        89  -8.9604    243.1117    110.6812   6.4242841131e+01   8.6805022699e+00    0.2670646    0.1374909  62.14  0.001095243    2.568    0.611
        90  -8.0399    144.9751    110.3052   8.3629923404e+01   3.1179817591e+01    0.6084454    0.3225526 -17.96  0.001401002    6.731    0.851
        91  -9.5867    149.5850    103.2354   8.0599459034e+01   3.1625492609e+01    0.4900812    0.3505631 -53.08  0.001058602    1.460    0.315
        92  -9.1488     40.4940    107.0065   1.1228278255e+02   4.9484410704e+01    0.2686969    0.1827515  81.02 0.0006917395    1.694    0.410
        93 -10.8781     45.0424    102.6092   1.1010146861e+02   5.0053208247e+01    0.8403512    0.4410533  71.56  0.003272315    3.553    0.719
        94  -7.9792    249.3173    105.3311   6.2035566262e+01   8.2539694539e+00    0.1427075    0.1058422   5.38 0.0007047214    1.687    0.407
        95  -7.9597    217.0992    105.1314   6.7146922362e+01   1.5303885313e+01    0.2244776    0.1963265  10.78 0.0004681482    1.254    0.202
        96  -8.2572    165.9957    104.1059   7.7018878969e+01   2.7594775420e+01     0.273769    0.2193476 -45.01 0.0005021464    1.237    0.191
        97  -8.7318     92.0569    104.0121   9.6255156111e+01   4.3213175796e+01     0.397228    0.2995117 -11.69   0.00138574    1.857    0.462
        98  -9.5976      5.6233    103.5509   1.2197761665e+02   5.3076165824e+01    0.3987459     0.304547  60.37  0.001956686    1.467    0.319
        99  -8.1175     74.0169    102.7174   1.0129906070e+02   4.6375837569e+01    0.3575305    0.1735995 -64.11  0.001050969    2.197    0.545
       100  -8.7472    158.9076    101.1854   7.7831014604e+01   2.9866693286e+01    0.2383645    0.2122619 -76.96 0.0004880301    1.238    0.192
       101  -7.4053     97.9409    101.7476   9.3970271605e+01   4.2705406105e+01    0.1842107    0.1295439  38.82 0.0006380921    1.531    0.347
       102  -9.6642    240.2589     96.4555   6.1242414167e+01   1.1590317426e+01    0.5424873    0.2939005  66.30  0.002061588    2.417    0.586
       103  -9.0347    239.1165     92.8636   6.0531482447e+01   1.2419036138e+01    0.2171894    0.1841426 -57.26   0.00035752    1.219    0.179
       104  -9.3219     94.4089     97.2824   9.3835452439e+01   4.4352298432e+01    0.3417831    0.2669995 -76.13  0.000753299    1.491    0.329
       105  -9.0679     96.2442     90.8648   9.1542844028e+01   4.5471059101e+01    0.5269238    0.3266762 -20.42  0.002049568    2.591    0.614
       106 -10.2422      4.1677     88.7979   1.2044239349e+02   5.6519381416e+01    0.7525654    0.2990186 -87.32  0.002560068    3.251    0.692
       107  -9.3501      5.9935     78.2946   1.1822415407e+02   5.8783176869e+01    0.4436064    0.2773925  -8.15  0.002712998    2.172    0.540
       108  -8.6855    164.4673     94.3771   7.4658941603e+01   2.9894955080e+01    0.3466271    0.2645304 -56.61 0.0008697528    1.420    0.296
       109  -9.3949    138.7782     92.7539   8.0311809051e+01   3.6290800861e+01    0.4731387    0.3060558 -58.23 0.0008752011    1.818    0.450
       110  -9.4254    140.5448     82.7008   7.6883344063e+01   3.7920505629e+01    0.7094157    0.2765936 -39.55  0.002337738    2.526    0.604
       111  -9.1469    140.0830     75.8286   7.4877908111e+01   3.9366347073e+01    0.6373494    0.3011204 -40.52  0.001753785    2.074    0.518
       112 -10.0095     34.4888     90.7170   1.1109409445e+02   5.3880757262e+01    0.5928526    0.2575372 -77.74  0.001840077    3.204    0.688
       113  -9.6401     37.0161     81.0848   1.0821379548e+02   5.5856217924e+01    0.6247051    0.3237853 -25.56   0.00273594    2.963    0.662
       114  -8.0689    157.5889     91.7301   7.5465033743e+01   3.2077876067e+01    0.2759475    0.1901826 -48.46 0.0004269515    1.480    0.324
       115  -8.9409    156.7831     76.1970   7.1036662751e+01   3.5251753554e+01    0.5405509    0.2389556 -46.62   0.00163164    2.431    0.589
       116  -7.9531    157.6500     87.3106   7.4166402366e+01   3.2929971159e+01     0.278932    0.2174547 -64.09 0.0009099561    1.480    0.324
       117  -8.8122    157.7061     83.7146   7.3092259827e+01   3.3610118808e+01    0.4373167    0.2277688 -34.59  0.001662728    1.971    0.493
       118  -9.6249    111.5135     89.4434   8.6677166891e+01   4.2869028869e+01    0.4796294     0.351057  13.86  0.002159732    1.853    0.460
       119 -10.2784     48.0012     84.5919   1.0530788839e+02   5.3928642576e+01    0.7912393    0.3967049 -66.89  0.001865175    2.055    0.513
       120  -9.4999     48.7890     77.3876   1.0326477341e+02   5.5470597822e+01    0.6906998    0.3975212 -37.95  0.003462912    1.747    0.427
       121  -6.8075    199.6656     89.6828   6.6208534709e+01   2.2150596449e+01    0.1589527     0.120953  16.04 0.0007048046    1.694    0.410
       122 -10.2032     85.2836     86.5629   9.3687846945e+01   4.8328019600e+01    0.4676746    0.3676005  83.87 0.0008545707    1.702    0.412
       123  -9.4432     87.4311     78.6811   9.0723510660e+01   4.9691776442e+01    0.5838543    0.3663583  14.70  0.001958589    2.457    0.593
       124  -7.3297    174.4967     88.4834   7.0808572697e+01   2.8571242632e+01      0.15732    0.1530059 -60.47 0.0008102939    1.028    0.027
       125  -8.1918    163.5493     86.8109   7.2689060785e+01   3.1586232634e+01    0.3020553    0.1564545 -33.91 0.0009813792    2.001    0.500
       126  -8.9327    150.6381     88.8629   7.6261453258e+01   3.4312085172e+01     0.374064    0.2265084 -42.53  0.001128178    1.626    0.385
       127 -10.2516    103.9004     82.5017   8.6830638858e+01   4.5861517869e+01    0.5496038    0.3003749 -54.00 0.0009138374    1.973    0.493
       128  -9.4576    105.1428     71.5184   8.3022425346e+01   4.7888814339e+01    0.8040068    0.3438349 -33.28  0.002699822    2.786    0.641
       129  -8.9723    119.0217     80.4598   8.1866974259e+01   4.3203660700e+01    0.4023806    0.2527806 -55.93  0.000616498    1.827    0.453
       130  -8.0595    119.6778     76.6183   8.0484276854e+01   4.3840942111e+01    0.3040697    0.2000137 -16.32  0.001052393    2.111    0.526
       131  -8.8722    150.0524     80.0878   7.3778209998e+01   3.6165766805e+01    0.5240126    0.2569672 -31.13  0.001447607    2.287    0.563
       132  -9.1826     74.1192     79.5567   9.5279039023e+01   5.1650257868e+01    0.5237127    0.2406139 -57.62  0.001122094    2.315    0.568
       133  -7.7950    166.4919     78.5594   6.9613826875e+01   3.2403760630e+01    0.2718813    0.1385675 -46.89 0.0005931372    2.064    0.516
       134  -8.0374    240.3300     78.3307   5.6766469981e+01   1.4455863159e+01    0.1434054    0.1104384  13.28 0.0007051796    1.717    0.418
       135  -8.1914    184.2334     78.1093   6.5874353252e+01   2.8026984277e+01    0.2397789    0.2119657   7.78 0.0005996568    1.284    0.221
       136  -7.4192    174.4920     78.5687   6.7941352844e+01   3.0396878885e+01    0.1537021    0.1534167 -76.54 5.647655e-05    1.017    0.017
       137  -9.3722    127.3844     75.2636   7.7963535240e+01   4.2409086100e+01    0.3992342    0.2793629 -64.00 0.0009304882    1.854    0.461
       138  -8.9416    128.7909     69.4652   7.5725713729e+01   4.3203571631e+01    0.5304186    0.3068424  21.63  0.001834738    3.047    0.672
       139  -9.7533     15.8557     70.6168   1.1336347195e+02   5.9901486772e+01    0.6052283     0.167842 -55.20  0.001255802    2.408    0.585
       140  -9.7749     17.1034     60.9971   1.1076719793e+02   6.1919014405e+01    0.6195992    0.3068742 -48.48  0.003420655    1.569    0.363
       141  -9.8959     81.5074     72.3667   9.0700636935e+01   5.2032677659e+01    0.4159328    0.2962001 -63.19 0.0009671604    1.649    0.393
       142  -9.0533     82.8737     65.5555   8.8065177250e+01   5.3210710052e+01    0.5790123    0.3435954 -13.23  0.002227447    2.973    0.664
       143  -8.3682    162.9192     73.3160   6.8802827016e+01   3.4249218676e+01    0.3001611    0.2048227 -52.29  0.000778879    1.589    0.371
       144  -8.7494    114.8761     72.8269   8.0618369912e+01   4.5623705248e+01    0.2948186    0.2711227 -75.66 0.0006763832    1.232    0.188
       145  -8.7505    115.4578     69.0374   7.9217051010e+01   4.6241170393e+01    0.2908561    0.2629352 -21.82  0.000575269    1.086    0.079
       146 -10.0262     62.6478     60.7743   9.3500235540e+01   5.7305115658e+01    0.6419982    0.3225865  29.72 0.0009895079    2.312    0.567
       147 -10.5524     55.0711     70.9224   9.9312553065e+01   5.6156058274e+01    0.5640336    0.3627474  58.07  0.001178965    2.332    0.571
       148  -9.6914     54.6597     63.2415   9.7188793935e+01   5.7847983908e+01    0.3945287    0.2855804 -30.24  0.001807566    1.337    0.252
       149  -7.7093    175.4866     72.4441   6.5932729559e+01   3.1230792898e+01    0.1545826    0.1510547 -72.32 0.0002024536    1.017    0.017
       150  -7.8478    169.4951     71.0504   6.6728671091e+01   3.2993283800e+01    0.2342285    0.1518708 -37.14 0.0004912132    1.521    0.343
       151  -9.2757    147.0475     69.3453   7.1145212542e+01   3.8898888184e+01     0.418059    0.2720786 -55.68 0.0008793218    1.819    0.450
       152  -8.3212    156.4388     70.1818   6.9258190437e+01   3.6430674431e+01    0.2263113      0.14164 -47.64 0.0005973636    1.674    0.403
       153  -9.7644     94.8130     68.3623   8.5144326125e+01   5.0518360740e+01    0.4240769    0.2645121 -49.76 0.0008535591    1.622    0.383
       154  -9.2405     97.3584     58.6729   8.1051650766e+01   5.1913969294e+01    0.7434577    0.3929876 -16.99  0.002462049    3.688    0.729
       155  -9.5376    109.8467     63.8225   7.9078009413e+01   4.8425174274e+01     0.476129    0.3060392 -54.60  0.001893456    1.848    0.459
       156  -8.8700    110.6476     58.2260   7.6913378425e+01   4.9290187420e+01    0.4235735    0.3021269  -6.93  0.001201336    1.764    0.433
       157  -8.9919    138.0828     66.3112   7.2329197002e+01   4.1612926315e+01    0.3885419    0.3093936  61.84 0.0009841028    1.344    0.256
       158  -8.4596    138.9543     61.8547   7.0649892933e+01   4.2196638622e+01    0.3689086    0.2035905  38.74  0.001454954    2.026    0.506
       159  -9.0779    121.2399     66.1426   7.6650438846e+01   4.5530392512e+01    0.3705051    0.2652699 -53.34 0.0008136511    1.557    0.358
       160  -8.4644    122.0244     61.0156   7.4706315282e+01   4.6296401625e+01    0.3330082    0.2327588   0.11 0.0009035763    1.977    0.494
       161  -8.0779    170.8693     65.0525   6.4628215030e+01   3.3673303447e+01    0.2434411    0.2032166 -58.64 0.0005068159    1.263    0.209
       162  -8.4095    157.7811     63.3863   6.6828988519e+01   3.7280852827e+01    0.3269973     0.193521 -41.12  0.001141442    1.685    0.407
       163  -8.3970    130.3276     63.6225   7.3397575484e+01   4.3926222944e+01    0.4293187    0.1526724 -37.86  0.001421405    2.750    0.636
       164  -9.0735    129.9412     57.5892   7.1456534997e+01   4.5080324809e+01    0.5128468    0.2141048 -38.67 0.0008673167    2.350    0.574
       165  -7.9876    146.9447     64.1775   6.9511543828e+01   3.9844557161e+01    0.2682409    0.1679871  30.32 0.0008564372    2.030    0.507
       166  -9.1927    211.3152     60.9030   5.6403062223e+01   2.4050583186e+01    0.3581904    0.2674215 -25.14  0.001111882    1.410    0.291
       167  -9.6267     56.7567     43.0040   8.9472530788e+01   6.1567762480e+01    0.7452317     0.389325 -11.77  0.002669945    4.115    0.757
       168 -10.3411     89.8757     38.3004   7.5784384464e+01   5.6888001279e+01    0.9495729    0.3563395  33.97  0.003150925    3.766    0.734
       169 -10.0900     73.6917     56.7878   8.8220713351e+01   5.6458214937e+01     1.187173    0.3723975 -38.49  0.002806701    3.315    0.698
       170 -10.3354     85.0221     47.9230   8.1114376858e+01   5.6182647930e+01     0.497319    0.3775424  86.92 0.0009693519    2.380    0.580
       171  -8.9894     80.1217     46.2890   8.2155029583e+01   5.7340033023e+01    0.4026494    0.2319036 -26.57 0.0007054636    1.834    0.455
       172 -10.3778    162.1818    247.9777   1.0553600643e+02   1.9600417753e+00    0.3389304    0.2403131  34.98  0.002236404    1.199    0.166
       173  -7.4553     88.2945    246.3728   1.1844912162e+02   1.3516531574e+01   0.09498651   0.08918092  -0.01 0.0007025988    1.734    0.423
       174  -9.3094    155.9979    243.9577   1.0614132865e+02   3.5171162548e+00    0.1918394    0.1300986  64.07  0.001151498    1.742    0.426
       175 -10.0813    123.7306    241.4482   1.1168463235e+02   9.0325751459e+00    0.2053677    0.1743467  58.85 0.0002020404    1.098    0.089
       176  -9.5315    187.9408    233.4710   9.8912875917e+01  -2.2106903773e-01    0.3748319    0.2628633 -10.75  0.002139897    1.855    0.461
       177 -10.8099     21.8378     53.3356   1.0694946000e+02   6.3206505322e+01    0.7894647    0.4262895 -84.93  0.002799007    4.180    0.761
       178 -10.2268     13.0207     45.4828   1.0842532023e+02   6.5438864205e+01      0.73577    0.3452821 -19.16   0.00289888    2.896    0.655
       179  -7.4833    247.3685    227.7284   8.7582938660e+01  -8.8205969537e+00    0.1018396   0.08759502  45.45 0.0005101964    1.669    0.401
       180  -8.0156    126.1462    227.2044   1.0959955704e+02   1.0987500575e+01    0.1771591    0.1458002  44.33 0.0003808783    1.138    0.121
       181  -9.4445      6.8983     32.5119   1.0730964167e+02   6.8383827100e+01    0.2551696    0.1922868 -12.05 0.0008081654    1.392    0.281
       182 -10.0661      7.3402     28.3065   1.0573317011e+02   6.9160427496e+01    0.2971755     0.249246  41.71   0.00104007    1.707    0.414
       183  -8.4275    234.9315    215.9781   8.7691025630e+01  -5.5439991124e+00     0.182474    0.1444823  16.23 0.0004449907    1.013    0.013
       184  -9.9202     10.0092    207.5270   1.2940857276e+02   3.0099682713e+01    0.3459687    0.2499043  21.49  0.002439424    2.261    0.558
       185  -8.0098    164.3337     60.0577   6.4402377181e+01   3.6175270001e+01    0.2173015    0.2007077 -40.39 0.0007478379    1.085    0.078
       186  -7.7197    152.5450     59.8158   6.6830193265e+01   3.9201224399e+01    0.2291238    0.1370822 -47.07 0.0009426533    1.782    0.439
       187  -8.0188      9.5193     59.9307   1.1342864190e+02   6.2621043725e+01    0.1877722   0.09109844 -62.17  0.001026969    1.575    0.365
       188  -8.6759    146.3467     59.0048   6.7961430424e+01   4.0881049647e+01    0.2750232    0.2225009  82.37 0.0007282338    1.464    0.317
       189  -8.7792    147.5788     54.7251   6.6266820011e+01   4.1284048728e+01     0.472787     0.220132 -28.38  0.001735123    2.359    0.576
       190  -8.9182    139.1259     57.1370   6.9033098826e+01   4.2965144021e+01    0.4061696    0.2685255 -57.84 0.0005355958    1.905    0.475
       191  -8.3065    138.7787     52.4180   6.7515414461e+01   4.3829510404e+01    0.4168247    0.2170672  44.34  0.001667176    1.950    0.487
       192  -8.6031    142.0991     48.6477   6.5455858279e+01   4.3612679676e+01    0.2890707    0.2083531 -30.78 0.0004304965    1.408    0.290
       193  -8.4538    123.0330     40.6539   6.7193675631e+01   4.9421764113e+01    0.4069396    0.2525698  14.89  0.001664922    2.336    0.572
       194  -9.0562    121.1813     47.0563   7.0013739196e+01   4.8862087197e+01     0.382379     0.233521 -42.18 0.0005286884    1.704    0.413
       195  -9.2035    118.1230     55.5021   7.3854900593e+01   4.8145087464e+01    0.3420978    0.2945023 -71.09 0.0007276675    1.424    0.298
       196  -8.0092    118.9842     51.5022   7.2200717066e+01   4.8634327909e+01    0.3288736    0.1702088  39.12  0.001082318    2.082    0.520
       197  -9.2634    162.8960     53.0932   6.2488742750e+01   3.7662362183e+01    0.4719846    0.2225329 -27.32  0.001320651    2.344    0.573
       198  -8.4276    106.6065     48.7842   7.4687217725e+01   5.1793851264e+01    0.4089766    0.1827806  34.26  0.001453763    2.915    0.657
       199  -7.5870    172.4564     49.9805   5.9672555959e+01   3.5671737649e+01    0.2308086    0.1491435 -31.40 0.0006252334    1.574    0.365
       200  -8.6083    157.4897     49.2041   6.2325053029e+01   3.9649540586e+01    0.2461674    0.2064838 -85.25 0.0007350789    1.349    0.259
       201  -9.7327    130.6729     46.1100   6.7266338938e+01   4.6787597327e+01    0.8769909    0.3536653 -22.64  0.001864416    3.577    0.720
       202  -8.9658    133.0018     35.9932   6.3080892123e+01   4.7712144349e+01    0.3848017    0.2068743 -41.51 0.0006508989    1.984    0.496
       203 -10.8435    134.0176     31.0631   6.1060868089e+01   4.8127589165e+01     0.364493    0.2760938   3.51  0.001828707    1.510    0.338
       204  -9.3237    149.8671     47.4083   6.3322452845e+01   4.1860866374e+01    0.3933369    0.2045258 -32.79  0.001409322    1.937    0.484
       205  -8.5458    111.9916     46.9031   7.2451983577e+01   5.0946806389e+01    0.3704965    0.1921865 -34.44 0.0004922528    1.897    0.473
       206  -8.6568    114.4184     41.2635   6.9679496753e+01   5.1299943728e+01    0.3985579    0.2490838  -5.37  0.001689181    2.191    0.544
       207  -8.8288    105.4844     53.2286   7.6641468772e+01   5.1265676391e+01    0.3383286    0.2372213 -56.67 0.0007664424    1.796    0.443
       208  -9.1387     71.1621     25.6671   7.6867432727e+01   6.2214899130e+01    0.4895068    0.2046958  35.39  0.002077771    2.583    0.613
       209  -9.0719    233.1296    198.2026   8.4804440956e+01  -2.9265512935e+00    0.2759133    0.2437142 -83.77  0.001306103    1.944    0.486
       210  -9.0498    192.4749    195.6663   9.1880278875e+01   4.6167002469e+00      0.68445    0.3383537 -59.51  0.002316559    4.892    0.796
       211 -10.1499     76.1972     31.9605   7.7781562981e+01   6.0397807727e+01    0.5122262    0.4132501  67.52  0.001095855    1.855    0.461
       212  -9.0570    221.2057    192.8875   8.5946576644e+01  -1.3255436945e-01    0.2485639    0.1965132  40.99 0.0009725732    1.295    0.228
       213  -7.0359    145.5039    193.5432   1.0100319351e+02   1.3684676482e+01    0.1366517    0.1214409  49.52 7.556557e-05    1.009    0.009
       214  -7.8031    247.2954    189.3484   8.0665985623e+01  -4.0675466551e+00    0.1333903   0.08559858   4.25 0.0002630729    1.676    0.403
       215  -9.0783     84.7185     21.9526   7.0598790709e+01   6.0254861393e+01    0.2669453    0.2222429  -9.30 0.0006557355    1.108    0.097
       216  -9.9623     37.7757     42.1631   9.6853244821e+01   6.4021303195e+01     0.376947    0.2918692 -89.32  0.001586672    2.256    0.557
       217 -10.4808     35.8994     37.9935   9.6144943539e+01   6.5006574695e+01    0.4907138    0.2882041 -14.50 0.0003537337    2.077    0.519
       218  -9.8200    153.5479     41.0463   6.0424638097e+01   4.1861575239e+01    0.3749202    0.2567092 -43.18  0.001074771    1.520    0.342
       219  -9.5717    105.2183     39.5240   7.1589150194e+01   5.3578146180e+01      0.62495    0.3022017 -29.36  0.002193225    2.111    0.526
       220  -9.0375    139.6855     40.4503   6.3157599272e+01   4.5439418737e+01    0.3276192    0.2196258 -42.41 0.0008913818    1.570    0.363
       221  -7.4043    160.1901     39.9755   5.8770517274e+01   4.0305460106e+01    0.1957732     0.115776 -30.01 0.0005915502    1.739    0.425
       222  -9.6265    144.5052     37.0038   6.0907522407e+01   4.4722067664e+01    0.4279725     0.254247 -53.04  0.001086377    2.085    0.520
       223  -8.7921    118.9488     34.6950   6.6002348303e+01   5.1232011048e+01    0.2981464    0.2015852 -27.79 0.0006916389    1.494    0.331
       224  -9.2444    222.3206    187.9572   8.4800884451e+01   3.9762213009e-01    0.2788262    0.2104421  23.86 0.0002265754    1.207    0.172
       225  -8.8796    222.5511    183.3325   8.3857404252e+01   1.0498170994e+00    0.2284594    0.2148049   2.85 0.0002769345    1.166    0.142
       226  -8.0199      2.6965    182.0330   1.2933433147e+02   3.5879298152e+01    0.1537843    0.1077995  87.78 0.0003667439    1.071    0.066
       227  -8.5833     42.0697     28.2302   8.9619181765e+01   6.6059089733e+01    0.2253404     0.148045 -28.20  0.001335368    1.301    0.231
       228 -10.2638    190.2998    179.7653   8.9330798720e+01   7.6772833311e+00    0.2390549    0.2361187   3.98 0.0004119315    1.134    0.118
       229  -8.3721    142.9312    180.9023   9.9432013093e+01   1.6603230592e+01     0.198861    0.1854997  49.95 0.0003115396    1.041    0.039
       230  -9.2396     75.9364    178.3421   1.1382229163e+02   2.8425581053e+01    0.2170543    0.1669084 -78.03 0.0002104627    1.206    0.171
       231  -8.6150    248.8367    178.2042   7.8209280084e+01  -2.7939969743e+00    0.1833417    0.1667276  -9.95 0.0005781953    1.207    0.172
       232  -9.0975    110.2770     33.1705   6.7697785844e+01   5.3410964672e+01    0.3179797    0.2407314 -52.64 0.0008340046    1.623    0.384
       233  -9.3770    101.1302     32.1573   6.9867745577e+01   5.5535915720e+01    0.3728827    0.2660798 -47.91  0.000873405    1.674    0.403
       234  -9.0596     87.5214     57.3197   8.3716592330e+01   5.4011506732e+01    0.7174386    0.2995201 -34.98  0.001988287    2.503    0.600
       235  -7.9736    230.0327    167.4936   7.9285832385e+01   2.1117081855e+00    0.2021113    0.1289523  42.61 0.0004960958    1.575    0.365
       236  -8.4276     92.4189     20.8069   6.7711088937e+01   5.8867914548e+01    0.2716011    0.1685162  31.35 0.0007922885    1.614    0.381
       237  -8.9877    128.4140     25.6146   6.0297512286e+01   5.0184226827e+01    0.3927598     0.247126 -33.48  0.001447948    1.643    0.391
       238  -8.9931    144.3105     25.4246   5.6890859913e+01   4.6267150617e+01    0.2713558    0.2162288 -41.23 0.0006102149    1.335    0.251
       239  -8.9367    111.6820     21.4376   6.2664535858e+01   5.4621856141e+01    0.4257023    0.1822507 -22.34  0.001691154    2.555    0.609
       240  -8.7556    210.9494    163.2058   8.1911830507e+01   6.4631973196e+00    0.2130685    0.1905152 -14.84 0.0002698097    1.084    0.078
       241  -8.6641     75.9769    162.9930   1.1176744990e+02   3.1855031559e+01    0.1928717    0.1660981  86.29            0    1.007    0.007
       242  -8.1608    196.5286    161.5126   8.4368183199e+01   9.6486190079e+00    0.2381307    0.1991296 -87.59 0.0007020389    1.669    0.401
       243  -8.7275    112.2690     15.4492   6.0095894105e+01   5.5171340327e+01    0.2486217    0.2262098 -52.05 0.0005208784    1.303    0.233
       244  -7.1893    138.6806    157.7625   9.6095161103e+01   2.2197188205e+01    0.1386728     0.114843  13.58 0.0002075336    1.512    0.339
       245  -6.8290    143.7052    153.7089   9.4117858206e+01   2.2059860619e+01    0.1428937    0.1188825   0.24  0.000296323    1.554    0.356
       246  -8.0213    238.0694    151.7423   7.4499609435e+01   3.0709583330e+00    0.1931272    0.1695421  13.63 0.0004669038    1.091    0.084
       247  -8.8309    139.2848     20.9915   5.6300370170e+01   4.8051459832e+01    0.3314076    0.2463643 -27.83  0.001117905    1.412    0.292
       248  -7.9809    139.6991     17.6764   5.5023754417e+01   4.8316630592e+01    0.1914186    0.1343707  74.68 0.0004741231    1.516    0.341
       249  -8.2867    133.7924    147.0110   9.5057314508e+01   2.5499067876e+01    0.5623422    0.1894003 -55.87   0.00169688    3.702    0.730
       250  -8.9337     40.8845     20.9661   8.6966802899e+01   6.7391973648e+01    0.2647136     0.156077 -26.44 0.0004780083    1.505    0.335
       251  -8.9216    236.9212    146.2007   7.3474262436e+01   4.1707410947e+00    0.2684052    0.1821551  23.20  0.001337272    1.644    0.392
       252  -9.2485     66.9374    144.1864   1.1118654414e+02   3.7493294270e+01    0.5191687    0.2920003  62.73  0.002416375    2.073    0.518
       253  -8.7563    125.3509     13.0714   5.6195537822e+01   5.2337695765e+01    0.2229069    0.2011119  81.16 0.0005196091    1.226    0.184
       254  -7.4512    229.3587    139.1660   7.3202043006e+01   6.8154578774e+00    0.1912048    0.1240888 -41.77 0.0001776077    1.544    0.352
       255  -8.1090    129.2269     15.9952   5.6498342576e+01   5.1090728954e+01    0.2131351    0.1972156  41.38 0.0004088274    1.013    0.013
       256  -8.6405    112.4716    134.0038   9.7587238786e+01   3.2563679406e+01    0.3629172    0.2503241  80.78  0.001189664    1.962    0.490
       257  -9.8027    134.0466    131.8447   9.1667863035e+01   2.8810731393e+01    0.5932487    0.3646187  53.36  0.002546611    1.718    0.418
       258  -9.2287     91.4357     26.1362   7.0286544257e+01   5.8371107582e+01    0.4542798    0.2330405 -45.02  0.001524756    2.434    0.589
       259  -8.7344     82.8586    131.2947   1.0481236952e+02   3.8256230284e+01    0.6381167    0.3443336  79.63  0.002128427    3.941    0.746
       260 -10.6912     70.1546    126.7168   1.0738797299e+02   4.1212520947e+01    0.7075276    0.6153011 -22.49  0.001629005    1.462    0.316
       261 -10.1066     58.2351    124.4690   1.1025907605e+02   4.3320891875e+01    0.6051933     0.334309  83.33  0.002075638    2.712    0.631
       262  -9.7317     98.5244    128.5917   1.0008515256e+02   3.6334935286e+01    0.6180273    0.3671421  73.65  0.002134989    2.761    0.638
       263  -8.2642    160.8766    128.8577   8.4566581859e+01   2.3679448765e+01    0.3306644    0.2066097 -38.57  0.001406179    1.649    0.394
       264  -7.8538    126.0269    129.7082   9.3180125246e+01   3.0922816514e+01    0.2115265    0.1943812  59.88 0.0006763847    1.089    0.081
       265  -8.8301    126.2794     83.8577   8.0928234895e+01   4.0931975737e+01    0.5849794    0.3435487  16.28  0.001855448    3.732    0.732
       266  -9.8035    117.2356    125.5212   9.4473222458e+01   3.3613636343e+01    0.6059228     0.383334  80.39  0.001691968    2.722    0.633
       267 -10.0262    108.6949    114.4785   9.4138041712e+01   3.7794156765e+01    0.6887335    0.4088184 -75.30  0.001524813    2.709    0.631
       268 -10.7959    108.9708    100.8088   9.0572225797e+01   4.0861421394e+01     1.062289    0.7806452 -83.73  0.004788968    1.860    0.462
       269  -9.5228    127.6873    102.4807   8.5921869136e+01   3.6670529727e+01    0.4238033    0.3610123 -71.10 0.0008727894    1.285    0.222
       270 -10.7204     22.9673     34.3370   1.0052730271e+02   6.6903246075e+01    0.6182249    0.4061451 -18.81  0.002979312    1.521    0.342
