#   1 NUMBER                 Running object number                                     
#   2 MAG_AUTO               Kron-like elliptical aperture magnitude                    [mag]
#   3 X_IMAGE                Object position along x                                    [pixel]
#   4 Y_IMAGE                Object position along y                                    [pixel]
#   5 X_WORLD                Barycenter position along world x axis                     [deg]
#   6 Y_WORLD                Barycenter position along world y axis                     [deg]
#   7 A_WORLD                Profile RMS along major axis (world units)                 [deg]
#   8 B_WORLD                Profile RMS along minor axis (world units)                 [deg]
#   9 THETA_WORLD            Position angle (CCW/world-x)                               [deg]
#  10 FWHM_WORLD             FWHM assuming a gaussian core                              [deg]
#  11 ELONGATION             A_IMAGE/B_IMAGE                                           
#  12 ELLIPTICITY            1 - B_IMAGE/A_IMAGE                                       
         1 -15.2992    248.1177     35.7004   3.0248420542e+00   2.0211277802e+01      2.32238    0.5805707 -32.09  0.008842193    3.487    0.713
         2 -13.7262    247.4092      7.2756   3.5710121603e+02   2.3612967348e+01    0.9494234    0.5469627 -41.24  0.005901525    1.404    0.288
         3 -10.4303    226.4209      4.4734   3.5764734608e+02   2.8189902881e+01    0.1230465   0.09415515 -61.75 5.707239e-05    1.019    0.019
         4 -10.2281    218.6065    246.6825   4.8375469416e+01  -5.0657893522e+00    0.1934211    0.0917839 -30.00  0.001141741    2.144    0.534
         5  -9.5607    187.6724    247.3271   5.3970528251e+01  -1.3571703111e+00    0.1047119   0.08330067  46.20 0.0007050426    1.702    0.412
         6  -9.9406    250.0156    245.2642   4.3034126702e+01  -8.3717432895e+00     0.147389    0.1023461  -0.10 0.0007957756    1.024    0.023
         7 -10.5390    147.0000    244.0006   6.1383835283e+01   4.5429866702e+00    0.1673272    0.0698061 -49.94 0.0008083789    2.984    0.665
         8 -10.0018    201.6339    241.8466   5.0658701745e+01  -2.4225350955e+00     0.140129    0.1039378 -41.60 0.0009513934    1.794    0.443
         9 -10.3868    248.3132    239.5995   4.2459215668e+01  -7.5848044952e+00    0.1977343    0.1086466 -22.94  0.001334592    1.598    0.374
        10 -10.0819    159.5202    238.5388   5.8184460432e+01   3.6282859140e+00    0.2168356    0.1160944 -67.78 0.0008102802    5.752    0.826
        11  -9.8523    243.0121    237.0064   4.2908127788e+01  -6.7247975347e+00    0.1335442    0.0953916  -6.72 0.0009096569    1.101    0.092
        12 -10.8103    231.0538    236.6544   4.4802202459e+01  -5.3377890665e+00    0.1948356     0.175477 -51.67  0.001448484    2.130    0.530
        13  -9.9699    241.5700    231.7765   4.2341588866e+01  -5.9692496962e+00    0.1342682   0.09183162 -31.85 0.0009439779    1.614    0.381
        14  -9.9370    194.5925    231.2060   5.0392029286e+01  -1.1236451291e-01    0.1606755   0.09899586 -22.46 0.0009540095    1.709    0.415
        15  -9.6269    158.0000    230.9788   5.7469440039e+01   4.9929794969e+00    0.1740425   0.07083357 -47.43 0.0007986868    2.917    0.657
        16 -10.6755    236.0601    229.2258   4.2841050584e+01  -5.0406213322e+00    0.2822135    0.1283603 -31.42  0.001633087    2.077    0.519
        17 -11.0215    248.6989    228.5234   4.0706369826e+01  -6.3903551976e+00    0.2306511    0.1241953 -33.06   0.00148849    1.822    0.451
        18 -10.1404    248.4578    224.0176   4.0037445905e+01  -5.8438424756e+00    0.1578905   0.08870143 -27.49 0.0008934693    1.581    0.367
        19 -10.1716    212.5715    228.2594   4.6688701862e+01  -2.0609763615e+00    0.1995021     0.105362 -40.48  0.001136964    2.167    0.538
        20 -10.0796    139.1572    227.8260   6.0941216750e+01   8.2315291702e+00    0.1754726    0.1354632  11.70  0.001072244    1.326    0.246
        21  -9.8437    223.6004    226.1922   4.4452252378e+01  -3.1782372193e+00    0.1567111   0.09030671 -20.83 0.0009492859    1.657    0.397
        22 -10.8114    239.1969    220.4906   4.0953255451e+01  -4.3559558952e+00     0.309072    0.1450339 -39.24  0.001734028    2.339    0.572
        23  -9.3780    200.0000    224.9462   4.8445077690e+01   2.4523572250e-02    0.1751852   0.06391863 -39.91  0.000800983    2.932    0.659
        24  -9.8196    206.3757    223.8078   4.7106286034e+01  -6.6812572552e-01    0.1660962   0.09576029 -23.23  0.000831727    1.777    0.437
        25 -10.1523    216.6897    222.7051   4.5099357494e+01  -1.8623792333e+00    0.1984511    0.1415308 -53.98  0.001176813    2.498    0.600
        26 -10.0191    173.0000    221.4563   5.3085915271e+01   4.3066778778e+00    0.2361197   0.07010949 -45.10 0.0009195897    3.813    0.738
        27 -10.4843    225.9758    220.8119   4.3198272452e+01  -2.7904398554e+00    0.1617661    0.1303928  46.55  0.001088658    1.942    0.485
        28 -10.6257    192.2658    218.7998   4.8933359861e+01   1.9554356922e+00     0.351262    0.1374016 -38.82  0.001637754    2.710    0.631
        29 -11.2002    249.7236    214.6798   3.8341350978e+01  -4.8821406783e+00    0.4276556    0.1541072 -39.27  0.002119977    2.949    0.661
        30 -10.0786    210.1713    217.1978   4.5376973426e+01  -2.7128034467e-01    0.2471242   0.07555558 -34.05  0.001004213    3.534    0.717
        31 -10.4522    244.2992    215.0309   3.9252178479e+01  -4.2914928022e+00    0.1596452    0.1181584 -15.29 0.0009194268    1.149    0.130
        32 -10.5927    232.5890    213.7735   4.0949138903e+01  -2.7133263594e+00    0.2434826    0.1646778 -43.66  0.001533421    1.985    0.496
        33  -9.8186    179.6847    215.6433   5.0870717927e+01   4.2308035940e+00    0.1315703    0.0867117  -0.92 0.0007044664    1.746    0.427
        34 -10.3241    198.3262    214.1159   4.7048193819e+01   1.7864988157e+00    0.1959846    0.1329756 -13.63  0.001169953    1.485    0.326
        35 -10.1175    185.5497    212.6552   4.9249157653e+01   3.8335764214e+00    0.2278187    0.1137571 -35.39  0.001143146    2.131    0.531
        36 -10.0835    177.0000    209.9944   5.0510776256e+01   5.5157666762e+00    0.1921941   0.07114637 -43.82 0.0008041541    2.954    0.662
        37 -11.1210    236.8323    207.1253   3.9148403499e+01  -2.3863226104e+00    0.3482441    0.2207617 -47.25  0.002038681    2.338    0.572
        38 -10.6821    214.6679    207.7486   4.3025446489e+01   4.3295754595e-01    0.3021282    0.1284819 -26.53  0.001373745    2.714    0.632
        39 -10.4787    204.8836    206.5709   4.4593478871e+01   1.9613561281e+00    0.3647341     0.134194 -27.21  0.001334921    4.115    0.757
        40 -10.4279    246.7923    205.7732   3.7327642915e+01  -3.4400663530e+00    0.2445737    0.1258326 -31.37  0.001453986    1.725    0.420
        41 -10.3804    197.1667    202.9476   4.5420974563e+01   3.6153239236e+00    0.2827549    0.1510337 -31.57  0.001461745    1.914    0.478
        42 -10.9873    228.5006    201.1332   3.9513175813e+01  -5.1353163037e-01    0.3941294    0.1431176 -22.71  0.001300934    5.317    0.812
        43 -10.2107    100.3911    200.6100   6.6105322055e+01   1.9190333617e+01    0.4197474    0.2040168 -30.31  0.001224426    6.186    0.838
        44 -10.8228    250.1985    200.1964   3.5855214436e+01  -3.1485640035e+00    0.2802558    0.1290945 -28.03  0.001408241    1.907    0.476
        45 -10.9007    243.6324    199.9513   3.6839424354e+01  -2.3076528401e+00    0.3160823    0.1138946 -34.96   0.00153558    2.498    0.600
        46 -10.2763    210.6033    200.3275   4.2492940077e+01   2.0626589433e+00    0.2204676    0.1102798 -40.03  0.001130175    2.063    0.515
        47 -10.1157    202.6585    196.5763   4.3297134160e+01   3.7777618768e+00    0.2134941    0.1104202 -38.61  0.001084179    1.947    0.486
        48 -11.4911    245.7003    192.4020   3.5208140065e+01  -1.5797955319e+00    0.3275388    0.2275026 -35.98  0.002154683    1.504    0.335
        49 -10.8255    224.4083    192.4472   3.8693262486e+01   1.2570301634e+00     0.361553    0.1281928 -39.22   0.00160333    2.735    0.634
        50 -10.8289    237.2638    196.7031   3.7300419908e+01  -1.0656871347e+00    0.3569388    0.1336012 -33.21  0.001709252    2.438    0.590
        51 -10.2591    185.1645    193.0482   4.6040242290e+01   7.0155571982e+00    0.3287412   0.08030687 -37.20 0.0009888288    5.099    0.804
        52  -9.5591    250.6393    190.3154   3.4080701815e+01  -1.9308446747e+00   0.09907278   0.09090123 -49.74 0.0007042559    1.757    0.431
        53 -10.2836    237.5608    186.7705   3.5501506681e+01   2.5063068457e-01    0.2305518   0.09874785 -30.44  0.001132202    2.142    0.533
        54 -10.0743    128.7551    186.9911   5.7326234577e+01   1.7467117055e+01    0.1797289    0.1210353 -52.44 0.0008958564    1.635    0.388
        55 -11.2733    249.6186    183.1407   3.2965607308e+01  -8.5047078664e-01    0.2756228   0.09094024 -28.58  0.001139301    3.164    0.684
        56 -10.2444    216.8011    185.8842   3.8833252133e+01   3.3086632202e+00    0.2717541    0.1309679 -19.90  0.001163855    2.801    0.643
        57 -10.3424    155.5650    184.8630   5.0808617183e+01   1.3336331684e+01    0.3105594    0.1365966 -56.87  0.001145699    3.332    0.700
        58 -10.8959    120.1555    183.5331   5.8840155079e+01   1.9630294866e+01    0.4295349    0.1157031 -59.91  0.001121644    6.071    0.835
        59 -10.1449    108.6599    184.3356   6.1801623053e+01   2.1358551819e+01    0.1510151    0.1022096  64.44 0.0007051107    1.756    0.431
        60 -10.4179    215.8398    194.7593   4.0589424747e+01   2.1316428010e+00    0.2098737     0.159653 -56.70  0.001175275    2.097    0.523
        61  -9.6032    174.0000    181.5318   4.6246824888e+01   1.0819989035e+01    0.2886381    0.0760734 -44.44 0.0009360656    3.945    0.747
        62 -10.7840    243.0246    180.4606   3.3497748064e+01   3.8704526087e-01    0.2515286    0.1252263  -7.97  0.001038593    3.502    0.714
        63  -9.8768    235.2190    180.9406   3.4824912490e+01   1.3904461882e+00    0.1587257   0.08581819 -34.14 0.0006668296    1.656    0.396
        64 -10.4348    147.0000    178.5418   5.1618326280e+01   1.6041012479e+01    0.3008489    0.0811204 -48.97 0.0009396887    3.975    0.748
        65  -9.9561    230.5855    186.2024   3.6538368697e+01   1.2871058918e+00    0.1783251   0.09831285 -24.38 0.0009597444    1.716    0.417
        66  -9.7404    199.0000    190.9562   4.2991656679e+01   5.2026724096e+00    0.1980193   0.06885958 -40.43 0.0007943252    2.887    0.654
        67 -10.1707    231.1826    175.6121   3.4498602481e+01   2.7329264244e+00    0.2335902   0.08217249 -38.90  0.001003816    2.624    0.619
        68  -9.9263    182.7584    175.0083   4.3229799100e+01   1.0495540159e+01    0.1804357    0.1108802 -39.90 0.0008925536    1.638    0.390
        69 -10.8894    120.5982    169.3197   5.6341748619e+01   2.2630860250e+01    0.2764243     0.145818 -59.77   0.00113926    2.184    0.542
        70  -9.4915    205.3237    168.6612   3.7655235714e+01   7.8031374066e+00    0.1225976    0.1070987 -76.99 0.0007051034    1.721    0.419
        71 -10.0760    218.6213    167.1965   3.5008502302e+01   5.9041564364e+00    0.1881329    0.1074966 -27.36 0.0009560012    1.680    0.405
        72 -10.4107    138.4766    163.9702   5.0930095005e+01   2.0566341691e+01    0.2003947    0.1325745 -79.09 0.0008098653    2.527    0.604
        73 -10.1683    212.6862    162.5080   3.5124536155e+01   7.6033076071e+00    0.2396001    0.1096382 -37.45  0.001084386    2.028    0.507
        74  -9.5433    132.3302    162.3237   5.2119473092e+01   2.2050738798e+01    0.1510269    0.1158906  -5.39 0.0006550775    1.700    0.412
        75 -10.0714    227.3675    158.1805   3.1779946914e+01   5.9351488327e+00    0.1845228    0.1052262 -43.09 0.0007613185    1.760    0.432
        76 -10.1190    204.6014    153.2237   3.4698175393e+01   1.0510647738e+01    0.1963556    0.1177438 -27.90 0.0009505713    1.674    0.403
        77 -10.4058    132.2209    151.2328   4.9956956559e+01   2.4503808922e+01    0.2374238     0.123305 -60.74 0.0008857703    2.458    0.593
        78 -11.6939    249.2983    148.5429   2.6536191741e+01   4.0378329216e+00     0.379638   0.09384825 -35.47  0.001393924    3.439    0.709
        79 -11.2607    243.5848    149.8255   2.7616223482e+01   4.7018022346e+00    0.2441932    0.1028521 -32.14  0.001133782    2.090    0.522
        80 -10.0050    189.2394    149.2510   3.6762726838e+01   1.3968924793e+01    0.2219224    0.1072275 -50.13 0.0007686042    2.423    0.587
        81 -10.0331     91.0000    148.9856   6.0696535775e+01   3.2517907908e+01    0.2486914   0.08501486 -58.77 0.0008088991    2.987    0.665
        82 -10.5942    233.5971    146.6821   2.8498099578e+01   6.7240802429e+00    0.2554882    0.1078386 -32.47  0.001137173    2.157    0.536
        83 -10.1031    218.0000    155.9709   3.2900804503e+01   7.7883106502e+00    0.2180522   0.06730036 -38.26   0.00080406    2.954    0.661
        84 -10.8552    148.1493    144.2041   4.4561963282e+01   2.2916811049e+01    0.3717076    0.2394446 -77.82  0.001391063    2.890    0.654
        85  -9.7895    172.0000    137.9880   3.7817627845e+01   1.9413769473e+01    0.2369802    0.0813612 -42.57 0.0007075179    2.855    0.650
        86  -9.7380     16.4447    137.4682   8.1918125925e+01   4.4900913518e+01    0.1340037    0.1142477  85.63 5.144094e-05    1.005    0.005
        87 -11.0012     69.0512    135.8843   6.4975202708e+01   3.9299749113e+01    0.2454486    0.2077773 -69.20 0.0003924763    1.150    0.131
        88 -10.7101    104.7258    142.7233   5.5581885062e+01   3.1640379771e+01    0.3136497    0.1929353 -83.12  0.001179125    2.570    0.611
        89 -10.4356     82.5193    131.0367   5.9836361063e+01   3.8417206071e+01     0.221814    0.1321899 -89.08 0.0008101154    2.607    0.616
        90 -11.8638    247.2329    128.8356   2.2895926585e+01   7.2534481944e+00    0.3462355    0.1812208 -54.46  0.001574859    2.760    0.638
        91 -10.3105    131.3194    130.6454   4.5708929036e+01   2.9289534372e+01    0.1613649    0.1231573  85.63 0.0007046356    1.751    0.429
        92 -11.5419     54.1066    130.0029   6.8792635669e+01   4.2903835256e+01    0.2795711    0.1876955 -47.50  0.001295449    1.587    0.370
        93 -11.2169     97.6295    125.9749   5.4118635442e+01   3.7024088535e+01    0.4646958    0.2035653 -65.63   0.00145726    3.277    0.695
        94 -10.7944     43.3249    122.9992   7.1292054481e+01   4.6055101206e+01     0.240187      0.10682  85.39  0.000704899    4.291    0.767
        95 -11.2052     82.1053    121.9697   5.8088226045e+01   4.0779475164e+01      0.42721    0.2024625  41.51  0.001123866    2.076    0.518
        96 -10.4407     74.6334    122.1988   6.0568376924e+01   4.1951485863e+01    0.2128988    0.1323994 -50.39  0.000375881    1.613    0.380
        97 -10.3585    140.6281    117.8165   4.0246915588e+01   3.0159906251e+01    0.2291003    0.1436507 -55.85 0.0008704581    1.751    0.429
        98 -11.1417     70.1756    116.1733   6.0798123687e+01   4.4196906952e+01    0.3911676    0.2415063 -54.23  0.001740946    1.566    0.362
        99 -11.3902    108.2438    111.8424   4.7564129363e+01   3.8372526353e+01    0.6243446    0.1922963 -58.40  0.001410696    5.960    0.832
       100 -11.8121     91.9118    112.5706   5.2784320346e+01   4.1380927506e+01    0.4268407    0.2277033 -70.87  0.001473226    2.789    0.641
       101 -10.4998     13.4595    108.0367   7.9845499359e+01   5.2719945966e+01    0.2103912    0.1158248 -74.01 0.0004027526    1.572    0.364
       102 -10.1863    129.7002    117.3447   4.2933869016e+01   3.2617160780e+01    0.1608834    0.1244803 -89.16  0.000703693    1.678    0.404
       103 -11.1775    118.1481    105.3773   4.3000650907e+01   3.7794160084e+01    0.2329613    0.1450593  54.69  0.000950416    1.730    0.422
       104 -10.1619    139.4036    104.2236   3.7035206013e+01   3.3343819071e+01    0.2263413    0.1449779 -55.09 0.0007057661    1.689    0.408
       105 -12.0090    246.8058    101.4557   1.7257914918e+01   1.1401992399e+01    0.2102381    0.1324856 -31.24 0.0006783712    1.384    0.277
       106 -11.0767     42.5025     99.0024   6.7300802722e+01   5.2402292310e+01    0.2107235    0.1188075  84.71 0.0008106941    2.619    0.618
       107 -11.5227    107.5342     97.6274   4.3988721596e+01   4.1821426224e+01    0.3914413    0.1983738 -57.89  0.001407873    2.345    0.574
       108 -11.5236     63.5049     96.8425   5.8763123176e+01   5.0134764801e+01     0.356808    0.1976773  75.85  0.001092357    4.185    0.761
       109 -11.0238     93.4141     92.6096   4.7035668740e+01   4.5878690535e+01    0.3924728     0.151413  36.11  0.001259124    2.943    0.660
       110 -11.5030     58.0447     90.9936   5.9392671796e+01   5.2408439557e+01    0.2333089    0.2166734 -54.79 0.0006867343    1.028    0.027
       111 -10.8585     80.4366     85.7350   4.9515453005e+01   4.9975559850e+01     0.287201    0.1487346 -56.07 0.0009972599    2.024    0.506
       112  -9.7932     34.3356     84.3577   6.7532117647e+01   5.7028078309e+01     0.154006   0.09398144 -35.40  0.000704093    1.806    0.446
       113 -10.6808    180.8206     78.5695   2.1346718730e+01   2.8590719250e+01    0.3895963      0.16415 -50.79   0.00138489    2.669    0.625
       114 -10.0236    224.4015    247.7343   4.7544014117e+01  -5.8550414475e+00    0.1424061   0.08460703 -17.70 0.0007059907    1.585    0.369
       115 -10.4024     36.4764     63.5124   6.1202990110e+01   6.1860707637e+01    0.1369946    0.1255925 -40.48 0.0001123932    1.011    0.011
       116 -11.5174     86.1256     54.8514   3.7090501266e+01   5.5432003359e+01    0.2669907    0.2285113 -37.59 0.0002950183    1.188    0.158
       117  -9.7930    159.1287     54.7768   1.8404010707e+01   3.7775906459e+01    0.1919252    0.1760966  15.74 0.0007435828    1.307    0.235
       118 -10.1090     62.1451     54.1825   4.6199142443e+01   6.0209422479e+01    0.1900214    0.1695974 -72.94 0.0004190139    1.334    0.250
       119 -10.0509    175.6745     76.8194   2.1772279533e+01   3.0100183425e+01    0.2046475    0.1882528  53.57 0.0009708438    1.160    0.138
       120 -10.4904    243.0663    246.1514   4.4259162950e+01  -7.7363450780e+00    0.2158542    0.1263332 -29.54  0.001511929    1.702    0.413
       121 -10.1438     28.1545     45.6310   5.9695760042e+01   6.6796299869e+01    0.2065998      0.15962 -14.74 0.0004456194    1.304    0.233
       122 -10.2460     28.4711     42.4781   5.8375333021e+01   6.7436121018e+01    0.2005881    0.1606171 -11.10 0.0005606611    1.232    0.188
       123 -10.8430    159.7288     41.9206   1.4390085856e+01   3.9531135961e+01    0.2246279     0.193447  75.58 0.0003345376    1.106    0.096
       124  -9.7360    157.5366     69.6059   2.3125496643e+01   3.5731201032e+01    0.1509288    0.1393488 -82.45 -2.781432e-05    1.053    0.050
       125 -10.8877     69.6394     41.3484   3.7880896346e+01   6.1275474789e+01    0.2091665    0.1749444 -88.40 0.0007715196    1.656    0.396
       126  -9.9085    154.4760     67.9495   2.3245753322e+01   3.6772452804e+01    0.2198029    0.1465154 -38.92 0.0003587988    1.490    0.329
       127 -10.9164    121.8507     36.9838   2.0009472564e+01   4.9925590906e+01    0.2814477    0.2373283 -43.73 0.0008169565    1.237    0.192
       128  -9.5846    112.3848     21.6800   1.6306162148e+01   5.4312691215e+01    0.1518629    0.1036541 -72.25 7.634229e-05    1.839    0.456
