#   1 NUMBER                 Running object number                                     
#   2 MAG_AUTO               Kron-like elliptical aperture magnitude                    [mag]
#   3 X_IMAGE                Object position along x                                    [pixel]
#   4 Y_IMAGE                Object position along y                                    [pixel]
#   5 X_WORLD                Barycenter position along world x axis                     [deg]
#   6 Y_WORLD                Barycenter position along world y axis                     [deg]
#   7 A_WORLD                Profile RMS along major axis (world units)                 [deg]
#   8 B_WORLD                Profile RMS along minor axis (world units)                 [deg]
#   9 THETA_WORLD            Position angle (CCW/world-x)                               [deg]
#  10 FWHM_WORLD             FWHM assuming a gaussian core                              [deg]
#  11 ELONGATION             A_IMAGE/B_IMAGE                                           
#  12 ELLIPTICITY            1 - B_IMAGE/A_IMAGE                                       
         1 -11.6992    235.2394     62.5973   7.8550744690e+01   1.8778281376e+01     1.893433          nan -36.46  0.004090641    8.162    0.877
         2 -10.0021    213.5675      6.1411   6.5535141944e+01   3.0007992235e+01    0.5794021    0.2126302 -49.17  0.001225544    2.794    0.642
         3 -10.9097    227.8574     47.0220   7.5364487921e+01   2.2280034889e+01     1.300666     0.364013 -42.18  0.004313508    3.513    0.715
         4 -10.2449    220.8381     13.0126   6.6834028758e+01   2.7598540001e+01    0.6278808    0.2558017 -50.35  0.002238119    2.558    0.609
         5 -12.7600    218.7386     26.1540   7.0672968234e+01   2.6761452509e+01     2.508952     1.473574 -66.47   0.01154203    2.060    0.515
         6 -11.0751    229.0622     16.0388   6.6952997081e+01   2.5362840380e+01    0.4495512    0.2890383  35.71  0.001439878    1.918    0.479
         7  -9.2118    142.7634     16.7251   7.7899278942e+01   4.7445343651e+01    0.3761143    0.1832534 -31.63   0.00153079    2.007    0.502
         8  -9.3791    235.5266      8.0587   6.4347527687e+01   2.4637262618e+01    0.8891295   0.09769984 -44.86  0.002176882    7.133    0.860
         9  -9.8650    231.0156      2.8462   6.3307821055e+01   2.6146547134e+01    0.5851539    0.2171402 -54.56  0.001647375    2.923    0.658
        10 -11.1501    119.3492      9.7736   7.9671366927e+01   5.4322420466e+01    0.7406482    0.4753732  44.44  0.002255344    1.499    0.333
        11  -8.2639    209.0257     10.9905   6.7320290363e+01   3.0672987749e+01    0.2022534    0.1892652 -45.66 0.0003394317    1.022    0.021
        12 -10.0491      7.4142      8.6701   1.2801863936e+02   7.4400576043e+01    0.2493771    0.1438721   8.47  0.001454931    2.023    0.506
        13  -9.8048      2.6738      7.5211   1.3087949418e+02   7.4913673132e+01    0.2923013     0.119126 -61.54  0.001093555    1.989    0.497
        14  -8.4083    223.9463      6.5256   6.4807263947e+01   2.7470114032e+01    0.2532251    0.1518492 -44.56 0.0007909428    1.521    0.343
        15  -8.1327    219.3613      6.6978   6.5215837035e+01   2.8549704047e+01    0.2235604    0.1246971 -51.48  0.001069486    1.747    0.427
        16  -8.6796    204.3571      4.9045   6.5971304775e+01   3.2407087685e+01    0.2976015    0.1801833 -53.73  0.001055091    1.654    0.395
        17  -8.0926    201.5200      1.4777   6.5208542279e+01   3.3427759953e+01    0.2263694    0.1241262 -85.06 0.0007651813    2.041    0.510
        18  -9.0209    172.1611      2.6469   6.8498926892e+01   4.0979777587e+01    0.3451124    0.2497928 -58.42  0.001271516    1.443    0.307
        19  -8.9273     96.3450      2.6442   8.1825795930e+01   6.0783487288e+01    0.2194448    0.1659497 -59.81  0.001119845    1.693    0.409
        20  -8.5204     77.6312      2.7834   8.7521107082e+01   6.5034404636e+01    0.1932559    0.1167383 -34.08  0.000494996    1.679    0.404
        21 -10.4569    242.8967    109.2330   8.8815777239e+01   1.1410675704e+01    0.5137116       0.2449  41.92  0.002431871    2.151    0.535
        22  -9.0902    200.6044    123.0651   9.8858610966e+01   1.7776004480e+01     0.247466    0.1932038  39.24 0.0003622143    1.241    0.194
        23  -8.4712    133.0355    119.9803   1.1254143497e+02   3.2083257122e+01    0.2091721    0.1936882  30.19 -0.001877172    1.068    0.064
        24  -8.3165     49.4143    118.5970   1.3519766724e+02   4.5646364015e+01     0.291087    0.1506449  73.36  0.001167741    2.554    0.608
        25  -8.7464    167.8285    113.1652   1.0297652831e+02   2.6184484706e+01    0.2174267    0.2037313  89.73 0.0008162498    1.263    0.208
        26  -8.4480    205.9772    109.7585   9.4782609883e+01   1.8648911790e+01    0.1835345    0.1143798  47.31 0.0008843362    1.611    0.379
        27  -9.8935    187.1366     98.1267   9.5316036787e+01   2.4478517320e+01    0.3470331    0.1735728 -42.21  0.001422634    2.100    0.524
        28  -7.6509     63.5562    105.5612   1.2885713548e+02   4.6935778036e+01    0.1333479    0.1206638  88.95 7.519567e-05    1.032    0.031
        29  -7.3263     58.3139    104.6729   1.3032578903e+02   4.7815407906e+01    0.1391932   0.09451719  71.59 0.0007043196    1.669    0.401
        30 -10.1833    245.5114    102.5038   8.6909480649e+01   1.1755068324e+01    0.3264697    0.2057624  -2.25   0.00167816    1.742    0.426
        31  -9.2213    192.0010    100.9888   9.5134784606e+01   2.2956878370e+01    0.2139962    0.2043004  13.41 0.0003442082    1.054    0.052
        32 -10.0002    248.7669     95.1697   8.4773212523e+01   1.2038858268e+01    0.2657433    0.2138472 -45.02  0.001316869    1.418    0.295
        33  -8.2088    195.8292     96.1537   9.3202950883e+01   2.2861221339e+01     0.200767    0.1613235  14.08 0.0004044065    1.306    0.235
        34  -9.1229    149.4315     92.6777   1.0180380807e+02   3.3881993669e+01    0.4128514    0.2874613  -8.96  0.001801539    1.971    0.493
        35  -9.5046    186.7673     91.9210   9.3764742562e+01   2.5543557322e+01    0.3775892    0.1979731 -21.06  0.001474508    2.299    0.565
        36  -8.2107    135.0530     91.0127   1.0482939691e+02   3.7369649304e+01    0.2280356     0.182478 -83.31 0.0005705099    1.638    0.390
        37  -9.0424    249.8295     86.1926   8.2532247976e+01   1.2923730934e+01    0.2424177    0.1536701 -34.29  0.001309472    1.444    0.307
        38  -9.4815    158.7117     83.6467   9.7182114952e+01   3.3384779539e+01     0.309795    0.2737403 -43.47  0.001235889    1.167    0.143
        39 -10.4227    161.6909     80.7299   9.5700038169e+01   3.3191245602e+01    0.6277947    0.3819915 -23.78  0.002665827    1.860    0.462
        40 -11.7900    139.4542     41.3193   8.7822887916e+01   4.5073135707e+01     1.634093    0.7628438  68.70  0.004335611    2.883    0.653
        41 -10.8089    183.0128     78.8390   9.0900348491e+01   2.8464889659e+01     0.923952    0.3987063 -43.28  0.003416558    2.475    0.596
        42 -11.4832    175.6016     66.3072   8.8655824368e+01   3.2186882685e+01     0.998889    0.6422595 -51.07  0.003561115    1.782    0.439
        43  -8.8144    143.4597     81.1862   9.9967631869e+01   3.7352114026e+01    0.3248994    0.2556289 -45.16 0.0007111225    1.304    0.233
        44  -9.6116     72.7980    242.5695   1.4141356476e+02   1.9382220781e+01    0.1736888    0.1405299  53.26 0.0005279899    1.153    0.133
        45 -12.1168      4.9657    233.5638   1.5259956962e+02   2.7603822352e+01    0.6241315    0.3780432  82.05  0.004934154    1.473    0.321
        46  -7.5827    138.5620    227.5310   1.2834663594e+02   1.2994830199e+01    0.1121209   0.08476672  39.79 4.902085e-05    1.024    0.023
        47  -7.8508     65.2961    227.3189   1.4177795338e+02   2.2535594767e+01   0.08762337   0.07939431   9.35 0.0003145485    1.612    0.380
        48  -7.6379    144.0000    222.9570   1.2684408275e+02   1.2835033439e+01    0.1467019   0.06600419 -49.85  0.000798338    2.914    0.657
        49 -10.9931    164.8896     53.4163   8.6693818693e+01   3.6808213306e+01     1.584968    0.8486284 -75.51  0.004141224    5.836    0.829
        50 -10.5647    158.5946     69.6983   9.3086820779e+01   3.5793409206e+01    0.3932712     0.297105 -22.36  0.001188043    1.386    0.279
        51  -9.7122    207.5091     60.8913   8.1797028851e+01   2.5257671817e+01     1.059469    0.4389174 -57.27  0.002619803    6.784    0.853
        52  -9.5324    198.0867     52.5553   8.0812022089e+01   2.8627804473e+01    0.3835507    0.2927288  80.72  0.000322142    1.521    0.342
        53 -10.8097    194.4514     48.7492   8.0233762707e+01   3.0024337172e+01    0.5604577    0.3861412 -63.00  0.001924029    1.765    0.433
        54  -8.2733    206.9375     65.7831   8.3236253159e+01   2.4733351502e+01    0.2814831    0.1605266 -50.60 0.0008626327    2.068    0.516
        55  -8.1672    201.2862     60.0747   8.2493426478e+01   2.6845336167e+01    0.2384509    0.1468472 -54.01 0.0008379602    1.946    0.486
        56  -9.6756    184.1972     58.9325   8.4910555270e+01   3.1166620163e+01    0.2664866    0.2492302  25.70 0.0003280335    1.079    0.073
        57  -7.6649    160.5211     57.6128   8.8901994773e+01   3.7266998623e+01    0.1502113    0.1435238  30.45 9.263539e-05    1.039    0.038
        58 -11.5931    177.1323     46.7114   8.2351539238e+01   3.4656588924e+01    0.6097923    0.3602183  -3.95  0.002042428    2.360    0.576
        59 -10.1256    200.6585     43.3680   7.7758080887e+01   2.9176766894e+01    0.3809031    0.2684172  32.33  0.001017252    1.620    0.383
        60  -8.3444    184.7657     38.9690   7.8702964860e+01   3.3726447168e+01    0.2962708     0.187734 -44.86  0.001349313    1.608    0.378
        61  -7.1649    201.2887    222.2909   1.1667756501e+02   4.6456804691e+00    0.1101476   0.06848139  15.79 0.0002572557    1.542    0.352
        62  -7.6033    215.9866     73.7835   8.4047905190e+01   2.1579858274e+01    0.1736588    0.1147972  56.16 0.0005478319    1.607    0.378
        63  -8.3404    134.6686     31.7154   8.5306348209e+01   4.7674416410e+01    0.1575191    0.1102316  28.72 0.0003176867    1.615    0.381
        64  -9.4166    126.7023     29.3599   8.6198678150e+01   5.0021798982e+01    0.2952997    0.2025182 -47.75 0.0007503754    1.610    0.379
        65 -10.4560    124.5323     25.5359   8.5168941131e+01   5.1090562168e+01    0.5542985    0.3839252  -0.19  0.002142696    1.732    0.423
        66  -8.1941    102.3313     22.0552   8.9430950500e+01   5.6976070084e+01    0.2018022    0.1772851 -23.19 0.0004509247    1.126    0.112
        67 -10.2126    146.2619     19.8349   7.8455835986e+01   4.6163971203e+01     0.262704    0.2537303 -39.71 0.0002422231    1.065    0.061
        68  -8.6721     50.2244    222.0473   1.4421864607e+02   2.5059896993e+01    0.1406109    0.1196536  57.52 0.0004911378    1.208    0.172
        69  -7.9026    246.0444     17.0140   6.5853450513e+01   2.1442334637e+01    0.2258259    0.1143524 -71.04  0.001012597    2.523    0.604
        70 -12.4920     27.8897    210.8451   1.4778850715e+02   2.9215725574e+01    0.6741453    0.4583119  67.21   0.00254134    1.156    0.135
        71 -12.8537     44.0935    195.5322   1.4380160044e+02   3.0265416790e+01    0.9145492    0.8206481 -27.62  0.007075422    1.699    0.411
        72  -7.7020     68.7603    198.3911   1.3899224229e+02   2.6931972554e+01    0.1442391   0.09653983  30.44 0.0003399342    1.564    0.361
        73  -8.1569     14.6673     12.3167   1.2471402304e+02   7.3141041622e+01    0.1107936   0.09246644  77.05 0.0003397028    1.689    0.408
        74  -9.9608    192.1151    187.2672   1.1298985911e+02   1.0203592537e+01    0.1944303    0.1666399  16.41 0.0002247226    1.088    0.081
        75  -8.0891      7.6025    181.1875   1.5050353441e+02   3.6366288052e+01    0.1373911    0.0826786 -76.03 0.0004893581    1.647    0.393
        76 -11.2150     55.5174    184.7164   1.4064244494e+02   3.1000851456e+01    0.4644207    0.2639828  61.68  0.002799396    1.587    0.370
        77  -7.4030     19.7120    150.6139   1.4626466126e+02   4.1464103328e+01    0.1105121   0.07718974 -53.04 0.0007011049    1.751    0.429
        78 -10.0877     67.2059    144.0239   1.3373271874e+02   3.7814884262e+01    0.5021094    0.2970075  57.56  0.001776265    1.678    0.404
        79  -8.6701    136.1103    135.0297   1.1500599920e+02   2.8569093531e+01    0.1984508    0.1884233  37.00  0.001181277    1.020    0.020
        80 -10.7379    239.6990    127.2267   9.3278950092e+01   9.7537027712e+00    0.5297772    0.3012486  40.56  0.002804759    1.737    0.424
        81 -11.3596    242.6806    119.2424   9.1089095576e+01   1.0206652646e+01     0.622494    0.2438399 -25.90  0.002668813    2.407    0.585
        82 -10.7669    245.8760    113.9087   8.9442524381e+01   1.0282927594e+01    0.4232823    0.2882999  49.57 0.0005716163    1.643    0.391
