#   1 NUMBER                 Running object number                                     
#   2 MAG_AUTO               Kron-like elliptical aperture magnitude                    [mag]
#   3 X_IMAGE                Object position along x                                    [pixel]
#   4 Y_IMAGE                Object position along y                                    [pixel]
#   5 X_WORLD                Barycenter position along world x axis                     [deg]
#   6 Y_WORLD                Barycenter position along world y axis                     [deg]
#   7 A_WORLD                Profile RMS along major axis (world units)                 [deg]
#   8 B_WORLD                Profile RMS along minor axis (world units)                 [deg]
#   9 THETA_WORLD            Position angle (CCW/world-x)                               [deg]
#  10 FWHM_WORLD             FWHM assuming a gaussian core                              [deg]
#  11 ELONGATION             A_IMAGE/B_IMAGE                                           
#  12 ELLIPTICITY            1 - B_IMAGE/A_IMAGE                                       
         1 -13.3386    220.7428     30.2672   4.9422108526e+01   2.6052663540e+01     5.817938     2.444948   5.30   0.01304087    9.331    0.893
         2  -8.5025    215.9485     24.4581   4.8253999824e+01   2.7757765506e+01     1.243501    0.5496486   1.68  0.004021406    4.336    0.769
         3 -17.6063    228.0965     73.8493   6.0296219892e+01   1.9424729166e+01     7.674998     4.480635  70.29   0.03627336    2.314    0.568
         4 -16.3128    249.6899     24.3959   4.5430752933e+01   2.0311631711e+01     2.637225    0.6991624 -28.56   0.01038703    2.733    0.634
         5 -13.8965    119.1845     10.1135   5.6343984222e+01   5.4015985834e+01     3.695508     1.330739  36.88   0.01142241    3.790    0.736
         6  99.0000    162.2519     26.8634   5.5478269200e+01   4.0945468076e+01     9.029975     2.649494  75.46   0.02014992    7.344    0.864
         7 -14.2257    131.0077     20.6779   5.8522393711e+01   4.9814284544e+01     3.769622     2.290644  81.83   0.01598496    2.094    0.522
         8 -11.6873    202.6233     12.8540   4.6118781666e+01   3.2075209505e+01     0.284815    0.1833318  -0.83  0.001071821    1.789    0.441
         9  -7.8414    156.8871      8.4834   4.9619899507e+01   4.4239668044e+01    0.3813453    0.2037951  -6.90  0.001216006    2.149    0.535
        10 -11.0344     67.0059     10.1490   7.0891375589e+01   6.6264796994e+01    0.2596666      0.19048 -23.05  0.001410594    1.273    0.214
        11 -11.6879      6.8621      2.9464   1.0063586110e+02   7.6361181249e+01    0.9186179    0.3638536  18.15  0.004306585    3.103    0.678
        12 -11.6479     63.1699      3.1513   6.8189509200e+01   6.7943847580e+01    0.3878809    0.3241618  42.47  0.002307401    1.237    0.192
        13 -11.3914    243.5446    156.5627   7.6879417066e+01   6.5575708942e+00     0.492234    0.3307121  49.64  0.001036779    1.932    0.482
        14 -12.9953    225.0983    174.9335   8.3236377395e+01   7.3315318905e+00     1.472969    0.5955372 -19.22  0.006393377    3.198    0.687
        15 -13.1114    235.4336    171.7688   8.1013127053e+01   6.1114170880e+00     1.101457    0.8488447  15.71  0.006978562    1.079    0.073
        16 -11.3066    214.5549    167.8627   8.3672602084e+01   9.8369761985e+00    0.5964349     0.346665  60.98  0.002553399    3.912    0.744
        17 -12.7247    236.0069    157.0009   7.8114055340e+01   7.6915514749e+00     1.186726    0.4712856 -31.18  0.003092388    2.395    0.582
        18 -10.4255    248.9633    142.7319   7.3314469894e+01   7.2528906753e+00    0.3323177    0.2748648 -26.12  0.001589882    1.369    0.270
        19 -12.9684    239.5235    144.7908   7.5128250913e+01   8.5420007523e+00     1.491287     1.109982 -19.93  0.009548064    1.237    0.192
        20 -11.7229    244.0268    113.3500   6.7693211157e+01   1.1500950266e+01    0.7326236    0.4008739 -13.66    0.0023578    1.802    0.445
        21 -11.2543    238.7141    110.4774   6.7782400683e+01   1.2805931808e+01    0.5331097    0.4321568 -59.56  0.003151835    1.795    0.443
        22 -10.6750    193.7614    176.4165   8.8858163286e+01   1.2116375446e+01    0.2999021    0.1973142  45.54  0.001744007    1.593    0.372
        23  -8.7050     78.9937    176.0080   1.1251198472e+02   3.0025796808e+01    0.1391049    0.1161652  52.37 0.0009306443    1.038    0.036
        24 -13.7385     15.9400    167.7503   1.2611632903e+02   3.8491672299e+01     1.083875    0.7194621  44.15  0.004707247    1.349    0.259
        25 -10.5635    200.8084    173.6683   8.7112468327e+01   1.1331551970e+01     0.287361     0.220923   3.66  0.001123056    1.190    0.160
        26 -11.4772    196.2094    158.5385   8.5095503770e+01   1.4125126750e+01    0.5890219    0.3142563  45.59  0.002963245    1.882    0.469
        27 -11.5441    191.3064    152.2622   8.4752363234e+01   1.5869645036e+01    0.5626753    0.3391247 -41.85  0.002920865    1.896    0.473
        28  -8.0522    213.5324    159.5790   8.2262645798e+01   1.1043205896e+01    0.1261211    0.1032585  10.98 0.0001832759    1.011    0.011
        29 -11.7177    158.4226    156.9985   9.2121806209e+01   2.0995723419e+01      1.64662    0.8803486  66.28  0.004482137    7.614    0.869
        30 -12.0962    146.4615    142.4915   9.1849157567e+01   2.5629540369e+01    0.6325495    0.4650023  15.47  0.002431817    1.584    0.369
        31 -10.9613    151.9721    149.4793   9.2038583510e+01   2.3405769617e+01    0.4870802    0.2485213  56.11  0.001996783    2.714    0.632
        32 -10.8321    149.6297    146.3295   9.1924079060e+01   2.4374334366e+01    0.3097635    0.2334577  63.65 0.0007953453    1.676    0.404
        33 -13.0474     68.3793    144.5825   1.1118502073e+02   3.7800169326e+01     1.197882    0.9274071  76.16  0.004077321    1.279    0.218
        34 -11.9776     45.5590    154.6858   1.1813176770e+02   3.8355057516e+01     0.354295    0.3173496 -32.31 0.0009341259    1.475    0.322
        35 -13.0373     53.5976    150.5628   1.1569648158e+02   3.8332718255e+01     0.781394    0.6341889 -83.09   0.00303391    1.168    0.144
        36 -12.3758     59.9206    147.3245   1.1371249423e+02   3.8276219842e+01    0.6230437    0.3920583 -88.02  0.001622421    1.699    0.412
        37  -8.4908    226.2943    155.3303   7.9318281672e+01   9.4573866888e+00    0.1297647   0.08178484   8.13 0.0004104589    1.633    0.388
        38 -10.3680    204.0540    152.4564   8.2489827379e+01   1.3595683190e+01    0.2677757    0.2270371  37.38 0.0008838057    1.269    0.212
        39 -10.9296    133.7328    144.9301   9.5183913890e+01   2.7487561258e+01     1.041736    0.3061373 -54.01  0.003048166    5.346    0.813
        40 -10.7847    173.3226    149.6790   8.7680275329e+01   1.9497388011e+01    0.2653701    0.2143036  14.31  0.001071058    1.197    0.165
        41  -8.5233    219.2038    149.3437   7.9272337104e+01   1.1387677626e+01    0.1612372    0.1130525  47.85 0.0003275504    1.642    0.391
        42 -10.7571    156.7238    148.4382   9.0826716080e+01   2.2722230429e+01    0.3201575    0.2371734  82.77  0.001560364    2.342    0.573
        43 -10.6195    205.5119    110.1127   7.2834937460e+01   1.9253183106e+01    0.5176501    0.3103436  24.51  0.001571208    1.965    0.491
        44 -12.7166    172.7311    126.8310   8.2898218829e+01   2.3282145646e+01     1.134869    0.7098718 -57.92  0.004995549    2.458    0.593
        45 -11.6523    159.1318    110.7269   8.1886051213e+01   2.8788974075e+01    0.6271827      0.47098 -57.01  0.001322548    1.635    0.388
        46 -10.3212    205.1348    121.8240   7.5675053828e+01   1.7662741054e+01    0.4011258    0.2795247 -56.90 0.0008871031    2.189    0.543
        47 -11.0853    192.5104    108.8714   7.4805542748e+01   2.2095156761e+01    0.9049708    0.5375414 -60.96  0.003460519    3.337    0.700
        48 -12.8646    179.2139    142.8229   8.5113445924e+01   1.9482824860e+01     1.057522    0.6884893 -56.38  0.005069662    2.321    0.569
        49 -13.0476    189.1664    139.3126   8.2464207941e+01   1.8159192879e+01     1.386114    0.7198313  31.35  0.006282138    2.055    0.513
        50 -11.9394    200.8705    124.6074   7.7061176230e+01   1.8091170424e+01     0.805499     0.550308 -72.87  0.002407526    3.460    0.711
        51 -10.1601    200.4476    115.9742   7.5117020074e+01   1.9426218519e+01    0.4057347    0.2458975  39.31  0.001997299    1.638    0.389
        52 -12.6173    183.5151    125.5239   8.0472875536e+01   2.1355853393e+01     1.779087    0.8141679 -31.70  0.007484772    2.237    0.553
        53 -11.1520    185.8888    119.1280   7.8523621468e+01   2.1878565836e+01    0.5335862     0.293545 -38.28  0.002179616    1.834    0.455
        54 -11.6534    162.8186    120.6620   8.3513725994e+01   2.6303688580e+01    0.5567648    0.4008107 -65.54 0.0006393802    2.064    0.515
        55 -11.9109    167.6694    114.6902   8.1061951604e+01   2.6329068707e+01     0.890404    0.5177096  47.30   0.00386128    1.718    0.418
        56  -9.2412    222.6234    145.1845   7.7857057857e+01   1.1329065747e+01    0.1859303     0.158604  31.19 0.0004078402    1.253    0.202
        57 -10.0245    198.6441    144.4738   8.1815567586e+01   1.5663120535e+01      0.25295    0.2145638  83.23  0.001309325    1.914    0.478
        58  -9.7780    192.2754    144.1328   8.2906595606e+01   1.6872269009e+01    0.2292413    0.1797101  41.56 0.0004274964    1.295    0.228
        59 -10.8414    191.0399    118.4329   7.7395230323e+01   2.0947216129e+01    0.4324107    0.3798355 -56.84  0.001407992    1.442    0.306
        60 -13.0666    248.8159    122.4903   6.9057488857e+01   9.5919709281e+00     1.902959    0.8248716 -21.11  0.008859039    2.155    0.536
        61 -11.8135    159.4578    142.6454   8.9082065990e+01   2.3197224718e+01    0.5004436    0.3268611  59.09  0.001280085    1.976    0.494
        62 -10.6873    211.7668    136.9895   7.7928149704e+01   1.4316478706e+01    0.3621202    0.2682378 -46.09  0.001713014    1.731    0.422
        63 -10.7506    146.4050    103.4861   8.2873832701e+01   3.2772682275e+01    0.4144016    0.3192472   7.71 0.0008690449    1.570    0.363
        64 -13.0591    123.3384    103.5441   8.8522491161e+01   3.7518861945e+01      1.82942    0.9251212 -63.34  0.005984713    3.758    0.734
        65 -10.9907    120.8837    111.8405   9.1206355424e+01   3.6321942975e+01    0.4005521    0.3295447 -85.92  0.001403563    1.517    0.341
        66 -12.5169    136.3542    125.9942   9.0661742437e+01   3.0566400991e+01     1.319273    0.4850107 -52.04   0.00447984    3.478    0.712
        67 -11.1134    141.2428    106.3145   8.4809999258e+01   3.3327968323e+01    0.4958462    0.3490385  20.74  0.002307724    1.748    0.428
        68 -12.0561    134.8045    109.4322   8.7139426733e+01   3.4052624125e+01     1.304495     0.255478 -42.96  0.003385811    5.170    0.807
        69 -10.7576    133.6235     99.2111   8.4792172861e+01   3.6271332605e+01    0.4531488    0.2954355 -64.03 0.0008740944    2.167    0.539
        70 -11.2099    167.2463    134.0052   8.5623268279e+01   2.3169779077e+01    0.4701801    0.2521673  34.68  0.002109425    1.907    0.476
        71 -13.5260    158.1090    130.2556   8.6717614697e+01   2.5579073627e+01     1.528774     1.091776 -40.07  0.007996696    1.455    0.313
        72  -9.3008    223.2648    128.7465   7.4234981465e+01   1.3319821215e+01    0.2670971    0.1784067  63.57  0.001238443    2.322    0.569
        73  -8.4645     96.3034    129.2661   1.0137788460e+02   3.7026086567e+01    0.1280777    0.1072912  -8.24  0.000301438    1.526    0.345
        74 -11.5943    142.1728    122.5991   8.8538656503e+01   3.0079384707e+01    0.6446761    0.4402551 -85.71  0.002635574    2.893    0.654
        75 -10.4956    214.1745    123.0597   7.4432630483e+01   1.5758433468e+01    0.4174582    0.3110954  81.22   0.00177275    2.480    0.597
        76  -8.8505    226.9324    123.0241   7.2383216392e+01   1.3389185574e+01    0.1896037    0.1597155 -60.55  0.001114507    1.759    0.432
        77  -8.4798    224.5067    117.3973   7.1480023345e+01   1.4564497540e+01    0.1335634    0.1117854   3.69 8.087004e-05    1.054    0.051
        78  -9.0767    221.1532    117.3788   7.2000466915e+01   1.5198550099e+01    0.2363928    0.1570024  49.92 0.0007689878    1.668    0.401
        79  -9.2406    213.9908    105.1090   7.0223699530e+01   1.8245218733e+01    0.1811557    0.1699588 -37.30 0.0003632962    1.242    0.195
        80 -10.6316    203.4829    103.3294   7.1507662233e+01   2.0636151089e+01    0.3950144    0.2877401  38.11   0.00135735    1.380    0.275
        81 -10.2672    241.4594    100.9260   6.5185296909e+01   1.3462137542e+01    0.4213036     0.299695  43.39  0.002454885    1.513    0.339
        82 -10.8990    156.3685     98.9449   7.9433428000e+01   3.1450525059e+01     0.501313    0.3050197  39.04  0.002242798    1.690    0.408
        83 -11.1462    170.4544     92.4933   7.4733348157e+01   2.9437688818e+01    0.7071786    0.4852545   4.65   0.00316969    1.911    0.477
        84 -10.9686    139.8569     94.4827   8.1992007389e+01   3.5846071705e+01    0.4391612    0.3967573  26.00   0.00141027    1.114    0.102
        85 -10.1780    127.2424    238.5093   1.0951797884e+02   1.3634368150e+01    0.1806812    0.1436059  38.36 0.0002987618    1.065    0.061
        86  -9.7524    238.4803    212.4899   8.7438592284e+01   1.5202721461e+00    0.1891616    0.1234185  33.65 0.0006595775    1.423    0.297
        87 -14.3717    249.0221     57.6564   5.3783636496e+01   1.7028417110e+01    0.7484902    0.4471065 -31.15  0.002207007    1.406    0.289
        88 -10.3153    194.5036    198.0134   9.2335664898e+01   9.2643860663e+00    0.2731006    0.2356667 -79.49    0.0018056    2.185    0.542
        89  -9.9722    186.0744     92.9750   7.1881584563e+01   2.5893248944e+01    0.3467382    0.2006816 -34.46  0.001023981    1.651    0.394
        90 -11.5152    153.9293     90.0627   7.7523738337e+01   3.3549937951e+01    0.3168227     0.275244 -16.06 0.0005402729    1.155    0.134
        91 -10.4348    177.8349     88.0118   7.2061266530e+01   2.8500794570e+01     0.222471    0.2037742  35.66 0.0004128233    1.108    0.097
        92 -15.7996    245.1970     47.9799   5.1741644051e+01   1.8850607339e+01      1.34603    0.5646433  53.09   0.00609737    2.583    0.613
        93 -10.3951    191.5276    192.1856   9.1927329188e+01   1.0435423392e+01    0.5868185    0.3595302 -63.20  0.002300043    5.834    0.829
        94 -10.2029    117.0713     66.5139   7.9293602042e+01   4.6124150539e+01    0.2593531    0.2212684 -32.20 8.277868e-05    1.143    0.125
        95  -8.9373     72.6031     58.3190   9.0648946115e+01   5.6590361060e+01    0.1922583    0.1264812 -39.53 0.0003986596    1.455    0.313
        96 -10.3146    221.7596     93.4502   6.6152147507e+01   1.8237061065e+01    0.3061725    0.1858633 -50.80 0.0002454541    2.161    0.537
        97 -10.4005    198.9643     41.8854   5.5207180647e+01   2.9916307059e+01    0.2103551    0.1785521 -23.67 0.0005082868    1.105    0.095
        98  -8.8745    103.1907     43.7803   7.4873030590e+01   5.3308081122e+01    0.2041646     0.167345  -4.25 0.0005748305    1.316    0.240
        99  -9.6345    163.1725     41.4010   6.0361151094e+01   3.8921984078e+01    0.4256057    0.1364554 -28.48  0.001336372    2.891    0.654
       100 -10.9582    235.5651    193.9985   8.4906498042e+01   3.7249972902e+00    0.3259974    0.2785943  87.71  0.002021402    3.083    0.676
       101 -11.3340    210.4992    191.0060   8.8456805001e+01   7.6942465586e+00    0.3549519    0.1903318  -8.12  0.001826661    2.452    0.592
       102 -11.1410    206.0570     29.1742   5.0608852981e+01   2.9624030973e+01    0.2030541    0.1782309 -14.48 0.0003901499    1.115    0.103
       103  -9.0334    187.8693     29.8421   5.2924548481e+01   3.4033107570e+01    0.1958632    0.1679782 -13.22 0.0005731714    1.159    0.137
       104 -10.6253    216.5226    193.9726   8.7948045393e+01   6.4628872683e+00    0.2814768     0.188815  40.82 0.0007761206    1.540    0.351
       105  -9.4552    203.3127     20.1756   4.8233283772e+01   3.1209001284e+01    0.1273461   0.09340926  48.04 0.0005487811    1.462    0.316
       106 -12.0397    216.3366    189.8604   8.7291006423e+01   6.9529406738e+00     0.425171     0.294525  51.05  0.002611859    2.004    0.501
       107 -10.6779    204.8654    190.1361   8.9267174097e+01   8.6474612814e+00    0.2643477    0.2037479  60.16  0.001472636    2.135    0.532
       108 -10.4343    224.0211    189.0538   8.5898217293e+01   5.9063149261e+00    0.1740573    0.1336854  13.47  0.001219767    1.014    0.014
       109 -11.1489    249.1666    175.4327   7.9594560214e+01   3.6982446706e+00    0.3938301    0.3313736  39.28  0.001602816    1.622    0.383
