#   1 NUMBER                 Running object number                                     
#   2 MAG_AUTO               Kron-like elliptical aperture magnitude                    [mag]
#   3 X_IMAGE                Object position along x                                    [pixel]
#   4 Y_IMAGE                Object position along y                                    [pixel]
#   5 X_WORLD                Barycenter position along world x axis                     [deg]
#   6 Y_WORLD                Barycenter position along world y axis                     [deg]
#   7 A_WORLD                Profile RMS along major axis (world units)                 [deg]
#   8 B_WORLD                Profile RMS along minor axis (world units)                 [deg]
#   9 THETA_WORLD            Position angle (CCW/world-x)                               [deg]
#  10 FWHM_WORLD             FWHM assuming a gaussian core                              [deg]
#  11 ELONGATION             A_IMAGE/B_IMAGE                                           
#  12 ELLIPTICITY            1 - B_IMAGE/A_IMAGE                                       
         1  -8.1019     83.1521     11.1122   3.4154241109e+01   5.9799956180e+01    0.1930439    0.1407141  48.18  0.001035749    1.228    0.186
         2  -8.4295     55.7281      9.8159   4.1462329561e+01   6.5753150327e+01    0.1853345    0.1594953 -61.95 0.0005765625    1.572    0.364
         3  -8.2532     90.8206      8.8046   3.1663473112e+01   5.8308033642e+01    0.1653199    0.1273443 -89.97 0.0006319194    1.347    0.258
         4  -7.8716    101.3501      7.7266   2.9281860526e+01   5.6050827465e+01    0.1219159   0.08114625 -83.81  0.000377084    1.632    0.387
         5  -8.2515     70.3399      6.0223   3.5485249368e+01   6.3034501437e+01    0.1559988    0.1432126  52.31 0.0005532274    1.161    0.139
         6  -8.4887     33.2480      4.7585   4.8170635296e+01   7.0552717854e+01    0.2344244    0.1496773 -46.80  0.001359248    2.414    0.586
         7  -8.5471     79.1888      3.7759   3.2446849006e+01   6.1299677491e+01    0.1861203    0.1535226 -52.96 0.0008827185    1.485    0.327
         8  -7.7221     44.3647      2.6946   4.2429116044e+01   6.8665344198e+01    0.1121892   0.08851133  80.23 0.0007037198    1.741    0.426
         9  -8.1430     62.8397      1.4471   3.5735518479e+01   6.5008162812e+01    0.1823943    0.0966813  61.48  0.001001468    1.540    0.351
        10  -7.4362     39.3255      1.6526   4.3953858290e+01   6.9725372637e+01    0.1083675   0.09006788  83.83 0.0007049739    1.748    0.428
        11  -9.2485    210.8085    246.0779   6.0108824991e+01  -3.8952463214e+00    0.2347066    0.1646181 -49.99  0.001118349    1.867    0.464
        12 -10.1392    248.7262    243.4093   5.3416599875e+01  -6.6552506770e+00    0.7042003    0.1678571 -43.69  0.002823613    3.415    0.707
        13  -9.1121    247.9735    234.0679   5.2167413935e+01  -5.2627343632e+00    0.2222479    0.1297199 -42.30 0.0007535716    1.562    0.360
        14  -9.3448    246.5109    228.9837   5.1635912230e+01  -4.4019872448e+00    0.3048939    0.1538126 -45.39  0.001119624    1.860    0.463
        15  -8.4792     93.9257    249.0301   8.6040899166e+01   8.3242619245e+00    0.3097396    0.1787338  63.86  0.001219156    2.982    0.665
        16  -8.4823    168.8593    247.3578   6.8471226913e+01   4.1306457034e-02    0.2429019   0.09410117  32.28  0.001089315    2.548    0.608
        17  -9.5381    146.9751    245.7304   7.2990961074e+01   2.7531971159e+00    0.3333386    0.2540694  61.55  0.001519357    2.234    0.552
        18  -8.4285    146.4251    240.0439   7.2297306119e+01   3.8847597161e+00    0.3162108    0.2387412  80.58  0.001589105    2.658    0.624
        19 -10.1178    223.9470    243.8781   5.7484975740e+01  -4.7189769484e+00    0.4021012    0.2077812 -49.78  0.002255573    2.357    0.576
        20  -9.3925    120.2113    245.2898   7.9154001768e+01   5.9688388013e+00    0.3233657    0.2389424  63.25   0.00145949    2.061    0.515
        21  -8.5337     67.8657    244.9595   9.2146030590e+01   1.2203670644e+01    0.3406526    0.2152394  75.01   0.00163251    2.197    0.545
        22  -9.4518      9.8446    244.1041   1.0655925326e+02   1.8228379832e+01    0.4554942    0.1504994  69.03  0.001533121    4.441    0.775
        23  -8.7325    201.9034    243.0344   6.1284041667e+01  -2.5853343079e+00    0.2548953    0.1528084 -51.01 0.0009562736    2.070    0.517
        24  -8.9110    169.2370    243.0937   6.7765057814e+01   7.4722327197e-01    0.2178217    0.1985114 -37.63 0.0006946493    1.401    0.286
        25  -8.6152    139.4034    244.2286   7.4498614832e+01   3.9096991247e+00    0.1638194    0.1295237 -62.02 0.0009418651    1.689    0.408
        26  -8.9421     78.1454    243.1217   8.9338445804e+01   1.1425522737e+01    0.3585377    0.1788753  56.15  0.001433415    2.864    0.651
        27  -9.6950    183.3744    240.6616   6.4502682503e+01  -3.3729977634e-01    0.3611733     0.318855 -85.60  0.002297222    2.068    0.517
        28  -7.5559     34.3350    243.6759   1.0051801061e+02   1.6060314918e+01    0.1451498   0.08215583  52.11 0.0007050995    1.713    0.416
        29  -9.1994    194.0228    239.2629   6.2204964674e+01  -1.1945068237e+00     0.200853    0.1809866  -2.18 0.0007492707    1.334    0.250
        30  -9.3305    159.9913    240.1120   6.9297455607e+01   2.3083454187e+00    0.2853442    0.2447793 -78.89  0.001177455    1.900    0.474
        31  -8.1352    153.4052    241.6799   7.0972661853e+01   2.7694864978e+00    0.2089745    0.1268116 -67.14 0.0009097176    2.968    0.663
        32  -8.9949    116.0025    241.2779   7.9638193563e+01   7.2828913870e+00    0.2289652     0.182663 -28.83 0.0003557997    1.259    0.206
        33  -8.1557     88.1903    242.1515   8.6676913829e+01   1.0452880701e+01    0.1803122     0.153746  58.15 0.0006057564    1.355    0.262
        34  -8.2380    214.4814    240.9755   5.8693855140e+01  -3.4353690285e+00    0.1720049   0.09429143 -39.83 0.0006899739    1.580    0.367
        35  -9.3216    241.6689    237.7569   5.3683709004e+01  -5.2915193749e+00    0.5203429    0.1366463 -31.09  0.001952054    4.541    0.780
        36  -8.8984    135.9507    238.8244   7.4531534207e+01   5.3632185054e+00    0.2621235    0.1799213  53.71  0.001219677    2.178    0.541
        37  -8.3317    129.1901    238.6777   7.6104469161e+01   6.2081918220e+00       0.2089    0.1505534  34.37 0.0006275976    1.415    0.293
        38  -9.2089    230.8640    236.6832   5.5258145214e+01  -4.2297231927e+00    0.2476389    0.1990331 -57.75  0.001209298    2.079    0.519
        39  -7.9844    209.0061    238.1849   5.9251344349e+01  -2.4850468687e+00    0.1539572    0.1174125 -47.17 0.0005356237    1.630    0.387
        40  -8.6327     25.5715    236.5731   1.0221545305e+02   1.8530015206e+01    0.2935393    0.1221731  62.70  0.001135002    3.004    0.667
        41  -7.8975     13.5118    237.5370   1.0529914949e+02   1.9401751003e+01    0.1291003    0.1128536  49.42 0.0002304665    1.003    0.003
        42  -9.9596    214.7751    232.9838   5.7432031857e+01  -2.2014629169e+00     0.442369     0.345752 -83.67  0.002391427    3.535    0.717
        43  -8.9889    203.1060    234.5670   5.9777672667e+01  -1.3261266270e+00    0.2556484    0.1805464 -57.95 0.0008898093    2.155    0.536
        44  -9.9188    175.7020    233.2275   6.4927181763e+01   1.7898158902e+00     0.467684    0.2403996 -56.58  0.002160988    2.719    0.632
        45  -8.5177    194.8101    232.9494   6.1087988801e+01  -2.1538347553e-01    0.2989125    0.2314973 -89.77  0.001529697    3.405    0.706
        46  -7.8687    170.2206    235.4301   6.6406156550e+01   2.0062489670e+00    0.1639267    0.1100131  30.75 0.0005060284    1.583    0.368
        47  -9.0025    109.2465    234.3624   8.0380897849e+01   9.5544495986e+00    0.4918036    0.2318925  42.96  0.001845515    2.370    0.578
        48  -7.9598    122.9339    233.7914   7.6920109538e+01   7.9692496172e+00    0.2217719    0.1400598  47.32  0.001060402    1.976    0.494
        49  -8.2538     99.5706    233.9938   8.2777787600e+01   1.0835983922e+01    0.2583227    0.1830027  84.38  0.001243656    2.179    0.541
        50  -9.0072     78.1703    233.8753   8.8294463573e+01   1.3472501825e+01    0.2476319     0.193275 -58.07  0.001360757    1.410    0.291
        51  -9.5469     68.4044    232.0612   9.0656187992e+01   1.5038783829e+01    0.5609635    0.2552667  56.27  0.002037732    3.234    0.691
        52  -7.9780     37.6637    233.3479   9.8863598825e+01   1.8099258411e+01    0.1510863   0.08622903  53.86 1.277302e-05    1.780    0.438
        53  -9.5614    186.5671    230.5165   6.2312853718e+01   1.0761631414e+00    0.3239344    0.2359507 -68.88  0.001503888    2.544    0.607
        54  -8.4549    132.4200    232.2293   7.4410430088e+01   7.1097541622e+00     0.170574    0.1350293 -65.73   0.00062023    1.663    0.399
        55  -8.3986     92.6412    231.8146   8.4278619483e+01   1.2173311798e+01    0.2812124     0.172206  76.55  0.001142699    2.971    0.663
        56  -9.4291    236.2681    230.1398   5.3401618617e+01  -3.7083526973e+00    0.3461968    0.1740564 -43.16  0.001368333    1.732    0.423
        57  -7.8233     55.3036    231.3159   9.4044192107e+01   1.6702619201e+01    0.1393461    0.1014674 -24.77 0.0003683925    1.621    0.383
        58  -8.6603      1.6378    230.4983   1.0785396161e+02   2.2022360828e+01     0.232234    0.1259068  67.43  0.001156848    1.824    0.452
        59  -9.3537    151.3073    228.9648   6.9536938780e+01   5.4330271927e+00    0.2966016    0.2340574 -83.16   0.00118602    2.170    0.539
        60  -9.4805    148.7922    224.4792   6.9414306427e+01   6.6258476631e+00    0.3869765    0.2876731  69.43  0.001369077    2.488    0.598
        61  -8.7700      9.6649    229.9766   1.0581934896e+02   2.1492111092e+01    0.2195602   0.07564201  71.41 0.0007044802    4.292    0.767
        62  -8.7270    229.9229    228.8862   5.4236223437e+01  -2.9572037039e+00    0.1505279    0.1349456 -52.33   0.00111736    1.741    0.426
        63  -8.6749    162.4732    227.7609   6.6878486131e+01   4.3192343189e+00    0.3447313    0.2124482  45.33  0.001708052    2.262    0.558
        64  -8.8358    127.9057    227.1952   7.4755542854e+01   8.7129807521e+00    0.3417069     0.220422  52.19  0.001409653    2.180    0.541
        65  -7.9032    120.0243    227.2691   7.6701118927e+01   9.7038722319e+00     0.183809    0.1562634  77.60 0.0004926154    1.646    0.393
        66  -8.8272    206.0507    225.6032   5.7847725271e+01  -1.3684138153e-01    0.2197688    0.1553867 -51.07 0.0009303924    1.724    0.420
        67  -8.4830    199.9084    226.1105   5.9058660462e+01   4.1362592458e-01     0.173512    0.1493291 -26.93 0.0005673079    1.245    0.197
        68  -8.0269     49.2170    226.2230   9.5170312016e+01   1.8575316456e+01     0.209396     0.112006 -88.14 0.0008738149    2.460    0.593
        69  -8.7251    180.7026    224.2741   6.2503552031e+01   2.8383444993e+00    0.2295381    0.1873179  45.05 0.0006519449    1.736    0.424
        70  -8.8753     94.2234    224.3110   8.2890316893e+01   1.3661878666e+01     0.454974    0.2364666  50.46   0.00183728    2.473    0.596
        71  -9.0459    216.4909    223.3785   5.5647495145e+01  -8.1853152707e-01     0.244905    0.1775538 -44.09 0.0009501668    1.458    0.314
        72  -8.0722    113.8223    223.7982   7.7753196305e+01   1.1251781415e+01    0.1805812    0.1629607  49.43 0.0004178585    1.298    0.230
        73  -8.8471    104.7520    223.4819   8.0030014133e+01   1.2497383043e+01    0.3469287    0.2338441  64.79  0.001576021    2.241    0.554
        74  -7.6626     38.4618    224.4988   9.7901495038e+01   2.0124004588e+01    0.1406649    0.1222823  47.85 3.107584e-05    1.074    0.069
        75  -9.5176    225.1837    221.8596   5.3937012278e+01  -1.4166932262e+00    0.2670422    0.1407804 -33.98 0.0009935824    1.490    0.329
        76  -8.4717    173.0491    222.8451   6.3849548289e+01   3.9883580983e+00    0.2100175    0.1642215 -57.00 0.0006525238    1.656    0.396
        77  -8.4995    162.6687    222.3307   6.5980381946e+01   5.3311379067e+00    0.2722249    0.1777609  47.04  0.001370487    2.162    0.538
        78  -8.7528    159.0066    220.4914   6.6489510543e+01   6.1383538280e+00    0.2814291    0.2014424  49.25  0.001141885    1.971    0.493
        79  -9.0610    141.2780    230.8746   7.2124693996e+01   6.2861464981e+00    0.5985361    0.2404082  46.45  0.001940107    4.666    0.786
        80  -9.0956    238.9535    221.4105   5.1654409017e+01  -2.6165731544e+00    0.2333185    0.1515401 -44.67 0.0009701315    1.531    0.347
        81  -9.4219    192.3470    221.1415   5.9704097274e+01   2.0884557416e+00    0.2761682    0.2248417 -58.67    0.0012649    1.720    0.419
        82  -8.0646    140.3992    222.2902   7.1020540246e+01   8.1303615837e+00    0.1753727    0.1334244 -60.38 0.0007364346    1.628    0.386
        83  -9.2968    120.5934    219.1582   7.5359484208e+01   1.1377581046e+01    0.5374052     0.271515  53.48   0.00190861    3.566    0.720
        84  -7.9141     27.4053    220.8219   1.0056590628e+02   2.2110089262e+01    0.1947776     0.117581 -59.29 0.0009518303    1.723    0.420
        85  -8.1735    202.6855    220.1299   5.7597185064e+01   1.1401821623e+00    0.1780888    0.1352943 -44.00 0.0006697529    1.404    0.288
        86  -8.3319     82.6158    220.2776   8.5457153920e+01   1.6064515749e+01    0.2294362    0.1575599  58.05  0.001086056    1.767    0.434
        87  -8.3460    210.0542    219.0222   5.6089416502e+01   5.5271710010e-01    0.1834133    0.1435777 -23.59 0.0004945033    1.045    0.043
        88  -9.1481    248.5712    217.7898   4.9645233726e+01  -2.9125385430e+00    0.2624584    0.1670559  50.35  0.001505319    3.596    0.722
        89  -9.3942    132.8508    215.6954   7.1794154866e+01   1.0496361403e+01    0.4829359    0.3238264  71.97  0.001865265    3.101    0.678
        90  -8.5204     62.2316    217.1779   9.0662481072e+01   1.9293170768e+01    0.3664226    0.1931918  61.28  0.001427884    2.637    0.621
        91  -8.9824     51.7390    217.3863   9.3592659416e+01   2.0442726193e+01    0.2476947    0.1774559  83.59 0.0007226433    1.626    0.385
        92  -8.7025    169.4089    216.0546   6.3520050258e+01   5.7088718414e+00    0.2631975    0.2058882 -68.19 0.0009945526    1.908    0.476
        93  -8.4967    142.9893    216.5891   6.9513273393e+01   8.9687804917e+00    0.2692616    0.2166778  81.88  0.001121682    2.024    0.506
        94  -7.8207    111.9716    216.9716   7.7224790691e+01   1.3006333290e+01    0.2828515    0.1536945  61.13 0.0009433214    4.004    0.750
        95  -8.8541    232.2427    214.3409   5.1617787617e+01  -8.9566201656e-01    0.2519878    0.1721736 -54.54  0.001010712    1.947    0.486
        96  -8.0115    154.4220    215.1387   6.6648921734e+01   7.7786142988e+00    0.1776618    0.1302718 -60.57 0.0008749681    1.736    0.424
        97  -7.8227     41.2804    214.9386   9.6250899925e+01   2.2179495526e+01    0.2235793   0.09892502  78.17 0.0007009573    4.065    0.754
        98  -7.6618     18.3033    215.6803   1.0262889555e+02   2.4211897014e+01     0.146774   0.08850586  55.48 0.0007027471    1.629    0.386
        99  -9.3589    214.2385    212.2088   5.4266744837e+01   1.2599710686e+00    0.3207265    0.2516753  57.88  0.001627315    2.351    0.575
       100  -8.5139    185.3999    213.8966   5.9887077415e+01   4.1844310510e+00    0.2144668    0.1888701 -61.40   0.00135735    1.575    0.365
       101  -9.2506     93.0517    213.8046   8.1764067120e+01   1.6247174649e+01    0.3958547    0.1881493  47.39  0.001502714    2.543    0.607
       102  -9.2263     73.6171    212.0351   8.6871244122e+01   1.9171102014e+01    0.7435717    0.2520578  49.31   0.00207782    4.671    0.786
       103  -8.0026    224.9620    211.9849   5.2423425613e+01   1.9530987973e-01    0.1577719     0.132208 -51.97 0.0005654535    1.586    0.370
       104  -8.7029    161.6960    212.1227   6.4537714750e+01   7.4445381066e+00    0.2581231    0.1815553  42.14  0.001155431    1.733    0.423
       105  -7.8477    106.4626    212.5289   7.7997472340e+01   1.4754425257e+01    0.1448506    0.1335794  24.83  0.000806925    1.098    0.089
       106  -9.0153    204.2222    210.5891   5.5777620947e+01   2.6201065497e+00    0.2299624    0.1724047 -49.72 0.0007254218    1.515    0.340
       107  -8.5257    192.3258    210.4049   5.7963797062e+01   4.0073823424e+00    0.2324454    0.1818304 -78.13 0.0008740174    2.378    0.579
       108  -9.4337    175.3505    209.7305   6.1232035255e+01   6.1818580647e+00    0.3747446    0.2892336  72.18  0.001935268    2.495    0.599
       109  -8.9256    148.1198    210.2259   6.7283594898e+01   9.6076422106e+00    0.3032666    0.2399544 -80.58  0.001131064    1.960    0.490
       110  -8.9076    116.2277    210.2529   7.5103579183e+01   1.3943787400e+01    0.3220282    0.2261117  63.33 0.0008647311    2.114    0.527
       111  -8.4218     46.4018    209.3862   9.4249922365e+01   2.3026546160e+01    0.2917434    0.1624063  58.15  0.001233861    2.092    0.522
       112  -8.2930     85.1824    208.7823   8.3215463521e+01   1.8482665395e+01    0.2682404    0.1755925 -84.16 0.0008932548    2.125    0.529
       113  -8.8725      5.6980    207.8128   1.0551084767e+02   2.7222419673e+01    0.3253885    0.1305725  75.44  0.001194226    3.121    0.680
       114  -9.2884    246.4140    206.9736   4.8307135308e+01  -1.0754866318e+00    0.2606958    0.1357437 -40.29 0.0007428199    1.462    0.316
       115  -8.3194    138.9347    207.6128   6.9018091168e+01   1.1401650167e+01    0.2550432    0.1937204 -74.76 0.0008722383    1.905    0.475
       116  -8.1032    126.5923    208.3061   7.2159597116e+01   1.2951374675e+01    0.2082505    0.1695466  63.51 0.0008189449    1.664    0.399
       117  -9.1122     99.4342    206.0015   7.8896186406e+01   1.7237353768e+01    0.3795777    0.2534114  70.10  0.001207506    2.336    0.572
       118  -8.4935     56.3954    205.2726   9.0926965681e+01   2.2943144153e+01    0.3379903    0.1667362  53.10  0.001052293    2.433    0.589
       119  -9.0405    183.8416    203.9146   5.8534689465e+01   6.2265899264e+00    0.2825773    0.2417428  83.08  0.001216508    1.949    0.487
       120  -8.0260    109.1716    205.1382   7.6148945066e+01   1.6093911964e+01    0.1963658    0.1737085  66.14 0.0005633034    1.379    0.275
       121  -8.2064     25.0000    204.9250   9.9917995641e+01   2.6323442427e+01    0.2217449    0.0781983 -73.76 0.0007200278    2.871    0.652
       122  -9.3221    194.6161    203.5321   5.6385548650e+01   4.9828658999e+00    0.2728937    0.2249733 -52.28 0.0009340529    1.450    0.310
       123  -9.5819    192.5785    197.3079   5.5717462451e+01   6.3727964712e+00    0.3803176    0.2737699 -62.15  0.001253075    1.915    0.478
       124  -9.6268    164.0052    203.0210   6.2505652654e+01   8.9566335108e+00    0.4297209     0.258323  47.70  0.001467524    2.305    0.566
       125  -8.5935    131.2114    203.6871   7.0252110181e+01   1.3328221762e+01    0.2849801    0.2268112  75.93  0.001021454    1.886    0.470
       126  -9.3363    250.1723    201.2758   4.6882824669e+01  -5.4719029860e-01    0.4343368    0.1263316 -45.15  0.001943039    2.751    0.637
       127  -9.3230    245.5359    193.0939   4.6263888536e+01   1.1717092674e+00    0.2556775    0.1882368 -64.72 0.0007940973    2.157    0.536
       128  -8.5806    211.1808    202.1636   5.3160513021e+01   3.3060040725e+00    0.2028296    0.1710126 -78.25 0.0007624059    2.005    0.501
       129  -8.7555     79.5786    201.5182   8.3771610265e+01   2.1006054074e+01    0.3298655    0.1922522 -58.02  0.001446488    1.764    0.433
       130  -8.3644     48.8997    202.3868   9.2766347528e+01   2.4536638903e+01    0.3202025    0.1456691  62.89  0.001044443    3.532    0.717
       131  -9.3924    236.6342    207.3920   4.9841335265e+01  -2.1652418899e-01     0.429621    0.1841895 -45.94  0.001806129    2.024    0.506
       132  -8.9657    140.7889    201.1895   6.7497068016e+01   1.2525222715e+01    0.3421477    0.2557256  64.96  0.001405879    2.070    0.517
       133  -8.2285     73.2767    201.9534   8.5637255147e+01   2.1715630875e+01    0.2247822    0.1175457  85.82 0.0005663413    3.966    0.748
       134  -7.8009     10.6331    202.2936   1.0377316608e+02   2.8237650536e+01    0.1522106   0.08681991  52.29 0.0007028266    1.717    0.417
       135  -9.0606    243.0938    200.5242   4.7789305770e+01   2.4190074835e-01    0.2493698       0.1289 -39.63 0.0009104682    1.461    0.315
       136  -9.0586    237.0646    198.3170   4.8339087588e+01   1.1888753266e+00    0.3180196    0.1289494 -48.06   0.00143283    2.282    0.562
       137  -9.4501    149.6689    198.4539   6.4936100920e+01   1.1860041030e+01     0.437146    0.3202911  78.28  0.001506483    2.566    0.610
       138  -8.7871    124.1126    199.1114   7.1274905483e+01   1.5363355920e+01    0.3263197    0.2495894  85.47  0.001200828    2.009    0.502
       139  -9.3136    113.0250    198.2690   7.4023106079e+01   1.7153744086e+01    0.4770482    0.3003727  63.59   0.00175515    2.647    0.622
       140  -8.6532    177.0475    198.8795   5.9044531469e+01   8.0536957047e+00     0.228581    0.1756359 -41.42 0.0007663356    1.229    0.186
       141  -9.0471     88.6651    198.2287   8.0707265027e+01   2.0601145892e+01    0.3805662    0.2523356  68.57  0.001138406    2.190    0.543
       142  -8.5475    202.1947    197.5870   5.3987012819e+01   5.1514253499e+00    0.2370333    0.1846852 -64.56  0.000938141    1.839    0.456
       143  -9.0628     61.4203    196.9049   8.8422067160e+01   2.4487171914e+01    0.4848477    0.2547235  60.08  0.001702072    2.667    0.625
       144  -8.1264     12.6750    197.3387   1.0282486034e+02   2.9352343044e+01    0.2367626    0.1365227  56.45  0.001096546    1.766    0.434
       145  -8.6997    216.0712    195.5735   5.1235173608e+01   3.8920387630e+00    0.2269537     0.172499 -60.53 0.0009803519    1.788    0.441
       146  -8.4812    132.9977    195.7702   6.8468569907e+01   1.4830259784e+01    0.2421044    0.1906448 -69.66 0.0006853755    1.616    0.381
       147  -8.6515    224.5348    193.8635   4.9566550495e+01   3.2394151723e+00    0.2679895   0.09732062 -46.41  0.001131771    2.364    0.577
       148  -7.3920    209.3077    195.2779   5.2339410898e+01   4.7215806101e+00    0.1233882   0.08079197 -17.82 0.0002575651    1.554    0.357
       149  -8.9040    185.2171    194.6913   5.6685356569e+01   7.7965553842e+00    0.2292847    0.2032396 -71.34 0.0007103339    1.559    0.359
       150  -8.9989    160.8624    194.0030   6.1630479300e+01   1.1217550743e+01    0.3115495    0.2549907  75.16  0.001183597    1.907    0.476
       151  -8.1905    231.1095    194.1382   4.8577351117e+01   2.4844105450e+00     0.151595     0.119456 -45.27  0.000490647    1.321    0.243
       152  -8.6999     77.1231    193.8360   8.3375112639e+01   2.3267055632e+01     0.285894    0.2322523  46.12 0.0007411353    1.268    0.211
       153  -8.8888     43.8618    193.1460   9.3203334794e+01   2.7498371338e+01     0.475446    0.2572036  60.70   0.00189306    2.310    0.567
       154  -8.4349    198.9726    191.4936   5.3533730028e+01   6.6467458034e+00    0.2296967    0.1593692 -53.12 0.0006541124    1.582    0.368
       155  -8.4247    172.7788    191.7092   5.8674772764e+01   1.0031561954e+01    0.2306876    0.1768521 -74.15  0.001057087    2.002    0.500
       156  -9.3371    139.5166    190.4747   6.5942350029e+01   1.5049264187e+01     0.379851    0.2878794  83.36  0.001141541    2.172    0.540
       157  -7.8264    205.4742    191.5334   5.2376401713e+01   5.8417223970e+00    0.1243198    0.1035614 -30.79 0.0002278787    1.072    0.067
       158  -7.8280    179.4210    191.5235   5.7283560621e+01   9.1687971324e+00    0.1315337    0.1156485 -28.62 0.0003045122    1.080    0.074
       159 -10.3817     92.4788    188.7085   7.8130187948e+01   2.2432970066e+01      1.10858     0.323296  41.33  0.003260114    3.660    0.727
       160  -8.7907     22.0135    191.3570   9.9583631091e+01   3.0130130748e+01    0.3955617   0.07774778  40.36      0.00113    4.273    0.766
       161  -9.1454    129.4377    188.6797   6.8120736624e+01   1.6955667556e+01     0.368253      0.26296 -76.05  0.001241396    2.025    0.506
       162  -7.5662    210.3151    189.6284   5.1212362046e+01   5.5980187545e+00    0.1154641   0.09478509 -69.58 0.0007034118    1.786    0.440
       163  -8.3212    148.6589    189.1521   6.3533346533e+01   1.3989242834e+01    0.2122055     0.180221 -71.41  0.001147778    1.504    0.335
       164  -8.8825     34.4148    188.0440   9.5499414186e+01   2.9839056391e+01    0.3847567    0.2125516  69.50  0.001280225    2.311    0.567
       165  -8.3404    237.1941    188.1667   4.6689145654e+01   2.8154850185e+00     0.175446     0.120572 -31.17 0.0005218507    1.142    0.124
       166  -8.7995    216.4376    187.6292   4.9845158409e+01   5.2226841400e+00    0.2210643    0.1737583 -46.48 0.0006634181    1.288    0.223
       167  -8.8185    191.5553    187.1674   5.4156028142e+01   8.3950125409e+00    0.3098391    0.2253861 -73.42  0.001395951    2.319    0.569
       168  -9.3135    155.9662    187.3010   6.1526776659e+01   1.3313140482e+01    0.3267227    0.2167989 -56.07 0.0008204186    1.663    0.399
       169  -9.5150    120.7009    186.0645   6.9909589213e+01   1.8880807630e+01     0.487652    0.3069985 -77.86  0.001918965    2.672    0.626
       170  -9.0943     54.7070    186.6541   8.9098384025e+01   2.7978711377e+01    0.4775212    0.2597728  66.55  0.001487442    2.709    0.631
       171  -9.2513    249.3680    185.7358   4.4561884305e+01   1.9456493992e+00    0.2434003    0.1657935 -50.43  0.001563361    1.500    0.333
       172  -8.8093    164.9941    186.5304   5.9398985426e+01   1.2167082296e+01    0.2473312    0.1896589 -60.94 0.0007632131    1.567    0.362
       173  -9.1804    109.6517    185.9604   7.2853399311e+01   2.0578059725e+01    0.3942678    0.2845648  70.09  0.001179193    2.026    0.506
       174  -8.2738    230.6596    187.1507   4.7505905565e+01   3.6876214919e+00    0.1799569    0.1224697 -48.71 0.0007470241    1.433    0.302
       175  -8.5928    202.8830    184.5073   5.1625876804e+01   7.4294088252e+00    0.2254158    0.1585521 -53.69  0.000681146    1.547    0.354
       176  -8.6506    182.9905    184.5990   5.5348215262e+01   1.0030646086e+01    0.2428741    0.1746902 -57.70 0.0008329676    1.622    0.384
       177  -8.8190     66.9739    184.6487   8.5060730936e+01   2.6979295419e+01    0.4300199    0.2034593  45.76  0.001162603    2.315    0.568
       178  -8.7924    224.1132    183.3847   4.7895918838e+01   5.0580350197e+00    0.2204563    0.1414587 -45.17 0.0004231739    1.347    0.258
       179  -9.1102    174.2840    183.3072   5.6863492815e+01   1.1495758931e+01    0.2950946    0.2229127 -64.69  0.000836856    1.712    0.416
       180  -8.2203    197.1451    183.1982   5.2425407609e+01   8.4062951043e+00    0.1671647    0.1415274 -53.66 0.0004970788    1.341    0.255
       181  -8.9416     44.4101    182.3330   9.1734687669e+01   3.0314491200e+01    0.3827838    0.2460417  61.22 0.0009496932    1.809    0.447
       182  -8.1986      1.9402    183.4916   1.0493569737e+02   3.3784945156e+01     0.202323    0.1311553  23.43  0.001016578    1.570    0.363
       183  -9.4546     25.9588    179.1099   9.7166156333e+01   3.3050973035e+01    0.7353804    0.3066367  67.36  0.002240762    4.090    0.755
       184  -9.1328    147.4333    180.3957   6.2225375979e+01   1.6069272171e+01    0.3159977    0.2620087  89.71  0.001061214    1.710    0.415
       185  -8.8269    210.1799    184.0546   5.0284673067e+01   6.6014707483e+00    0.2687471    0.1463213 -42.47 0.0005040778    1.521    0.343
       186  -8.6704    137.6578    179.2597   6.4359931345e+01   1.7830391749e+01     0.331839    0.2330226  66.73  0.001349908    2.268    0.559
       187  -8.6681    250.5883    172.6637   4.2315973768e+01   3.8766958554e+00     0.238629    0.1158619 -41.85 0.0007580078    1.528    0.346
       188  -9.3437    249.0114    177.0506   4.3228538271e+01   3.3506742365e+00    0.2851068    0.2228845 -60.81  0.001433579    1.644    0.392
       189  -8.0094    247.3077    173.6888   4.2918692624e+01   4.0652267049e+00    0.1183553   0.08638905 -33.88   0.00031196    1.063    0.060
       190  -9.4186    191.5555    178.1091   5.2550525757e+01   1.0105171593e+01    0.2791386      0.24038 -79.91 0.0006030469    1.633    0.388
       191  -9.0584     36.1617    176.6853   9.3650141954e+01   3.2717250401e+01    0.6440957    0.2844226  70.84  0.001869673    4.434    0.774
       192  -8.5995    217.6637    177.3159   4.7893487700e+01   6.8697310537e+00    0.2122117    0.1284988 -51.19 0.0006613384    1.622    0.384
       193  -8.8328    205.0256    177.7859   5.0079775757e+01   8.3761599043e+00    0.2280261    0.1539665 -41.32  0.000578936    1.244    0.196
       194  -7.9567    169.1804    178.2417   5.6998021465e+01   1.3253508924e+01    0.1747863    0.1624527 -82.88 0.0005801219    1.373    0.272
       195  -8.7676    129.2572    177.5114   6.6137691121e+01   1.9544916479e+01    0.3125908    0.2261192 -83.35  0.000959618    2.133    0.531
       196  -8.6420    231.1178    176.7402   4.5714768274e+01   5.3704240689e+00     0.206721    0.1303361 -47.88 0.0005892123    1.416    0.294
       197  -9.2257    183.0993    175.9931   5.3774968249e+01   1.1688784007e+01    0.2837285    0.1991169 -55.48 0.0007699258    1.545    0.353
       198  -8.7110     89.0753    176.4822   7.7080843791e+01   2.6018201175e+01    0.3337423     0.250813 -89.15   0.00101861    1.743    0.426
       199  -9.2963     59.1484    175.6687   8.6171874082e+01   3.0360583455e+01     0.575697    0.2809823  58.33  0.001922146    3.121    0.680
       200  -9.1157     55.7935    170.4090   8.6463068009e+01   3.2192569253e+01    0.4724022     0.264918  67.10  0.001717031    2.697    0.629
       201  -8.9494     12.8028    176.3016   1.0102948565e+02   3.4920680287e+01    0.3368912    0.1750451  79.04  0.001249293    2.274    0.560
       202  -9.2870    158.7674    174.7908   5.8598098575e+01   1.5533647054e+01    0.3802104    0.2873625  83.77  0.001397046    2.221    0.550
       203 -10.6504    101.7232    175.5482   7.3229511918e+01   2.4337496434e+01    0.4872148    0.3515124   8.78            0    1.544    0.352
       204 -10.6192     75.8298    170.0157   8.0012259177e+01   2.9620554491e+01     1.367058    0.5649546 -74.70  0.003674499    4.770    0.790
       205  -8.3120    224.3233    174.0625   4.6292298161e+01   6.6228223274e+00    0.1764867    0.1227832 -42.39 0.0006455712    1.179    0.152
       206  -9.7714    175.8292    172.0014   5.4476332350e+01   1.3531522518e+01    0.3605031    0.2287817 -46.93 0.0009937852    1.449    0.310
       207  -8.4616    143.0447    172.4007   6.1762639666e+01   1.8512979079e+01    0.2482932    0.2064645 -83.23 0.0007295022    1.601    0.375
       208  -9.0168    230.5586    170.2757   4.4715394619e+01   6.5185058790e+00    0.2757277     0.140456 -44.03  0.001023012    1.556    0.357
       209  -8.7195    134.7482    171.7944   6.3673521446e+01   1.9979285578e+01      0.26249    0.2085378 -74.27 0.0009465229    1.606    0.377
       210  -9.3494     45.3336    171.0970   8.9964060968e+01   3.3246696902e+01    0.4263789    0.2759968  68.30  0.001394398    1.922    0.480
       211  -8.6223    205.7812    170.1818   4.8609512160e+01   9.6572117738e+00    0.2931311    0.1499931 -56.51  0.001084651    2.392    0.582
       212  -9.4473    121.3221    170.2308   6.6830709958e+01   2.2515472337e+01    0.3856803    0.2886288 -80.31 0.0009143534    1.844    0.458
       213  -8.4771    198.3375    170.0042   4.9864614481e+01   1.0697730526e+01     0.204348    0.1793229 -88.00 0.0008042365    1.582    0.368
       214  -7.6456     68.3636    170.6621   8.2470513521e+01   3.0489060091e+01    0.1690797    0.1132921  59.39 0.0007033575    1.830    0.454
       215  -8.4553    244.6415    169.3582   4.2577301343e+01   5.0497606129e+00    0.1571283    0.1197874 -61.79 0.0006551892    1.637    0.389
       216  -8.1625    237.0900    169.2927   4.3610349826e+01   5.9165660901e+00    0.1571865    0.1261106 -39.54 0.0006047385    1.086    0.079
       217  -9.2985    167.0186    168.4144   5.5613392525e+01   1.5592117572e+01    0.3251632    0.2330487  63.89  0.001195096    2.107    0.525
       218  -8.5846    149.8172    169.1335   5.9543948826e+01   1.8148316976e+01    0.2129283    0.1951646 -81.90  0.000680436    1.321    0.243
       219  -8.2897     88.8903    168.7293   7.5771659879e+01   2.8029101127e+01    0.2816825    0.2018914  78.04  0.001055964    1.978    0.495
       220  -8.7746    218.6537    168.0060   4.6132630503e+01   8.3693734641e+00    0.1842089    0.1789546 -49.21 0.0006535976    1.278    0.217
       221  -7.9855    211.4077    168.1413   4.7313794897e+01   9.2806062019e+00    0.1768044    0.1018386 -52.56 0.0006155449    1.731    0.422
       222  -9.4187    191.8740    166.8325   5.0446991525e+01   1.2200773885e+01    0.2944292    0.1665678 -46.04 0.0006438061    1.553    0.356
       223  -8.7502    111.5761    167.4842   6.8953305127e+01   2.4757495244e+01    0.3286504    0.2240708  69.99 0.0009947744    2.300    0.565
       224  -9.0381    184.9964    166.4248   5.1648995443e+01   1.3276929615e+01    0.2475706    0.1723036 -56.91 0.0007069543    1.561    0.360
       225  -8.0697     13.3538    167.6724   1.0003884875e+02   3.7217092197e+01    0.1586562   0.09657522  55.48 0.0007046611    1.772    0.436
       226  -9.7538    137.6629    164.7255   6.1581500334e+01   2.1104684233e+01    0.6852487    0.3044285  51.82   0.00209998    3.575    0.720
       227  -9.2981     20.5085    166.0098   9.7514790312e+01   3.7095464687e+01    0.3890028    0.1706561  43.40  0.001269153    2.366    0.577
       228  -8.0266    234.0912    164.8422   4.3292045909e+01   7.0048986271e+00     0.169837     0.132429 -49.01 0.0005725039    1.224    0.183
       229  -8.7107    159.5376    164.0338   5.6374419662e+01   1.7681831244e+01    0.2683339     0.222542 -75.25 0.0009177203    1.528    0.346
       230  -9.7310     33.9279    163.3616   9.2707348845e+01   3.6578795460e+01    0.7006849    0.2542681  44.34  0.002323627    3.051    0.672
       231  -8.7527    212.8832    163.5588   4.6267059780e+01   9.9013342272e+00    0.2348496    0.1534177 -48.78 0.0007471459    1.369    0.270
       232  -9.1566    246.1089    162.7102   4.1296969897e+01   5.9516757342e+00    0.4734487    0.1258839 -48.56  0.001893495    3.461    0.711
       233  -9.6770    250.2061    157.4636   3.9914429283e+01   6.3209304933e+00    0.2960506    0.1330397 -46.95 0.0009058155    1.744    0.427
       234  -8.8964    246.5650    155.4978   4.0056689909e+01   7.0532083803e+00    0.2688192    0.1272297 -35.23 0.0007521904    1.891    0.471
       235  -8.2706    205.0065    162.5750   4.7379666880e+01   1.1145298444e+01    0.2311641    0.1537545 -54.55 0.0006921651    1.538    0.350
       236  -9.3027      3.3769    162.2827   1.0280092829e+02   3.9380246299e+01    0.4277362    0.2117466  49.19   0.00151324    2.169    0.539
       237  -8.1425    221.8250    161.3397   4.4488617115e+01   9.1202821306e+00    0.1703609    0.1243891 -45.67 0.0005789216    1.165    0.141
       238  -9.0880    177.5162    160.4935   5.1971707736e+01   1.5570746553e+01    0.2622366    0.2243473 -69.52 0.0007758193    1.390    0.281
       239  -8.8530    151.7819    160.7417   5.7456377284e+01   1.9646040702e+01    0.2779611    0.1937566 -60.53 0.0007577044    1.623    0.384
       240  -8.8708     60.9383    160.1604   8.3149931568e+01   3.4293416389e+01    0.3976534    0.2387297  60.61  0.001031169    2.241    0.554
       241  -8.7642    227.4005    159.0163   4.3262310800e+01   8.8060321476e+00    0.2908011    0.1649122 -59.98  0.001208659    2.290    0.563
       242  -7.8417    241.9790    159.7561   4.1358375820e+01   6.9049410079e+00    0.1166175   0.09817661  30.41 0.0004174482    1.527    0.345
       243  -9.0497    237.0154    158.5452   4.1827426050e+01   7.6945961896e+00    0.2270389    0.1314391 -52.46 0.0008973348    1.631    0.387
       244  -9.9845     95.0807    162.7275   7.2801064600e+01   2.8594730977e+01    0.8805971     0.486979  69.27  0.002527679    4.586    0.782
       245  -9.6342    105.9262    157.7227   6.8644640335e+01   2.8074788097e+01    0.5462357    0.3926822  70.90  0.001302186    1.992    0.498
       246  -8.5349    196.7812    157.9992   4.7946363300e+01   1.3155529008e+01    0.1950982     0.160282 -59.75 0.0009585976    1.325    0.245
       247  -8.3081    188.1529    157.6718   4.9423079006e+01   1.4496374391e+01    0.2298576    0.1594271 -51.96 0.0006711876    1.386    0.278
       248  -9.0887    167.7328    157.2031   5.3302349862e+01   1.7781225499e+01    0.3181606    0.2453861  89.90  0.001218781    1.951    0.488
       249  -8.1327     78.9183    158.1694   7.6936805281e+01   3.2273041083e+01    0.2530064    0.2108892 -11.29  0.001026196    1.291    0.225
       250  -9.3024     81.9049    154.9067   7.5371714458e+01   3.2666703334e+01    0.5136328    0.3087327  59.74  0.001539732    2.364    0.577
       251  -8.6029    218.0177    156.4529   4.4210506564e+01   1.0467590314e+01    0.2282486    0.1422159 -53.31 0.0006015545    1.555    0.357
       252  -9.2466     50.1474    155.2704   8.5992500678e+01   3.6988270528e+01    0.5692558    0.2923729  55.34  0.002042177    2.634    0.620
       253  -8.7420    157.7536    155.8128   5.5146820912e+01   1.9707095239e+01    0.2793353    0.1876308 -56.55  0.000864103    1.571    0.364
       254  -9.1672    119.5348    155.1224   6.4325016591e+01   2.6392390718e+01    0.3835714    0.2819654 -88.57  0.001376832    2.022    0.505
       255  -8.0212    204.7106    155.0055   4.6056307604e+01   1.2563699916e+01    0.1822865     0.137353 -43.23 0.0004575102    1.118    0.106
       256  -8.8028    144.5504    154.3688   5.7851634957e+01   2.2250049802e+01    0.3075591    0.2458365 -58.85  0.001132423    1.324    0.245
       257  -9.5777     68.0884    153.5932   7.9624468289e+01   3.5065470311e+01    0.4866377     0.291986  62.81  0.001217898    2.429    0.588
       258  -8.4656    240.0560    163.5755   4.2250531395e+01   6.5088456833e+00    0.2407586    0.1163044 -55.29 0.0006995274    2.412    0.585
       259  -8.2744    242.8595    154.6059   4.0388833018e+01   7.6342445930e+00    0.1344894    0.1158627  38.13 0.0004288396    1.520    0.342
       260  -8.2733    239.7240    152.6793   4.0479580597e+01   8.3257778060e+00    0.1506754    0.1156572 -48.90 0.0002275309    1.157    0.136
       261  -9.7586    132.8037    152.7679   6.0382777688e+01   2.4638475899e+01    0.4512081    0.3424637  67.86  0.001160351    1.762    0.432
       262  -9.1461    133.5041    148.0002   5.9216091270e+01   2.5593993103e+01    0.3703797    0.2499583 -44.60  0.001308639    1.436    0.304
       263  -9.5569     29.4539    150.5070   9.2521054668e+01   4.0545528788e+01    0.5802594    0.2610557  59.81  0.001827963    3.527    0.717
       264  -8.4730     20.1918    152.2577   9.6025772147e+01   4.0892463343e+01    0.2075088    0.1632402  63.83 0.0006747568    1.380    0.275
       265  -9.2272    242.6152    149.8350   3.9627449637e+01   8.4339411593e+00      0.23589    0.2115511 -82.30  0.001682896    1.447    0.309
       266  -9.0672    189.4519    149.9974   4.7734348830e+01   1.5762949458e+01    0.2968546    0.2017575 -66.61 0.0009823402    1.909    0.476
       267  -8.1351    182.4777    151.0622   4.9210836503e+01   1.6648788441e+01    0.2046634    0.1191762 -48.22  0.000912883    1.554    0.356
       268  -8.3057    162.4722    150.4469   5.3060006989e+01   2.0038618088e+01     0.244296    0.1284121 -57.21  0.000773374    2.183    0.542
       269  -8.7292     98.1861    150.5010   6.9460497652e+01   3.1157942408e+01    0.2939481    0.2429353  82.23 0.0007498479    1.513    0.339
       270  -9.4682    248.9305    149.1417   3.8716602759e+01   7.7859459199e+00    0.2668526    0.1253686 -44.16 0.0007349342    1.595    0.373
       271  -8.2439    212.9465    149.4840   4.3744407923e+01   1.2385780677e+01    0.1927387    0.1377959 -43.96 0.0004814351    1.153    0.133
       272  -9.0509      3.0181    150.0634   1.0179336827e+02   4.2722383595e+01    0.2346039     0.151759  58.35 0.0007491012    1.698    0.411
       273  -8.4627    198.7654    148.8481   4.5906563588e+01   1.4559899282e+01    0.2263966    0.1555444 -57.81 0.0007155596    1.523    0.344
       274 -10.0302     89.3412    146.1559   7.1282970694e+01   3.3720404249e+01    0.7435598    0.4496549  87.93  0.002431462    3.523    0.716
       275  -9.6306     40.1600    147.9070   8.8317798995e+01   4.0154175218e+01     0.591359    0.2733911  51.49  0.001885746    2.838    0.648
       276  -9.1920    233.2627    147.5602   4.0475939685e+01   9.9779394408e+00    0.2223239    0.1282033 -44.15 0.0006031455    1.355    0.262
       277 -10.3925     55.1260    144.7925   8.2469600263e+01   3.9190000871e+01    0.8713956    0.4441804  63.11  0.002726764    3.664    0.727
       278  -8.2436    223.1676    146.6322   4.1718695176e+01   1.1468649681e+01    0.2040689    0.1312607 -49.44   0.00055549    1.325    0.245
       279 -10.5700    148.8697    144.9590   5.4914405279e+01   2.3540079032e+01    0.5713045    0.3928766  87.59  0.001683937    2.602    0.616
       280 -10.2105    139.0014    144.4629   5.7121374346e+01   2.5402988809e+01    0.6069215    0.3422428 -65.08   0.00159884    2.516    0.603
       281  -8.3658    105.3299    138.3489   6.4765263291e+01   3.2890513761e+01    0.2625433    0.1833196 -33.44 0.0008885442    1.579    0.367
       282  -8.9352     78.2058    147.0905   7.5043262699e+01   3.5265272763e+01    0.3066891    0.1900929  55.16  0.001175224    2.031    0.508
       283  -9.4057     13.4411    145.9964   9.7670036054e+01   4.3136662608e+01    0.3762317    0.2298481  50.08  0.001334849    1.814    0.449
       284  -8.0057    206.4990    146.0800   4.4131694021e+01   1.3917269359e+01    0.1904667    0.1060048 -45.90 0.0004460538    1.511    0.338
       285  -8.2796    175.5497    145.8026   4.9495559906e+01   1.8797903483e+01    0.2294668    0.1696649 -87.48 0.0008278543    2.059    0.514
       286  -8.7793    240.2087    145.1897   3.9159048557e+01   9.4827006492e+00    0.1708448    0.1149886 -44.24 0.0004649163    1.141    0.123
       287  -9.3044    243.3433    142.2795   3.8274644331e+01   9.5586044603e+00    0.3489875    0.1221807 -41.27  0.001682778    2.269    0.559
       288  -8.8551    247.0964    143.6908   3.8045524927e+01   8.8700875300e+00     0.212397    0.1242217 -41.26  0.000458987    1.312    0.238
       289  -8.1054    194.4867    143.9851   4.5712345283e+01   1.6112271539e+01    0.1774147    0.1037013 -63.97 0.0006680248    2.352    0.575
       290  -8.9246    165.6027    143.8868   5.1084887184e+01   2.0852676449e+01    0.2725908    0.2172782  74.43 0.0009042526    1.642    0.391
       291  -9.4845      2.5799    141.4500   1.0108125543e+02   4.5087702515e+01    0.4500476    0.2420944  75.55  0.001884313    2.263    0.558
       292  -8.2678    181.9446    141.2266   4.7390353609e+01   1.8637281528e+01      0.20115    0.1677463 -68.36 0.0005654427    1.325    0.245
       293  -7.8272    250.4775    140.5378   3.7119340647e+01   8.9554568069e+00    0.1123178   0.08401285 -44.20 8.278844e-05    1.002    0.002
       294  -9.8182    125.1540    142.5883   6.0200837518e+01   2.8319378729e+01    0.5410495    0.3742045 -85.27  0.001460971    2.347    0.574
       295 -10.1596    106.7393    144.2972   6.5641486700e+01   3.1209786092e+01    0.7866951    0.4567575  66.56  0.002613739    3.399    0.706
       296  -9.8670     23.4367    137.8447   9.2921085664e+01   4.4559111666e+01    0.5712518    0.2882028  60.12  0.001913024    2.831    0.647
       297  -8.7157    172.2951    137.9805   4.8555424189e+01   2.0888738556e+01    0.2758576    0.1911549 -64.22 0.0006821536    1.676    0.403
       298  -7.8466    218.5347    138.4775   4.0932279204e+01   1.3509409303e+01    0.1224938   0.09907981 -49.01 0.0001852268    1.062    0.059
       299  -8.3111    207.8675    137.9259   4.2412842762e+01   1.5167775939e+01    0.1904512    0.1382061 -69.25 0.0006301197    1.671    0.402
       300  -8.5433    197.5761    137.3870   4.3940535991e+01   1.6844746737e+01    0.2412041    0.1657738 -63.35 0.0008540216    1.644    0.392
       301  -8.9986    250.8003    129.5497   3.5277916777e+01   1.0626505380e+01    0.4487715   0.08267548 -43.88  0.001648817    4.058    0.754
       302  -8.9394    248.4937    134.7601   3.6402340200e+01   1.0105177939e+01    0.2877621    0.1323399 -50.80  0.001042561    1.823    0.451
       303  -8.7467    247.0882    129.9275   3.5765168229e+01   1.1039593890e+01    0.2010574    0.1230613 -47.75 0.0006096296    1.246    0.197
       304  -8.1938    162.6472    136.1731   5.0104236771e+01   2.2930774406e+01    0.2164413    0.1627691 -62.76 0.0006238059    1.441    0.306
       305  -9.9207     56.2683    135.3305   8.0285084953e+01   4.1555962137e+01    0.4953954    0.2705126   6.41  0.001808067    2.497    0.599
       306  -9.4373     39.2617    135.7533   8.6640755024e+01   4.3550051628e+01    0.3095417    0.2305922  60.34 0.0008540533    1.582    0.368
       307 -10.8447     69.6092    140.7077   7.6649310014e+01   3.8236635775e+01     1.195892    0.7028663  79.00  0.003913468    3.492    0.714
       308  -8.2341    187.6543    135.2688   4.5201298133e+01   1.8830147118e+01    0.1881338    0.1090555 -39.60 0.0005428431    1.599    0.375
       309  -8.8575    151.2124    135.3989   5.2373278738e+01   2.5143421699e+01    0.2656687    0.1391506  37.16  0.001123553    2.115    0.527
       310 -10.3947     83.5029    133.0163   7.0363952388e+01   3.7994144711e+01    0.5324061    0.3824647 -78.63  0.001411839    1.827    0.453
       311  -8.5012    179.5681    133.7860   4.6343759423e+01   2.0462009355e+01     0.254544     0.182506 -68.23  0.000869379    1.665    0.399
       312 -10.1526    132.4808    131.3498   5.5871059675e+01   2.9481991574e+01    0.5338889    0.3786829  85.14  0.001554214    2.207    0.547
       313  -8.9679    112.8800    133.1058   6.1437603404e+01   3.2753216131e+01    0.3769515    0.2612648  70.27  0.001088257    2.103    0.524
       314  -7.6424    237.6303    133.3203   3.7473557693e+01   1.1735270712e+01    0.1150616   0.07855056 -68.50 0.0007035387    1.795    0.443
       315  -7.6754    231.4647    133.5896   3.8303943006e+01   1.2522320087e+01    0.1162362   0.09259222 -46.78 7.282184e-05    1.016    0.015
       316  -9.1138    143.1415    131.6256   5.3380453086e+01   2.7424584448e+01    0.2901272    0.2366816 -80.09 0.0007602526    1.474    0.322
       317  -9.9406     12.8891    128.9180   9.5694087161e+01   4.7815365427e+01    0.5564441    0.2920308  60.79  0.001794428    2.599    0.615
       318  -7.6681    204.6898    130.3153   4.1476686060e+01   1.6999691414e+01    0.1241424   0.09036409 -70.70 0.0002861006    1.634    0.388
       319  -8.2052    192.9398    129.9704   4.3271734688e+01   1.8942133648e+01    0.1952785    0.1448958 -71.12 0.0004564191    1.590    0.371
       320  -9.4876    168.3180    129.3205   4.7545303791e+01   2.3286492935e+01     0.297827    0.2141489 -65.12 0.0005503292    1.565    0.361
       321  -9.7870    152.8761    127.8541   5.0388161523e+01   2.6395852397e+01    0.6940557    0.2515367 -49.35  0.001667055    2.705    0.630
       322  -9.4332     97.9734    127.9427   6.4628066324e+01   3.6701319603e+01    0.5941284    0.2310886 -54.09  0.002003622    2.705    0.630
       323 -10.1207     73.0940    129.1154   7.3018712068e+01   4.0676564792e+01    0.4387619    0.3242595  79.94  0.001196521    1.889    0.470
       324  -7.9773    220.5137    129.5789   3.9054206612e+01   1.4736681894e+01    0.1198015   0.09801354 -48.57 0.0001117588    1.015    0.015
       325  -8.1729    211.6600    129.0947   4.0213153341e+01   1.6138483671e+01    0.1991342    0.1280168 -56.71 0.0009103671    1.493    0.330
       326 -10.1427    118.5168    125.1508   5.8071222635e+01   3.3503660794e+01    0.7708209    0.5527391 -87.51  0.002802917    2.097    0.523
       327 -10.7172     45.3261    123.7691   8.2097525853e+01   4.6017516716e+01     1.238674    0.6587326  69.62  0.003802188    4.173    0.760
       328  -7.6165      1.3135    129.6655   1.0026563286e+02   4.8338271349e+01    0.1466072   0.09967766  57.80 0.0007045874    1.686    0.407
       329 -10.6810     60.2143    125.1878   7.6766367304e+01   4.3640685747e+01    0.7885662    0.4958819  74.21  0.002950419    2.725    0.633
       330  -7.8230    228.4885    125.4557   3.7263999969e+01   1.4270943264e+01    0.1183788   0.09349147 -50.91 0.0008085763    1.040    0.038
       331  -8.9101    179.2711    124.4663   4.4509751430e+01   2.2279039156e+01    0.2657146    0.2028911 -69.76 0.0008070673    1.460    0.315
       332 -10.6604     28.1171    120.6181   8.8320090226e+01   4.8752014790e+01     1.123225    0.6032276  87.56  0.004052895    3.033    0.670
       333  -7.7590    211.7295    123.3525   3.9139315708e+01   1.7113384651e+01    0.1240545   0.08359694 -64.98 0.0004412221    1.632    0.387
       334  -8.1160    188.4328    123.2952   4.2701369301e+01   2.0912641363e+01    0.1859594    0.1100456 -54.10 0.0007828312    1.613    0.380
       335  -7.9799    194.6482    121.7658   4.1392725825e+01   2.0139948994e+01    0.1849829    0.1026597 -52.86 0.0004416668    1.677    0.404
       336  -8.8244    171.8702    121.3005   4.5196086784e+01   2.4194842475e+01    0.2288189    0.1696117 -58.11 0.0004922647    1.322    0.244
       337  -9.3486    158.5767    121.2171   4.7756186001e+01   2.6662349445e+01    0.2960795    0.2125302 -72.01 0.0007399861    1.714    0.417
       338  -7.5790    203.2480    121.6767   4.0055759619e+01   1.8743287857e+01    0.1231796     0.085719 -64.60 0.0002839162    1.534    0.348
       339  -9.8965    131.2203    118.5606   5.3270774810e+01   3.2471296942e+01     0.544989    0.3581105  89.84  0.001719443    2.775    0.640
       340 -10.3023    133.6574    109.6557   5.0590855794e+01   3.3826454456e+01    0.6537504    0.3694302 -49.43  0.002470774    1.769    0.435
       341  -9.6728     71.1161    119.2887   7.1496001522e+01   4.3446039351e+01    0.4375937    0.2614803 -70.86  0.001141287    2.271    0.560
       342 -10.1533    141.5417    117.7291   5.0641880575e+01   3.0625041864e+01     0.630749     0.293728 -53.60  0.001554909    2.315    0.568
       343  -9.7662      3.1657    117.2623   9.7998766431e+01   5.1537236517e+01     0.575331    0.2872262  62.05  0.002242733    2.870    0.652
       344  -7.9727    231.7373    117.5629   3.5473705489e+01   1.5081761409e+01    0.1366901    0.1063143  84.25 0.0008090099    1.601    0.375
       345  -7.9545    185.8279    115.8011   4.1626520319e+01   2.2720023368e+01    0.1778423    0.1387579 -68.96  0.000369629    1.335    0.251
       346 -10.1777    109.3494    113.7655   5.7896547419e+01   3.7798071727e+01    0.5771343    0.3349849 -65.03  0.001268731    2.377    0.579
       347  -8.9712     59.5698    115.0788   7.4758158382e+01   4.6286415048e+01    0.4301936    0.2415687   0.38  0.001497504    2.926    0.658
       348  -8.4274    192.9732    115.1433   4.0350817544e+01   2.1597255553e+01    0.1953209    0.1532366 -67.00 0.0004807835    1.282    0.220
       349  -8.5000     84.9959    122.3313   6.7447977833e+01   4.0360966697e+01    0.3087046     0.145304  26.93  0.001084044    2.451    0.592
       350 -10.0540     92.8409    112.5577   6.2548861179e+01   4.1232447295e+01     0.524861    0.3520936 -69.63  0.001437096    1.974    0.493
       351  -8.8356     93.9047    104.2794   6.0116631889e+01   4.2878296407e+01    0.4762604    0.3005437   5.09  0.001733744    2.974    0.664
       352  -7.8859    167.4949    114.4513   4.4557584261e+01   2.6294756359e+01     0.135342     0.123657 -63.38 0.0001005959    1.025    0.024
       353  -9.9369     79.0591    112.3648   6.7054090484e+01   4.3775042102e+01    0.5661842    0.4017628  84.47  0.002159729    2.228    0.551
       354  -8.3976     78.2470    104.9064   6.5457029150e+01   4.5647138947e+01    0.3531147     0.227388 -23.22  0.001017389    2.108    0.526
       355  -9.7023    121.9793    112.6178   5.4191874212e+01   3.5550934392e+01    0.3227026    0.2696285  83.38 0.0006440413    1.404    0.288
       356  -8.8076    174.7211    111.4641   4.2615327989e+01   2.5506648435e+01    0.3099325    0.1590172 -53.85  0.001033879    1.953    0.488
       357  -8.6673    159.1607    111.6769   4.5550362435e+01   2.8400658866e+01    0.2357062    0.1737527 -58.76  0.000609246    1.353    0.261
       358  -9.7168     14.3950    110.8583   9.2330854500e+01   5.2486284646e+01    0.4626869    0.2574974  73.94   0.00148764    2.811    0.644
       359 -10.2080    248.6873    108.1254   3.1966203871e+01   1.4171422167e+01    0.3062511    0.2192551 -37.37    0.0014062    1.368    0.269
       360 -10.2783    249.4914    101.6818   3.0817168061e+01   1.5019779019e+01    0.3798098    0.1612913 -44.76  0.002165588    1.782    0.439
       361  -9.8924     66.4583    110.3240   7.1052104428e+01   4.6379720403e+01    0.4195041    0.2976284  59.22  0.001501422    1.791    0.442
       362  -7.7374    149.6831    110.3005   4.7168054667e+01   3.0509698202e+01    0.1415046    0.1080509 -85.46  0.000204856    1.617    0.382
       363  -7.5239    182.7049    109.3212   4.0815590507e+01   2.4435102722e+01    0.1320887   0.09426493 -73.00 0.0004973946    1.615    0.381
       364  -7.9714    189.4380    107.9695   3.9466000695e+01   2.3468706285e+01    0.1956766    0.1111394 -46.97 0.0006508668    1.551    0.355
       365  -8.7978    166.7940    104.4706   4.2527374736e+01   2.8274209695e+01    0.2923295    0.1862635 -57.66 0.0008294588    1.588    0.370
       366 -10.6034     45.9557    102.2193   7.7122118848e+01   5.1373891737e+01    0.9193729    0.5208903  63.55  0.003166843    3.413    0.707
       367  -9.1286     46.5259     92.0540   7.4337377731e+01   5.3699714758e+01    0.4529472    0.2376453  16.18  0.001810143    2.201    0.546
       368 -10.7553     22.9485    102.5469   8.7080979014e+01   5.3899808674e+01     0.824842    0.4704595  60.28  0.002279357    2.717    0.632
       369  -9.5689    150.5268    102.8313   4.5284265129e+01   3.1769942324e+01    0.4046396    0.2491036 -66.02  0.001142902    2.063    0.515
       370  -9.2885    139.8204    104.3839   4.7926810044e+01   3.3628979028e+01    0.3253694    0.2440131 -80.61 0.0008422039    1.655    0.396
       371  -9.9783    128.5298    101.9350   4.9951008413e+01   3.6410467975e+01    0.3494234    0.2737302 -72.55 0.0009773665    1.466    0.318
       372  -9.6864      6.6696    102.6144   9.4327316294e+01   5.5130988982e+01    0.3213365    0.2471972  69.91  0.001187938    1.603    0.376
       373  -7.9202    175.5926    101.8253   4.0425467729e+01   2.7073708184e+01    0.1854803    0.1105795 -55.35  0.000576203    1.634    0.388
       374  -8.3323    159.8433    101.0542   4.3055000094e+01   3.0248419669e+01    0.2127658      0.16868 -70.92 0.0005197429    1.310    0.236
       375 -10.3787    108.9386     98.6701   5.4208371591e+01   4.1079915910e+01    0.6069003    0.3891878  71.93  0.001457745    2.395    0.583
       376  -9.0485    108.0877     91.8788   5.2660704669e+01   4.2616197509e+01    0.5530824    0.2351713  36.52  0.001945373    2.835    0.647
       377  -9.3286     82.1945    100.0359   6.2827702234e+01   4.6022343632e+01    0.3525358    0.2628019 -79.62 0.0009792513    1.875    0.467
       378  -9.4085     95.0360     96.7345   5.7781489014e+01   4.4272035070e+01    0.3820925    0.2347627 -54.65 0.0006185931    1.806    0.446
       379 -10.2711     64.0420     95.7064   6.8227195833e+01   5.0180844447e+01    0.5719779    0.3973278  89.42  0.001524404    2.486    0.598
       380  -9.1764     65.0602     87.4923   6.5575253643e+01   5.1814743717e+01    0.5271559    0.2810153  13.20  0.001744225    3.326    0.699
       381  -8.2984    164.8268     94.0800   4.0589543973e+01   3.0509636294e+01    0.2041877    0.1635645 -70.43 0.0004778184    1.239    0.193
       382  -8.3136    176.3338     92.9192   3.8405421162e+01   2.8471307781e+01    0.2094636    0.1381006 -59.53 0.0005194001    1.485    0.327
       383  -9.2128    139.0025     92.0479   4.5142202830e+01   3.6126527018e+01    0.3330043    0.2404047 -84.23 0.0008805793    1.763    0.433
       384 -10.5273    123.7572     90.9708   4.8356997910e+01   3.9519542374e+01    0.6085371    0.4604715  41.19  0.001252903    1.362    0.266
       385  -9.1004     22.5176     90.2716   8.4654414878e+01   5.6955913732e+01    0.4011725    0.2494515 -20.06  0.001388094    1.707    0.414
       386  -9.7839      4.9230     91.1225   9.3141770699e+01   5.8110420334e+01    0.3973234    0.2802618  81.84  0.001600492    1.856    0.461
       387  -8.2209    157.8417     91.3494   4.1229925548e+01   3.2381946540e+01    0.1926181    0.1557117 -60.87 0.0005570163    1.181    0.153
       388  -8.0339    151.0056     88.9951   4.1969548678e+01   3.4187889299e+01    0.2124667    0.1544619 -78.20 0.0004319578    1.603    0.376
       389 -10.1542     86.4727     85.7324   5.7471630248e+01   4.8213369769e+01    0.6245589    0.4207788 -59.47  0.001735089    1.795    0.443
       390  -8.0260    163.8689     86.7960   3.9126918625e+01   3.1951427562e+01      0.18476    0.1438501 -77.63 0.0005938389    1.324    0.245
       391  -9.7886     48.5643     84.0939   7.1310005665e+01   5.5196801563e+01    0.5823159    0.3780205  67.07  0.002010902    2.776    0.640
       392  -8.3108    157.9723     83.7205   3.9454511341e+01   3.3664255934e+01    0.1808234    0.1598589 -89.81 0.0003863195    1.065    0.061
       393  -9.8386    104.7423     82.9101   5.1157413258e+01   4.5035452424e+01    0.3940654    0.2810278 -72.61 0.0009287616    1.886    0.470
       394  -9.0947    141.0846     82.5010   4.2369744624e+01   3.7387684788e+01    0.3040922    0.1981161 -60.88 0.0008803814    1.691    0.409
       395  -9.4719     34.9770     89.7992   7.8816088033e+01   5.5726347849e+01    0.4665331    0.3079635  88.00  0.001846855    2.600    0.615
       396  -9.0930    249.9932     81.3825   2.7425271037e+01   1.7864359926e+01    0.2227791   0.07815585 -53.29  0.001136361    2.408    0.585
       397  -7.9535     64.3872     82.3140   6.4344902209e+01   5.3023098513e+01    0.1877666    0.1421957 -59.99 0.0007285245    1.571    0.363
       398  -9.5835     24.7331     80.3407   8.1205942113e+01   5.9056933510e+01    0.4632494     0.316817  74.62   0.00138501    2.460    0.594
       399  -9.1688      9.8613     80.9242   8.8694328497e+01   6.0235183820e+01    0.3825344    0.2056103  49.72  0.001357107    2.670    0.626
       400  -8.1876    150.3078     80.4383   4.0077059421e+01   3.5799742103e+01    0.2299501    0.1471807 -63.14 0.0007979659    1.733    0.423
       401  -8.7812     74.8345     80.2389   5.9851092906e+01   5.1550937841e+01    0.3015821    0.2091692 -65.79 0.0009684326    1.958    0.489
       402  -8.6734    119.1495     79.8058   4.6557978204e+01   4.2541752659e+01    0.2432206    0.1835338 -61.01 0.0007392513    1.452    0.311
       403  -8.2311    166.8512     79.1820   3.6923753803e+01   3.2608759530e+01    0.1968188    0.1554538 -68.21 0.0005434426    1.196    0.164
       404  -7.9720    184.2296     77.9977   3.4069582118e+01   2.9382989754e+01    0.1625787    0.0933769 -44.78  0.000398297    1.604    0.376
       405  -9.3899    128.1882     75.1730   4.3241152038e+01   4.1396780859e+01    0.3218714    0.2146912 -63.78 0.0007151554    1.756    0.431
       406  -8.4800    140.4697     75.1675   4.0678643545e+01   3.8756118741e+01    0.2152133    0.1724052 -87.21 0.0005856667    1.299    0.230
       407  -9.5720     82.7358     72.5971   5.4844691530e+01   5.1475082392e+01    0.4533713    0.3181169 -81.84  0.001155425    2.407    0.585
       408  -9.9574     63.1902     73.3356   6.2110248096e+01   5.5042281269e+01    0.4615562    0.2920127 -58.78  0.001082299    2.036    0.509
       409  -8.5627    163.5016     73.4104   3.6160174214e+01   3.4207717000e+01    0.2472948    0.1197017 -42.77  0.000729415    2.009    0.502
       410  -8.8206    115.7449     72.6673   4.5454724569e+01   4.4515073405e+01    0.2596376    0.1816147 -54.83 0.0006218189    1.560    0.359
       411  -8.1483     42.5375     72.4700   7.0581018814e+01   5.8554545467e+01    0.2244222    0.1419822 -65.70 0.0008220968    2.219    0.549
       412  -7.4736    175.5008     72.4517   3.4123894554e+01   3.1938505309e+01     0.126108    0.1086545 -75.60  0.000186921    1.006    0.006
       413  -9.2973     95.1679     71.2688   5.0571314098e+01   4.9160107850e+01     0.329264    0.2443082 -59.19  0.001074376    1.586    0.370
       414  -9.4271     51.5099     69.4390   6.5674425455e+01   5.7791065509e+01    0.4296198    0.2812267 -70.55  0.001304708    2.553    0.608
       415  -8.9824     28.7109     70.6258   7.6605753458e+01   6.0757014614e+01    0.2315294    0.1443172 -18.30 0.0009090948    1.786    0.440
       416  -9.1643    105.9424     71.5037   4.7626582845e+01   4.6829259709e+01    0.2588956    0.1916708 -64.92 0.0007235696    1.615    0.381
       417  -8.8468     16.5069     69.7992   8.2592993777e+01   6.2216600244e+01    0.2616807    0.2059386  55.00 0.0009321381    1.705    0.413
       418  -7.2251    157.2882     69.6650   3.6307997315e+01   3.6076807906e+01    0.1349279   0.09149484 -73.69 0.0006084495    1.630    0.387
       419  -8.7958    147.2482     68.1913   3.7683646418e+01   3.8425861091e+01    0.2480276    0.1853782 -78.43 0.0006911342    1.413    0.292
       420  -8.3618    163.3514     66.8992   3.4700899331e+01   3.5241180337e+01    0.3273685    0.1206683 -36.83 0.0008176531    3.033    0.670
       421  -8.7550    138.7463     65.7594   3.8650482768e+01   4.0632572351e+01    0.2595001    0.1671795 -54.46 0.0006930307    1.610    0.379
       422  -8.7550    121.6426     65.6671   4.2161464647e+01   4.4380536822e+01    0.2582824    0.1910329 -65.01 0.0007167067    1.513    0.339
       423  -8.7358     37.2901     63.9150   7.0366131592e+01   6.1030101469e+01    0.2818473    0.2247531 -86.80   0.00115435    1.987    0.497
       424  -8.8344    110.0368     63.4309   4.4268131750e+01   4.7279108282e+01    0.2472366    0.1859291 -65.24 0.0006875076    1.546    0.353
       425  -8.1590     84.7658     64.1418   5.1584261358e+01   5.2557315811e+01    0.3205825    0.1448605  31.43  0.001091329    3.391    0.705
       426  -8.3863     64.7330     63.0624   5.8238808939e+01   5.6683708172e+01    0.3804608    0.1748243  22.44  0.001105358    4.865    0.794
       427  -7.8136    158.4035     61.5178   3.4226185146e+01   3.7071909711e+01     0.127661    0.1098349 -79.94 0.0001042686    1.031    0.030
       428  -9.1761     97.6098     60.4710   4.6645761626e+01   5.0450850450e+01    0.3012407    0.2186874  64.98 0.0008483355    1.419    0.295
       429  -9.6644     73.4658     59.4257   5.3842087212e+01   5.5638372936e+01    0.3707054    0.2644231 -55.67  0.001045099    1.750    0.429
       430  -8.0905     89.0207     59.2310   4.8734786704e+01   5.2482173707e+01    0.1929691    0.1507742 -71.00 0.0006078839    1.643    0.391
       431  -8.5136    130.8643     57.5323   3.8045838803e+01   4.3597990472e+01    0.2502593     0.155386 -59.05  0.000719717    1.812    0.448
       432  -9.7651     23.4246     56.1812   7.4893068404e+01   6.4328958443e+01    0.4192178    0.3023295  75.04  0.001926257    2.692    0.628
       433  -9.3902      7.5542     56.8227   8.3926442946e+01   6.5747217835e+01    0.2955571    0.2339557  86.93  0.001143305    1.908    0.476
       434  -8.5550    140.1109     55.5005   3.5797759829e+01   4.1865257974e+01    0.2706436    0.1573575 -46.88 0.0008375698    1.756    0.431
       435  -8.7676    119.1946     55.6813   3.9950024222e+01   4.6449105797e+01    0.2620507     0.184279 -69.45   0.00073794    1.691    0.409
       436  -8.6898     44.2284     55.5277   6.4297663558e+01   6.1577787542e+01    0.2316195    0.2101588  66.75 0.0007428761    1.462    0.316
       437  -8.9964     62.8536     54.5274   5.6091259216e+01   5.8506577544e+01    0.2679244     0.201006 -52.91 0.0006857362    1.646    0.392
       438  -8.9776     54.0164     53.5322   5.9297851285e+01   6.0285038939e+01    0.3411093    0.1944823 -54.35  0.001179036    2.398    0.583
       439  -8.4733    105.7369     52.8937   4.2252449710e+01   4.9835826589e+01     0.232293    0.1738892 -63.44 0.0006680912    1.561    0.360
       440  -9.4617     92.4377     50.3620   4.4949909751e+01   5.3114376414e+01    0.3949891    0.2258325 -49.67  0.001517872    2.094    0.522
       441  -8.8408    144.3947     49.8725   3.3653196002e+01   4.1718575899e+01    0.2539589    0.1983867 -21.38  0.001493756    1.749    0.428
       442  -8.4570    129.8436     49.1021   3.6001780157e+01   4.5021499911e+01    0.2023355    0.1607842 -85.36 0.0005714114    1.254    0.203
       443  -8.5075     62.9621     48.4272   5.3914933439e+01   5.9468949404e+01    0.3532157    0.1898718  19.91  0.001340899    3.236    0.691
       444  -8.3946    120.5713     47.0826   3.7258232107e+01   4.7359096490e+01    0.1805205    0.1278065 -41.81 0.0007704824    1.554    0.356
       445  -8.3204    112.6133     47.0883   3.8943995759e+01   4.9132867582e+01    0.1973233    0.1503412 -63.83 0.0007223661    1.467    0.319
       446  -9.1486     82.2314     46.3308   4.6611940294e+01   5.5883080181e+01    0.2686793    0.2213804 -68.57 0.0006833486    1.519    0.342
       447  -8.6490     45.0332     44.5320   5.9948822950e+01   6.3320775980e+01    0.2151526    0.1897401 -61.87 0.0006140506    1.549    0.354
       448  -9.0944     16.7786     44.4436   7.4609778384e+01   6.7306087260e+01    0.2144875    0.2002962  54.84 0.0007539455    1.503    0.335
       449  -8.4532    132.6816     43.0926   3.3892036961e+01   4.5194224367e+01    0.1965619    0.1418413 -61.15 0.0004816598    1.441    0.306
       450  -8.8711     58.0943     42.2376   5.3548231882e+01   6.1338654278e+01     0.298076    0.2112356 -60.13  0.001353891    2.098    0.523
       451  -9.7669      5.0990     41.7756   8.0761976002e+01   6.8931705246e+01    0.3164896    0.2414459 -83.27  0.001347042    2.158    0.537
       452  -8.6925    106.0159     41.2688   3.8698342899e+01   5.1381795723e+01    0.2305211    0.1676812 -69.12 0.0006632696    1.648    0.393
       453  -9.2437     69.6024     41.1509   4.8910372147e+01   5.9237851298e+01    0.3296666    0.2398449 -64.39  0.001194394    2.006    0.502
       454  -7.9799    147.3744     59.1849   3.5459046847e+01   3.9758098322e+01    0.1788961    0.1099056 -53.22 0.0004037156    1.643    0.391
       455  -8.6489     36.8790     40.6634   6.2332794342e+01   6.5265365546e+01    0.2171474    0.1928966 -36.18 0.0007026591    1.343    0.255
       456  -7.5598    160.6850     39.3779   2.8761594874e+01   3.9594346952e+01    0.1330559   0.07813683 -70.25 0.0007027537    1.804    0.446
       457  -8.6015     95.6035     37.8366   4.0117412446e+01   5.4135774825e+01    0.2349214    0.1794941 -75.54 0.0006719776    1.606    0.377
       458  -8.2184     80.6929     36.5426   4.3743050507e+01   5.7546343643e+01    0.2034204    0.1536777 -63.85 0.0006642382    1.736    0.424
       459  -8.6349     92.9172     42.2107   4.2214401406e+01   5.4154300920e+01    0.2395995    0.1702974  13.59  0.001113277    2.065    0.516
       460  -9.4085     26.1807     35.1620   6.5725089960e+01   6.7730302546e+01    0.2686301    0.2212997 -57.30 0.0009169168    1.738    0.425
       461  -8.1736    125.9471     35.3397   3.2988291748e+01   4.7664617578e+01    0.1782883    0.1401493  68.49 0.0003869185    1.099    0.090
       462  -8.7260    111.9351     34.4590   3.5389011657e+01   5.0910620261e+01     0.226344    0.1635941 -61.03 0.0006058004    1.557    0.358
       463  -8.8106     48.6091     33.0465   5.3895503991e+01   6.4417614577e+01    0.2195657    0.2010605  76.50 0.0006533526    1.473    0.321
       464  -8.9380     72.1626     30.7866   4.4303872011e+01   6.0076690832e+01    0.1990086    0.1753668 -60.13 0.0007031163    1.405    0.288
       465  -8.8495     13.0355     30.4837   7.1547400566e+01   7.0154419958e+01    0.1934038     0.179746 -56.99 0.0007418788    1.568    0.362
       466  -8.8478    101.6444     29.1637   3.5952921974e+01   5.3838869072e+01     0.185145    0.1486523 -66.95 0.0006140948    1.405    0.288
       467  -8.4902    119.1686     32.7521   3.3491192805e+01   4.9490948207e+01    0.2062675    0.1585789 -58.75 0.0005139631    1.395    0.283
       468  -8.8509     81.4550     27.0642   4.0219231173e+01   5.8536588338e+01     0.278249    0.1996474 -72.31 0.0008724117    1.941    0.485
       469  -9.0920      3.8122     27.4540   7.6350801373e+01   7.1610569979e+01     0.232204    0.1812265 -56.84  0.001191017    1.735    0.424
       470  -9.0705     60.6472     32.1956   4.8772512221e+01   6.2245093868e+01    0.2203212    0.1973753 -63.32 0.0008459516    1.456    0.313
       471  -9.0068     91.8919     26.0630   3.7191838719e+01   5.6360296250e+01    0.2635664    0.1657105 -48.66 0.0008164344    1.911    0.477
       472  -8.2704    104.5156     22.5446   3.3293597410e+01   5.3921794578e+01    0.1268577    0.1044869  70.96 0.0001411254    1.029    0.029
       473  -8.7898     48.2549     21.2720   4.9172404294e+01   6.5998300803e+01    0.2134926    0.2008335 -51.42 0.0007786584    1.412    0.292
       474  -8.0287     34.3601     22.7013   5.6098964579e+01   6.8293620493e+01    0.1172149   0.09401552  59.28 0.0007034914    1.712    0.416
       475  -7.8790    121.0086     21.0030   2.9854105642e+01   5.0379920662e+01    0.1487925    0.1245496  78.67 0.0004531576    1.025    0.024
       476  -8.8721     63.7116     20.6447   4.3193986400e+01   6.3011898537e+01    0.2482406    0.1657283 -44.42 0.0008073023    1.906    0.475
       477  -7.7186     19.6959     21.3393   6.3485401821e+01   7.0720386391e+01    0.1101521   0.09362688  50.35 0.0003842774    1.675    0.403
       478  -8.9011     74.1295     19.1496   3.9413901648e+01   6.0980424735e+01    0.2486073    0.1898684 -53.26 0.0007831818    1.659    0.397
       479  -8.1598     39.0184     18.2738   5.1880788437e+01   6.8046934091e+01    0.1763328    0.1369036  35.40 0.0005138748    1.062    0.058
       480  -8.0691     87.8381     17.3566   3.5223473073e+01   5.8172956460e+01    0.1576622    0.1422689  83.55 0.0004025675    1.172    0.147
       481  -8.1157     30.3615     16.1075   5.5105396705e+01   6.9791556567e+01    0.1475556     0.113089 -43.09 0.0007584897    1.764    0.433
       482  -8.0974     97.2278     14.9533   3.2370603844e+01   5.6316983575e+01    0.1385099    0.1040571 -32.79 0.0004082255    1.620    0.383
       483  -8.1518      7.5339     15.0390   6.8318681503e+01   7.3170851334e+01    0.1309661    0.1106158 -83.02 0.0008085468    2.451    0.592
       484  -8.0329     17.1888     14.1500   6.1590137825e+01   7.2054466888e+01    0.1514131    0.1293914  31.10 0.0005377084    1.344    0.256
       485  -7.9022    191.8045    249.5983   6.4174506815e+01  -2.6710134760e+00    0.1518074   0.09904929  27.49 0.0006374053    1.651    0.394
       486  -9.1754    175.7188    247.4957   6.7069225915e+01  -7.0517288250e-01    0.2714471    0.2307846  80.37  0.001353664    2.331    0.571
       487  -7.4248     47.6766     10.2895   4.4611425705e+01   6.7307266769e+01    0.1118341     0.090803  75.10 0.0003116594    1.608    0.378
       488  -9.0331    132.5092    248.1020   7.6627900748e+01   3.9734856321e+00    0.2964958    0.2203576  61.12   0.00107255    2.150    0.535
       489  -8.1848    113.2210    248.3791   8.1238232196e+01   6.1822198432e+00    0.1997287     0.164067  84.30 0.0008577636    1.782    0.439
       490  -9.2739    232.7529    246.5227   5.6401765984e+01  -5.8467449395e+00    0.3185892    0.1491671 -38.78  0.001461218    1.710    0.415
       491  -8.9952    218.8590    246.9499   5.8813878972e+01  -4.7429292969e+00    0.3934641    0.1163022 -42.32  0.001829389    2.775    0.640
       492  -8.7068    156.1322    247.9205   7.1276092057e+01   1.3243043098e+00    0.1781298    0.1637293  18.29  0.000558226    1.335    0.251
       493  -8.9792    103.8553    246.8051   8.3323784265e+01   7.6103389895e+00    0.4022337     0.237718 -79.40  0.001772162    2.914    0.657
       494  -9.2361    243.0676    245.7843   5.4637425205e+01  -6.5577905816e+00    0.3398351     0.124014 -37.18  0.001890163    2.042    0.510
