#   1 NUMBER                 Running object number                                     
#   2 MAG_AUTO               Kron-like elliptical aperture magnitude                    [mag]
#   3 X_IMAGE                Object position along x                                    [pixel]
#   4 Y_IMAGE                Object position along y                                    [pixel]
#   5 X_WORLD                Barycenter position along world x axis                     [deg]
#   6 Y_WORLD                Barycenter position along world y axis                     [deg]
#   7 A_WORLD                Profile RMS along major axis (world units)                 [deg]
#   8 B_WORLD                Profile RMS along minor axis (world units)                 [deg]
#   9 THETA_WORLD            Position angle (CCW/world-x)                               [deg]
#  10 FWHM_WORLD             FWHM assuming a gaussian core                              [deg]
#  11 ELONGATION             A_IMAGE/B_IMAGE                                           
#  12 ELLIPTICITY            1 - B_IMAGE/A_IMAGE                                       
         1 -15.0059     42.0830    201.6397   1.3036048845e+02   2.8513855904e+01     10.87192      3.82198  80.20   0.02582946    6.331    0.842
         2 -12.7363      1.9903     86.0089   1.2857193286e+02   5.7020998908e+01     1.432608    0.2803966 -73.92  0.004768083    4.625    0.784
         3 -12.7130    199.0495     34.6345   5.9041864394e+01   3.1000181463e+01     1.124489    0.9877647  32.22  0.006275217    1.262    0.208
         4 -13.6677    215.4199     16.7751   5.2135801769e+01   2.8985556226e+01     1.492313     1.006663  31.95  0.007472557    1.942    0.485
         5 -11.5739      2.0500     13.8511   1.1195766255e+02   7.1962432079e+01    0.4699746    0.2004592 -59.41  0.002503449    2.265    0.559
         6 -10.8773      1.7389      5.2979   1.0861798166e+02   7.3475196622e+01    0.5277721    0.1359836 -53.28  0.002316232    3.241    0.691
         7  -9.3055     20.3202     36.6495   1.1096693656e+02   6.6464294963e+01    0.1087122   0.09028618  88.12 0.0007048153    1.743    0.426
         8  -9.7036    248.4246    250.1977   9.8564430134e+01  -9.2035529497e+00    0.2141961   0.06329182  36.74  0.001032453    2.635    0.620
         9 -11.6238    140.0387    248.8791   1.1679417287e+02   6.9762002000e+00    0.3851004    0.2156224  48.00  0.002369532    1.419    0.295
        10  -9.0552     63.0232    250.5203   1.3010340602e+02   1.7403351465e+01    0.1579807    0.0779258  45.76 0.0005073776    1.553    0.356
        11 -11.7452      3.9306    224.1134   1.3833095861e+02   2.8210843317e+01    0.6991508    0.2206406  79.72   0.00348425    3.257    0.693
        12 -12.1047     11.4809    231.6359   1.3743245642e+02   2.6203285160e+01    0.5116989    0.2176166 -86.22  0.003284886    2.067    0.516
        13 -11.3945     30.1169    248.8887   1.3527644599e+02   2.1440660938e+01    0.5741003    0.3263346  47.42  0.004293733    1.420    0.296
        14 -10.8111     38.9107    246.1836   1.3375049330e+02   2.0922919030e+01    0.4630599    0.2505526  71.91  0.003252078    1.531    0.347
        15  -9.8418     20.6024    245.2157   1.3658632631e+02   2.3027714763e+01    0.2002575    0.1291017  84.25  0.001363804    1.295    0.228
        16 -10.5234     16.9700    242.0061   1.3701099964e+02   2.3920776938e+01    0.2660468    0.1301464  55.21 0.0009732429    1.457    0.314
        17 -11.6926     12.1695    239.9946   1.3767232200e+02   2.4725883438e+01    0.3777979    0.2004271  78.01  0.002572842    1.475    0.322
        18 -10.4364     15.9418    249.9206   1.3749662333e+02   2.2734759490e+01    0.2525444    0.1563276  45.60  0.001346725    1.467    0.318
        19 -10.3732      8.8608    250.2183   1.3856839344e+02   2.3379340971e+01     0.259592    0.1173261  38.70   0.00131907    2.088    0.521
        20 -10.8884      1.8371    249.6616   1.3958531987e+02   2.4130512558e+01    0.8124386    0.1207157 -80.64  0.003272496    6.451    0.845
        21 -13.6979     35.3346    216.5725   1.3262987173e+02   2.6443571686e+01    0.7909635    0.5783176  65.83  0.002737852    1.049    0.047
        22 -12.9642     10.7227    207.0153   1.3642231356e+02   3.0681520877e+01    0.7151205    0.4260003  37.64  0.002834854    1.785    0.440
        23  -9.0173    192.9775    194.4908   9.9211897077e+01   6.2363227459e+00    0.2397992    0.1672166 -82.55    0.0010288    3.531    0.717
        24 -11.4471     57.5227    192.2982   1.2654403694e+02   2.8544036090e+01    0.3216961    0.2392752 -47.68  0.001385787    1.835    0.455
        25 -11.5695     63.8205    184.9323   1.2451815550e+02   2.9249984104e+01    0.2605878    0.2206274 -56.11 0.0004787155    1.446    0.308
        26 -10.3309    226.3160    201.5508   9.4353692123e+01  -4.9409696348e-01    0.3244547    0.2252707 -54.36  0.001142161    2.464    0.594
        27  -8.1208    181.5094    192.4670   1.0107361958e+02   8.6113008181e+00    0.1336162    0.1153583  28.82 6.427031e-05    1.016    0.016
        28 -10.5778      7.5295    189.1946   1.3606720681e+02   3.4379515480e+01    0.1885913    0.1309646  48.93  0.001406376    1.400    0.286
        29 -10.4099     11.1836    174.8984   1.3451342133e+02   3.6934649236e+01    0.1735324    0.1155397  73.63 0.0004473786    1.196    0.164
        30 -10.6935     74.4354    173.2041   1.2088627942e+02   3.0296156177e+01    0.2228423    0.2018355 -87.40 0.0004245069    1.130    0.115
        31 -13.0493     61.0209    170.5015   1.2354926193e+02   3.2635730566e+01    0.4720495    0.2609347 -47.87  0.001617386    2.309    0.567
        32 -11.6571     82.5145    164.6953   1.1793074098e+02   3.0982628247e+01    0.5681511    0.4848086  59.80  0.003559509    1.103    0.093
        33 -10.6045     19.1591    233.0217   1.3626271195e+02   2.5213857951e+01     0.221442    0.2139122  52.06  0.002001464    1.670    0.401
        34  -9.6757     95.8985    149.5212   1.1238812915e+02   3.2272711685e+01    0.2646309    0.2463467  51.17 0.0007680551    1.125    0.111
        35 -11.8031     84.2411    148.2625   1.1504559156e+02   3.4354481246e+01    0.2860386    0.2339722 -53.30 0.0007091406    1.284    0.221
        36 -12.2605     67.5630    144.0062   1.1853516176e+02   3.7659113804e+01    0.7041223    0.4583932  68.99  0.002936934    1.691    0.409
        37 -11.3452    177.0832    249.4530   1.1039352413e+02   1.2563360453e+00    0.3989607    0.1362087  37.44  0.001872484    2.373    0.579
        38  -8.8840     99.1211    145.3323   1.1086102482e+02   3.2680453046e+01    0.2019821    0.1757169  10.21 0.0008157753    1.458    0.314
        39 -10.6511     53.5539    118.2750   1.1816106017e+02   4.5331021864e+01    0.3615653    0.1171291 -64.14  0.001379348    2.761    0.638
        40 -11.2816     58.2421    133.5791   1.1934789208e+02   4.1229189374e+01    0.5197667      0.22763 -79.12  0.001997551    3.088    0.676
        41  -9.0717    108.4417    135.4797   1.0664585092e+02   3.3288906913e+01    0.3096761    0.2157397 -14.82  0.001342453    2.441    0.590
        42 -10.3024     95.3774    132.3640   1.0938945252e+02   3.6208448225e+01    0.2518572    0.2305062 -33.81 0.0007049331    1.237    0.192
        43  -8.6204    105.9304    122.6525   1.0459982205e+02   3.6601963155e+01    0.1861359    0.1742392  53.23 0.0003558748    1.089    0.082
        44  -9.7103    167.6522    112.6617   8.6969442834e+01   2.5962279559e+01    0.3528372    0.2763532 -79.69 0.0009143115    1.725    0.420
        45  -8.8497    203.2205    111.5829   7.9421230231e+01   1.8054931148e+01    0.2056409    0.1362807  38.05 0.0006256643    1.583    0.368
        46 -11.1685    243.2793    101.5503   7.0214661856e+01   1.0929399255e+01    0.3427099    0.2195938  32.84  0.001654953    1.832    0.454
        47 -10.5090    242.3891     93.7671   6.8471816798e+01   1.2285399422e+01    0.2065993    0.1261096 -21.47 0.0009581929    1.694    0.410
        48 -10.2276    162.6212    248.4100   1.1278355234e+02   3.6026071112e+00    0.2381502    0.1074796 -40.64  0.001273092    3.000    0.667
        49  -8.4767    184.5013     77.4864   7.3843732098e+01   2.8352484300e+01    0.1525497    0.1474541   7.96 -9.729308e-06    1.048    0.045
        50 -10.5499     12.7601     61.5439   1.2067566987e+02   6.1817154594e+01    0.2348337    0.1318118 -61.93  0.000832097    1.391    0.281
        51  -9.1412    159.5085     78.5126   7.9308122226e+01   3.4305295485e+01    0.1536245     0.150502   6.15 0.0002049138    1.010    0.010
        52 -12.2132    104.6993    241.2685   1.2224680462e+02   1.3323050299e+01    0.3831151    0.2924261  76.62  0.002525115    1.321    0.243
        53 -10.8268    125.8746    249.5752   1.1934287218e+02   8.9886155880e+00    0.2615334    0.1444618  28.46  0.001445177    2.229    0.551
        54 -11.2521     18.6223     26.3763   1.0820471873e+02   6.8556160050e+01    0.4242487    0.2146368  44.09  0.002128189    3.298    0.697
        55 -14.4523     95.6415    229.8875   1.2279043653e+02   1.6466628263e+01     3.811351    0.5246839  41.13  0.003241445    4.991    0.800
        56 -12.5797     29.0328    224.3186   1.3418294389e+02   2.5719024494e+01     0.272599    0.2421776 -89.13 0.0007639399    1.422    0.297
