#   1 NUMBER                 Running object number                                     
#   2 MAG_AUTO               Kron-like elliptical aperture magnitude                    [mag]
#   3 X_IMAGE                Object position along x                                    [pixel]
#   4 Y_IMAGE                Object position along y                                    [pixel]
#   5 X_WORLD                Barycenter position along world x axis                     [deg]
#   6 Y_WORLD                Barycenter position along world y axis                     [deg]
#   7 A_WORLD                Profile RMS along major axis (world units)                 [deg]
#   8 B_WORLD                Profile RMS along minor axis (world units)                 [deg]
#   9 THETA_WORLD            Position angle (CCW/world-x)                               [deg]
#  10 FWHM_WORLD             FWHM assuming a gaussian core                              [deg]
#  11 ELONGATION             A_IMAGE/B_IMAGE                                           
#  12 ELLIPTICITY            1 - B_IMAGE/A_IMAGE                                       
         1 -11.7845      3.1334     16.1476   7.5799069211e+01   7.5070190841e+01    0.4544377    0.3027461 -87.39  0.001944952    2.486    0.598
         2 -12.4957    133.0048     18.8562   2.3825788518e+01   4.9482209990e+01    0.2826914    0.2706014  72.99  0.000412472    1.041    0.040
         3 -11.7964     30.8839     13.1147   5.5105924205e+01   7.2672175367e+01    0.3737407    0.2918263 -47.28 0.0004546216    1.496    0.332
         4 -11.3823     19.6878     16.5701   6.4206843554e+01   7.3511606979e+01    0.3427659    0.2853343   6.51  0.002296492    1.183    0.155
         5 -10.9518     77.7630     10.1062   3.2632401035e+01   6.4166819983e+01    0.8314834    0.1454205  53.46  0.002554663    4.072    0.754
         6 -10.9462     11.3775     14.3394   6.8811296310e+01   7.4762081350e+01    0.3311802     0.181193 -20.19  0.001264703    2.083    0.520
         7 -11.5589    130.2872     12.5906   2.1916054992e+01   5.0852962887e+01    0.4372525    0.2496703 -49.17  0.001993989    1.888    0.470
         8 -10.8407     59.8204     13.6720   4.0961721550e+01   6.7587113743e+01    0.2362819    0.1860636 -27.76 0.0007188931    1.285    0.222
         9 -11.4511     73.2747     16.6064   3.7477396650e+01   6.4406561017e+01    0.5315862    0.3350452 -59.56  0.002190037    2.489    0.598
        10 -12.6150    155.2980      9.5418   1.7335809566e+01   4.4579404618e+01    0.5664304    0.2795609 -32.61  0.002403086    1.985    0.496
        11 -11.0262    164.6992     11.9907   1.7041836286e+01   4.1886351451e+01    0.1969571    0.1786536 -53.22  0.001168397    1.106    0.096
        12 -12.0612    176.4216     10.6126   1.5382898251e+01   3.9009828903e+01    0.3228745    0.2517908  68.59  0.001047286    1.261    0.207
        13 -12.2290    145.8311      8.1141   1.8024021266e+01   4.7199755041e+01    0.4604792    0.3334314 -15.89  0.002428896    1.581    0.368
        14 -11.1809     36.7798      7.8229   4.8419125869e+01   7.2557454416e+01    0.3283093    0.2508573  52.30 0.0009100071    1.648    0.393
        15 -11.2623     18.1184      4.0227   5.7712032901e+01   7.5800458975e+01    0.4271356    0.2895747  40.14  0.002614049    1.765    0.434
        16 -11.8352      9.1122      8.0338   6.7011503452e+01   7.6112590788e+01    0.2947583    0.2349623  21.40 0.0009638278    1.374    0.272
        17 -10.7891    213.2172      7.9472   1.1619675221e+01   3.0310875453e+01    0.2214333     0.184699  -0.16  0.001357083    1.587    0.370
        18 -10.2523    118.1673      7.8045   2.2080976053e+01   5.4470886303e+01    0.2065564      0.18139 -69.87 0.0005493081    1.188    0.158
        19  -9.5272     91.4058      7.2325   2.7416299345e+01   6.1252927543e+01    0.1475619   0.08607613  41.20 0.0005025846    1.674    0.403
        20 -11.1481    229.9220      5.6306   1.0001834189e+01   2.6795887216e+01    0.2585141    0.1750669 -75.15 0.0003480814    1.332    0.249
        21 -10.7099    223.0228      5.2094   1.0310843489e+01   2.8359780843e+01      0.22467    0.1691934 -25.10  0.001145704    1.446    0.308
        22 -11.2864    171.5918      4.7540   1.4080755871e+01   4.0809954825e+01    0.2714814    0.1539314 -57.88  0.001170212    1.724    0.420
        23 -11.4188    164.4166      4.6508   1.4748827054e+01   4.2666008705e+01    0.2699989    0.2275479 -50.70 0.0007940208    1.159    0.137
        24 -10.8920    168.0515      1.9590   1.3555460831e+01   4.1972253781e+01    0.2313438     0.175922 -78.07 0.0003203771    1.201    0.167
        25 -11.1236     11.4552      2.4712   6.1673020012e+01   7.6818143100e+01    0.3049347    0.1797312 -35.14  0.001672349    1.476    0.323
        26 -10.6911    201.1539      3.8369   1.1400059320e+01   3.3557433523e+01    0.2010067    0.1503563 -60.72 0.0003825476    1.149    0.130
        27 -11.4522    179.0066      3.8280   1.3134195732e+01   3.9010967447e+01    0.2142859    0.1834735 -46.98  0.000261597    1.153    0.133
        28 -10.5116     34.3306      1.3955   4.5505672232e+01   7.3807553288e+01    0.4363538    0.1201137  50.51  0.001483672    4.777    0.791
        29 -11.8317     27.2654      3.0674   5.0883062358e+01   7.4696192830e+01    0.2473514     0.234921 -38.99  0.001043901    1.421    0.296
        30 -10.2698     22.2661      1.5936   5.3130022406e+01   7.5618716464e+01    0.2011187    0.1282109  14.30  0.000786352    1.653    0.395
        31 -10.7711    126.2307      2.5709   1.8685760580e+01   5.2834453346e+01    0.2040427    0.1849591 -83.99 0.0005568388    1.079    0.073
        32 -10.6933    129.5130      1.5984   1.7837894835e+01   5.2057601860e+01    0.2227412    0.1859882  77.29 0.0001000447    1.087    0.080
        33  -9.7733     90.9481      1.9986   2.4982519596e+01   6.1837323189e+01    0.1515495    0.1423498  22.03 0.0009367564    1.086    0.079
        34 -10.1581     73.6324      1.5810   2.9321156083e+01   6.5950935731e+01    0.1668171    0.1226135  67.58 0.0009236296    1.422    0.297
        35 -10.1656    155.6628    184.3331   6.4134836125e+01   1.4235911643e+01    0.1344081    0.1048893  70.39 0.0007052007    1.741    0.426
        36 -10.4147    109.7292    250.0060   8.2264631330e+01   1.0233668591e+01    0.1593594    0.1289695  44.96 0.0008438994    1.076    0.071
        37 -11.6605     89.4130    249.4361   8.6136796236e+01   1.3024419987e+01    0.3216975    0.1902822  34.54  0.001141278    1.408    0.290
        38 -10.0499     72.4340    250.4838   8.9488124392e+01   1.5020117419e+01    0.1124246   0.08600567  47.94 0.0001511078    1.049    0.047
        39 -12.7868     22.4934    248.6720   9.8788559517e+01   2.1022941319e+01     1.123449          nan  48.04  0.003879755    5.285    0.811
        40 -10.3525     12.0290    250.5933   1.0075155578e+02   2.1738979803e+01    0.1493836   0.07753883  38.66 0.0003821246    1.535    0.349
        41 -13.0495     18.3406    181.2786   9.6372417366e+01   3.4779122940e+01    0.6692433    0.3270886  24.41  0.002770952    2.339    0.573
        42 -10.2693    244.2985    179.1295   4.6900173941e+01   7.4520219840e-01    0.2313123   0.09119357 -26.91 0.0009015439    2.508    0.601
        43  -9.7242      1.3787    180.2828   1.0031052843e+02   3.6491653861e+01    0.1064693   0.08492385 -47.12 0.0007011726    1.719    0.418
        44 -11.5024     18.1443    172.7725   9.5883431705e+01   3.6718653907e+01     0.292522    0.1357068  52.65  0.001489649    1.843    0.457
        45 -10.3540    176.8738    168.8471   5.6883637206e+01   1.3234169922e+01    0.2127349    0.1755901   4.37 0.0005289096    1.241    0.195
        46 -11.6140      5.6291    167.8991   9.8696488552e+01   3.8926098200e+01    0.1814741    0.1684433  45.74 0.0008936698    1.303    0.233
        47 -11.0188     35.3027    161.0453   9.0523336692e+01   3.7735750546e+01    0.2305397    0.2035807  32.76 0.0001822538    1.307    0.235
        48 -10.9202     36.8487    165.8568   9.0565430874e+01   3.6426762206e+01    0.2983653    0.2036211  78.14 0.0006848727    1.334    0.250
        49 -10.9466     33.1726    166.1708   9.1554906961e+01   3.6750760609e+01    0.2125546    0.1686305  70.75 0.0002933945    1.062    0.058
        50 -10.2583    186.3169    164.6491   5.4185822529e+01   1.2258252289e+01    0.1300773    0.1105583 -85.93 0.0001015367    1.735    0.424
        51 -10.6778     51.6383    161.7888   8.6212374694e+01   3.5656332969e+01     0.349387    0.1536041 -68.11  0.001174215    2.171    0.539
        52 -11.0687      8.9841    162.8823   9.7568186805e+01   3.9808461405e+01    0.2354117    0.1689367  -5.39  0.001380784    2.135    0.532
        53  -9.9029    221.3409    161.2905   4.7173357303e+01   6.7335593575e+00    0.1322219   0.09012038   5.43 0.0003329545    1.648    0.393
        54 -11.4356     21.2298    156.8208   9.3932373691e+01   4.0161739639e+01    0.3094493    0.2641482 -48.35  0.001988649    1.454    0.312
        55 -11.6395     10.9783    153.0893   9.6415955354e+01   4.1950961106e+01    0.3051367     0.193543  36.81   0.00149096    1.577    0.366
        56 -10.1276     21.1535    147.8708   9.3206408332e+01   4.2327640723e+01    0.1651389    0.1390651 -64.10 0.0003435681    1.283    0.220
        57  -9.5744    176.6735    150.3049   5.3171414054e+01   1.6575952823e+01    0.1364682    0.1144819  88.91 0.0005894529    1.647    0.393
        58 -10.8104    234.4711    146.9566   4.2166053589e+01   6.6725446038e+00    0.1986503    0.1107084 -32.10  0.001030438    1.587    0.370
        59 -10.1118    187.6792    144.0599   4.9644636390e+01   1.5566854595e+01    0.1935862    0.1724274 -13.47 0.0004578939    1.080    0.074
        60 -10.7944     13.7484    139.9805   9.4652577160e+01   4.4895669986e+01    0.1831917    0.1462951  88.46 0.0004508682    1.049    0.047
        61 -11.3023      2.7610    135.5709   9.7513582222e+01   4.6794149746e+01      0.38351    0.1227999 -76.71  0.001606364    2.549    0.608
        62 -10.1728      9.4556    136.4536   9.5620974752e+01   4.6097481596e+01    0.1276821    0.1050471  85.43 5.859065e-05    1.012    0.012
        63 -13.0984    242.0805    133.2296   3.8185005451e+01   7.3915642399e+00     0.448893    0.2643651 -17.57  0.001340383    1.806    0.446
        64 -10.1871     20.6447    134.7623   9.2138290525e+01   4.5600909999e+01    0.1913737    0.1061419 -89.76 0.0007774223    1.676    0.403
        65 -12.0323     36.4361    131.7541   8.6955539079e+01   4.4817385682e+01    0.3222095    0.2235683 -65.73 0.0004763058    1.338    0.253
        66  -9.9990     53.4453    132.5215   8.1791278205e+01   4.2618495541e+01    0.1400083    0.1270575 -86.03  9.85234e-05    1.040    0.039
        67 -11.3079      4.3039    130.1668   9.6668012505e+01   4.8010738523e+01    0.1870249     0.174552 -20.61 0.0007550812    1.380    0.276
        68 -10.6594     73.5591    128.9345   7.4986021515e+01   4.0662513995e+01    0.2801616    0.2039554  48.77 0.0008678755    1.359    0.264
        69 -10.2296     56.6724    126.8391   7.9867083861e+01   4.3626798156e+01    0.2182176    0.1905867  18.62 0.0002328343    1.352    0.261
        70 -11.6958     15.1377    125.5495   9.2924891496e+01   4.8360349436e+01    0.3777707    0.1781844  29.59  0.001828378    2.213    0.548
        71 -11.4656     10.7435    122.1746   9.3992816785e+01   4.9538161294e+01    0.3270057    0.1834798  89.08  0.001681497    1.610    0.379
        72  -9.7882    219.3167    124.3132   3.9682502631e+01   1.2787729581e+01    0.1369487    0.1002194   3.63 0.0007035449    1.644    0.392
        73 -11.8605    243.6917    122.0028   3.5576271550e+01   8.7340002824e+00      0.19172    0.1446057 -28.96 0.0009649376    1.122    0.109
        74 -11.3363     19.9608    121.2732   9.0925609462e+01   4.9040348217e+01    0.2813448    0.1455408 -74.98  0.001364665    1.673    0.402
        75 -12.3586    249.6446    117.7173   3.3862004359e+01   8.3273436091e+00    0.3753529    0.2269967 -39.29  0.002083539    1.453    0.312
        76 -13.2003    248.5992    112.1167   3.2794932447e+01   9.2993300698e+00    0.4875714     0.364743  20.59  0.002159497    1.607    0.378
        77 -11.3542     24.3177    117.6710   8.9057744646e+01   4.9572801215e+01    0.3611482    0.1930854  82.33  0.001627006    2.038    0.509
        78 -11.0735      1.7056    117.8613   9.6512783955e+01   5.1214739421e+01    0.4400941   0.08993395 -65.42  0.001585868    3.415    0.707
        79 -11.0483      7.1879    118.1140   9.4759875466e+01   5.0801093667e+01    0.1951985    0.1504423 -69.65 0.0007393946    1.181    0.153
        80 -10.6515     52.5959    116.1431   7.9326041346e+01   4.6871916019e+01    0.2437972    0.2185388  79.55  0.000102521    1.070    0.065
        81 -10.4388    182.5204    114.4494   4.3783535865e+01   2.1933181354e+01    0.2459733    0.2377566 -20.95 0.0006207868    1.014    0.014
        82 -10.7845     15.9181    115.1568   9.1569444154e+01   5.0910635680e+01     0.200296    0.1688276 -88.51 0.0004229787    1.016    0.015
        83 -12.2854     14.4822    109.9631   9.1460401284e+01   5.2330305589e+01    0.4246475     0.329337  24.16  0.002318075    1.500    0.333
        84 -10.1350     94.5168    112.0784   6.4930898877e+01   4.1203479530e+01    0.2322779    0.1474775 -53.93 0.0006305139    1.549    0.355
        85 -11.2028     55.0077    109.5998   7.7266827197e+01   4.8212481198e+01    0.2750756    0.1996465 -66.04 0.0005844287    1.280    0.219
        86 -12.0428     37.8269    109.2497   8.3188867595e+01   5.0384160725e+01    0.4409251    0.2931724  37.12   0.00205558    1.581    0.368
        87 -10.9931      2.2858    106.5183   9.5321871499e+01   5.3999477552e+01    0.4464998    0.1607167 -65.14  0.001979948    2.207    0.547
        88 -11.4917     24.8215    106.3432   8.7345140557e+01   5.2404522277e+01    0.3249179     0.220342   0.16   0.00156796    1.992    0.498
        89 -13.0832    247.3298     84.1773   2.6779926801e+01   1.3466946125e+01    0.5016887    0.3230474  -1.34  0.002462805    2.377    0.579
        90 -13.0375    249.0204     96.6809   2.9369779422e+01   1.1406564470e+01    0.6395787    0.2325268 -25.82  0.002396345    3.181    0.686
        91 -10.4006     37.9764    102.5217   8.1962290351e+01   5.2079938508e+01    0.2762785     0.180914 -89.34  0.001215664    1.641    0.390
        92 -11.3962     62.4315     98.8908   7.2347591257e+01   4.9851022800e+01    0.4153438    0.3362492 -24.69  0.001646077    1.485    0.326
        93 -10.3715      9.8285     99.1909   9.1830309794e+01   5.5369976931e+01     0.189792    0.1477575  78.23   0.00049033    1.226    0.184
        94 -12.8675    242.4706     96.7776   3.0190811871e+01   1.2592307669e+01     0.337498    0.2348176 -68.71  0.001817196    1.937    0.484
        95 -11.2991     15.6496     96.7464   8.9334886778e+01   5.5579678513e+01    0.3040011     0.223111  29.25  0.001771573    1.538    0.350
        96  -9.6653     41.2994     96.6835   7.9613341468e+01   5.3187559848e+01    0.1425099    0.1011407  71.99 0.0005196426    1.614    0.380
        97 -10.3383     33.9605     97.6841   8.2568375942e+01   5.3731271799e+01    0.2624092    0.1656834 -48.53  0.001316145    1.560    0.359
        98 -10.8435    158.4987     90.2293   4.2252609183e+01   3.1889497380e+01    0.4350087    0.2698986  31.13  0.001745803    2.185    0.542
        99 -10.7333     21.5867     98.7051   8.7390334520e+01   5.4619551903e+01    0.2396718    0.1530853 -83.90  0.000853349    1.475    0.322
       100 -10.0783     56.5053     90.5339   7.2500432452e+01   5.2777026267e+01    0.2646623    0.1147304 -49.27 0.0008051218    2.191    0.544
       101 -10.5334     38.2175     91.1453   7.9656676336e+01   5.4927509218e+01    0.2070662    0.1686129 -49.80 0.0003955032    1.187    0.158
       102 -11.3797     10.5045     90.7876   9.0475901693e+01   5.7433346584e+01    0.2142731    0.1951941 -72.05 0.0003170736    1.086    0.079
       103 -10.7190     83.6177     89.0453   6.2376742728e+01   4.8689723848e+01    0.2893623    0.2296221  26.22  0.001362141    1.424    0.298
       104  -9.5832     94.4488     88.4845   5.8644690563e+01   4.6730381063e+01    0.1525512    0.1465552 -75.21 6.386246e-05    1.031    0.030
       105 -10.7455     22.1161     87.2064   8.5288224831e+01   5.7472607389e+01    0.2569842    0.1534756  78.22  0.001220175    2.017    0.504
       106  -9.5434     54.0329     85.9738   7.2296441657e+01   5.4242107533e+01      0.16209     0.150298 -62.38            0    1.003    0.003
       107  -9.7159     38.8246     86.3458   7.8381163662e+01   5.6058825743e+01     0.171605    0.1320565   6.25 0.0002316971    1.583    0.368
       108 -10.4587      9.5840     86.0724   9.0170870240e+01   5.8669436169e+01    0.3015934    0.1131205  44.93  0.000923035    3.048    0.672
       109 -10.6447    107.1827     84.7698   5.3591618258e+01   4.4893048560e+01    0.2172978    0.2028617  86.33 0.0003258619    1.111    0.100
       110 -10.5040     68.8626     82.3048   6.5665502815e+01   5.2862542325e+01    0.2306727    0.1902404 -65.52 0.0002702282    1.221    0.181
       111 -10.0550     15.7490     83.4205   8.7232128837e+01   5.8913611476e+01    0.2246313    0.1205358  27.59  0.001021539    2.061    0.515
       112  -9.4580     62.4738     82.4478   6.8107705951e+01   5.3853495763e+01    0.1445305    0.1359608 -50.47  0.000146669    1.026    0.026
       113  -9.9712     42.3892     82.2309   7.5982971357e+01   5.6663616700e+01    0.1957758    0.1261865 -74.22 0.0003984422    1.630    0.387
       114 -11.5576     30.6965     81.5171   8.0640922655e+01   5.8112670646e+01    0.3037743    0.2501662 -37.37 0.0008798337    1.257    0.204
       115 -10.3994      7.6776     80.9191   9.0190997750e+01   6.0064733112e+01    0.2337195    0.1554935 -42.27  0.001236739    1.520    0.342
       116 -10.9785    100.0802     76.8187   5.3253278073e+01   4.8124008051e+01    0.3249672    0.2546474 -74.45 0.0009215209    1.546    0.353
       117 -11.1956     88.0393     77.3578   5.7340701464e+01   5.0492368397e+01    0.2672799    0.2125907 -50.23 0.0001910079    1.232    0.189
       118  -9.9212      3.0095     77.9436   9.1723637568e+01   6.1055252539e+01    0.1608357    0.1173273 -73.02 0.0004163944    1.140    0.123
       119 -11.9584     21.9630     74.5740   8.2894723750e+01   6.0617589601e+01    0.3710261    0.1944101 -63.55  0.001480218    1.619    0.382
       120 -14.2927     16.5799     67.3675   8.3784275000e+01   6.2795298771e+01    0.5204396    0.3669472 -52.85  0.001276422    1.229    0.186
       121 -11.7615     44.6529     74.8142   7.3135662789e+01   5.8186614401e+01     0.233052    0.2245551  59.38 0.0003621039    1.128    0.114
       122 -11.5997    167.7648     73.4363   3.5580648341e+01   3.2650246363e+01    0.2561173    0.2340205 -48.71 0.0002972334    1.054    0.051
       123 -12.7014     12.3797     47.6200   8.1032812218e+01   6.7736297947e+01    0.5149556    0.2717862 -75.96 0.0005833046    2.125    0.529
       124 -11.2109     10.9283     61.5560   8.5216874710e+01   6.4581437818e+01    0.3760545    0.2346753  59.54  0.001971948    2.041    0.510
       125 -11.1263     11.9352     56.9984   8.3685002150e+01   6.5595276610e+01    0.3077691     0.178769 -76.84 0.0007204293    1.737    0.424
       126 -11.8877      6.8804     73.0335   8.9284900580e+01   6.2050590520e+01    0.5181718    0.2917459   8.66  0.002719321    2.175    0.540
       127 -10.7833      6.1460     68.9926   8.8926639648e+01   6.3076008700e+01    0.3654066    0.1781428 -46.51  0.001411383    1.873    0.466
       128 -12.0553    249.9178     71.4467   2.3636830121e+01   1.4720597178e+01    0.4366685    0.2017595 -16.74  0.001643519    3.631    0.725
       129  -9.5889     61.5029     73.4698   6.5847307715e+01   5.6113171704e+01    0.1438729      0.13521 -44.43 3.410049e-05    1.016    0.016
       130 -11.5494    245.0293     72.4651   2.4377225061e+01   1.5520698056e+01    0.1755388    0.1283779  66.07 0.0009249005    1.604    0.377
       131 -10.8750     54.1346     71.8993   6.8344717614e+01   5.7592301452e+01    0.1977767     0.178388 -48.44            0    1.032    0.031
       132 -11.6934     50.2901     68.4207   6.8895944792e+01   5.8946720317e+01    0.3413422    0.2264541 -52.91 0.0007433718    1.386    0.278
       133 -11.1703    122.7798     67.2286   4.3563229011e+01   4.4849692366e+01    0.2560029    0.2312544 -43.97 0.0002912588    1.107    0.096
       134 -10.2411    139.9996     66.2962   3.9081227329e+01   4.0789952598e+01    0.2230493    0.1860006  54.45   0.00110938    1.198    0.166
       135 -11.2998    156.0175     63.6157   3.4867535876e+01   3.7225914987e+01    0.2794267       0.2131 -40.97 0.0004368228    1.283    0.220
       136  -9.8735    106.2552     64.0062   4.7037836954e+01   4.9347977729e+01    0.2039196    0.1883839 -39.57            0    1.084    0.077
       137 -11.5099     30.1013     61.8745   7.6039842955e+01   6.2914443224e+01    0.5790802    0.3542293  42.13   0.00295151    1.878    0.467
       138 -10.9936     76.9542     62.0640   5.6070459303e+01   5.5927632727e+01    0.2117465     0.205257 -23.93   0.00120048    1.008    0.008
       139 -11.1396     46.4345     60.3082   6.7993372676e+01   6.1328513758e+01    0.3466058    0.2428856 -35.29 0.0006848468    1.441    0.306
       140 -12.0018    232.1452     59.0522   2.2600447516e+01   1.9947187116e+01    0.3792119    0.1653652 -58.36  0.001344724    2.988    0.665
       141  -9.6013    119.6543     60.6767   4.2136794311e+01   4.6806390303e+01    0.1595373    0.1203827  18.13            0    1.738    0.425
       142  -9.9197    115.0932     60.1140   4.3156121774e+01   4.8006148451e+01    0.2647818     0.168311  28.27  0.001063987    2.151    0.535
       143  -9.3490     98.3043     60.2575   4.8114307305e+01   5.1861191123e+01     0.146114    0.1172492  14.57            0    1.514    0.339
       144 -10.9901     58.4241     59.0544   6.2328773385e+01   5.9827478575e+01    0.3150778    0.2051153  16.81  0.001030922    1.995    0.499
       145  -9.9244    134.7458     58.0779   3.7553859870e+01   4.3525588731e+01    0.2033711    0.1961016 -82.76 0.0003846643    1.016    0.015
       146 -12.3470      2.6871     63.0639   8.9500921069e+01   6.4686008222e+01    0.6709862    0.3309291 -64.23  0.003247175    1.606    0.377
       147 -10.5900     80.5575     56.3884   5.2649411796e+01   5.6372719012e+01     0.425488    0.2644201 -11.82  0.001606652    2.877    0.652
       148  -9.9752     74.9932     56.0094   5.4561479246e+01   5.7539535588e+01    0.2148993    0.1708485  -2.55 0.0004865149    1.518    0.341
       149 -12.5376    105.0186     52.4991   4.3203137174e+01   5.1753587101e+01     0.281826     0.275291  55.70 0.0003290026    1.019    0.018
       150  -9.4195     89.3103     54.6408   4.8931928996e+01   5.4893808357e+01    0.1520722    0.1177515 -77.64 0.0007041996    1.740    0.425
       151 -12.9406     38.0690     49.7347   6.8270247386e+01   6.4754651168e+01    0.6723301    0.4843827 -43.05  0.003148661    1.255    0.203
       152 -10.7235     27.3922     49.2039   7.3497854180e+01   6.6085002715e+01    0.2814924    0.1779487 -64.36  0.001469633    1.595    0.373
       153 -10.6124      7.0191     41.5677   8.2341300810e+01   6.9453679180e+01    0.3997801    0.1449793 -57.06  0.001832552    2.084    0.520
       154 -10.6993      7.5113     51.5172   8.4669739533e+01   6.7154489007e+01      0.22743    0.1507419 -77.01  0.001164908    1.484    0.326
       155 -11.8594      3.8401     48.7901   8.5995697859e+01   6.7989385950e+01    0.5415388    0.2772652 -67.62   0.00252274    1.659    0.397
       156 -11.1082    128.7076     50.6101   3.6352309249e+01   4.6280329200e+01    0.2793063    0.2628183  25.78 0.0002138936    1.140    0.123
       157 -10.7648     78.5172     47.9000   5.0050662809e+01   5.8406718249e+01    0.4017996    0.1379981 -42.29  0.001312228    2.876    0.652
       158 -11.5823     51.8064     46.2780   6.0386132992e+01   6.3545322110e+01    0.4430511    0.2251619 -52.36  0.001256318    2.028    0.507
       159 -10.3930     83.0169     48.0085   4.8479694303e+01   5.7457871548e+01    0.2331605     0.183513 -82.71  0.001131968    1.766    0.434
       160 -10.5346     69.0787     48.0611   5.3722401847e+01   6.0220350619e+01    0.2042458     0.194505  -9.08 0.0003494656    1.009    0.009
       161 -10.0054    104.4165     46.2318   4.0967286494e+01   5.2966087947e+01    0.2030753    0.1376264 -45.87 0.0004900204    1.541    0.351
       162  -9.6529    143.2737     45.7024   3.1534643088e+01   4.3311478056e+01    0.1511032     0.110622 -66.13 0.0003058455    1.528    0.346
       163 -10.2531    112.2661     45.2668   3.8440188544e+01   5.1231943383e+01    0.2098994    0.1965948  17.25 0.0007642493    1.126    0.112
       164 -11.4724     44.4542     43.0477   6.2547138590e+01   6.5300242348e+01    0.3484877    0.2826481 -49.69   0.00136938    1.222    0.182
       165 -11.6566     44.8844     38.1312   6.0250268166e+01   6.6212002021e+01    0.2268829    0.2114564 -47.18            0    1.173    0.148
       166 -11.8295     17.8832     31.1009   7.2210558971e+01   7.0884963230e+01    0.6431333    0.4902187 -81.20  0.003788662    1.781    0.439
       167 -13.0991     27.7651     37.8130   6.9138765643e+01   6.8496563653e+01    0.3129751    0.2638119 -50.39 0.0005249281    1.156    0.135
       168 -12.2421     24.9552     34.7476   6.9490759974e+01   6.9433596818e+01    0.2618215    0.2067482  -6.19 0.0003977103    1.301    0.231
       169 -10.8308     96.3620     42.4271   4.1820393247e+01   5.5477262779e+01    0.3087983    0.2247438  17.95 0.0007866704    1.733    0.423
       170 -10.4472     72.5949     42.6854   5.0095276684e+01   6.0543054596e+01    0.3218192    0.2186989 -52.10 0.0009221571    1.660    0.397
       171 -11.2008     67.0288     42.3041   5.2130782364e+01   6.1685179041e+01    0.3205128    0.1937308 -38.69  0.001002336    1.618    0.382
       172 -10.5735     80.5116     41.8242   4.6794003983e+01   5.9080365957e+01    0.2808024     0.197252  47.33 0.0007911064    1.423    0.297
       173 -10.9639     27.8694     53.3122   7.4580872346e+01   6.5114124834e+01    0.3151288    0.2157904 -37.48 0.0007262243    1.391    0.281
       174 -11.2570     37.8049     39.1797   6.4291420869e+01   6.6998094366e+01    0.2877871    0.1977498 -27.46  0.000572706    1.485    0.327
       175 -10.7253     18.2843     42.3550   7.6134565916e+01   6.8454581597e+01    0.2102846    0.1207481 -33.51 0.0009177725    1.743    0.426
       176 -10.4966     89.4104     41.1649   4.3484867480e+01   5.7262406998e+01    0.2672917    0.1892813  34.26 0.0007755102    1.501    0.334
       177 -10.4716     60.5072     40.4575   5.4052668656e+01   6.3218599727e+01    0.2521068    0.1823263  -6.88  0.001105536    1.708    0.415
       178 -10.6548    235.9477     39.6975   1.7619334015e+01   2.1654130641e+01    0.1743699    0.1518676 -62.94 0.0005039046    1.082    0.076
       179 -10.2223    226.7737     40.5655   1.8647859219e+01   2.3515936552e+01     0.172343     0.117292 -83.29 0.0006041155    1.569    0.362
       180  -9.8194    130.6402     40.2065   3.2181577930e+01   4.7378343386e+01    0.2010401    0.1435045 -15.42 0.0003818024    1.666    0.400
       181 -10.1781    159.2046     38.2172   2.6222004207e+01   4.0233487388e+01    0.1970445    0.1576073 -74.66  0.000311772    1.274    0.215
       182 -10.8506     83.0657     36.6506   4.3659682579e+01   5.9396999093e+01    0.4333657    0.2478598   0.58  0.001422194    4.064    0.754
       183 -10.7004    248.1116     36.1774   1.5822045847e+01   1.9579271895e+01    0.1709201    0.1581631 -36.91 0.0004669098    1.219    0.180
       184  -9.5424    194.2338     36.3643   2.0911996459e+01   3.1599011531e+01    0.1302174    0.1074775  12.17 0.0006904164    1.592    0.372
       185  -9.8742    101.6313     36.2233   3.7722534611e+01   5.5208889466e+01    0.1905671    0.1394977 -19.00 0.0003681954    1.517    0.341
       186 -10.9734     74.6733     35.9767   4.6356500028e+01   6.1283163370e+01    0.2311804    0.1949704  61.71  0.001007159    1.345    0.256
       187 -10.3691     77.3203     33.3164   4.4178833851e+01   6.1161907898e+01    0.3049181    0.2184333  18.50 0.0007608744    1.659    0.397
       188 -12.1087     57.7505     33.9841   5.2322300531e+01   6.4874978491e+01    0.3093607    0.2560391 -35.03 0.0005153049    1.177    0.150
       189  -9.9935    234.6705     35.6964   1.6779173377e+01   2.2414801661e+01    0.1181772   0.09843713  25.67  0.000323259    1.651    0.394
       190 -10.0788    134.9935     34.9363   2.9379311432e+01   4.6989241507e+01    0.2364838    0.1672437 -68.59 0.0006172756    1.639    0.390
       191 -11.3391    111.2394     34.6727   3.4544796302e+01   5.3088678812e+01    0.2733791    0.2404403  54.37   0.00071877    1.094    0.086
       192 -11.7534      8.2602     31.6602   7.8443444565e+01   7.1540645654e+01    0.4138633    0.2526615 -73.11  0.001423399    1.856    0.461
       193 -10.4768    122.5031     33.4542   3.1421096278e+01   5.0415210545e+01    0.2844474    0.2177901  38.40 0.0008667053    1.390    0.281
       194 -11.4149     23.8821     41.8808   7.2843396604e+01   6.8041630922e+01    0.4513014    0.2683987 -57.93  0.001459633    1.560    0.359
       195  -9.9563     34.2406     33.4505   6.3710753763e+01   6.8600303779e+01    0.1960228    0.1502433  62.33  0.001073283    1.939    0.484
       196  -9.7802     30.6635     32.3275   6.5195245345e+01   6.9268920365e+01    0.1994881    0.1460647  75.26   0.00100141    2.486    0.598
       197 -11.0049    221.6438     31.7165   1.6925494621e+01   2.5741627870e+01    0.2394719    0.1779564 -53.00 0.0002304465    1.151    0.131
       198 -10.6071    207.9207     30.8187   1.7962415307e+01   2.9003108726e+01    0.1848237    0.1791196  62.05 0.0004440628    1.224    0.183
       199 -11.4333    145.0606     29.7117   2.5691176487e+01   4.5037323251e+01    0.3521133    0.2433049 -13.86 0.0004739366    1.738    0.425
       200 -10.4824    100.9779     28.1237   3.4478525043e+01   5.6516870103e+01    0.3091328    0.2046792 -53.52  0.001065582    1.800    0.444
       201  -9.9753      1.4724     37.0159   8.4354711369e+01   7.0775260943e+01    0.1873631   0.09913842 -62.11  0.001013605    1.550    0.355
       202 -10.8884     49.4945     29.2192   5.3843337433e+01   6.7125004409e+01    0.3828006    0.1955137 -33.12  0.001318413    1.999    0.500
       203  -9.8523    166.6516     30.6989   2.2715125531e+01   3.9273598106e+01    0.1472752    0.1057053  37.56 0.0004096223    1.689    0.408
       204 -12.2553    156.8054     28.2526   2.3337904648e+01   4.2138165163e+01    0.2676366    0.2368775 -81.28 0.0003546395    1.069    0.064
       205 -11.0467     79.3071     28.8004   4.1387874588e+01   6.1427060541e+01     0.262523    0.2089106  23.98  0.001416842    1.305    0.234
       206 -10.3660    197.7207     28.3711   1.8322068723e+01   3.1735715836e+01    0.1838279    0.1199714  64.16 0.0006979138    1.568    0.362
       207 -11.2095    112.4506     26.5369   3.0950461198e+01   5.3882034797e+01    0.4648095    0.2775498 -12.74  0.002018596    2.119    0.528
       208  -9.9314    238.3258     27.7136   1.4614715889e+01   2.2589263085e+01    0.1343315   0.07606275 -58.63 0.0001971678    1.607    0.378
       209 -10.8528     83.4135    248.1336   8.7193058261e+01   1.4013533725e+01    0.2478217     0.101889  47.87 0.0009638908    1.917    0.478
       210 -10.8429      1.6841     25.6708   8.0652205944e+01   7.3217272076e+01    0.2367701    0.1643145 -30.96 0.0009146472    1.297    0.229
       211 -10.8813      2.1859     22.6119   7.9176886090e+01   7.3825561892e+01    0.2606051    0.1735132 -16.78  0.001613778    1.510    0.338
       212 -10.8434    215.7427     25.0502   1.5759323315e+01   2.7867747155e+01     0.278967    0.1813971  76.96  0.001518307    1.564    0.361
       213 -10.9796      9.7309     24.5161   7.4738828629e+01   7.2920903513e+01    0.3758178    0.2201129  -7.70  0.001707023    1.978    0.494
       214  -9.4001    128.2742     24.2840   2.6727742953e+01   5.0096244315e+01     0.141954    0.1058721  34.04 0.0001894372    1.505    0.335
       215 -10.6565     22.2140     24.1882   6.6452377274e+01   7.1821283718e+01    0.2323507    0.1602405   4.14 0.0009151212    1.575    0.365
       216 -10.3164    225.7597     23.0280   1.4446042202e+01   2.5841271014e+01    0.2433731    0.1436113 -65.54   0.00088474    1.625    0.385
       217  -9.9083     54.4116     23.2242   4.8489384783e+01   6.7257026276e+01    0.1730782    0.1208575 -44.53 0.0001837525    1.564    0.361
       218 -10.3709     82.9367     22.1070   3.7007460957e+01   6.1555499798e+01     0.207363    0.1955075 -75.49  0.001071487    1.220    0.180
       219 -10.1687     34.6512     21.3815   5.7574881253e+01   7.0766815727e+01     0.287194    0.1810222 -48.20  0.001546765    1.683    0.406
       220  -9.7665    155.6873     21.7008   2.1329633469e+01   4.3201389026e+01    0.1436285    0.1041727  38.79 0.0003697389    1.605    0.377
       221 -12.2818      6.4802    244.6511   1.0156657035e+02   2.3297533526e+01    0.3480813    0.2090742  76.54  0.001482188    1.405    0.288
       222 -11.2422     58.8268     20.8127   4.5271065366e+01   6.6797887435e+01    0.2300279    0.2048633 -40.93 0.0005251075    1.260    0.206
       223 -10.3458    181.3318     19.8846   1.7628398248e+01   3.6782033267e+01    0.1875855     0.166283 -46.80 0.0004617931    1.121    0.108
       224 -10.5066    161.5155     20.5047   2.0153900317e+01   4.1811297752e+01    0.1412872    0.1301245 -86.61 0.0004153087    1.024    0.023
       225 -10.0417     87.2208     20.1889   3.4774769332e+01   6.0817943003e+01    0.1789654    0.1604645 -71.29 0.0002289088    1.302    0.232
       226  -9.6554     48.3458     19.9918   4.9609240044e+01   6.8832891335e+01    0.1761861    0.1563278  -7.83  0.001101204    1.030    0.029
       227 -11.5311     28.6345     19.6247   6.0160151106e+01   7.1890405319e+01    0.2607929    0.2029563 -18.23 0.0002253784    1.176    0.150
       228 -11.1650     72.8339    244.8923   8.9003778579e+01   1.5901052442e+01    0.2317039    0.1808922  40.00  0.001286801    1.175    0.149
       229 -10.2337     24.1688     20.1746   6.3212532365e+01   7.2346541970e+01    0.1759671    0.1500457 -17.50 0.0004530615    1.020    0.020
       230 -13.1877     75.6000    238.5082   8.7966402341e+01   1.6640833675e+01    0.4950325    0.4813915 -80.01  0.003873838    1.357    0.263
       231 -12.0747    238.0915     17.6480   1.2296507819e+01   2.3774400070e+01    0.2363823    0.1790652 -51.69 0.0003024969    1.063    0.059
       232 -10.2597    108.1129     18.2625   2.8480122314e+01   5.5969981512e+01    0.2339363    0.1894998   6.53 0.0008768319    1.397    0.284
       233 -10.8503     41.3512     18.9226   5.2562399260e+01   7.0163822220e+01    0.2261927    0.2072882 -31.65  0.001467995    1.210    0.173
       234 -10.1166     35.4795    238.5048   9.5885195667e+01   2.1435068702e+01    0.1146303   0.08147307  56.49 0.0002543257    1.026    0.025
       235 -10.4659     76.4725     15.4955   3.5825755056e+01   6.3840212592e+01    0.2431671    0.1947934 -52.67  0.000393712    1.500    0.333
       236 -10.8677    194.1968     16.6140   1.5423045691e+01   3.3935416354e+01      0.27626    0.2003169 -82.47   0.00141356    1.302    0.232
       237  -9.9343    103.2876     17.0187   2.9055045358e+01   5.7317634624e+01    0.1786641    0.1761169 -24.35 0.0002460274    1.079    0.073
       238 -10.6304    233.1280     15.5312   1.2128464387e+01   2.5063754264e+01    0.2126845    0.1406928 -29.51  0.001231364    1.474    0.322
       239 -11.2088    165.3580     16.3883   1.8359776788e+01   4.1259654066e+01    0.2154618    0.1559482  38.73 0.0005983326    1.654    0.395
       240  -9.8558    159.2428     15.9536   1.8965503244e+01   4.2898794351e+01    0.1725946     0.116512 -30.17 0.0003615194    1.526    0.345
       241 -10.1998    143.5757     16.2423   2.1195158266e+01   4.6983605328e+01    0.1818586    0.1394114  -1.51 0.0006339526    1.597    0.374
       242 -10.3893    128.7003     20.7045   2.5284312264e+01   5.0402127424e+01    0.2322859    0.2055326 -86.56 0.0002531329    1.123    0.110
       243 -11.2303     18.3950    236.8392   9.9087873165e+01   2.3529022487e+01    0.4158145   0.08969723  45.48  0.001981929    2.623    0.619
       244  -9.7737     15.4122     13.4603   6.5442577855e+01   7.4528324516e+01     0.163354    0.1055608 -52.01 0.0001726568    1.600    0.375
       245 -10.0280    160.3165    235.3623   7.0864297197e+01   5.2986469240e+00     0.120368   0.08169129   5.17 0.0007041711    1.764    0.433
       246 -10.9362     28.2942    245.2716   9.7573571507e+01   2.1009207191e+01    0.2309198    0.1185472 -83.98  0.001466772    2.029    0.507
       247  -9.3688     45.2972    244.3022   9.4303360567e+01   1.9312072804e+01   0.09106389     0.085384   6.47 0.0002667464    1.580    0.367
       248 -10.9833     87.0578    233.5045   8.5227795376e+01   1.6003123213e+01    0.1913414   0.09415626  38.52  0.001033364    1.600    0.375
       249  -9.7075     24.2740    232.3144   9.7764832621e+01   2.3757585630e+01   0.08978433   0.08428992 -59.95 0.0003011504    1.560    0.359
       250 -10.9744    185.0075    228.0631   6.5240296804e+01   2.7706820517e+00    0.3477069    0.1737542 -17.18  0.001536065    3.552    0.719
       251  -9.9284    151.5112    228.4800   7.1661097261e+01   7.5872549888e+00    0.1223107   0.09890563  31.07 0.0002414751    1.010    0.010
       252 -10.3968    191.3597    226.4172   6.3842015731e+01   2.0887947152e+00    0.2002293    0.1448391 -36.96  0.001324092    1.625    0.385
       253 -10.1902      3.5084    226.0119   1.0155034985e+02   2.6957305120e+01    0.1531145   0.08891898  88.60 0.0007553489    1.564    0.361
       254  -9.9701     25.3124    225.3494   9.7234574994e+01   2.4955607271e+01   0.09728424    0.0855182 -44.48 0.0007045994    1.720    0.418
       255 -10.5495    230.3353    222.0979   5.6467011129e+01  -2.6509077359e+00    0.1428429    0.0937934 -35.89 0.0009377239    1.791    0.442
       256 -11.3805     14.0565    222.0365   9.9339008435e+01   2.6721651840e+01    0.2853151    0.1443779  29.19  0.001020466    2.024    0.506
       257 -10.0758    211.8371    218.5674   5.9015845019e+01   2.3964744534e-01    0.1731948    0.1277016 -29.53  0.001134166    1.466    0.318
       258 -10.0805     21.6546    219.6972   9.7703900075e+01   2.6419372268e+01    0.0964502   0.08755641 -36.23 0.0006984206    1.686    0.407
       259 -10.3963     50.1312    218.1291   9.1676177840e+01   2.3577454513e+01    0.1671977    0.1574593  56.68  0.001230379    1.290    0.225
       260 -10.7735     29.2833    215.7725   9.5926790603e+01   2.6396385633e+01    0.2125338    0.1505101  28.47  0.001053836    1.582    0.368
       261 -10.3121     24.1056    216.1472   9.7025880513e+01   2.6864369339e+01    0.1643707    0.1002645  61.22   0.00041888    1.279    0.218
       262 -12.7039      5.6411    208.5098   1.0051810950e+02   3.0173226576e+01    0.4530355    0.2132872 -89.12  0.002416337    1.918    0.479
       263 -12.3882     11.4439    209.6190   9.9356365536e+01   2.9415602888e+01    0.4606155    0.1932636  75.04  0.002413403    2.180    0.541
       264 -11.2827     14.0250    215.5042   9.9073485163e+01   2.7996731532e+01     0.220977     0.130656  29.52  0.001377053    1.775    0.437
       265 -10.8154    217.2972    210.9698   5.6858216725e+01   4.4732472631e-01     0.296185    0.1263368 -27.95   0.00145547    2.551    0.608
       266 -11.2721    175.3793    202.4048   6.3134234825e+01   7.9352969754e+00    0.2430432    0.1981063  17.47 0.0005422885    1.092    0.084
       267 -11.1640     19.8075    200.4307   9.7127223242e+01   3.0495608546e+01    0.3623656    0.1381104 -64.22  0.001758447    2.770    0.639
       268  -9.8439    215.3951    193.7910   5.4275071069e+01   3.0015688618e+00    0.1672417     0.102798 -20.93 0.0009419321    1.629    0.386
       269 -11.7661     15.4157    193.1490   9.7719664177e+01   3.2462190818e+01    0.3071072    0.1827429  27.20  0.001448481    1.846    0.458
       270 -10.0184    244.3463    187.6833   4.8442414064e+01  -3.5069972739e-01    0.1000609   0.09368508 -51.38  0.000704827    1.723    0.420
       271  -9.7963    191.3238    186.3201   5.7309270704e+01   7.8692885699e+00    0.1341967   0.09183384   4.23 0.0007045673    1.676    0.403
       272 -10.1845     99.2950     12.9452   2.8179603298e+01   5.8749451519e+01    0.2286206    0.1648576 -43.37  0.000536174    1.516    0.340
