#   1 NUMBER                 Running object number                                     
#   2 MAG_AUTO               Kron-like elliptical aperture magnitude                    [mag]
#   3 X_IMAGE                Object position along x                                    [pixel]
#   4 Y_IMAGE                Object position along y                                    [pixel]
#   5 X_WORLD                Barycenter position along world x axis                     [deg]
#   6 Y_WORLD                Barycenter position along world y axis                     [deg]
#   7 A_WORLD                Profile RMS along major axis (world units)                 [deg]
#   8 B_WORLD                Profile RMS along minor axis (world units)                 [deg]
#   9 THETA_WORLD            Position angle (CCW/world-x)                               [deg]
#  10 FWHM_WORLD             FWHM assuming a gaussian core                              [deg]
#  11 ELONGATION             A_IMAGE/B_IMAGE                                           
#  12 ELLIPTICITY            1 - B_IMAGE/A_IMAGE                                       
         1 -13.6635      2.1452     91.0055   1.4028417442e+02   5.5017688169e+01     2.819189    0.2955617 -76.49  0.007066831    8.877    0.887
         2 -14.5480      5.1448    140.5895   1.4337068865e+02   4.4505438275e+01     3.764503    0.9633787 -82.86   0.01658549    3.497    0.714
         3 -13.7510    196.0880     24.3258   6.9716811289e+01   3.2852317412e+01     1.968663     1.465223  18.15  0.008557461    1.445    0.308
         4 -13.4715    210.4381      6.8200   6.2435398861e+01   3.0807865879e+01      1.09755    0.9189557  51.34  0.006049574    1.204    0.169
         5 -12.6819      2.7969      7.4686   1.2354704683e+02   7.2943939225e+01     1.143472    0.3126282 -55.17  0.005368786    2.348    0.574
         6 -10.8993     98.9921    249.0354   1.3414739263e+02   1.6606406674e+01    0.2017013    0.1141586  40.44   0.00130475    1.459    0.314
         7 -11.6925    174.2736    248.8173   1.2261161134e+02   6.5907097434e+00     0.315137    0.2269865  57.63  0.002095873    1.583    0.368
         8 -11.9206    179.3421    245.5571   1.2147917281e+02   6.2052810757e+00    0.3784952    0.1409592  35.07  0.002051825    2.319    0.569
         9 -12.2998    124.0895    249.5645   1.3036957012e+02   1.3347443188e+01    0.6029999    0.1361311  43.50  0.002889348    3.042    0.671
        10 -13.6552    140.0394    246.1147   1.2760813529e+02   1.1620535802e+01     0.994625    0.4085071  48.16  0.006077209    1.858    0.462
        11 -10.2333     19.6878    247.4441   1.4564200914e+02   2.5380692322e+01    0.2778124     0.152391  39.59  0.002335918    1.731    0.422
        12  -9.1451      2.1402    249.1563   1.4808777730e+02   2.6693655866e+01    0.1174861    0.0847565  68.19  0.000635622    1.202    0.168
        13  -9.8914    217.4919    248.0012   1.1600678433e+02   6.1566154601e-01     0.106931   0.08982227 -69.86 0.0008104907    2.573    0.611
        14  -8.6753     73.6655    250.3177   1.3801939539e+02   1.9445138851e+01   0.09956528   0.04848459  60.70 0.0007048374    1.696    0.410
        15 -10.9488     38.8476    214.0985   1.4135598363e+02   2.8407850686e+01    0.5574849    0.5034775  40.78  0.005140386    1.572    0.364
        16 -10.8489     57.3462    225.1781   1.3902290004e+02   2.4767536905e+01    0.4271339    0.3094805 -35.96  0.003063617    2.952    0.661
        17 -12.7724     49.7084    217.7581   1.3980614817e+02   2.6712868676e+01    0.6371413     0.473688  85.66  0.004427637    1.260    0.207
        18 -13.9142     40.3704    229.2595   1.4188836270e+02   2.5958630525e+01    0.6703904      0.41166  54.78  0.002517427    1.171    0.146
        19 -13.3430    126.9534    232.2225   1.2836435716e+02   1.5098473298e+01     1.522304    0.2196544  39.69  0.004632291    7.052    0.858
        20 -13.2198    104.9107    230.3208   1.3175861971e+02   1.8302306306e+01     1.206125     0.168822  43.63  0.004648888    4.514    0.778
        21  -9.1736      3.4014    227.7654   1.4733859109e+02   2.9604486312e+01    0.1703083   0.06500313  48.71  0.001265707    1.766    0.434
        22 -10.2875    173.2627    222.2011   1.1968757266e+02   9.6112449863e+00     0.201479    0.1292367  40.96  0.001381331    1.183    0.154
        23  -9.9985     27.5240    221.8296   1.4351708551e+02   2.8329971529e+01    0.1686199    0.1387101  42.71  0.001557835    1.533    0.348
        24 -11.6017     53.7164    209.4097   1.3863332077e+02   2.7582925278e+01      1.15209    0.2167335  56.05  0.003371268    9.143    0.891
        25  -9.6931     20.3563    211.8691   1.4420616570e+02   3.0537490622e+01    0.2375045    0.1181588  27.96  0.001553422    2.825    0.646
        26 -12.1818     10.6103    206.8992   1.4554963871e+02   3.2190596776e+01    0.4695097     0.269029  33.75  0.003012259    1.985    0.496
        27 -12.8400     35.3838    235.9938   1.4295025138e+02   2.5483915890e+01    0.2160475    0.1847789  78.80 0.0007268612    1.400    0.286
        28 -11.6475     61.6012    201.2117   1.3671631496e+02   2.8022641955e+01    0.1961272    0.1711897  77.10 0.0005038867    1.231    0.188
        29  -8.2943     25.2749    215.3074   1.4357956116e+02   2.9543563212e+01    0.0754224   0.06693434 -81.02 0.0002811192    1.548    0.354
        30  -9.4617    192.0034    193.4843   1.1249319869e+02   1.0058948295e+01    0.2254196    0.1326333 -65.52 0.0008092796    6.521    0.847
        31 -11.9639     67.9376    192.5868   1.3490733232e+02   2.8717611033e+01    0.2082058    0.1832894  84.44 0.0004347076    1.222    0.182
        32 -13.1682     64.8446    177.5203   1.3416532005e+02   3.1711717531e+01    0.3874088    0.2326471 -48.59  0.001715532    2.314    0.568
        33 -10.3772    249.2506    248.8629   1.1150438083e+02  -3.7623309192e+00    0.1911663    0.1095078  10.33  0.001401969    1.649    0.393
        34 -11.1135    238.1972    247.3398   1.1289021219e+02  -2.1716274744e+00    0.2068476    0.1446007 -16.85  0.001696138    1.713    0.416
        35 -11.9382     86.5373    152.8579   1.2697209818e+02   3.3543743273e+01     0.226913    0.2200276 -48.55 0.0006310772    1.287    0.223
        36  -8.4905    135.3115    150.6691   1.1617654220e+02   2.6290916241e+01    0.1302941   0.09813251  77.58 0.0007043103    1.672    0.402
        37  -9.3766    134.0000    146.0024   1.1562585876e+02   2.7354786235e+01    0.4112203    0.0746301 -48.53  0.001155042    5.922    0.831
        38  -9.2346    100.9665    149.1759   1.2331032058e+02   3.2168403155e+01    0.1694709    0.1624418   8.48 0.0003751633    1.287    0.223
        39 -12.1647     67.3313    143.5942   1.3000416024e+02   3.7888145986e+01    0.5873994    0.3360926  62.78  0.003154296    1.834    0.455
        40  -9.9411    109.2477    138.3020   1.1971223577e+02   3.2983020331e+01    0.3561355    0.2523155 -16.88  0.001531161    2.420    0.587
        41 -10.4282     96.7749    135.4826   1.2209204910e+02   3.5489740796e+01    0.2182693    0.2035048 -48.12 0.0003771588    1.215    0.177
        42  -8.7370     81.2321    133.1042   1.2534526495e+02   3.8216724178e+01     0.164852    0.1275178  74.21 0.0004958676    1.284    0.221
        43  -9.0024    106.8424    124.4584   1.1775775524e+02   3.6126339739e+01    0.1757307    0.1267183  41.91    0.0003305    1.397    0.284
        44  -9.6583    167.9630    113.0461   1.0133060547e+02   2.6603257797e+01    0.2153122    0.2102824  82.88 0.0007847625    1.164    0.141
        45 -10.7003      2.4036    153.5261   1.4464729709e+02   4.2197811470e+01    0.3034359    0.1965458 -87.78  0.001140064    1.209    0.173
        46  -9.4895    157.3854     75.8300   9.3491291211e+01   3.5404178831e+01    0.2158767    0.1423082 -20.75 0.0003721147    1.654    0.395
        47 -10.7554     78.1073    179.2723   1.3177332964e+02   2.9768833847e+01    0.1936124    0.1637982  60.93 0.0003362305    1.096    0.088
        48  -9.0500    101.8680    178.3522   1.2705370096e+02   2.6716445031e+01     0.185379    0.1143751  57.11  0.001048265    1.499    0.333
        49 -11.7689     85.4098    170.2091   1.2935636431e+02   3.0441696362e+01    0.4818691    0.4292821  22.31  0.003476383    1.472    0.320
        50 -10.2228     97.8701    153.7051   1.2464565450e+02   3.1764830447e+01    0.2645732    0.2379739 -65.11 0.0008351118    1.198    0.165
        51 -11.6813      2.9944     37.9350   1.3225732364e+02   6.6588653850e+01    0.3442486     0.225855 -87.51  0.002210781    1.591    0.371
        52 -11.9931    185.6891    239.0365   1.1974934051e+02   5.9544034310e+00    0.3448184     0.263138  84.68  0.002401721    2.551    0.608
        53  -9.6892     29.8315    248.7454   1.4427024477e+02   2.4252497822e+01    0.1746102   0.09035401  77.31  0.001437498    1.649    0.394
