#   1 NUMBER                 Running object number                                     
#   2 MAG_AUTO               Kron-like elliptical aperture magnitude                    [mag]
#   3 X_IMAGE                Object position along x                                    [pixel]
#   4 Y_IMAGE                Object position along y                                    [pixel]
#   5 X_WORLD                Barycenter position along world x axis                     [deg]
#   6 Y_WORLD                Barycenter position along world y axis                     [deg]
#   7 A_WORLD                Profile RMS along major axis (world units)                 [deg]
#   8 B_WORLD                Profile RMS along minor axis (world units)                 [deg]
#   9 THETA_WORLD            Position angle (CCW/world-x)                               [deg]
#  10 FWHM_WORLD             FWHM assuming a gaussian core                              [deg]
#  11 ELONGATION             A_IMAGE/B_IMAGE                                           
#  12 ELLIPTICITY            1 - B_IMAGE/A_IMAGE                                       
         1  -8.3339    198.7438     18.2743   3.5091904142e+02   3.4109969510e+01    0.1776347    0.1012219 -17.19 0.0008519385    2.408    0.585
         2  -7.9662    210.6190      8.8946   3.4799109988e+02   3.2688881252e+01    0.1686394    0.1177057 -47.38  0.001095821    1.160    0.138
         3  -8.2273    125.5482    238.9200   5.0160330655e+01   8.7815686824e+00    0.3328608    0.1154014 -42.27   0.00142704    3.391    0.705
         4 -10.3037    100.4937    247.0106   5.6458093814e+01   1.0307411147e+01    0.7498884    0.2964529  38.33  0.003631082    2.116    0.527
         5 -10.2763    100.4837    243.2321   5.6084841459e+01   1.0962732933e+01     0.997648    0.2012451  32.94  0.003673921    3.395    0.705
         6  -9.8835    102.8982    239.1367   5.5130107654e+01   1.1403874023e+01    0.3678319    0.2174256 -51.22  0.001267497    1.958    0.489
         7 -17.2398     45.3306    232.1156   6.7785286364e+01   1.9157799709e+01     2.636117     2.142732  31.72  0.006622316    1.107    0.097
         8  -8.7168    123.1145    224.2079   4.8893457333e+01   1.1630673913e+01    0.3626187    0.1076875  37.70  0.001408076    2.980    0.664
         9  -8.1366      2.3529    202.6689   7.6774693416e+01   2.9447221184e+01    0.1419094    0.1359632 -50.97  0.000907309    1.304    0.233
        10  -7.2465    249.4857    229.4588   2.6457822980e+01  -2.9745233072e+00    0.1019019   0.07137116 -11.78 0.0008087248    1.041    0.039
        11  -7.0169    166.5126    222.5315   3.9527618937e+01   6.5708789052e+00    0.1204622   0.09929324   3.75 8.965402e-05    1.029    0.028
        12 -10.1564     81.2726    196.0494   5.5479776812e+01   2.2730246648e+01    0.4376084    0.2932205 -49.30  0.001405146    1.636    0.389
        13 -11.0266     79.3417    190.3294   5.5283763366e+01   2.4279576277e+01    0.6945372    0.3961765 -58.65  0.002953135    1.849    0.459
        14 -10.6857     75.3106    189.9057   5.6315232489e+01   2.4902809858e+01    0.5947614    0.3056303 -45.07   0.00164893    2.281    0.562
        15  -7.4322    244.2888    197.6644   2.2336244877e+01   1.4424591099e+00    0.0945156   0.07724654 -39.93 0.0005008847    1.633    0.388
        16  -7.5705    194.2996    196.3373   3.0168966987e+01   7.3028888102e+00    0.1267239   0.07997905 -11.26 0.0005547637    1.660    0.398
        17  -7.0093    165.3682    218.2369   3.9126850233e+01   7.3945721257e+00    0.1240991   0.08019884   0.86  0.000516511    1.604    0.377
        18  -9.9668     89.5443    213.0621   5.5393243814e+01   1.8016131062e+01    0.4306037    0.2350764  47.17  0.001200147    1.847    0.459
        19  -8.8189    127.7970    211.5604   4.6157913298e+01   1.3354138813e+01    0.3696574    0.2379582  65.56  0.001380643    2.819    0.645
        20  -9.3890     35.0120    184.1425   6.6928389999e+01   3.0979502810e+01    0.2228969    0.2007337  76.42 0.0002633735    1.075    0.070
        21  -8.3189     43.8161    186.4252   6.4642657230e+01   2.9497795092e+01    0.1969929    0.1811425 -32.30 0.0005350137    1.271    0.213
        22  -7.2758     99.6716    181.3088   4.8622140874e+01   2.3523388973e+01    0.1463973    0.1044608  60.17 0.0004218656    1.660    0.398
        23  -8.9063    150.4870    226.6110   4.3338048365e+01   7.8427604807e+00    0.2117419    0.1806867  19.14 0.0005828975    1.144    0.126
        24  -8.1825     27.2275    180.3027   6.8846898138e+01   3.2692547850e+01    0.4057445    0.1521551  22.30  0.001376251    2.627    0.619
        25 -10.4941     86.6449    174.1414   5.1071578267e+01   2.7065684915e+01    0.6226729    0.5045268 -17.40  0.003120753    1.450    0.310
        26  -6.7974    149.6807    177.7328   3.5863521227e+01   1.6751633660e+01     0.135816   0.09889231  -5.48 0.0002638346    1.558    0.358
        27  -7.5328    100.9215    176.1352   4.7491468244e+01   2.4515287553e+01    0.1863915    0.1607104 -17.04  0.001016209    1.266    0.210
        28  -8.1457    187.0184    175.0836   2.7803384597e+01   1.1746153402e+01    0.2363028     0.175898  26.90  0.001426518    1.384    0.277
        29  -9.2791     38.2880    169.1776   6.4616014307e+01   3.4406530990e+01    0.3614351    0.2497725   3.11  0.001770751    1.790    0.441
        30  -9.1613     91.5361    165.9510   4.8426648404e+01   2.8306041678e+01    0.2743918    0.2179066 -26.57 0.0004353742    1.452    0.311
        31  -8.7150     94.3988    161.7678   4.6923281356e+01   2.8874877430e+01    0.3734032    0.2326125 -38.27   0.00165007    1.853    0.460
        32  -9.0238    107.7945    204.1705   4.9832192522e+01   1.7467691941e+01    0.2791532    0.1961525 -64.75 0.0004750931    1.689    0.408
        33  -9.0856     24.2434    157.0285   6.7849924222e+01   3.8959957256e+01    0.4744838    0.2134644  41.53  0.002009325    2.021    0.505
        34  -7.8359      4.8477    155.2219   7.3904023965e+01   4.0975343935e+01     0.292648    0.1149331  13.31 0.0009828568    2.908    0.656
        35  -7.1860     99.9711    154.0329   4.3977844307e+01   2.9851563995e+01    0.1724599    0.1685052  35.97 0.0003525109    1.005    0.005
        36  -8.1747    103.1537    150.1244   4.2345666157e+01   3.0264765129e+01    0.2101842     0.176289  67.40 0.0004681144    1.341    0.255
        37  -9.3826     89.3882    147.8829   4.5913024640e+01   3.3061683295e+01     0.329188      0.27169 -29.97 0.0006972172    1.355    0.262
        38  -8.6907    109.6700    201.3527   4.8992273852e+01   1.7791204932e+01    0.2156917    0.1707427  45.43 0.0008373315    1.287    0.223
        39  -8.0994    143.9450    147.7560   3.1404538074e+01   2.3754652341e+01    0.2318996     0.192168 -40.72 0.0004181629    1.163    0.140
        40  -8.6941     45.0317    148.0000   6.0051924676e+01   3.9229064382e+01    0.3088474    0.1989124   1.54  0.001126437    2.052    0.513
        41  -8.6267     46.8703    145.1244   5.9049395146e+01   3.9784395737e+01    0.2166939    0.2108234  74.74            0    1.046    0.044
        42  -7.6862    157.1728    147.1909   2.8339151806e+01   2.1573699894e+01    0.1779009    0.1603157 -67.60 0.0003178242    1.291    0.225
        43  -7.3947      4.8514    145.0948   7.3278357900e+01   4.3660392286e+01    0.1743199    0.1510707 -52.82 0.0002810354    1.253    0.202
        44  -9.5165     72.9190    134.6882   4.8605553866e+01   3.9013752260e+01    0.6427699    0.1283215 -51.17  0.001656381    4.617    0.783
        45  -8.2599    102.1413    134.5814   3.9485423848e+01   3.4181791588e+01    0.2722398    0.2112599 -45.66 0.0003576439    1.300    0.231
        46  -8.1828    105.9721    130.8097   3.7554662087e+01   3.4401145589e+01    0.3270229    0.2474912 -42.58  0.001156369    1.348    0.258
        47  -8.4147     63.6836    130.3383   5.0906733443e+01   4.1534916492e+01    0.2529181     0.147864 -70.29  0.001044087    1.813    0.448
        48  -8.3302     78.5157    132.0308   4.6251630827e+01   3.8825667052e+01    0.2270134    0.2011869  35.99 0.0003646369    1.132    0.117
        49  -8.4071     52.5422    132.2731   5.5142742497e+01   4.2544768055e+01    0.2544849    0.1878019 -12.62  0.001116794    1.741    0.426
        50  -9.4514     73.0658    126.6854   4.6981943418e+01   4.1078036136e+01    0.3422754     0.279736  69.74            0    1.333    0.250
        51  -8.7652     67.8317    124.8037   4.8397273383e+01   4.2382965920e+01    0.2238387    0.1769874  64.09  0.001073806    1.368    0.269
        52  -8.6093     62.1815    124.5843   5.0339925544e+01   4.3282981765e+01    0.2151587    0.1504168  12.71 0.0009503113    1.724    0.420
        53  -9.2680     63.4849    133.4812   5.1549940039e+01   4.0728850427e+01    0.4045967    0.1581582  44.14   0.00138975    2.627    0.619
        54  -7.1578    116.5464    119.6100   3.1986353287e+01   3.5027853126e+01    0.1482266    0.1465246  -6.50 0.0001422404    1.041    0.040
        55  -7.6283     43.5525    116.5648   5.5760830626e+01   4.7940759077e+01    0.1485524    0.1415693  88.45 9.743236e-05    1.015    0.015
        56  -8.9378     49.9345    105.5003   5.1064356125e+01   5.0108214225e+01    0.3025805    0.2220194 -55.44  0.001451688    1.314    0.239
        57  -8.4946    102.7791     98.7790   3.0558256883e+01   4.2548955284e+01    0.2585071    0.2404114 -68.62 0.0003342687    1.074    0.069
        58  -7.4781    224.4307     97.2886   6.3623159093e+00   1.8654166968e+01    0.1640652   0.09514433 -43.74 0.0003157068    1.398    0.285
        59  -8.5183    143.9769     88.9024   1.7250158488e+01   3.5767116976e+01    0.2106815    0.1970824 -60.76  0.001176623    1.004    0.004
        60  -7.5023     53.0033     89.2743   4.5928374916e+01   5.3913022518e+01    0.2024318    0.1894642  28.12 0.0002218346    1.096    0.088
        61  -7.8059     76.5015     86.5185   3.5801472080e+01   5.0595198814e+01    0.1510705     0.149899 -61.36  0.000390802    1.016    0.016
        62  -7.1177    169.6870     81.9942   1.0538535713e+01   3.1455517076e+01    0.1597765    0.1176711 -42.01 0.0003230211    1.238    0.192
        63  -6.7216     85.2826     77.3020   2.9798085231e+01   5.0962613645e+01     0.148391    0.1217753  -6.45 0.0002927542    1.552    0.356
        64  -7.0836     99.2658     72.6670   2.3746651802e+01   4.8947584916e+01    0.1520311    0.1174905 -78.68 0.0003096695    1.582    0.368
        65  -8.5552    170.7144     70.3423   7.3329637535e+00   3.3159064435e+01     0.289712    0.1925409 -67.22 0.0008067433    1.679    0.404
        66  -8.2292    187.1019     66.8601   4.0973528146e+00   3.0224004064e+01    0.1897309    0.1655959 -55.75  0.001174559    1.024    0.023
        67  -9.0291    161.6045     60.0235   5.9566935144e+00   3.6804661132e+01    0.3461884    0.2032308 -53.61  0.001640179    1.665    0.399
        68  -9.4906    175.3185     44.2784   3.5975077648e+02   3.5999943258e+01    0.3139267    0.2082279 -55.18  0.001710694    1.354    0.262
        69  -7.2598     58.1595     42.8214   2.7467447088e+01   6.3458189069e+01    0.1843998    0.1591377   7.79 0.0003407108    1.252    0.201
        70  -7.9655     74.9114     41.9977   2.0349832957e+01   6.0102943092e+01    0.2103799    0.1998998  33.54 0.0003324935    1.049    0.047
        71  -8.8550    181.0982     38.7525   3.5762817880e+02   3.5452481161e+01    0.2792568    0.2045901 -27.76 0.0008160656    1.490    0.329
        72  -7.6475    105.6911     35.4466   8.6181837604e+00   5.3869997503e+01    0.3045892    0.1199573 -36.69  0.001169748    2.530    0.605
        73  -6.9831     91.3314     34.2365   1.1813242273e+01   5.7527518519e+01    0.1410056    0.1019648  36.96  0.000200255    1.533    0.348
        74  -8.3099     96.9939     33.0384   9.8043943989e+00   5.6331324375e+01    0.2051596    0.1938052  82.25 0.0003339743    1.024    0.024
        75  -8.6345     81.0613     31.4082   1.3643217514e+01   6.0367158078e+01    0.2425273    0.2037837 -36.24 0.0003368468    1.265    0.210
        76  -8.4129    212.3829     25.6579   3.5169255495e+02   3.0525934192e+01     0.194959    0.1710571 -50.98  0.000360623    1.195    0.163
        77  -7.1742    227.2442     21.3574   3.4979706093e+02   2.8173725765e+01   0.09787829   0.08488118 -12.49 0.0002939063    1.594    0.373
        78  -8.2009    192.9991     20.4972   3.5188316500e+02   3.5070260574e+01    0.1817083   0.08031528 -71.64 0.0008103978    2.533    0.605
        79  -7.5280    124.9146    245.6695   5.1072309644e+01   7.7432843985e+00    0.1643065    0.1276942  21.84 0.0004718023    1.052    0.050
        80  -8.2411     96.9276     16.6117   2.9951477575e+00   5.8392983039e+01    0.2219473    0.1867789 -44.85 0.0001710101    1.256    0.204
