#   1 NUMBER                 Running object number                                     
#   2 MAG_AUTO               Kron-like elliptical aperture magnitude                    [mag]
#   3 X_IMAGE                Object position along x                                    [pixel]
#   4 Y_IMAGE                Object position along y                                    [pixel]
#   5 X_WORLD                Barycenter position along world x axis                     [deg]
#   6 Y_WORLD                Barycenter position along world y axis                     [deg]
#   7 A_WORLD                Profile RMS along major axis (world units)                 [deg]
#   8 B_WORLD                Profile RMS along minor axis (world units)                 [deg]
#   9 THETA_WORLD            Position angle (CCW/world-x)                               [deg]
#  10 FWHM_WORLD             FWHM assuming a gaussian core                              [deg]
#  11 ELONGATION             A_IMAGE/B_IMAGE                                           
#  12 ELLIPTICITY            1 - B_IMAGE/A_IMAGE                                       
         1 -14.9970      9.6795    149.4425   1.4247734670e+02   4.3004286128e+01     11.10478     4.774657  79.33   0.04672146    3.339    0.701
         2 -13.1686    196.3582     30.7900   6.7677275010e+01   3.2621075346e+01     1.344232     1.178218  43.31  0.008097337    1.344    0.256
         3 -13.3607    213.0967     10.3427   6.0864088074e+01   3.1001343865e+01     1.181824    0.8673986  45.47   0.00697611    1.712    0.416
         4 -12.3972      2.6138      5.7269   1.1268095681e+02   7.1738007157e+01    0.6379008    0.3957318 -21.10  0.004795945    1.191    0.160
         5 -10.4851     12.0477     23.0704   1.1524010424e+02   6.8571002955e+01     0.139312    0.1360282 -57.57   0.00113659    1.725    0.420
         6  -9.2700     66.2742    250.0084   1.4079397022e+02   1.4881051354e+01     0.166809    0.1232916  75.56 0.0004946585    1.083    0.076
         7 -11.7796    140.4622    249.2737   1.2703385744e+02   3.3446005282e+00    0.5029139    0.2570409  44.72  0.002571144    1.616    0.381
         8 -11.3814    124.3324    250.3009   1.3022067672e+02   5.8755130446e+00    0.5803226    0.1299756  42.19  0.001998598    3.693    0.729
         9  -9.7473     46.9348    249.8189   1.4410229087e+02   1.7510635660e+01    0.1603018    0.1349185  78.45 0.0007626611    1.265    0.210
        10 -10.4388     28.9414    248.8230   1.4701115765e+02   1.9910638794e+01    0.3135706    0.1986542 -71.10  0.001084791    1.627    0.385
        11 -10.2554     33.8509    247.1974   1.4609949741e+02   1.9633037603e+01    0.2814471    0.1337658 -67.00  0.001533115    2.097    0.523
        12 -10.4638     36.7150    243.5630   1.4536902590e+02   1.9978700239e+01    0.2420632    0.1690243  50.98  0.001306765    1.385    0.278
        13  -9.0957     31.2340    242.9285   1.4624344077e+02   2.0758933966e+01    0.3251395     0.132412  61.92   0.00146731    2.138    0.532
        14 -10.0173     12.9515    250.2782   1.4963749406e+02   2.1443400634e+01    0.1971121    0.1070638  59.81  0.001025309    1.399    0.285
        15 -11.1677      4.0992    249.1952   1.5094131230e+02   2.2577637551e+01    0.4742636    0.2281427  63.01  0.002499011    1.559    0.359
        16 -11.1048    100.4973    245.4872   1.3414530186e+02   1.0616655015e+01    0.3812862    0.2448221  80.53  0.002157561    1.693    0.409
        17 -11.0063     97.4658    245.5019   1.3471310750e+02   1.1091734725e+01    0.4875863    0.2127529 -60.67  0.002155346    2.507    0.601
        18  -9.7646     81.9695    248.9610   1.3790866983e+02   1.2813910329e+01    0.2049399    0.1145381  66.77  0.001130486    1.688    0.407
        19  -9.9164     17.4942    249.0959   1.4885997387e+02   2.1165719000e+01     0.160875    0.1319959  79.21   0.00104295    1.314    0.239
        20 -10.1314    105.9662    246.4976   1.3323264886e+02   9.5582385635e+00    0.1955706    0.1041294  45.55 0.0008495771    1.583    0.368
        21 -10.1420     18.4949    241.7810   1.4826496251e+02   2.2435523211e+01    0.1860852    0.1214332  57.12 0.0005455429    1.308    0.235
        22 -11.2050     10.5155    238.8453   1.4937898604e+02   2.3856303685e+01    0.3524417     0.143806  56.38  0.001762565    1.948    0.487
        23 -10.2789    185.8742    239.0684   1.1679936823e+02  -2.8133196494e+00    0.1931325    0.1660531  55.24 0.0005140631    1.270    0.213
        24  -9.2729    133.3254    239.3221   1.2710089603e+02   6.3099448595e+00    0.1223035    0.1010343  10.44 0.0007047571    1.684    0.406
        25 -10.7065     50.6088    235.3118   1.4231780568e+02   1.9838067343e+01    0.2686216    0.1895027  82.45 0.0009727253    1.146    0.127
        26  -9.4298    249.3317    235.3160   1.0439316743e+02  -1.2499532495e+01    0.1263467    0.0794887   5.59 0.0007046609    1.685    0.406
        27 -11.9909    237.5303    248.0844   1.0866473613e+02  -1.2423478970e+01    0.5290803    0.2031293  36.42  0.002536816    2.281    0.562
        28 -13.6788     37.8989    224.0640   1.4367858124e+02   2.3707191257e+01    0.7544667    0.5896232  71.92  0.002522271    1.105    0.095
        29  -9.2167     34.7963    202.5735   1.4240992588e+02   2.8618633419e+01    0.1783161    0.1458178  77.68 0.0005929798    1.113    0.102
        30 -11.3988     59.5425    197.7442   1.3689425103e+02   2.6598423682e+01    0.2779288    0.2289209 -57.44  0.000588196    1.430    0.301
        31  -9.2381    191.7705    192.9354   1.0746774592e+02   4.1196658978e+00    0.3867893    0.1786492 -62.36 0.0009518355    7.149    0.860
        32 -11.6916     65.9788    189.4957   1.3452228755e+02   2.7580498109e+01    0.2814708    0.2309642 -65.57 0.0004547505    1.257    0.204
        33  -9.8727      6.7089    214.9882   1.4856042771e+02   2.8970257570e+01    0.1630443     0.137283  69.76 0.0005265188    1.314    0.239
        34 -11.1114    148.9748    229.9852   1.2267820067e+02   5.2595872001e+00    0.5835139    0.1536747  36.31   0.00163152    5.150    0.806
        35 -10.6604     76.3917    176.8025   1.3043741230e+02   2.9020512438e+01    0.2426186    0.2180823 -74.56 0.0003766833    1.133    0.117
        36 -13.0421     63.0259    174.7889   1.3324076136e+02   3.1395565979e+01    0.5256278    0.2797628 -46.39  0.001788027    2.311    0.567
        37 -10.3356      4.8783    228.8892   1.4971929750e+02   2.6364615993e+01    0.1574421    0.1223062 -86.97 0.0006644437    1.277    0.217
        38 -12.5771     32.3697    231.2838   1.4522261566e+02   2.2905201750e+01    0.2908345    0.2300356 -76.25 0.0007703578    1.379    0.275
        39  -9.6497     96.3050    172.9249   1.2514281561e+02   2.6777965703e+01    0.2487858    0.2064466  45.60 0.0006019226    1.255    0.203
        40 -11.5358     84.1311    167.9644   1.2723176908e+02   2.9926780240e+01    0.5901437    0.5721868  35.49  0.003585354    1.249    0.200
        41 -11.0210    229.1255    229.0823   1.0692764114e+02  -8.5476216297e+00    0.4889124    0.3076169 -62.53   0.00213684    3.757    0.734
        42  -9.7739     96.9873    152.0176   1.2120043505e+02   3.1632639932e+01    0.3056363    0.2761544 -31.72 0.0007913171    1.297    0.229
        43  -8.8359     99.9217    147.8395   1.1962702945e+02   3.2124758885e+01    0.2147038    0.1923823 -35.01 0.0003106876    1.265    0.210
        44 -11.8567     85.4717    151.0315   1.2394921588e+02   3.3766158849e+01    0.2996094    0.2501424 -47.24 0.0008757288    1.264    0.209
        45 -12.0910     67.5090    143.5355   1.2723435644e+02   3.8230093879e+01     0.681825     0.452629  70.95  0.002530692    1.836    0.455
        46  -9.4507    108.9114    137.1238   1.1503159867e+02   3.3051451771e+01    0.3862484    0.2565555 -16.61  0.001496462    2.717    0.632
        47 -10.1940     96.1308    134.3448   1.1780847802e+02   3.5997400063e+01    0.2637508     0.220332 -42.75 0.0004028291    1.230    0.187
        48  -8.2493    192.2789    144.2527   9.6955646355e+01   1.3702775493e+01    0.1446078    0.1202232   7.50 0.0001998515    1.462    0.316
        49 -10.5660     30.1357    130.8460   1.3499947674e+02   4.5542229273e+01    0.2441334    0.2010326  56.19 0.0005182938    1.373    0.272
        50 -11.9370     21.8281    126.2696   1.3652209939e+02   4.7329949699e+01    0.4220214    0.2832185  56.45  0.001154026    1.748    0.428
        51  -8.6694    106.3572    123.8512   1.1266738848e+02   3.6630857055e+01    0.1985642      0.17312 -50.30 0.0002769687    1.100    0.091
        52  -9.8679     77.7978    130.4264   1.2195645162e+02   3.9882426224e+01    0.2836184    0.2063124  74.24 0.0006933688    1.698    0.411
        53 -10.2666    167.8269    112.9378   9.4557292559e+01   2.5820544208e+01    0.3397589    0.2851212 -86.37 0.0005552933    1.354    0.262
        54  -8.7857    203.4823    111.5360   8.6900584211e+01   1.7700296855e+01    0.1508351    0.1463587 -52.05 9.818548e-05    1.046    0.044
        55  -9.1291    126.3292    225.3123   1.2658175738e+02   1.0158421579e+01    0.1255747    0.1065398   6.07 0.0006134416    1.670    0.401
        56  -8.3434     66.5490     82.4572   1.1378402207e+02   5.2236008083e+01    0.1320951    0.1208278 -43.10 0.0008051824    1.099    0.090
        57  -9.3086    158.2424     77.0452   8.6933277334e+01   3.5069860999e+01     0.198241     0.128911 -37.00   0.00058379    1.586    0.369
        58 -12.4746      9.4424    207.1842   1.4755180115e+02   3.0317975420e+01    0.6607513    0.5576012  32.24   0.00367457    1.718    0.418
        59  -8.3611     46.1774     69.1078   1.1686072179e+02   5.7449949342e+01    0.1503035    0.1426131 -67.79  0.000236989    1.321    0.243
        60  -8.6695    152.5247    212.9596   1.1928184335e+02   7.8190922553e+00    0.1843736    0.1391514 -52.59 0.0003280788    1.457    0.314
        61 -11.7084      9.7910     53.2357   1.2581820344e+02   6.3632544041e+01    0.7168327    0.2391134  37.00  0.003178707    4.475    0.777
        62 -11.0616      2.3515     39.1606   1.2482207477e+02   6.6603634739e+01    0.3584459   0.08765273 -56.50  0.001492442    3.653    0.726
        63  -9.2525    197.6419    249.6764   1.1622566630e+02  -6.3965558459e+00    0.1300098   0.08674687  12.66 0.0001558111    1.772    0.436
        64 -10.4882    162.9221    248.9214   1.2269545312e+02  -4.3185382360e-01    0.2113666    0.1857402 -68.43  0.001391429    1.388    0.280
        65 -10.6885    157.5670    249.5027   1.2379998911e+02   3.9007934620e-01    0.3278389    0.1072759  41.21  0.001318105    2.571    0.611
