#   1 NUMBER                 Running object number                                     
#   2 MAG_AUTO               Kron-like elliptical aperture magnitude                    [mag]
#   3 X_IMAGE                Object position along x                                    [pixel]
#   4 Y_IMAGE                Object position along y                                    [pixel]
#   5 X_WORLD                Barycenter position along world x axis                     [deg]
#   6 Y_WORLD                Barycenter position along world y axis                     [deg]
#   7 A_WORLD                Profile RMS along major axis (world units)                 [deg]
#   8 B_WORLD                Profile RMS along minor axis (world units)                 [deg]
#   9 THETA_WORLD            Position angle (CCW/world-x)                               [deg]
#  10 FWHM_WORLD             FWHM assuming a gaussian core                              [deg]
#  11 ELONGATION             A_IMAGE/B_IMAGE                                           
#  12 ELLIPTICITY            1 - B_IMAGE/A_IMAGE                                       
         1 -13.9469     67.5614    144.1866   1.2760476147e+02   3.8153597854e+01     3.114328      1.43735 -83.95  0.008947811    5.279    0.811
         2 -13.8029    207.2060      4.7696   6.0370169664e+01   3.3109426412e+01     1.119678    0.8024349  78.48  0.002736376    1.175    0.149
         3 -14.0874    185.6782     29.0452   6.8923059112e+01   3.5597234451e+01     1.644783     1.104502  21.55  0.004923553    2.378    0.579
         4 -14.3194    194.1199     22.4263   6.6088332049e+01   3.4316282921e+01     1.937475     1.376583 -17.72  0.008460315    1.872    0.466
         5 -11.6625     33.0019      8.5833   1.0063856460e+02   6.8650285710e+01    0.4734593    0.1007982 -35.10  0.001874971    4.344    0.770
         6 -12.4698    200.2641     14.1041   6.3302922719e+01   3.3770734548e+01    0.4525873    0.4105183  26.80  0.001202094    1.458    0.314
         7 -10.4387     82.3085    230.0141   1.3605414356e+02   1.6487729591e+01    0.2837418    0.1409382  50.34   0.00140967    1.717    0.418
         8 -12.3237    202.0062    249.7655   1.1555728340e+02  -7.1519660113e+00    0.9175261    0.1369576  39.43  0.002489069    6.175    0.838
         9 -11.9856    184.3064    249.4449   1.1883184376e+02  -4.1643577478e+00    0.5315068     0.164511  37.10  0.002020876    3.044    0.671
        10 -12.4747    170.9402    247.4674   1.2108254131e+02  -1.5826363329e+00     0.614894    0.2778495  34.37  0.002785357    2.186    0.542
        11 -12.7795    140.0651    248.7054   1.2715972765e+02   3.5188232334e+00    0.6772302    0.4162189  46.28  0.003796118    1.339    0.253
        12 -14.3680     97.3337    241.1049   1.3438650009e+02   1.1979793096e+01     3.087294     2.218184  16.13  0.005841712    2.600    0.615
        13 -13.0676     35.4666    228.8182   1.4463138540e+02   2.3108661164e+01    0.7134649    0.4456133 -62.82  0.001961615    1.790    0.441
        14 -13.2594     51.7215    220.4125   1.4094736148e+02   2.2798469642e+01    0.5187904    0.4194352 -75.32  0.001438629    1.315    0.239
        15 -15.5383     59.0303    208.8849   1.3839238189e+02   2.4281987169e+01      7.84333     1.429347  47.44   0.01770264    4.535    0.779
        16 -10.0665    111.2396    208.5129   1.2750006515e+02   1.6252261135e+01    0.2395465    0.1857815 -67.73 0.0006173658    1.323    0.244
        17 -10.8835     33.0253    205.3373   1.4317135886e+02   2.8303778062e+01    0.3307497    0.2424489 -88.24    0.0012365    1.095    0.087
        18 -11.0533    192.9597    194.6262   1.0774479100e+02   3.5499345627e+00    0.9325978    0.4547462 -63.81  0.002564333    6.087    0.836
        19 -10.7555     68.3910    196.6616   1.3507797244e+02   2.5683527647e+01    0.5170468    0.2998607  72.09  0.002567649    1.837    0.455
        20 -14.2962     51.4760    230.2295   1.4186516396e+02   2.0811266779e+01     1.264358     0.966832  31.44  0.004939556    1.841    0.457
        21 -11.9261     74.3509    188.7829   1.3278258693e+02   2.6609542748e+01     0.439048    0.2681657 -42.88  0.001989319    2.296    0.564
        22 -11.8490     78.4312    182.6289   1.3102129455e+02   2.7421648992e+01    0.3054399    0.2518412 -53.29 0.0008455582    1.378    0.274
        23  -8.7543     67.3662    189.2898   1.3438594229e+02   2.7502714403e+01     0.122059    0.1036614 -33.22 0.0003984834    1.706    0.414
        24 -13.4313     74.4271    168.2820   1.2983794203e+02   3.1396640644e+01    0.7173756    0.3606838 -42.37  0.001860743    2.810    0.644
        25 -11.7290     86.1448    171.6231   1.2756582055e+02   2.8810332515e+01    0.3190225    0.2857063  60.45 0.0005990251    1.144    0.126
        26 -13.3980     91.6438    164.2969   1.2502149854e+02   2.9663015014e+01     4.924418    0.9968289  47.16  0.001349841    5.784    0.827
        27 -10.8119    230.3624    166.6905   9.4727873772e+01   1.4158705988e+00    0.3293719     0.166331 -50.95  0.001340053    2.347    0.574
        28  -9.9497    163.5547    155.7749   1.0606145597e+02   1.7590824019e+01    0.3845471    0.2574211 -66.16  0.001477257    1.846    0.458
        29 -14.3738     10.8437    206.5223   1.4741783370e+02   3.0408006749e+01      1.09331    0.6508645  23.83  0.005027964    2.692    0.629
        30  -9.2312     48.2194    150.9960   1.3363993380e+02   3.8988434773e+01    0.1762612   0.09316497 -66.80 0.0002411964    1.614    0.381
        31 -10.5991    133.8053    144.8103   1.1067286604e+02   2.6413150674e+01     1.101794    0.2358862 -54.32  0.002230536    7.369    0.864
        32 -10.4998    103.9961    147.4910   1.1876929336e+02   3.1561288460e+01    0.3216124    0.2966532  88.65 0.0008436877    1.035    0.034
        33 -10.0745    106.4249    143.3813   1.1729573578e+02   3.2102652406e+01    0.3753005    0.2262207 -39.81 0.0009766605    1.927    0.481
        34 -12.3676     92.8555    146.8448   1.2151168549e+02   3.3647766261e+01    0.2870998    0.2621099 -41.04  0.000491402    1.223    0.183
        35 -14.8992     36.4866    247.7297   1.4581882849e+02   1.9285701319e+01     2.449561    0.6767421  39.95  0.006648882    3.347    0.701
        36 -11.3736     54.3817    144.8248   1.3113147033e+02   3.9719873506e+01    0.3490209    0.2024457 -57.27  0.001769011    1.519    0.342
        37 -10.3098    113.4720    134.1593   1.1344862514e+02   3.2968025676e+01     0.347953    0.2637286 -29.52 0.0009291542    1.611    0.379
        38 -11.0458    100.9960    130.9828   1.1604715688e+02   3.6027870770e+01    0.3142206    0.2541251 -25.45 0.0007016966    1.508    0.337
        39  -9.5261    105.9924    131.0007   1.1471192369e+02   3.5117539613e+01     0.240301    0.2223985 -77.80  0.001303208    1.047    0.045
        40 -11.8699     44.4950    129.9841   1.3130422825e+02   4.4388848683e+01    0.3245959    0.2731676  56.30  0.002033804    1.321    0.243
        41 -10.3538    135.9162    128.3953   1.0632505979e+02   2.9738565445e+01    0.4367757     0.195185 -54.53  0.001508591    2.466    0.594
        42  -9.8769    160.9992    128.0091   1.0017624288e+02   2.4255495928e+01    0.2653148    0.1987277 -84.32  0.001145683    1.742    0.426
        43 -10.8730    118.3392    127.5229   1.1063208018e+02   3.3567713141e+01    0.4447032    0.2844944 -14.39   0.00140753    3.242    0.692
        44  -9.9077    109.1510    121.9898   1.1176009051e+02   3.6630100448e+01    0.2171675    0.2059525 -59.49 0.0003869616    1.016    0.015
        45 -10.1332    135.0000    120.4285   1.0458731884e+02   3.1730454736e+01    0.3420566   0.08798919 -46.44 0.0009218212    3.831    0.739
        46 -11.4518     39.2077    114.3145   1.3001928389e+02   4.8588056970e+01    0.3158545    0.1936123 -26.89  0.001596052    2.204    0.546
        47 -10.8711    168.2662    113.0315   9.4752904616e+01   2.5758552384e+01    0.3901827    0.3074646 -78.19 0.0009622487    1.503    0.335
        48 -11.3373     44.8967    114.6411   1.2842859514e+02   4.7922405457e+01    0.2706753    0.1756198 -68.68 0.0009847535    1.422    0.297
        49  -9.5435    205.5467    110.2027   8.6437820552e+01   1.7495515133e+01    0.2772421    0.2159443  56.15 0.0007490678    1.321    0.243
        50 -10.2167    142.0296    169.2094   1.1385250825e+02   1.9131811420e+01    0.2780291    0.1983089 -70.60 0.0008331839    1.614    0.380
        51 -10.7877     21.6284     92.9858   1.3127010271e+02   5.4900451246e+01    0.4831985    0.1314303  32.13  0.002016899    3.985    0.749
        52  -9.2552    154.5112     76.5526   8.7902005597e+01   3.6177904758e+01    0.1505159    0.1451848  67.40 0.0001315884    1.007    0.007
        53  -9.6297    236.5240     66.5293   7.1137454116e+01   1.7993626347e+01    0.1424073    0.1196856 -69.41 0.0001582467    1.049    0.047
        54 -15.9735      1.6634     70.8386   1.3341978899e+02   6.0792401390e+01     13.27468    0.5949885 -63.62   0.02632365   14.040    0.929
        55 -16.3210      9.1131    238.1895   1.4969609502e+02   2.4214435752e+01     7.997939    0.9434644 -72.24   0.02865548    5.609    0.822
        56  -9.8316    169.1559    214.4061   1.1623966482e+02   4.4235139054e+00    0.2764531    0.1984788  65.14  0.001404917    1.656    0.396
        57 -10.2556     39.2789    212.6975   1.4261646264e+02   2.5991466483e+01    0.2403516    0.1701398  73.92 0.0003617929    1.131    0.116
