#   1 NUMBER                 Running object number                                     
#   2 MAG_AUTO               Kron-like elliptical aperture magnitude                    [mag]
#   3 X_IMAGE                Object position along x                                    [pixel]
#   4 Y_IMAGE                Object position along y                                    [pixel]
#   5 X_WORLD                Barycenter position along world x axis                     [deg]
#   6 Y_WORLD                Barycenter position along world y axis                     [deg]
#   7 A_WORLD                Profile RMS along major axis (world units)                 [deg]
#   8 B_WORLD                Profile RMS along minor axis (world units)                 [deg]
#   9 THETA_WORLD            Position angle (CCW/world-x)                               [deg]
#  10 FWHM_WORLD             FWHM assuming a gaussian core                              [deg]
#  11 ELONGATION             A_IMAGE/B_IMAGE                                           
#  12 ELLIPTICITY            1 - B_IMAGE/A_IMAGE                                       
         1 -15.5400     50.2968    207.6957   1.3174826634e+02   2.6674467732e+01     12.64193     5.110976  79.78   0.05109541    4.083    0.755
         2 -13.0714    196.4070     33.0725   6.2765495402e+01   3.1915812973e+01     1.237108    0.9945706  53.71  0.006344552    1.200    0.166
         3 -13.9047    210.4134     16.2139   5.6351515412e+01   3.0372326007e+01     1.688737      1.11653  31.67  0.008297659    2.005    0.501
         4 -11.4114      2.5839     15.0926   1.1174618647e+02   6.9171967004e+01    0.5285921    0.1971603 -58.32  0.002520133    3.553    0.719
         5 -10.6372      2.3291      4.8303   1.0812256853e+02   7.0747486770e+01    0.4597664     0.106758 -45.01   0.00224313    2.941    0.660
         6 -10.8349    162.7895    249.2643   1.1652242730e+02   2.3557285749e+00    0.2928013    0.1679925  50.03  0.001721328    1.391    0.281
         7 -10.5219    191.6729    250.0075   1.1164496662e+02  -2.6455012834e+00    0.2669521   0.09996744  37.16  0.001199889    2.442    0.590
         8 -11.3177    139.3029    248.7742   1.2048944893e+02   6.3595959666e+00        0.307    0.2097687 -67.19  0.001989805    1.820    0.450
         9 -11.7164     92.6634    249.4252   1.2832064068e+02   1.3550730676e+01    0.3661059     0.277489 -60.18 0.0005516947    1.720    0.419
        10 -11.0874     88.9796    244.2970   1.2845914816e+02   1.4921857623e+01    0.2399607    0.1556815  76.72  0.001175716    1.401    0.286
        11 -11.8503     39.2407    245.8845   1.3635458162e+02   2.1181459613e+01    0.6207307    0.3009865  80.00  0.003997849    1.859    0.462
        12 -11.8210     31.8236    247.9126   1.3756513595e+02   2.1698208222e+01    0.4689784    0.3435321  42.59  0.003748525    1.780    0.438
        13 -11.5579      3.9372    226.4911   1.4045995905e+02   2.8236139400e+01    0.4135331    0.3271903 -72.34  0.003607166    1.633    0.388
        14 -10.4078     16.7728    249.5645   1.3979415816e+02   2.3066273333e+01    0.2035833    0.1654452  30.59  0.001503859    2.264    0.558
        15 -12.0416      4.1164    247.3772   1.4143304696e+02   2.4706141398e+01    0.7966143    0.3796246  77.99  0.003800688    1.565    0.361
        16 -12.6873     13.9100    239.4774   1.3968393873e+02   2.5033202118e+01     1.012358    0.4187126  78.20  0.006003056    2.134    0.531
        17 -11.9500    107.9767    245.2213   1.2540321384e+02   1.1926180071e+01    0.3636585    0.2056488  55.28   0.00166825    1.392    0.282
        18  -9.3555    172.3420    246.3136   1.1448829266e+02   1.1370045704e+00    0.1191262   0.08342739  23.80 0.0005580878    1.704    0.413
        19 -10.9097     54.8618    238.4621   1.3346054719e+02   2.0538477781e+01    0.2290916    0.1963447  88.36 0.0009236854    1.378    0.274
        20 -11.4143     98.7344    236.3054   1.2607013071e+02   1.4809350021e+01    0.3009394    0.1885685  77.37 0.0009127599    1.607    0.378
        21 -11.3313     20.9436    235.7181   1.3845713226e+02   2.4939539126e+01    0.2637486     0.192745  55.13    0.0017698    1.409    0.290
        22  -9.8809    247.4767    236.5184   1.0003048060e+02  -1.0274387718e+01    0.1192767   0.09158988  22.52 0.0001415982    1.002    0.002
        23 -13.9602     10.2194    206.6729   1.3838705505e+02   3.1191930141e+01     1.683687    0.7202353 -89.63  0.006920498    2.006    0.501
        24  -9.6591    246.6637    249.6887   1.0227968510e+02  -1.1555444647e+01    0.1200595   0.06995032  18.48 0.0007044868    1.685    0.406
        25 -11.1474     18.7001    229.3799   1.3842825211e+02   2.6269475348e+01    0.2429731    0.1781174  87.47  0.002020005    1.190    0.160
        26 -10.7797    227.8880    204.3517   9.7863609792e+01  -2.9438913147e+00    0.3314904    0.2453261 -58.22 0.0006935648    2.086    0.521
        27 -11.1578    150.0714    228.8305   1.1611581788e+02   7.6016028631e+00    0.3566887    0.1418565  43.77   0.00162824    2.095    0.523
        28 -11.5953     61.0165    193.1826   1.2842009008e+02   2.8159130904e+01    0.3356452    0.2405106 -54.15  0.001487236    1.715    0.417
        29  -8.2388    181.5246    192.4308   1.0443877795e+02   7.7590130526e+00    0.1383073    0.1213941  42.51 0.0001504819    1.009    0.009
        30 -11.7051     66.9972    185.9336   1.2648180481e+02   2.8835794569e+01    0.2599981    0.2090309 -63.59 0.0004729669    1.364    0.267
        31  -8.9780     42.3729    231.6867   1.3493658285e+02   2.3239715058e+01    0.1320405   0.08232919 -73.33 0.0005574308    1.564    0.360
        32 -10.8310     76.9996    174.0981   1.2300935433e+02   2.9909404915e+01    0.2274393    0.1987273 -73.39 0.0003495383    1.187    0.157
        33 -13.1858     63.9026    171.5016   1.2539117895e+02   3.2230180108e+01    0.4548931     0.254204 -47.89  0.001567594    2.248    0.555
        34 -11.9699     84.5931    165.1876   1.2015432414e+02   3.0695284275e+01    0.8474202    0.5259786  63.56   0.00446861    1.694    0.410
        35  -9.3046    174.3162    221.6726   1.1064099218e+02   4.3795276239e+00    0.1267932   0.09325546  71.04  0.000704496    1.675    0.403
        36 -12.6766     67.3019    143.9440   1.2082560657e+02   3.7718725684e+01    0.8088608    0.5184241  83.03  0.002752806    1.831    0.454
        37 -11.8639     58.0752    133.1904   1.2131788804e+02   4.1231345216e+01     2.063598    0.6550763 -73.24  0.004499263   10.252    0.902
        38  -9.8850     97.5481    149.8217   1.1478150080e+02   3.2003879622e+01    0.2578235    0.2458093  89.11 0.0007966415    1.104    0.094
        39  -9.0015    100.7856    145.7448   1.1329974099e+02   3.2362042490e+01    0.2544264    0.1712405 -35.91  0.001237517    1.939    0.484
        40 -12.0483     86.1147    148.8399   1.1725476297e+02   3.4003953368e+01    0.2710559    0.2286358 -51.66 0.0005005089    1.271    0.213
        41 -10.3774    139.9784    230.5014   1.1816082054e+02   9.0840751305e+00    0.2004029     0.101537  46.01  0.001042432    1.618    0.382
        42  -9.5229    109.4017    135.6524   1.0930864981e+02   3.3092967418e+01     0.333973    0.2238595 -20.18  0.001421627    2.627    0.619
        43 -10.4334     96.5713    132.6118   1.1182274641e+02   3.5932990835e+01    0.2533737    0.2179028 -29.37 0.0008800432    1.394    0.283
        44 -13.7878     40.8455    217.1962   1.3412673010e+02   2.6021671330e+01     0.820058    0.5565588  70.16  0.002623147    1.132    0.116
        45  -9.0769    106.6161    122.9118   1.0731905385e+02   3.6360913577e+01    0.1915018    0.1595425 -56.73 0.0003456804    1.146    0.127
        46 -12.5903     33.8840    225.8474   1.3587034550e+02   2.5251657249e+01    0.2712508    0.2145717  87.14 0.0007700202    1.237    0.191
        47 -10.2000    167.7976    112.8306   9.0235232610e+01   2.5815937842e+01    0.3545371    0.2856641 -83.00 0.0009280067    1.549    0.355
        48  -9.0170    203.4523    111.4835   8.2475366774e+01   1.7644994730e+01    0.1526955    0.1458878  14.48 0.0002695515    1.067    0.063
        49 -11.3559    242.6124     93.9070   7.1305054610e+01   1.1478069732e+01    0.3505266    0.2385644 -59.33  0.001654508    1.720    0.419
        50  -8.7768    158.3537     77.7047   8.2845116168e+01   3.4673741156e+01    0.1556097    0.1213841 -83.00 0.0003467726    1.689    0.408
        51  -9.8208     12.7800     61.3609   1.2061578230e+02   6.0392306212e+01    0.1573802    0.1150744 -56.47  0.001130143    1.107    0.097
        52 -10.1572    144.1982    249.3560   1.1972191973e+02   5.4635603833e+00    0.1604404    0.1346737  52.24  0.001148477    1.114    0.103
        53 -11.8543    100.4467    249.4472   1.2705767942e+02   1.2395427193e+01    0.4333559    0.3344929  67.54  0.002988158    1.058    0.055
        54 -11.8640    126.3242    245.8860   1.2237590806e+02   8.9197691605e+00     0.301407    0.2000759  53.37  0.001954016    1.169    0.144
