#   1 NUMBER                 Running object number                                     
#   2 MAG_AUTO               Kron-like elliptical aperture magnitude                    [mag]
#   3 X_IMAGE                Object position along x                                    [pixel]
#   4 Y_IMAGE                Object position along y                                    [pixel]
#   5 X_WORLD                Barycenter position along world x axis                     [deg]
#   6 Y_WORLD                Barycenter position along world y axis                     [deg]
#   7 A_WORLD                Profile RMS along major axis (world units)                 [deg]
#   8 B_WORLD                Profile RMS along minor axis (world units)                 [deg]
#   9 THETA_WORLD            Position angle (CCW/world-x)                               [deg]
#  10 FWHM_WORLD             FWHM assuming a gaussian core                              [deg]
#  11 ELONGATION             A_IMAGE/B_IMAGE                                           
#  12 ELLIPTICITY            1 - B_IMAGE/A_IMAGE                                       
         1 -14.2156    167.3733     43.1239   7.4118318090e+01   3.8097686200e+01     1.189639     1.064098  11.66  0.004099953    1.348    0.258
         2 -14.2954    184.8305     10.2383   6.2865762045e+01   3.7706348252e+01     1.778644     1.017305  68.22  0.006650326    1.477    0.323
         3 -10.8098    168.0585    242.0705   1.1927158397e+02  -4.0367167291e-01    0.2371371    0.1882557 -54.19 0.0008923532    1.507    0.337
         4 -12.0932    192.4901    249.5353   1.1567560725e+02  -5.7181764407e+00     0.481682    0.1917667  40.77  0.002181521    2.137    0.532
         5 -11.4388    176.1600    249.3076   1.1877687410e+02  -2.9597517231e+00    0.3294265    0.1842637 -36.72  0.001583373    2.206    0.547
         6 -10.1841    139.0982    250.1439   1.2608360097e+02   3.1975591156e+00    0.2418006    0.1897211  43.88 0.0008684573    1.098    0.089
         7 -10.8696    138.5824    244.0150   1.2536952622e+02   4.3585316390e+00    0.4949743    0.2555761 -52.77  0.002461745    2.255    0.557
         8 -19.9068     61.3124    171.0325   1.3194773683e+02   3.2543441419e+01     19.64219     4.303831 -64.47   0.05923423    4.315    0.768
         9  -8.6084    143.3316    209.2829   1.1918924628e+02   1.0147636126e+01    0.1366257    0.1115101   8.10  0.000233327    1.612    0.380
        10 -11.6169     11.7423    205.9106   1.4617589868e+02   3.0306984831e+01    0.2724113    0.1948223  43.50  0.001178399    1.573    0.364
        11  -9.8273    168.8284    200.6548   1.1219440109e+02   7.0248845891e+00    0.1963372    0.1812576 -26.88 0.0006836671    1.167    0.143
        12 -10.6404    152.8024    198.2823   1.1523169990e+02   1.0610549710e+01    0.4110472    0.2278586 -45.81  0.001803953    1.945    0.486
        13 -11.4099    152.4720    192.1105   1.1417911160e+02   1.1966754770e+01    0.3884188    0.2842905  63.01  0.001209548    1.507    0.337
        14 -10.4831    140.0623    200.0785   1.1835137315e+02   1.2674918092e+01    0.4852324    0.2586753  29.77  0.001930217    2.415    0.586
        15  -9.8087    135.4260    198.7223   1.1914627029e+02   1.3839434748e+01    0.2999617    0.2018252 -67.83    0.0013509    1.706    0.414
        16  -9.5715    121.4971    198.0618   1.2214426030e+02   1.6563703778e+01    0.2029357    0.1395328 -57.46 0.0003779136    1.508    0.337
        17 -10.7933    180.3842    193.4855   1.0838325021e+02   6.1870291461e+00    0.2875541    0.2000347  71.77  0.001276715    2.126    0.530
        18  -9.6910    205.6510    189.2817   1.0235086667e+02   2.0901578924e+00    0.1370398    0.1140408  79.53 0.0001892847    1.647    0.393
        19 -11.3730    171.9766    189.0735   1.0932458770e+02   8.7318677550e+00    0.3929672    0.2407145  37.47   0.00142259    1.622    0.383
        20 -11.1969    175.5362    186.1177   1.0797578415e+02   8.6210460899e+00     0.361407    0.2650718 -83.85  0.001633487    2.032    0.508
        21 -10.9689    155.4755    187.5138   1.1264766270e+02   1.2347428284e+01    0.2403026    0.2265645  62.07 0.0006837358    1.032    0.031
        22 -11.2963    152.0341    184.4380   1.1283044387e+02   1.3691985104e+01    0.3694688    0.2777835  79.75 0.0005606721    1.690    0.408
        23  -9.6580    150.8391    242.9270   1.2279866726e+02   2.4367638339e+00    0.1828787    0.1645206  18.47 0.0005576758    1.249    0.199
        24 -10.4423    164.8146    183.5662   1.0980923548e+02   1.1308364544e+01    0.2377523    0.1782391 -55.35 0.0005292027    1.424    0.298
        25 -10.4898     29.1223    183.5520   1.4075975821e+02   3.3470439497e+01    0.2113715    0.1686352  76.86 0.0004729204    1.112    0.101
        26 -11.0015     12.5024    242.7390   1.4845662385e+02   2.2743429954e+01    0.1202095   0.09899668 -66.80 0.0009154767    1.662    0.398
        27 -13.2998    145.0969    177.5391   1.1307381999e+02   1.6591121319e+01    0.9219274    0.6341959  72.66  0.004032594    1.911    0.477
        28 -12.9094    136.8490    171.2102   1.1375131566e+02   1.9664921348e+01    0.6944777    0.4097317  41.94  0.001537006    1.679    0.405
        29 -10.6596      4.4203    180.2086   1.4560743336e+02   3.6573320154e+01    0.1907869    0.1663156 -17.39  0.001386035    1.794    0.443
        30 -11.5660    168.1665    176.7492   1.0769902860e+02   1.2062157685e+01    0.5737924    0.3250632 -67.23  0.001684319    2.903    0.656
        31 -10.8151    135.4433    179.8199   1.1574771518e+02   1.7993604430e+01    0.2863588    0.2026657  46.46 0.0007479805    1.363    0.267
        32 -11.7153    204.5433    176.0314   9.9860452907e+01   4.8059986185e+00    0.4444422    0.4305128 -71.32  0.001115709    1.152    0.132
        33 -10.0850    197.3163    176.9916   1.0152798305e+02   6.0620654710e+00    0.2963599    0.2486195  64.45  0.001521782    1.385    0.278
        34  -9.9993     10.2933    174.9430   1.4393627397e+02   3.7242846600e+01    0.1638605    0.1317665  83.49  0.001149261    1.103    0.094
        35 -11.7443    193.5286    166.0076   9.9980523267e+01   9.0212238212e+00    0.5209692    0.3224718 -45.97 0.0007230236    1.624    0.384
        36 -11.1821    190.0283    160.8560   9.9590042092e+01   1.0804505727e+01    0.4086624    0.3500254 -58.36 0.0009483353    1.239    0.193
        37 -11.2522    189.8874    155.6063   9.8457182358e+01   1.1914515074e+01    0.4857192    0.4546778  48.62  0.001586071    1.084    0.078
        38 -10.1870    200.4301    168.2385   9.9042103427e+01   7.1525491548e+00    0.3179155    0.2476678 -79.34  0.001100588    1.783    0.439
        39  -9.9549    204.1974    166.6098   9.7931589915e+01   6.7040845822e+00    0.3283183    0.2867265  -5.16  0.001758613    1.224    0.183
        40 -10.2329     35.3778    168.4144   1.3769896498e+02   3.6300135178e+01    0.2802401    0.1738392  67.54  0.000871608    1.674    0.403
        41  -9.3506    133.9188    245.5156   1.2648576303e+02   4.8872399860e+00    0.1766284    0.1551716 -67.60 0.0006866906    1.307    0.235
        42 -10.1212     15.1703    164.1104   1.4182556501e+02   3.9275094921e+01    0.3184627    0.1990853  -3.94  0.001665516    3.105    0.678
        43 -10.3702    141.2966    164.0743   1.1124793541e+02   2.0392868498e+01    0.2139538    0.1960598 -70.89 0.0003827973    1.093    0.085
        44 -10.6122    236.2433    158.3904   9.0112349850e+01   1.9305821435e+00    0.1868761    0.1361044  56.31 0.0009541897    1.630    0.387
        45  -9.8065    167.2532    155.6766   1.0340489674e+02   1.6788844865e+01     0.366383    0.2259429  88.66  0.001134417    3.905    0.744
        46 -13.4896    133.8479    145.8160   1.0911442878e+02   2.6129977597e+01      1.51584    0.4404992 -54.39  0.004046143    4.235    0.764
        47 -12.5597    135.6566    128.4798   1.0459656329e+02   2.9725907079e+01     1.272479    0.2603211 -51.02  0.002747054    6.268    0.840
        48 -10.0382     28.5057    239.7513   1.4559101627e+02   2.1536526972e+01    0.1245561   0.08145497  76.25 0.0004006112    1.164    0.141
        49 -12.0176    175.6816    234.1744   1.1653257226e+02  -4.0801016071e-01    0.3930538    0.1871523 -52.80  0.001745512    2.666    0.625
        50  -9.8837    174.8530    149.1113   1.0022643474e+02   1.6551142038e+01    0.2429897    0.2122847 -85.04 0.0005897612    1.286    0.222
        51 -12.0890    144.2309    145.9408   1.0659533889e+02   2.3921296602e+01    0.6148349    0.3661337 -69.81  0.002259013    2.494    0.599
        52 -12.3425      6.3771    138.1495   1.4105180167e+02   4.5920420347e+01    0.5079004      0.35842 -87.13   0.00213351    1.240    0.194
        53 -11.9334    175.9341    229.6539   1.1575117542e+02   3.2070872269e-01    0.3687395    0.2617784 -13.52  0.001554034    1.941    0.485
        54  -9.1372    167.9765    134.4786   9.8331130281e+01   2.1238776222e+01    0.2175936    0.1387744  73.24 0.0007125496    2.364    0.577
        55 -12.6350      8.5366    127.6835   1.3920972339e+02   4.8150361609e+01    0.5119092    0.2207443 -59.99  0.002670692    1.751    0.429
        56 -12.3707      4.2423    112.2431   1.3826333241e+02   5.1904080941e+01    0.4829228    0.3379332 -47.08  0.003144308    1.331    0.249
        57 -12.4701      6.0607    120.0888   1.3885788408e+02   5.0034944257e+01    0.4227667      0.32955  -7.01  0.002895045    1.705    0.413
        58 -10.7921    160.5089    127.8129   9.8415609501e+01   2.4374233243e+01    0.4126985    0.2631427 -57.10  0.001484883    1.729    0.422
        59 -11.8316    114.1999    118.0301   1.0762049295e+02   3.6513371934e+01    0.3793357    0.2616318 -54.96 0.0007181603    1.454    0.312
        60  -9.5811    168.1834    113.0076   9.2948045881e+01   2.5737950406e+01    0.2738183    0.1816516 -71.02  0.001083264    2.103    0.524
        61 -11.3419    134.8521    110.9962   1.0036303971e+02   3.3770030693e+01    0.5305204    0.1627456 -44.72  0.001590898    3.229    0.690
        62 -10.2428    131.0971    236.2549   1.2580539332e+02   7.0632250639e+00     0.230339    0.1759262 -66.26 0.0008252058    1.476    0.323
        63  -8.8770    145.0000    235.0089   1.2282791923e+02   4.8674963640e+00    0.1854054      0.07706 -52.25 0.0004303326    2.762    0.638
        64 -11.6004     18.8202    108.6604   1.3349672319e+02   5.1707474414e+01    0.2615114    0.1911377 -26.72  0.000860995    1.569    0.362
        65 -12.4706    125.0768    242.9439   1.2788781129e+02   6.8505688831e+00     0.467436    0.1825118 -54.58  0.001424869    2.919    0.657
        66 -10.2340    205.0490    110.5780   8.4873935182e+01   1.7583246170e+01    0.3554203    0.2572632  34.35  0.001294187    1.687    0.407
        67 -12.4288      2.7146    127.2504   1.4067228396e+02   4.8638695321e+01    0.9516233     0.285666 -72.71  0.004005507    2.766    0.639
        68  -9.6831    146.4381     81.4411   8.9354640741e+01   3.7064210739e+01    0.1486264    0.1452838  60.54 9.251181e-05    1.004    0.004
        69 -13.5457    155.3787     57.8556   8.0579369871e+01   3.8903096178e+01     1.268545    0.9425188  54.99  0.003438656    1.263    0.208
        70 -12.6284    197.2978    245.8429   1.1417706163e+02  -5.9575401337e+00    0.5259913    0.3497085  62.66  0.002701171    2.348    0.574
        71 -12.3659    171.6535     35.3125   7.1250236212e+01   3.8067713262e+01    0.4257974    0.3683085  63.18 0.0008167669    1.080    0.074
        72  -9.8891     13.4908     59.9479   1.2497919129e+02   6.2265802877e+01    0.1633752    0.1330543 -30.76 0.0004096341    1.090    0.083
        73 -15.3334    100.6204    243.8099   1.3275409300e+02   1.0707188301e+01     1.124672    0.9077552 -53.30  0.005245349    1.562    0.360
