#   1 NUMBER                 Running object number                                     
#   2 MAG_AUTO               Kron-like elliptical aperture magnitude                    [mag]
#   3 X_IMAGE                Object position along x                                    [pixel]
#   4 Y_IMAGE                Object position along y                                    [pixel]
#   5 X_WORLD                Barycenter position along world x axis                     [deg]
#   6 Y_WORLD                Barycenter position along world y axis                     [deg]
#   7 A_WORLD                Profile RMS along major axis (world units)                 [deg]
#   8 B_WORLD                Profile RMS along minor axis (world units)                 [deg]
#   9 THETA_WORLD            Position angle (CCW/world-x)                               [deg]
#  10 FWHM_WORLD             FWHM assuming a gaussian core                              [deg]
#  11 ELONGATION             A_IMAGE/B_IMAGE                                           
#  12 ELLIPTICITY            1 - B_IMAGE/A_IMAGE                                       
         1 -12.9721    248.3472    134.4484   8.6933118367e+01   4.4144651576e+00     1.479083    0.6554809 -35.44  0.006399536    2.045    0.511
         2 -14.2803    200.5477     16.7755   6.4096907004e+01   3.2864695587e+01     2.537673     1.573713  28.09   0.01044852    2.423    0.587
         3 -13.7632    205.8621     10.3796   6.1821721820e+01   3.2203806259e+01     1.580557    0.7247602  51.63  0.001550944    2.354    0.575
         4 -13.2819      4.5579      9.2049   1.1872068432e+02   7.3311981969e+01     1.479714    0.4320031 -44.39  0.007360982    2.427    0.588
         5  -9.7105    199.7626    245.7056   1.1638046604e+02  -3.0766488476e+00    0.1501781     0.119936  45.19 0.0004457136    1.327    0.246
         6  -9.9029    183.9778    250.5131   1.1985615739e+02  -1.2062928690e+00    0.1803504   0.09181327  38.93 0.0003170244    1.518    0.341
         7 -11.8613    131.9548    223.8146   1.2609376628e+02   1.1318702449e+01    0.4671732    0.3440932  83.49  0.002772784    1.661    0.398
         8 -10.6918    143.3592    249.0192   1.2701078121e+02   5.4521457137e+00    0.2601724    0.2075935  78.08  0.001083606    1.506    0.336
         9 -11.2070    149.9962    248.7023   1.2576358853e+02   4.4432643317e+00    0.4456687    0.2354245  48.37  0.002511734    1.559    0.359
        10 -11.4782    143.3824    244.7529   1.2650459731e+02   6.0827570498e+00    0.5604649    0.1426421  46.44  0.002131911    3.262    0.693
        11 -12.4654    136.0521    228.5170   1.2589422465e+02   9.8448008404e+00     0.593294    0.3464026 -51.07  0.003301664    2.088    0.521
        12 -11.3084    135.8840    241.0462   1.2745691469e+02   7.8540911566e+00    0.3331469    0.2453902  22.67  0.000474602    1.658    0.397
        13 -11.9143    134.9754    237.0638   1.2715440716e+02   8.6296687026e+00    0.3973115    0.2679089  40.04  0.001274623    1.253    0.202
        14 -10.3628    135.8005    250.6335   1.2856858698e+02   6.4046773017e+00    0.2089488    0.1870756  50.72 0.0002750633    1.175    0.149
        15 -10.9729    132.2454    248.8489   1.2901713387e+02   7.2299513931e+00    0.3479795    0.2319109  51.27  0.001539481    1.208    0.172
        16 -11.0219     98.7226    247.4066   1.3495192932e+02   1.2560873140e+01    0.5312132    0.2710957  54.00  0.003070717    1.585    0.369
        17 -11.0582     96.8202    239.9787   1.3460329675e+02   1.4080850955e+01    0.3151757    0.2590018  89.23  0.001562703    1.284    0.221
        18 -10.9641    104.5275    237.8446   1.3296467911e+02   1.3289853763e+01    0.4709598    0.2331992  39.07  0.002526195    1.791    0.442
        19 -11.2055     98.5087    231.3797   1.3344141431e+02   1.5319136297e+01    0.3548606    0.3313023 -89.24 0.0007759348    1.303    0.232
        20 -11.5413    111.7990    230.0472   1.3075987287e+02   1.3506802181e+01    0.4840195    0.3344692  50.10  0.001595525    1.159    0.137
        21 -10.4495    104.2354    229.3559   1.3213716217e+02   1.4804199196e+01    0.2916751    0.1635094  49.18  0.001165308    1.433    0.302
        22 -10.1013    122.6740    250.0590   1.3088572297e+02   8.5318656767e+00    0.3095528    0.1643597  43.16  0.001552078    1.462    0.316
        23 -12.2589    111.2612    247.7544   1.3271950523e+02   1.0636416177e+01    0.9084481    0.4123164  49.84  0.004586028    1.738    0.424
        24 -10.3016    103.6408    244.9008   1.3382547824e+02   1.2244478864e+01    0.4690394    0.2171342  70.65  0.001966796    3.773    0.735
        25 -10.3317    126.4977    248.5599   1.3003271429e+02   8.1713658345e+00    0.3519139    0.2271802  77.99  0.002068116    2.053    0.513
        26 -10.2219    121.6785    244.8554   1.3051751859e+02   9.5001249224e+00    0.3339778    0.1395532  51.10  0.001064273    2.047    0.512
        27 -12.1434    126.3864    240.7265   1.2919218627e+02   9.4195581284e+00    0.4029975    0.3427112  63.15  0.001901887    1.139    0.122
        28 -10.2875     87.6925    250.5512   1.3719259890e+02   1.3632547970e+01    0.4189546    0.1660412  38.54   0.00172144    2.268    0.559
        29  -9.9589     88.5132    247.1507   1.3675871221e+02   1.4078079860e+01     0.257496    0.1391284  38.48  0.001320043    1.723    0.420
        30 -10.7982     80.8777    245.8834   1.3801182501e+02   1.5364239549e+01    0.4869918    0.2378289  84.39  0.002474583    2.833    0.647
        31  -8.7351     74.7122    250.5957   1.3946633744e+02   1.5418667713e+01    0.2184225   0.09117767  38.65  0.001155917    2.177    0.541
        32 -11.4175     54.8151    196.8491   1.3872283881e+02   2.8139817485e+01     0.848775      0.61712 -59.27   0.00538606    1.612    0.380
        33 -14.7205     15.8919    169.2638   1.4461394729e+02   3.8272324164e+01     2.512207     1.145023 -60.37   0.01360748    2.163    0.538
        34 -14.6320     29.9392    246.2174   1.4675170119e+02   2.1699716464e+01      2.00062     1.021185  42.37   0.01330885    1.729    0.422
        35 -14.6391     50.6695    217.8488   1.4131414028e+02   2.4448338820e+01     2.170636     1.380121  32.80   0.01342084    1.888    0.470
        36  -9.6036     93.0714    244.6819   1.3572291547e+02   1.3835706847e+01    0.1641331     0.117235  53.43 0.0005536152    1.074    0.069
        37 -12.3648    248.9934    240.9874   1.0722276622e+02  -9.8481193082e+00    0.4379149     0.300719 -28.93   0.00304585    1.678    0.404
        38 -10.6897    165.4989    241.8121   1.2205010717e+02   2.9321726078e+00     0.286991    0.1617236  30.35 0.0006737092    1.733    0.423
        39  -9.5554     83.7948    242.2078   1.3718109452e+02   1.5581191686e+01    0.1416302    0.1234205  50.48 0.0008225334    1.307    0.235
        40 -10.6825    173.1902    239.7698   1.2035592110e+02   1.9649894495e+00    0.2533928    0.1931958 -53.14  0.000830398    1.733    0.423
        41 -11.0015    145.7081    240.7610   1.2558966720e+02   6.3115826183e+00     0.290712     0.134333  50.59  0.001124195    1.943    0.485
        42 -10.4831    115.8195    239.9416   1.3107686522e+02   1.1205146874e+01    0.2127759    0.1924148 -82.40  0.000719292    1.309    0.236
        43 -11.3056     90.0146    236.6908   1.3555110264e+02   1.5644201832e+01    0.4813188    0.2090122  51.22  0.002516439    1.850    0.459
        44 -10.1239     83.2703    238.3424   1.3694140276e+02   1.6323265943e+01    0.2774207    0.1285338  40.70  0.001499782    1.858    0.462
        45  -8.7714    183.2665    236.6654   1.1806302070e+02   7.4602682997e-01    0.1107499   0.08956745  64.08  0.000334331    1.587    0.370
        46 -10.5252    165.7750    235.2970   1.2112152687e+02   3.8307187164e+00     0.236613    0.2109911  32.40  0.001652299    1.123    0.110
        47 -10.3103    161.9353    232.9113   1.2151751023e+02   4.8261592849e+00    0.2363259    0.1468436  53.56 0.0008203612    1.590    0.371
        48  -9.6669     71.4482    233.5997   1.3870344637e+02   1.8803953898e+01    0.2894411    0.1637536 -51.56  0.001644506    2.561    0.609
        49 -11.6110    122.3871    232.7820   1.2904093661e+02   1.1359759704e+01    0.3555209    0.2890431  54.25  0.002111527    1.027    0.026
        50  -9.4358     77.8068    233.0420   1.3748408537e+02   1.8028843209e+01    0.2826853    0.1532038  85.93  0.001341033    2.153    0.536
        51 -11.0950    156.6929    231.7065   1.2234805532e+02   5.8875415488e+00    0.2236935    0.2041437  24.36 0.0005224067    1.189    0.159
        52 -14.7075      7.6230    210.1964   1.4874575591e+02   3.0611482138e+01     2.332134    0.8719099 -75.05   0.01313992    2.293    0.564
        53 -10.6032    141.6806    230.9470   1.2511897553e+02   8.5132118196e+00    0.2672742    0.2175223   6.81 0.0009450337    1.658    0.397
        54  -8.9533     92.4478    232.5123   1.3470012936e+02   1.6022243555e+01    0.1200003   0.09478317  59.39 4.093425e-05    1.031    0.030
        55 -10.5182    152.6471    243.7541   1.2467257666e+02   4.7389048713e+00    0.1817593     0.155514 -79.19  0.001127866    1.508    0.337
        56  -9.6624    179.6362    228.3168   1.1751894157e+02   2.5312041889e+00    0.2451377    0.1655176  73.22  0.001026717    2.730    0.634
        57 -10.9513    165.5842    227.1741   1.2001895774e+02   5.0833133846e+00    0.3270392     0.244547 -69.71  0.001549555    1.910    0.476
        58 -11.0602    161.4320    222.9933   1.2021687114e+02   6.4453611547e+00    0.4678927    0.2796941  20.79  0.001885864    2.320    0.569
        59 -10.7645     77.6641    221.0571   1.3642549877e+02   2.0255533234e+01    0.2567074    0.1672996  63.06 0.0003934081    1.291    0.225
        60 -10.5091     79.8758    227.9751   1.3664480143e+02   1.8656644584e+01    0.3184749    0.2782186 -30.91  0.002181191    1.866    0.464
        61 -10.0221     78.9458    224.5655   1.3650732495e+02   1.9417166032e+01    0.2281633    0.1735534  19.16 0.0007738785    2.058    0.514
        62  -9.1248    198.1086    227.8745   1.1401523986e+02  -4.9396499102e-01    0.1812821    0.1568732  44.85 0.0006842691    1.274    0.215
        63 -10.0654    190.8666    228.1166   1.1538987242e+02   6.7525144685e-01      0.17659    0.1486481  43.67 0.0002963452    1.207    0.172
        64  -9.5914     93.9479    217.4452   1.3286579203e+02   1.8553255542e+01    0.2779459     0.177959  82.87  0.001567887    1.729    0.422
        65 -10.6476     92.7375    226.0739   1.3400648439e+02   1.7135547921e+01    0.2781284     0.172895  52.12 0.0004343259    1.295    0.228
        66 -11.8726     98.6933    223.5884   1.3259282185e+02   1.6690266965e+01    0.4957046    0.2685363  40.87  0.001362474    1.630    0.386
        67 -11.0171    149.5967    223.0296   1.2252820722e+02   8.4700585428e+00    0.3426794     0.255992  15.79  0.001453277    1.705    0.413
        68 -11.8915    142.0974    221.6491   1.2381158427e+02   9.9788594914e+00    0.4245642    0.3666323 -55.47 0.0002006797    1.388    0.280
        69  -8.9053    219.8080    223.5688   1.0939679601e+02  -3.4590635693e+00    0.1541131    0.1021309  42.08 0.0009134159    1.443    0.307
        70 -11.3050    137.2570    214.4785   1.2379232041e+02   1.2044582510e+01    0.5448246    0.2984461  32.10  0.001445724    1.973    0.493
        71 -10.0314    110.6508    221.9594   1.3006433291e+02   1.5121037538e+01    0.2762098    0.2100166 -51.82  0.001116789    1.643    0.391
        72 -10.4241    105.1984    219.2112   1.3082655693e+02   1.6485251537e+01    0.3572148    0.1955272  69.91 0.0008491663    2.305    0.566
        73 -11.1734     70.5598    219.3439   1.3764018680e+02   2.1568635883e+01    0.4492832    0.2916217 -79.54  0.002352272    1.537    0.350
        74 -14.2554      4.4339    246.0611   1.5080688898e+02   2.4391205779e+01    0.9951196    0.4638135  88.62  0.006824919    1.776    0.437
        75 -10.3859     84.8144    229.5437   1.3585673891e+02   1.7666197282e+01    0.2248912    0.1953732   7.47 0.0009240856    1.852    0.460
        76 -10.9334    117.3576    224.3120   1.2902161325e+02   1.3626542788e+01    0.2235198    0.1866545  52.70 0.0002845804    1.058    0.055
        77  -8.4984     89.5304    218.5136   1.3385416678e+02   1.9015208762e+01    0.1250262   0.09936932  62.94 0.0008097434    1.006    0.006
        78 -13.4813     14.0035    238.9248   1.4900105114e+02   2.4674347673e+01    0.6556606    0.3193583  62.81  0.004441814    1.487    0.327
        79  -9.5084    100.8982    216.4036   1.3136353217e+02   1.7680974865e+01    0.2048639    0.1724117  25.53  0.001081729    1.525    0.344
        80  -9.1159    183.2833    214.3026   1.1465423816e+02   3.9979356868e+00    0.1261306   0.09244478  12.45            0    1.554    0.357
        81 -10.1753     88.2393    213.0544   1.3353356389e+02   2.0250368789e+01     0.224952    0.1686525  81.94 0.0006318454    1.267    0.211
        82  -9.6983    102.3042    212.2032   1.3059279860e+02   1.8255608943e+01    0.3522448    0.1729377  57.85  0.001671951    2.050    0.512
        83  -9.2104    152.1100    211.8866   1.2042562187e+02   9.9037219002e+00    0.2007556    0.1604211  60.70 0.0006612304    1.275    0.215
        84  -8.9998    131.6670    212.2861   1.2462158541e+02   1.3395632626e+01     0.133868   0.08933781  64.61 0.0001546144    1.621    0.383
        85 -10.6707     72.7246    210.1072   1.3634613172e+02   2.3065012675e+01    0.3698442    0.2256837  56.92 0.0009665767    1.377    0.274
        86 -12.4999     13.7233    248.9419   1.4947317325e+02   2.2970444154e+01    0.2645535    0.1899889  64.62 0.0009047411    1.137    0.121
        87  -9.6982     33.5286    211.4603   1.4407954503e+02   2.7709929236e+01    0.1714674     0.134412  48.08  0.000553986    1.363    0.267
        88  -9.7309    174.0168    211.2560   1.1596802593e+02   6.1148492365e+00    0.1844648    0.1517713  35.60 0.0002431989    1.038    0.037
        89 -10.6278    175.5483    205.7937   1.1477620239e+02   6.7253325127e+00    0.4360368     0.275455  19.31  0.001988859    2.028    0.507
        90  -9.9542    108.9512    207.9624   1.2871218013e+02   1.8003165244e+01    0.2920556    0.1561158 -61.76  0.001440716    2.082    0.520
        91  -9.8241    135.3930    208.1833   1.2328401300e+02   1.3495886730e+01    0.3151004    0.1969638  30.87  0.001603172    1.745    0.427
        92 -10.6387    223.3682    244.7173   1.1211206811e+02  -6.5637996398e+00    0.2138538    0.1205537  43.24  0.001024873    1.682    0.405
        93 -11.5337     92.8632    204.6365   1.3164318682e+02   2.1200983904e+01    0.5999026    0.3743528  48.86  0.001713934    1.373    0.272
        94 -11.8037    247.2271    205.6353   1.0152154751e+02  -5.5134872955e+00    0.4252564    0.2882594  16.54  0.002606668    1.330    0.248
        95  -9.3133    149.1794    204.9471   1.1996894368e+02   1.1638636401e+01    0.2931289    0.1748703 -24.15  0.001238914    3.158    0.683
        96  -9.4052    125.7874    205.7961   1.2493240839e+02   1.5599490336e+01    0.1821347    0.1352416  62.85 0.0004207891    1.300    0.231
        97 -10.9398    102.3017    202.4625   1.2940455534e+02   2.0150735007e+01    0.4990233    0.2546684  46.29  0.002227563    1.687    0.407
        98 -10.4599     98.4351    196.9929   1.2953018300e+02   2.1866772445e+01     0.588391    0.2827495  43.66    0.0024332    1.832    0.454
        99  -9.7427    166.9712    203.0526   1.1604074615e+02   8.7426407558e+00    0.1998301    0.1718217  37.53  0.000304787    1.018    0.018
       100 -10.5482    169.7400    200.1659   1.1500082350e+02   8.7269369236e+00    0.2372596    0.1986674  36.98  0.000375865    1.048    0.046
       101  -9.7545    133.1278    202.6038   1.2294448262e+02   1.4923104058e+01    0.2149483    0.1883338 -63.92 0.0004254782    1.286    0.222
       102 -10.3166    134.0363    197.6925   1.2201910173e+02   1.5690284721e+01    0.3467366    0.2147406 -71.65  0.001283574    2.165    0.538
       103 -11.1111    115.2785    200.2211   1.2636734188e+02   1.8458573080e+01    0.2743059    0.2368975 -37.62 0.0002321088    1.504    0.335
       104 -10.5575    120.0208    199.1076   1.2520485274e+02   1.7870273863e+01    0.4277613    0.2193663  58.08  0.001418547    2.137    0.532
       105  -8.9989    193.6933    245.3141   1.1740506193e+02  -2.0749763215e+00    0.1097276   0.08509824  57.46  0.000247484    1.624    0.384
       106 -10.0352    138.0923    201.6816   1.2176891539e+02   1.4216569110e+01    0.2043249    0.1933204 -59.93 0.0003079371    1.215    0.177
       107 -10.0106     64.0492    202.1692   1.3732998631e+02   2.5843941641e+01    0.2486155    0.1595436  35.16 0.0007905389    1.723    0.420
       108 -10.4098    197.0302    200.5905   1.0968302301e+02   3.6675607760e+00    0.3110088    0.2107496  49.29  0.001560286    1.513    0.339
       109 -10.0856     44.2862    199.2545   1.4107784014e+02   2.8929462450e+01     0.290045    0.1714753  43.12  0.001089919    1.595    0.373
       110  -8.9110    158.7839    199.4201   1.1711428566e+02   1.0874957605e+01    0.1889119    0.1172178  34.02 0.0003928174    1.561    0.360
       111  -9.0241     86.2614    199.2822   1.3240040759e+02   2.3283332337e+01    0.1630681    0.1412975  52.03 0.0001899343    1.187    0.158
       112  -9.5918     85.9830    195.9733   1.3206957454e+02   2.4004561481e+01    0.2256558    0.1626505 -81.46 0.0003152935    1.380    0.275
       113 -11.8957     68.9950    194.7812   1.3555195310e+02   2.6700683921e+01     0.462131    0.3756915  -5.27  0.002556072    2.155    0.536
       114 -10.3191    112.8148    193.6601   1.2597996538e+02   2.0179748951e+01    0.4458843    0.2489969 -62.76  0.001258376    1.974    0.493
       115 -10.3908     37.5698    202.9706   1.4270175947e+02   2.8949048174e+01    0.2428133    0.1594013 -84.22 0.0009794324    1.335    0.251
       116 -10.6851    248.6842    194.1252   9.9153151842e+01  -4.2657284873e+00    0.3641287    0.2003471  10.98  0.001724748    2.405    0.584
       117 -11.2908    249.7771    187.6461   9.7738295646e+01  -3.5832618112e+00    0.3911328    0.2348597 -22.63  0.002159991    1.606    0.377
       118  -9.9472    159.9772    194.2579   1.1600684252e+02   1.1576347027e+01    0.2057681     0.200615 -53.69 0.0004028618    1.161    0.138
       119 -10.5599    120.5047    192.6640   1.2416740786e+02   1.9059282937e+01    0.3517763    0.3014027 -59.84   0.00124483    1.295    0.228
       120  -9.4360    117.8058    189.9802   1.2435726719e+02   2.0068379668e+01    0.1843397    0.1475684  74.82 0.0003298917    1.257    0.204
       121  -9.0921     30.7123    195.0031   1.4346330322e+02   3.1337038768e+01    0.1601338    0.1191085  77.18 0.0004538138    1.025    0.024
       122  -9.2093     82.0594    194.2678   1.3270830547e+02   2.4943616361e+01    0.1738753    0.1374662  57.16 0.0002256161    1.111    0.100
       123  -9.1069     84.7089    192.3309   1.3190591267e+02   2.4953489730e+01    0.1939311     0.133112  27.47 0.0003275199    1.869    0.465
       124 -10.5612     38.7006    192.4468   1.4165030069e+02   3.0988908368e+01    0.2178402    0.1658417 -69.84 6.854385e-06    1.392    0.282
       125  -9.9579     26.0500    193.1032   1.4425469451e+02   3.2221141674e+01    0.2115939    0.1318962  86.38 0.0008218164    1.313    0.238
       126  -9.4913     47.6415    192.8614   1.3984350986e+02   2.9858156992e+01    0.1671899    0.1238572 -84.17  0.001088114    1.207    0.171
       127  -9.6001     20.9278    192.3849   1.4522073869e+02   3.2888774826e+01     0.255175    0.1264775  71.06  0.001451626    1.781    0.439
       128 -10.2334    191.4250    191.3965   1.0911626875e+02   6.1636865886e+00     0.239061    0.2172547  36.20  0.000586053    1.095    0.086
       129  -9.3789    135.3229    190.1291   1.2056258135e+02   1.6918386785e+01    0.1821324    0.1671095  75.67 0.0004820687    1.101    0.092
       130 -10.2447     31.5304    189.8169   1.4290604165e+02   3.2329998968e+01    0.3729947     0.222989  52.53  0.001982377    1.464    0.317
       131 -11.1249     25.7720    184.5175   1.4368215368e+02   3.4048864055e+01    0.3515012    0.2613084  74.07  0.002152943    1.062    0.059
       132  -9.6015     30.5393    183.5740   1.4261790329e+02   3.3757090041e+01    0.2475326    0.1565058  76.83 0.0007506088    1.334    0.250
       133 -11.8963     73.4484    187.6108   1.3379760102e+02   2.7595652173e+01    0.3310218    0.2650578 -61.60 0.0005860013    1.394    0.283
       134  -9.8709     77.4502    188.5901   1.3303706408e+02   2.6813751646e+01    0.1832899    0.1730317  86.98 6.609295e-05    1.235    0.190
       135  -8.9501     42.2035    189.1513   1.4064740736e+02   3.1282650413e+01    0.1681004    0.1098053  66.99 0.0006596587    1.301    0.231
       136  -9.3547    175.2283    186.5021   1.1148045046e+02   1.0069922142e+01     0.244066    0.1801676  86.88  0.001166117    2.188    0.543
       137  -8.9541    150.6242    186.8804   1.1672262775e+02   1.4701855408e+01    0.1844573    0.1317383 -66.93 0.0005374624    1.739    0.425
       138 -10.5075    140.1247    183.1553   1.1836311532e+02   1.7402702019e+01    0.2096183    0.1906403  56.06 0.0003654911    1.017    0.017
       139  -9.5552     36.8292    184.0481   1.4133459173e+02   3.2977704782e+01    0.2212247    0.1481796  43.22 0.0006084942    1.503    0.335
       140 -10.5342     54.3421    182.0121   1.3736980353e+02   3.1355176121e+01    0.2223132     0.189037  34.32 0.0004358772    1.458    0.314
       141 -12.7129    248.2274    173.0604   9.5130203726e+01  -1.3146373791e+00    0.9288822    0.4687601 -33.29  0.004580908    1.886    0.470
       142 -13.6356    245.0067    158.1615   9.2603196835e+01   1.4223380543e+00      2.17198    0.9752697 -41.87  0.009452202    2.347    0.574
       143 -12.6865    248.2294    101.6859   7.9483170951e+01   9.5417650136e+00     1.031544    0.4844965 -32.80  0.004450889    1.949    0.487
       144 -12.2824    248.3066    112.9064   8.2070871870e+01   7.7765791173e+00     1.168951    0.6410838 -12.62  0.004593918    2.870    0.652
       145 -11.9341    248.1844    142.1964   8.8662131565e+01   3.2545491525e+00    0.6353194    0.4639507 -15.78   0.00292305    1.343    0.255
       146  -9.6385    193.1089    248.9590   1.1801950447e+02  -2.4414628770e+00    0.1735451     0.143007  42.49  0.001091269    1.239    0.193
       147  -9.6908     86.0900    183.5148   1.3049228149e+02   2.6616028227e+01    0.3373822    0.1928735  30.64  0.001014309    2.121    0.529
       148  -9.5666    128.5972    179.5017   1.2030613934e+02   2.0280884599e+01    0.1396688    0.1262881  64.71 0.0001287787    1.029    0.028
       149  -9.2954     48.0495    179.5973   1.3850508612e+02   3.2651314591e+01    0.1669132    0.1099615  42.77 0.0004581395    1.516    0.340
       150 -11.4648     82.9082    175.7499   1.3018321299e+02   2.8790134131e+01    0.3559038    0.3435892  49.33  0.001126985    1.262    0.208
       151 -11.7953     68.8674    174.1381   1.3321014827e+02   3.1176409722e+01    0.5128697    0.3204768 -49.74   0.00205959    1.920    0.479
       152 -10.8538     68.9267    166.9432   1.3227770992e+02   3.2782393015e+01     0.237587    0.1928108 -72.61 0.0003345007    1.184    0.155
       153  -9.3341    114.8929    176.5337   1.2292831103e+02   2.3371235656e+01    0.2678332    0.1775584 -81.98 0.0007528792    1.876    0.467
       154  -9.1886    109.3139    176.9912   1.2428004504e+02   2.4246033111e+01    0.2189428     0.109958 -81.67 0.0007040574    4.202    0.762
       155 -10.1238     76.5913    175.2435   1.3157202758e+02   2.9836859598e+01    0.3854996    0.1934482  61.34  0.001302095    2.229    0.551
       156  -9.3968    170.1210    180.0755   1.1135124775e+02   1.2218089867e+01    0.2008466    0.1772467  15.42  0.001138431    1.185    0.156
       157 -10.0274     95.5893    172.8676   1.2682736335e+02   2.7439749955e+01    0.2480853    0.1749431  54.89 0.0004200258    1.317    0.241
       158 -10.1518     80.8354    163.8661   1.2899914122e+02   3.1762985819e+01     0.236386    0.1989185  54.48  0.001401148    1.157    0.136
       159 -11.6193     95.9344    157.2521   1.2426492635e+02   3.0883709504e+01    0.5751235    0.3169099 -62.11   0.00156437    1.817    0.450
       160  -9.6132     91.0217    172.7014   1.2787019814e+02   2.8208930707e+01    0.2613925     0.201395 -38.33 0.0009474594    1.728    0.421
       161 -11.2357    102.1317    149.6765   1.2138156014e+02   3.1563348887e+01     0.767908    0.4995755 -32.83  0.003408713    2.230    0.552
       162  -8.7537    104.4133    142.4177   1.1942092649e+02   3.2830635851e+01    0.2231422    0.2033057 -63.99 9.381208e-05    1.100    0.091
       163 -12.5295     88.2262    167.0082   1.2768942043e+02   2.9918439422e+01    0.7938402    0.6469859 -63.53  0.004614053    1.252    0.201
       164 -10.8367     90.0239    160.6091   1.2626798186e+02   3.1080952256e+01    0.3119536    0.2305154 -87.90  0.000501894    1.396    0.284
       165 -11.1233     28.6700    171.3221   1.4199428794e+02   3.6603930763e+01    0.3679785     0.252247 -73.67  0.001220679    1.305    0.234
       166  -8.9540    154.6600    172.2291   1.1319686668e+02   1.6759793393e+01    0.1822062     0.134846 -38.25 0.0003484359    1.515    0.340
       167  -8.8137    167.3129    170.2263   1.1005635634e+02   1.4620291658e+01    0.1960642    0.1326983 -53.52 0.0009321271    1.681    0.405
       168  -8.7926    100.5530    170.5127   1.2530296608e+02   2.7140817503e+01    0.1391512    0.1237709  74.12  3.10596e-05    1.006    0.006
       169 -10.6917     43.6663    168.7963   1.3838788951e+02   3.5551187709e+01    0.3648504    0.3229512  34.68  0.001901628    1.422    0.297
       170  -9.6533     48.4330    168.6048   1.3727357031e+02   3.5039238757e+01    0.2409716    0.1298813  48.10  0.001279775    1.746    0.427
       171  -9.6797     65.9472    181.9781   1.3480380321e+02   2.9850378363e+01    0.1872241    0.1613835  78.09 0.0003059185    1.068    0.064
       172  -9.3991    107.2039    168.2108   1.2336397329e+02   2.6515895972e+01    0.1948474    0.1845982  58.66 0.0004259236    1.120    0.107
       173  -9.0846     58.5187    167.4991   1.3480225465e+02   3.4043596602e+01    0.1302305    0.1085865  82.51 0.0001127143    1.003    0.003
       174  -9.2784    136.2807    165.4262   1.1605720132e+02   2.1756717145e+01    0.2291926    0.1718584 -81.80 0.0005751401    1.646    0.393
       175  -9.1176     53.8409    164.8596   1.3558739698e+02   3.5229531751e+01    0.1756902    0.1250732  82.00 0.0002932833    1.281    0.219
       176 -10.5036     46.9089    163.0601   1.3701426906e+02   3.6469329122e+01     0.236421    0.1839374  77.28  0.001489607    1.111    0.100
       177 -12.3289     61.7351    245.8074   1.4136656563e+02   1.7943718097e+01     1.175692    0.5303341  35.44  0.006381899    2.379    0.580
       178 -11.1715     73.3998    157.3047   1.2985543831e+02   3.4356046307e+01    0.4338866    0.3758977  79.50  0.002411661    1.029    0.028
       179  -9.7832     79.0173    158.9748   1.2871695474e+02   3.3151861118e+01    0.2076128     0.178822  82.52 0.0004107767    1.035    0.033
       180  -9.1228     52.4916    158.4958   1.3514257833e+02   3.6846736717e+01    0.1296068    0.1088607  87.59 0.0008105995    1.011    0.010
       181  -9.3808     47.8458    157.8715   1.3619105925e+02   3.7543301677e+01    0.1834704    0.1560758 -73.30 0.0003081983    1.172    0.147
       182  -9.5150    134.5457    155.7625   1.1459612430e+02   2.4151689043e+01     0.219891    0.1475804 -52.12 0.0004521718    1.552    0.356
       183  -9.4710    132.2440    152.2691   1.1444599245e+02   2.5362501715e+01    0.2353804     0.175063 -78.40 0.0003389988    1.630    0.386
       184  -9.3825    228.2962    155.1310   9.4833548934e+01   5.0179409596e+00    0.1976107    0.1629255 -28.01 0.0006404477    1.173    0.147
       185  -8.8146    124.6572    154.2935   1.1667761159e+02   2.6397855517e+01    0.1529501    0.1106285  74.33 0.0003123346    1.659    0.397
       186 -11.3497    113.9899    150.8547   1.1863034184e+02   2.9171037796e+01    0.3620789    0.3261833 -39.57  0.001595387    1.260    0.206
       187  -9.9007     52.9961    146.4687   1.3345472468e+02   3.9573857252e+01    0.2184907    0.1595611 -64.07 -8.742269e-05    1.274    0.215
       188 -10.5661     60.0022    150.9830   1.3229856839e+02   3.7645126290e+01    0.4008925    0.2501794  85.25  0.001049076    1.730    0.422
       189 -11.0985     56.0671    150.5039   1.3322507441e+02   3.8255181542e+01    0.4637489    0.3368945 -53.17  0.002533078    1.474    0.322
       190 -10.1393     90.2172    149.8947   1.2444459279e+02   3.3510816341e+01    0.2293275     0.201512  44.04 0.0004189981    1.206    0.171
       191 -11.1936     60.4258    137.9692   1.3026160007e+02   4.0647906652e+01     0.336931    0.2774365  64.79   0.00126959    1.201    0.167
       192 -13.1809     67.4336    144.1918   1.2938479463e+02   3.8248953701e+01    0.9786573    0.5992097  81.36  0.004102713    1.980    0.495
       193 -12.2350     73.8894    139.3306   1.2688576876e+02   3.8487108826e+01    0.7068032    0.5220298 -89.99  0.002618714    1.395    0.283
       194 -10.6582    133.1896    140.3976   1.1172422667e+02   2.7770074426e+01    0.3806274    0.3523924  71.20  0.001877832    1.064    0.060
       195 -10.7026     35.1239    148.8623   1.3825636437e+02   4.1008761087e+01    0.2589663    0.1507256  44.53 0.0009419151    1.741    0.426
       196 -11.2181     32.4414    145.7646   1.3857298320e+02   4.1992764594e+01    0.2747255     0.151511 -56.97 0.0009806157    1.753    0.430
       197  -8.7592    122.0057    148.0441   1.1609050820e+02   2.8291609350e+01    0.1728506    0.1621843  69.34 0.0009522691    1.011    0.011
       198 -10.6520    134.0000    145.0023   1.1251684836e+02   2.6595758666e+01    0.6761336    0.2114061 -52.04  0.002090175    3.473    0.712
       199 -11.7193     42.6501    237.1978   1.4410230911e+02   2.1822149078e+01    0.3386585    0.1998103  54.25 0.0002753619    1.286    0.222
       200 -12.1190      2.2599    144.8627   1.4581517906e+02   4.4737964813e+01    0.4134724    0.2080632 -74.32     0.002427    1.548    0.354
       201 -11.1331     37.1618    143.8742   1.3716222700e+02   4.1953243105e+01    0.2205714    0.1615122 -66.85 0.0003952339    1.236    0.191
       202 -13.9904     25.0327    154.3034   1.4126662800e+02   4.0754462109e+01     1.476275    0.9286439  48.00  0.009039997    1.584    0.369
       203 -11.6415     33.2119    136.9369   1.3733292212e+02   4.3965042429e+01    0.4242904    0.2168665 -41.56  0.001988015    2.702    0.630
       204 -11.0178     42.1105    140.4976   1.3546470316e+02   4.2217625618e+01    0.2379067    0.1580303  62.89  0.001340441    1.529    0.346
       205 -12.1035     18.1821    140.0683   1.4152974851e+02   4.4598939904e+01    0.3077607    0.2616143  68.51  0.001498734    1.194    0.162
       206 -11.3328     26.5600    139.3558   1.3933672307e+02   4.4032073649e+01    0.2709701    0.2057175 -34.76  0.001687518    1.767    0.434
       207  -8.5420    118.7260    138.6632   1.1497709034e+02   3.1032073733e+01    0.1454003    0.1189791 -18.17 0.0006994203    1.605    0.377
       208  -9.9913     13.3905    137.7247   1.4249709825e+02   4.5519236273e+01    0.1701536   0.08677547 -67.31 0.0009422076    1.594    0.373
       209 -10.6583    111.8553    136.1258   1.1621052284e+02   3.2917095692e+01    0.3931728    0.3006079  12.61  0.001254261    1.837    0.456
       210 -12.7065     45.6103    131.6684   1.3330885586e+02   4.3911701872e+01    0.6951967    0.4495625  67.96   0.00359332    1.683    0.406
       211 -10.6323     20.8816    133.8570   1.4018630987e+02   4.5799397790e+01    0.1799664    0.1410191 -64.50  0.000397327    1.219    0.180
       212 -11.4854      1.9903    126.1904   1.4430802658e+02   4.8939532621e+01    0.4098866    0.1139543 -80.02  0.001633943    3.212    0.689
       213  -8.7988    161.8339    129.8267   1.0246208309e+02   2.3863081346e+01    0.2074981    0.1807908 -88.68 0.0003528045    1.315    0.239
       214  -9.7071    117.6042    128.6184   1.1306580946e+02   3.3528393564e+01    0.2917798    0.1246832 -38.47 0.0009435606    3.203    0.688
       215  -9.5273    106.1566    127.9557   1.1596074939e+02   3.5856007607e+01    0.3919712    0.2213535 -64.89 0.0007793856    2.038    0.509
       216  -9.7216     33.9320    132.0000   1.3651567411e+02   4.5048288539e+01    0.1808447   0.07210282  28.44 0.0008007453    2.931    0.659
       217 -12.1070     31.4723    126.6935   1.3648316574e+02   4.6526105927e+01    0.4074602    0.2502029  31.66  0.001797752    1.883    0.469
       218 -12.8881     20.2794    121.7054   1.3892833888e+02   4.8660482594e+01    0.6108848    0.2685234 -54.43  0.003054663    2.057    0.514
       219 -10.5078    209.7641    125.7986   9.1547948305e+01   1.3823901822e+01    0.3005967    0.2501622 -27.80 0.0004988944    1.181    0.153
       220 -11.7905     38.1907    123.3702   1.3414491369e+02   4.6654890936e+01    0.5129951    0.2388647 -66.05  0.002478038    1.793    0.442
       221 -10.7260      9.1954    127.1856   1.4252870044e+02   4.8232169664e+01    0.1703776    0.1158067  78.10  0.001079153    1.357    0.263
       222  -9.1078    104.2176    180.7491   1.2601493633e+02   2.4308365991e+01    0.1625828    0.1578356  19.72  0.000366129    1.280    0.218
       223  -9.0956    234.2873    125.3456   8.7141233888e+01   8.6532778733e+00    0.1446579    0.1064686   2.85 0.0003834292    1.652    0.395
       224 -10.1965     60.4544    125.0428   1.2810534905e+02   4.3712037726e+01    0.2769212    0.1747408  41.09  0.001430365    1.685    0.406
       225 -10.1714    238.9222    121.6324   8.5530018776e+01   8.3020652107e+00     0.283987    0.1882459 -15.91  0.001358441    1.715    0.417
       226 -10.6764     55.0798    120.8997   1.2891628666e+02   4.5367584648e+01    0.2729869    0.2007111  22.01  0.001418072    1.695    0.410
       227 -11.6378      9.7218    118.4007   1.4145510633e+02   5.0203623399e+01    0.3235728    0.1637775 -46.42  0.001740888    2.149    0.535
       228  -8.4855    130.6735    119.2569   1.0744283714e+02   3.2958976307e+01    0.1529926    0.1197864  79.22 0.0002628678    1.554    0.357
       229 -11.9494     31.0938    117.4587   1.3530088944e+02   4.8726207923e+01    0.4031223    0.2669834 -46.63  0.001471807    1.579    0.367
       230 -10.1908    242.5797    179.7489   9.7417465316e+01  -1.2977833911e+00    0.1675758    0.1156553 -37.34 0.0006686604    1.544    0.352
       231 -11.6200     15.2050    114.5227   1.3946180982e+02   5.0709425209e+01    0.2780876    0.2087915 -63.29 0.0003393428    1.168    0.144
       232  -8.4488     82.2671    114.2905   1.1965722184e+02   4.3143606491e+01    0.1366678    0.1078038 -30.06 0.0001573957    1.504    0.335
       233 -11.0221     64.5148    112.6540   1.2457712859e+02   4.6119909819e+01    0.3987259    0.1785223 -44.27  0.001557485    2.464    0.594
       234  -9.2874    175.9784    179.9795   1.1010979596e+02   1.1088855942e+01    0.1676912    0.1566752  29.16 0.0003374045    1.030    0.029
       235  -9.5792    203.7911    111.4002   8.9129862386e+01   1.7741299414e+01    0.2167932    0.1379623  41.17 0.0009479558    1.672    0.402
       236 -10.5837     69.8927    111.0583   1.2263004200e+02   4.5756192703e+01    0.2065065    0.1981786  65.02  0.001256016    1.117    0.105
       237 -11.4925     56.7485    110.4926   1.2648986444e+02   4.7629592565e+01    0.4395607    0.2561914  17.33  0.001610431    2.452    0.592
       238 -11.8154     67.9888    128.4557   1.2659089107e+02   4.1898090608e+01    0.4926205    0.3667767  65.58            0    1.432    0.302
       239 -11.3562    168.1431    113.3701   9.6917768931e+01   2.5748885590e+01    0.3851208    0.3203515 -77.32 0.0006742268    1.421    0.296
       240  -9.7316    114.4980    107.0677   1.0866946754e+02   3.9005754414e+01    0.2204919    0.2022011  50.75 0.0003435338    1.109    0.098
       241 -10.4210     31.8159    110.6337   1.3405495604e+02   5.0260101361e+01    0.2082649    0.1594257  46.61 0.0007878436    1.464    0.317
       242 -11.1425     27.6354    106.4105   1.3465358266e+02   5.1614144006e+01     0.259562    0.2255681 -45.60    0.0014929    1.239    0.193
       243  -9.0374     32.7889     99.9774   1.3197238969e+02   5.2658697705e+01    0.1714815   0.08671366 -64.96 0.0002999448    1.641    0.390
       244  -9.4682     63.1670     99.6232   1.2219719240e+02   4.9355274430e+01    0.1786847    0.1331259  13.73  0.000567116    1.705    0.413
       245  -9.4246     21.8382     98.1530   1.3514137197e+02   5.3995086730e+01     0.163699    0.1188019 -51.48            0    1.264    0.209
       246  -9.1350     44.9546     90.2297   1.2605482125e+02   5.3711038287e+01    0.1500263    0.1100613  29.53 0.0004591743    1.573    0.364
       247 -10.8414    249.6960    117.9483   8.3017226378e+01   6.7125182335e+00    0.5250562     0.297351 -25.97  0.001759534    1.759    0.431
       248  -8.9785    124.0047     51.0549   8.8732545820e+01   4.7929649545e+01    0.1736423    0.1665307  -5.53            0    1.043    0.041
       249 -10.3806    169.5678    248.7411   1.2221202928e+02   1.3117340379e+00    0.2842515    0.1685416  18.27 0.0008128444    2.361    0.576
       250 -13.0915     43.8068    228.4255   1.4333361146e+02   2.3281885224e+01    0.4198527    0.3503074  68.60 0.0008067586    1.223    0.182
