#   1 NUMBER                 Running object number                                     
#   2 MAG_AUTO               Kron-like elliptical aperture magnitude                    [mag]
#   3 X_IMAGE                Object position along x                                    [pixel]
#   4 Y_IMAGE                Object position along y                                    [pixel]
#   5 X_WORLD                Barycenter position along world x axis                     [deg]
#   6 Y_WORLD                Barycenter position along world y axis                     [deg]
#   7 A_WORLD                Profile RMS along major axis (world units)                 [deg]
#   8 B_WORLD                Profile RMS along minor axis (world units)                 [deg]
#   9 THETA_WORLD            Position angle (CCW/world-x)                               [deg]
#  10 FWHM_WORLD             FWHM assuming a gaussian core                              [deg]
#  11 ELONGATION             A_IMAGE/B_IMAGE                                           
#  12 ELLIPTICITY            1 - B_IMAGE/A_IMAGE                                       
         1 -13.4805    168.3757     56.7742   6.3273354104e+01   3.5659284164e+01     2.306495     1.419682  20.55  0.006758598    2.475    0.596
         2 -13.1901    182.7915     41.2920   5.5824561553e+01   3.4204533405e+01    0.9794502    0.8463251 -41.67  0.002849738    1.162    0.139
         3 -12.7558    187.8087     34.8279   5.3069125428e+01   3.3757902257e+01    0.6495194    0.5611424 -22.48   0.00143463    1.223    0.182
         4 -11.9408    190.8794     15.3241   4.6844897146e+01   3.5260192124e+01     0.549337     0.400322 -88.15  0.002328563    1.407    0.289
         5 -13.8901    204.8634      9.9836   4.3720433647e+01   3.2242007693e+01     1.112647     1.071055  -1.32  0.003829021    1.201    0.167
         6 -12.4676    229.9293      2.4845   3.9448491350e+01   2.6843515832e+01      1.25111    0.3113175  69.06  0.004506447    3.461    0.711
         7 -11.6695    151.0358    196.0377   1.0122973032e+02   1.2504588387e+01    0.3684451     0.317955  52.88  0.002235233    1.082    0.075
         8 -13.3811    246.0731    240.2945   9.0879774142e+01  -9.5981855163e+00     1.403728    0.6901038 -23.60  0.008175244    2.189    0.543
         9 -17.9843     44.1760    239.2435   1.2608956781e+02   2.0691846410e+01     6.361901     5.403633  66.54   0.04763477    1.320    0.242
        10 -10.1267     81.8579    195.6503   1.1544499595e+02   2.4003099810e+01    0.3036795    0.2726976 -10.87  0.001973447    1.706    0.414
        11 -11.7530     68.0170    194.2614   1.1809847228e+02   2.6204865635e+01    0.3376896    0.2415209 -46.86  0.001369268    1.910    0.477
        12 -10.1006    156.7616    189.9729   9.9039286288e+01   1.2554177963e+01    0.2251917    0.1807545  41.70 0.0003355085    1.123    0.109
        13 -11.1688    150.8018    188.9413   1.0010145560e+02   1.3847049373e+01     0.341034    0.1847154 -59.81   0.00150727    2.401    0.584
        14 -11.5010    145.7938    182.2310   1.0000779830e+02   1.6046400439e+01    0.3653919    0.2565786  29.82  0.001570466    1.545    0.353
        15 -12.5826    142.6417    175.6558   9.9528764177e+01   1.7924452172e+01    0.8040303    0.6495962 -88.92     0.004341    1.476    0.323
        16 -11.0016    188.8194    176.7541   9.0021163818e+01   8.7778724349e+00    0.6943063    0.3813848 -55.21  0.002158121    2.649    0.622
        17  -9.1776     69.4963    173.0206   1.1536437555e+02   3.0515322950e+01     0.203714    0.1461977  71.06 0.0003788285    1.303    0.232
        18  -9.4232     65.5362    170.9994   1.1598988765e+02   3.1488048777e+01    0.2497319    0.1469091  46.74  0.001142285    1.638    0.390
        19  -9.8021    240.4826    169.4705   7.8780312678e+01   1.6861648337e-01    0.1356726    0.1154264   1.90 4.414663e-05    1.005    0.005
        20 -19.1296     29.9389    102.0599   1.1523190012e+02   5.1373862475e+01     16.67673    0.8857767 -65.84   0.02842785   14.684    0.932
        21 -11.4332     70.0559    209.3388   1.1920295085e+02   2.2926132715e+01    0.2426677    0.1858749 -79.37 0.0002684147    1.278    0.217
        22 -10.2323      6.8671    161.3584   1.2769194032e+02   3.9774434183e+01    0.1648654     0.155142 -75.11 0.0008386925    1.412    0.292
        23  -9.2308    116.3275    161.6326   1.0295070135e+02   2.5688557109e+01    0.2707871    0.1266449  44.13  0.001121298    2.059    0.514
        24 -11.1217     95.3153    157.0065   1.0710518097e+02   3.0276464429e+01    0.2725704    0.2559837 -83.13 0.0003978817    1.086    0.079
        25 -12.0984    100.4566    150.6406   1.0476564158e+02   3.0876966012e+01    0.6322855    0.4580817 -35.59  0.003174812    1.747    0.427
        26 -10.9605    133.8432    145.6582   9.5703343433e+01   2.5893465954e+01       1.1508    0.2889701 -54.51  0.002787502    5.824    0.828
        27  -9.9661    113.1345    151.6364   1.0187525330e+02   2.8463709633e+01    0.2654579    0.1911545 -76.76 0.0005818614    1.569    0.363
        28  -9.7434    174.8589    149.1012   8.7117677689e+01   1.6708667028e+01    0.2234694    0.2067491 -87.48 0.0005674326    1.252    0.202
        29 -10.0828    143.9076    146.7569   9.3561523707e+01   2.3643380593e+01    0.4384573    0.2078938 -59.11   0.00154259    2.850    0.649
        30  -8.8182    115.7685    144.5907   9.9863977475e+01   2.9569084815e+01    0.1961533     0.132872  54.00  0.000340777    1.528    0.345
        31 -11.2846    110.2324    137.3728   9.9775208642e+01   3.2212185538e+01    0.5687892    0.3418183 -33.64  0.002371221    2.266    0.559
        32 -11.8602     99.1387    136.5778   1.0244181771e+02   3.4329773217e+01    0.3048731    0.2787415 -48.16 0.0007281504    1.154    0.134
        33 -11.0065    105.9522    130.8457   9.9501563548e+01   3.4477362166e+01    0.3941791    0.3179413 -67.19  0.001153803    1.226    0.184
        34 -10.0376    136.3709    127.5829   9.1030061291e+01   2.9340319963e+01    0.5654491    0.1843962 -42.20  0.001730273    3.273    0.694
        35 -10.2929    116.5100    128.6538   9.6290313444e+01   3.3044306645e+01    0.3103948    0.2616178 -27.92 0.0007377816    1.357    0.263
        36 -10.0364    160.4219    127.3790   8.5239934638e+01   2.4212594511e+01    0.3709546    0.2681473 -60.86  0.001661095    1.636    0.389
        37  -9.2819    135.0000    119.9699   8.9516387185e+01   3.1296448002e+01     0.258825   0.08662833 -46.00 0.0008016946    2.937    0.660
        38 -10.4793    104.6051    124.2505   9.8416376467e+01   3.6241314676e+01       0.2844    0.2380283 -30.78 0.0006915779    1.352    0.260
        39  -9.4239    111.3985    118.0691   9.5176308559e+01   3.6423052556e+01    0.2310349    0.2047636  26.15  0.000466078    1.253    0.202
        40  -9.8600    231.2897    113.7241   6.7644910648e+01   1.0813458473e+01    0.2622462    0.2355902   0.92 0.0007300609    1.106    0.096
        41  -9.8858    168.1524    112.8208   7.9758381473e+01   2.5428937820e+01    0.3628005    0.2760888 -77.89  0.001482973    1.814    0.449
        42 -10.3723    134.5262    105.5771   8.5891926154e+01   3.4529065484e+01    0.6023189    0.1499937 -44.05  0.001626236    3.914    0.745
        43 -11.0136    118.9255    110.2176   9.1212726004e+01   3.6747539589e+01     0.581222    0.3450699  67.39  0.002134677    2.782    0.641
        44  -9.7950    205.4154    110.1731   7.1359964400e+01   1.7225679657e+01    0.3334859    0.2158041  41.03  0.001005012    1.624    0.384
        45  -9.5983     75.0778    104.0012   1.0210502862e+02   4.5752933488e+01    0.2220104    0.1603537 -28.43 0.0006336891    1.669    0.401
        46  -9.5586    128.2783     95.5339   8.4721396553e+01   3.8022913654e+01    0.2851644    0.1539355  50.25  0.001119629    1.984    0.496
        47  -9.0699    151.8410     82.1127   7.4805248148e+01   3.5354760414e+01    0.2186826    0.1869945   8.81  0.000514392    1.307    0.235
        48 -10.7522     74.2918    208.1637   1.1827801387e+02   2.2579827813e+01    0.3681345    0.2177827 -49.99  0.001555434    2.271    0.560
        49  -9.2632    167.6824    229.0276   1.0298997835e+02   4.1939010342e+00    0.1530677    0.1473777  25.17 0.0004675136    1.189    0.159
        50 -10.8533      5.6217    226.9037   1.3161038064e+02   2.6941071215e+01   0.09322312   0.07175954 -67.83 0.0005073283    1.723    0.420
        51 -12.8665     11.6729    206.0577   1.2959756158e+02   3.0225303977e+01    0.3943233    0.1669159  45.85  0.002423264    2.012    0.503
        52 -12.1699    198.7576     23.1041   4.8106134666e+01   3.2360033912e+01    0.4800827    0.3869656  24.35  0.001722241    1.493    0.330
        53 -10.9714    192.5955    194.5270   9.2648529091e+01   5.1150692148e+00    0.9571584    0.5130721 -63.37  0.003013526    5.929    0.831
