#   1 NUMBER                 Running object number                                     
#   2 MAG_AUTO               Kron-like elliptical aperture magnitude                    [mag]
#   3 X_IMAGE                Object position along x                                    [pixel]
#   4 Y_IMAGE                Object position along y                                    [pixel]
#   5 X_WORLD                Barycenter position along world x axis                     [deg]
#   6 Y_WORLD                Barycenter position along world y axis                     [deg]
#   7 A_WORLD                Profile RMS along major axis (world units)                 [deg]
#   8 B_WORLD                Profile RMS along minor axis (world units)                 [deg]
#   9 THETA_WORLD            Position angle (CCW/world-x)                               [deg]
#  10 FWHM_WORLD             FWHM assuming a gaussian core                              [deg]
#  11 ELONGATION             A_IMAGE/B_IMAGE                                           
#  12 ELLIPTICITY            1 - B_IMAGE/A_IMAGE                                       
         1 -12.5805     56.4254     36.7824   4.6835758403e+01   6.2407884636e+01     1.128729    0.3332878 -39.55  0.004084642    3.206    0.688
         2 -12.6966      3.4544     13.9234   6.2780956890e+01   7.1620777183e+01    0.8894284    0.3177468 -57.22  0.004427188    2.191    0.544
         3 -11.2663     14.7537     17.8903   5.8381361327e+01   7.0184655155e+01     0.417536    0.2790793  -7.18  0.001849408    1.595    0.373
         4 -11.5894     10.4318     10.9606   5.7900936793e+01   7.1745925566e+01    0.6199008    0.5062906  65.97  0.004284246    2.134    0.531
         5 -10.6626     82.0231     20.1479   3.0136605926e+01   6.0999507837e+01     0.588157    0.2145836 -35.01   0.00233235    2.605    0.616
         6  -9.2303     49.9008     16.3144   4.0873688422e+01   6.6816419548e+01    0.3783514    0.1886862 -39.87  0.001925203    1.823    0.451
         7  -9.6150     54.2461     13.2996   3.7556058386e+01   6.6663638486e+01     0.496589    0.2713044 -38.69   0.00261707    1.746    0.427
         8 -10.9595     60.8428     13.1544   3.4748912677e+01   6.5677255983e+01    0.6296933     0.291515 -30.87  0.002404563    1.979    0.495
         9 -11.8310     65.3023     11.8547   3.2344946943e+01   6.5133303243e+01    0.2889823    0.2000381 -26.94 0.0002928899    1.324    0.245
        10 -10.0425    121.8081     19.2757   1.8190287281e+01   5.2484703898e+01    0.4030538    0.3395141  63.63 0.0008766135    1.275    0.216
        11 -12.3867    239.7018     15.7803   3.5913958896e+02   2.2261038159e+01    0.5192131    0.3215489  20.68  0.002359768    2.502    0.600
        12 -11.7649    132.8228     17.8050   1.5072776670e+01   4.9939767322e+01    0.6158314    0.3169107 -46.98  0.002455692    2.474    0.596
        13 -10.4446    137.1276     14.9154   1.3045163183e+01   4.9169383065e+01     0.209933    0.2057885  25.81 0.0003202248    1.082    0.076
        14 -11.4215    166.5347     13.1132   7.1179286176e+00   4.1609978408e+01    0.5200772    0.2600837  76.86  0.001514073    2.250    0.556
        15 -11.3076    159.7590      8.8341   6.7146558341e+00   4.3854374645e+01    0.4108266    0.2623161  84.14  0.001105043    1.768    0.434
        16 -10.4928    154.2523      8.0183   7.3202359310e+00   4.5400220514e+01    0.2693179    0.2447665  67.36 0.0004200701    1.068    0.064
        17 -11.4988     82.1080      6.9605   2.3916797520e+01   6.2682679924e+01    0.2431514    0.1964193  23.06 0.0003375667    1.101    0.092
        18 -12.2975     75.2909     11.6993   2.8548619479e+01   6.3400270381e+01    0.7033733    0.4347129   6.57  0.002023412    1.883    0.469
        19 -10.6676    176.9014     11.5453   5.0592107016e+00   3.8979193855e+01    0.4475574    0.3108263  82.14 0.0005469973    1.487    0.327
        20 -10.1127    232.5282     13.2628   3.5915833698e+02   2.4277904430e+01    0.3479623    0.1149515 -37.81  0.001064588    2.582    0.613
        21 -12.4164    235.5597      9.6728   3.5796085725e+02   2.3912899623e+01    0.4988763    0.2707204  84.02  0.002269554    1.941    0.485
        22  -9.9435    125.1119     13.8671   1.5226504679e+01   5.2300320591e+01      0.31089     0.200952 -64.09  0.001339665    2.383    0.580
        23 -10.4948    145.7788     12.3975   1.0403736704e+01   4.7198068553e+01    0.3578949    0.2000851 -28.96  0.001589199    1.851    0.460
        24 -10.4693    145.4436      8.0465   8.8490703965e+00   4.7720268552e+01    0.3711188    0.2285126  64.24 0.0009758954    1.520    0.342
        25  -9.9449    138.8394     10.8022   1.1125698105e+01   4.9162283488e+01    0.1983427    0.1698223 -83.81  0.001063398    1.357    0.263
        26 -10.0265    119.8458     10.2717   1.4962253956e+01   5.3971711005e+01    0.2982957    0.1879314  -2.96 0.0009271267    1.781    0.438
        27 -10.1865     28.2872     10.6996   4.8414929399e+01   7.0293882681e+01    0.2414638    0.2312554 -47.36  0.001798348    1.512    0.339
        28  -9.8626    100.3879     10.1841   1.9887871432e+01   5.8492054562e+01    0.2714903    0.2130812  26.47 0.0006942542    1.162    0.139
        29 -10.1360    102.0027      7.2659   1.8129486275e+01   5.8451051342e+01    0.3189553    0.1600508 -44.07  0.001329136    2.645    0.622
        30 -10.3005     36.1959      8.0495   4.3190336750e+01   6.9853564353e+01    0.3640087    0.2108513 -27.01  0.002108448    1.486    0.327
        31  -9.8137     89.9412      8.6499   2.2240728809e+01   6.0902377401e+01    0.2516353    0.1677859  10.51  0.001294494    1.567    0.362
        32  -9.7922     14.2687      1.9922   5.1732045442e+01   7.3005727731e+01    0.1910834    0.1437031  16.05  0.001125424    1.502    0.334
        33  -9.6131     19.9542      8.2862   5.1615521935e+01   7.1480240464e+01    0.1622823    0.1298854 -36.73 0.0004710283    1.197    0.165
        34 -10.3840     16.5861      7.1176   5.2888136483e+01   7.1961593254e+01    0.3346933    0.1515203 -38.40  0.001480165    1.711    0.416
        35  -9.4741     20.0146      4.5311   4.9789561846e+01   7.2098369904e+01      0.26704    0.2233644  61.55  0.001789469    2.267    0.559
        36 -11.1552     27.6880      3.0772   4.4950266825e+01   7.1574810295e+01    0.2811593    0.2560335  73.62  0.001957786    2.055    0.513
        37 -10.4480     22.2347      1.5923   4.7093265817e+01   7.2359646636e+01    0.2725139    0.1502913  19.89  0.001345388    1.968    0.492
        38  -8.8794    114.2790      8.6850   1.5613388538e+01   5.5471355268e+01    0.1329281    0.1081384 -57.09 0.0003386896    1.571    0.363
        39 -12.3355    242.3801      3.1772   3.5577066210e+02   2.2931724548e+01    0.8310937    0.3128071  78.68   0.00334168    2.801    0.643
        40 -10.6216    223.3811      4.5006   3.5770692325e+02   2.7454007634e+01    0.3506519    0.2302661  -4.08  0.001733003    1.956    0.489
        41 -11.3297    164.6951      4.8311   4.5822644438e+00   4.2910697545e+01    0.2816062    0.2423768 -73.52 0.0003821281    1.245    0.197
        42 -11.5305    179.2211      3.7311   2.2366871244e+00   3.9108076139e+01    0.3436251    0.2433062  57.20 0.0002023349    1.304    0.233
        43 -10.0180     68.3024      5.3326   2.7934145253e+01   6.5463490520e+01     0.210236    0.1330447  33.26 0.0007123031    1.500    0.333
        44 -10.0700     58.4056      5.2732   3.1769066752e+01   6.7144345893e+01    0.2992599    0.1344791  42.18  0.001365869    2.278    0.561
        45  -9.9075    134.4604      4.4864   9.5297790771e+00   5.0896637286e+01    0.3112832    0.1310976  63.64  0.001220727    2.200    0.545
        46 -10.3263    126.1095      3.1104   1.0640402054e+01   5.3130893609e+01    0.2295543    0.2079924 -17.55 0.0007114941    1.187    0.158
        47  -9.2721    110.5838      4.7049   1.4790581167e+01   5.6743377688e+01    0.1586902   0.08681681  32.39 0.0006970171    1.856    0.461
        48 -10.5090     97.7700      3.3393   1.7484727322e+01   5.9795198569e+01    0.2741184    0.1937985   0.26 0.0007927219    1.409    0.290
        49  -9.2339     64.7041      4.2720   2.8750007906e+01   6.6221865536e+01    0.1090493    0.1003376 -45.24 0.0006013018    1.522    0.343
        50  -9.9740    119.2562      2.4840   1.1834822502e+01   5.4877909747e+01    0.4796692    0.1362526  44.22  0.001026005    3.220    0.689
        51 -10.1602     91.0634      2.1818   1.8833761729e+01   6.1363422102e+01    0.2105204     0.170091  -1.07  0.000240399    1.154    0.134
        52  -9.7628      9.6011      2.6820   5.4731451866e+01   7.3246927147e+01    0.2054043    0.1565353  58.15   0.00120208    2.606    0.616
        53 -10.4087    230.2161      1.5060   3.5633202343e+02   2.6043517303e+01    0.2256827    0.1470437  69.25 0.0006997103    1.480    0.324
        54  -9.8661    174.0015      1.6014   2.2232617944e+00   4.0702348493e+01    0.2066967    0.1624571  68.09 0.0004239604    1.163    0.140
        55 -10.5000     73.7131      1.5268   2.4034310399e+01   6.4915717795e+01     0.221635    0.1387241  46.08 0.0006412606    1.584    0.369
        56 -10.1022     34.7925      1.8419   4.0654435398e+01   7.0950650957e+01    0.1852545    0.1332165   6.15 0.0003947878    1.302    0.232
        57  -9.6784    145.3020    189.9979   5.8157478365e+01   1.5816743756e+01    0.1725897    0.1614055  44.99 0.0005394819    1.107    0.096
        58 -12.0641    247.8654    247.8837   4.8528567817e+01  -8.4492457434e+00    0.5542789    0.3263889  13.12  0.003758811    1.532    0.347
        59 -12.1242    226.2879    246.3315   5.1766496054e+01  -5.1943728668e+00    0.5080252    0.3171444   0.12  0.003356232    1.829    0.453
        60 -10.5514     91.2616    249.4827   7.4818616606e+01   1.4720044543e+01    0.1672768    0.1290176  85.36  0.000664514    1.362    0.266
        61 -11.5938     21.7788    248.6444   8.5659205050e+01   2.3115573945e+01    0.3998938    0.1277976  51.26  0.002247781    2.016    0.504
        62 -10.4901      4.9444    244.2016   8.7962823846e+01   2.5443463194e+01    0.1929045   0.09401153  76.67 0.0006213213    1.546    0.353
        63 -10.9688      8.2100    248.8459   8.7643849860e+01   2.4421683351e+01    0.2736949     0.175629  37.69  0.001718261    1.846    0.458
        64  -9.5244     13.3114    249.6751   8.6936668982e+01   2.3803131989e+01    0.1550814   0.07564985  66.93 0.0006772006    1.437    0.304
        65 -10.6280    244.7735    188.2547   3.9134262806e+01  -1.8814699177e+00     0.208395    0.1857065  42.17 0.0007924768    1.476    0.322
        66 -10.3440    225.8469    188.2207   4.2400354824e+01   1.3806747486e+00    0.1844364    0.1282081  15.97 0.0004972916    1.355    0.262
        67  -9.4211      2.3128    187.3008   8.6183491058e+01   3.5429460705e+01   0.08893431   0.06967798 -65.80 0.0003907424    1.609    0.378
        68  -9.8336     61.9725    184.5376   7.4571519622e+01   2.9777481174e+01    0.1791425    0.1383917 -88.74 0.0009711048    1.171    0.146
        69 -11.3620    249.6272    179.6804   3.6689079800e+01  -1.6790881531e+00    0.3348268    0.1363605 -36.07  0.001520275    2.698    0.629
        70  -9.7698     21.6767    178.7021   8.2102988988e+01   3.5366673945e+01    0.1637706    0.1104768  87.82 0.0005450307    1.179    0.152
        71 -11.2240      2.8594    179.7215   8.5721400032e+01   3.6821805590e+01    0.2627501    0.1863281   4.32   0.00181621    2.698    0.629
        72 -10.0207     24.4547    181.4613   8.1748277160e+01   3.4560192026e+01     0.224823    0.0976595  65.82 0.0009488281    2.123    0.529
        73 -10.0921    186.5264    193.4843   5.0594784026e+01   7.7610988968e+00     0.199297    0.1304008 -37.35 0.0007979522    1.786    0.440
        74 -12.1471     15.8406    182.3127   8.3441605766e+01   3.5203876244e+01    0.4484423    0.2079899  71.60   0.00214324    1.885    0.469
        75 -10.4297     54.0744    175.6015   7.5335156702e+01   3.2530361473e+01    0.2136355    0.1499871 -71.49 0.0007793325    1.380    0.276
        76  -9.5434    172.4494    175.4864   5.0203909803e+01   1.3225904437e+01    0.1373619    0.1208141  38.70  0.000578208    1.025    0.024
        77 -12.1078      7.7672    172.9381   8.4437569360e+01   3.7735077072e+01    0.3152665    0.2083922 -56.97  0.002026316    1.880    0.468
        78 -11.1505     17.5804    172.3291   8.2487549797e+01   3.7005894726e+01    0.3075469    0.1374808  77.38  0.001698996    2.108    0.526
        79 -10.9807      1.6923    165.7725   8.5218898857e+01   3.9637829608e+01    0.3255531    0.1104798 -82.39   0.00170555    2.398    0.583
        80 -10.0868    186.0396    166.0127   4.5666898698e+01   1.2125278299e+01    0.1753853    0.1533198  31.09  0.001014277    1.010    0.010
        81  -9.1934     93.3203    166.7467   6.5805392699e+01   2.8992206381e+01    0.1312853   0.08707087  66.26 0.0002105232    1.537    0.349
        82 -10.3097     67.6066    165.5780   7.1368489036e+01   3.2897900360e+01    0.2328908    0.1386894 -74.17 0.0007991454    1.614    0.380
        83 -10.9305      7.6842    163.6260   8.3907887390e+01   3.9595098797e+01    0.2185756    0.1820044 -18.59  0.001654655    2.013    0.503
        84  -9.8310     51.6632    160.6750   7.4349061990e+01   3.5901861502e+01    0.1123119   0.08930096 -42.67 0.0007051348    1.720    0.419
        85 -10.9762    248.3657    155.9633   3.2110444306e+01   1.5193363053e+00     0.407146    0.2214173  27.48  0.001957722    1.910    0.476
        86  -9.3708     19.8734    157.7948   8.0994054970e+01   3.9757205166e+01    0.1244125   0.08590871  35.25 0.0008435384    1.677    0.404
        87 -10.4733      2.3499    157.3029   8.4607013214e+01   4.1288293828e+01    0.1514489    0.1354662  17.30  0.001237763    1.657    0.396
        88  -9.9761    215.5450    154.3997   3.7558695241e+01   8.0360223920e+00     0.341093    0.1304937  50.79  0.001256492    2.838    0.648
        89 -10.2085    158.8036    153.6810   4.8911842524e+01   1.9772097629e+01    0.3543889    0.2105419  37.43  0.001259781    1.640    0.390
        90 -10.2895     11.1027    152.9542   8.2503222686e+01   4.1501702333e+01    0.2995037    0.1178965  49.54  0.001652648    2.301    0.565
        91 -10.0304     40.7970    151.9617   7.5878024335e+01   3.8963538277e+01    0.1715085    0.1388237 -71.83  0.000488863    1.223    0.183
        92  -9.7493    144.1810    148.0997   5.1047519551e+01   2.3776754932e+01    0.2460934    0.1825919 -34.82 0.0007758876    1.549    0.354
        93  -9.2423    177.2857    150.5889   4.4322062073e+01   1.6530998805e+01    0.1441333    0.1148919 -83.57 0.0004196807    1.813    0.448
        94  -9.8721     81.8028    150.3773   6.6110115473e+01   3.4171505173e+01    0.1752305    0.1236048  28.63 0.0009481282    1.723    0.419
        95 -11.6212     13.8298    147.6475   8.1524262631e+01   4.2390988400e+01    0.2756697    0.1503403 -88.76 0.0002431096    1.512    0.339
        96 -11.7077     17.5200    143.5230   8.0371291036e+01   4.2962853946e+01    0.3925426    0.1795227  78.30   0.00202951    2.258    0.557
        97 -10.7639     14.2835    140.2888   8.0837876742e+01   4.3915944704e+01     0.200007    0.1303454 -58.69 0.0001672204    1.587    0.370
        98 -10.3008     41.1450    146.2400   7.5195869212e+01   4.0161887192e+01    0.2156093    0.1307396  57.60 0.0006345142    1.585    0.369
        99 -10.7263      5.9936    145.3204   8.3069296163e+01   4.3486462670e+01    0.3676933     0.121747  35.73  0.001945088    2.901    0.655
       100 -10.6988    217.5548    144.9915   3.5143566338e+01   9.0559996481e+00    0.3510306    0.1676728  37.95  0.001466016    2.059    0.514
       101 -13.4928     37.6241    134.7840   7.4757954232e+01   4.3035249415e+01    0.5778798      0.32443 -74.43  0.002514147    1.525    0.344
       102 -10.0972    189.0662    139.6573   3.9494600255e+01   1.5940758124e+01    0.2277337    0.2048799 -46.67 0.0004459559    1.251    0.201
       103 -10.4332    235.9628    138.0042   3.0300136991e+01   6.3590489033e+00     0.210761    0.1887604   2.91 0.0004714854    1.048    0.046
       104  -9.5832    144.1595    136.8332   4.8713389265e+01   2.6021893167e+01    0.1989163     0.173267   7.25  0.000356046    1.336    0.252
       105 -10.8790     20.5346    135.0408   7.8918620575e+01   4.4539636311e+01    0.2426226    0.1372766 -81.49 0.0009186008    1.454    0.312
       106 -12.0530     17.4057    130.8401   7.9272317674e+01   4.5708786296e+01    0.3615589    0.2775211  14.49  0.002506533    1.833    0.454
       107  -8.8968      9.3125    136.3009   8.1653682471e+01   4.5148949395e+01    0.1059231   0.07247533 -55.33 0.0002349007    1.608    0.378
       108 -11.3682     53.1909    132.8536   7.0629190112e+01   4.1791541336e+01    0.3264154     0.283996  59.46 0.0003975706    1.183    0.155
       109 -11.2011     59.4974    131.0059   6.8758917084e+01   4.1455656187e+01    0.2553597    0.1970982 -25.51  0.001157662    1.867    0.464
       110 -12.6269     81.6627    124.9314   6.1965621839e+01   3.9828880628e+01    0.8313185    0.4718004 -58.61  0.002725886    1.656    0.396
       111 -11.8490     74.1425    128.5985   6.4586251560e+01   4.0082970477e+01    0.3641406    0.3270749   2.14  0.001361127    1.450    0.310
       112  -9.8273      4.3223    126.3356   8.2023232180e+01   4.7638067821e+01    0.1785234   0.08683585 -48.28 0.0009509049    2.458    0.593
       113 -11.6700     24.7568    127.5440   7.7137456035e+01   4.5827574819e+01     0.344667    0.1852127 -74.40  0.001591385    1.523    0.343
       114 -11.2667      4.7329    130.1848   8.2233694399e+01   4.6783319162e+01    0.1998485    0.1507464 -88.57 0.0002485311    1.002    0.002
       115 -10.7533     56.1841    126.8921   6.9006711302e+01   4.2782959820e+01    0.2243617    0.1649594 -17.56  0.001223481    2.148    0.535
       116 -10.2125    229.5161    124.9956   2.8419076377e+01   9.6022969412e+00    0.2202174    0.1340315 -30.73  0.001031739    1.592    0.372
       117  -9.7644    225.9745    123.0274   2.8571362586e+01   1.0654999022e+01    0.2543563    0.2087331  72.02  0.000645834    1.612    0.380
       118 -11.3994     47.0410    124.3412   7.1030993197e+01   4.4395741089e+01    0.2592336    0.2053506  51.02 0.0003885155    1.324    0.245
       119 -11.6536     11.0063    121.7856   7.9990547168e+01   4.8167664013e+01    0.3872453    0.2010288 -72.71  0.002014103    1.508    0.337
       120  -9.9698      7.4942    118.8954   8.0601569218e+01   4.9041103516e+01    0.1617553    0.1361711  86.56 0.0006560925    1.123    0.109
       121  -9.9390    117.3133    123.9793   5.2472142336e+01   3.4014287687e+01    0.2097791    0.1858925 -51.02 0.0008571288    1.146    0.127
       122  -9.8579    217.4333    129.4617   3.1626587852e+01   1.1490769689e+01    0.1451954    0.1317059   7.97 0.0001023533    1.006    0.006
       123 -11.1819     61.1132    121.8091   6.6909237685e+01   4.3337879651e+01     0.293064    0.1923016 -57.66 0.0006210615    1.410    0.291
       124 -11.4620     69.5715    121.4803   6.4578818604e+01   4.2320113212e+01     0.370893    0.2397849  29.44   0.00159606    1.831    0.454
       125 -10.4996     65.1797    119.7761   6.5472025005e+01   4.3286094975e+01    0.2227535    0.1911494  30.62 0.0004569494    1.362    0.266
       126 -11.5844     22.3753    120.2473   7.6944975762e+01   4.7644035888e+01     0.493982    0.2508171 -38.87  0.002461609    2.903    0.656
       127 -11.1532      2.0243    118.4390   8.1928622554e+01   4.9491832210e+01    0.2547786    0.1744794 -78.55  0.001077288    1.123    0.109
       128 -10.9917    249.3603    117.2901   2.3338542599e+01   6.6159514358e+00    0.3216235    0.1844315 -17.25  0.001045837    1.833    0.454
       129 -10.2746     98.0432    117.5492   5.6130939511e+01   3.8885428477e+01     0.257036    0.1932039  27.50   0.00131825    1.559    0.359
       130 -12.1633     24.7112     99.6253   7.3699295320e+01   5.2087270137e+01    0.5053945    0.3237697 -87.77  0.003008652    1.492    0.330
       131 -11.8929     15.9338     97.0317   7.5902985164e+01   5.3317971266e+01    0.6700478    0.3005791 -70.36  0.003377132    1.741    0.426
       132 -12.3441     13.9471    110.0240   7.8027034289e+01   5.0555370882e+01    0.4035653    0.2663752 -72.70 0.0004904019    1.195    0.163
       133  -9.8684     85.9284    116.1632   5.9129568973e+01   4.1163040121e+01    0.2016821    0.1752224  84.39 0.0002562288    1.164    0.141
       134 -10.7853     71.1657    115.1612   6.3004253583e+01   4.3543626186e+01    0.2944716    0.2077743  51.87  0.001608551    1.495    0.331
       135 -10.9711    182.2558    114.7079   3.4948986623e+01   2.1889128244e+01    0.5036423    0.2404281  42.31  0.001551402    2.092    0.522
       136  -9.3655    107.3021    113.6851   5.2794860653e+01   3.8117447796e+01    0.1462536     0.112013  83.92 0.0003459985    1.616    0.381
       137 -10.5994     75.6249    112.3711   6.1226026995e+01   4.3557417546e+01    0.2285282    0.2229149 -46.79 0.0005395217    1.145    0.126
       138  -9.7482     29.2037    112.4567   7.4187844081e+01   4.8817812130e+01    0.2032023    0.1197025 -77.37 0.0005409485    1.452    0.311
       139  -9.2622    101.5048    111.3872   5.3840378362e+01   3.9661043628e+01      0.13953    0.1348327  86.81 0.0007995534    1.026    0.026
       140 -11.9773     61.8356     99.5652   6.2655407798e+01   4.8332543590e+01    0.5739301    0.2462744 -50.61  0.002507433    2.120    0.528
       141 -11.4355     55.2345    109.6470   6.6483582960e+01   4.6823336998e+01    0.2588513    0.2347972 -68.55 0.0006175092    1.078    0.072
       142 -10.7305     62.9392    106.9316   6.3779814724e+01   4.6508170469e+01    0.2154723    0.1912497 -69.61 0.0002964267    1.014    0.014
       143 -11.1759     58.9893    106.0098   6.4748629162e+01   4.7209204519e+01    0.2426007    0.2244687  88.24            0    1.089    0.082
       144 -11.6524     31.4203    107.1763   7.2851143784e+01   4.9818706128e+01    0.4276063    0.2897131  79.83  0.002561622    1.527    0.345
       145  -9.9912      3.3395    107.7050   8.0618087493e+01   5.1752986695e+01    0.2026327     0.138397  84.62  0.000580739    1.270    0.213
       146 -10.3521      4.0170    105.0000   8.0169362385e+01   5.2306884922e+01    0.2722404    0.1608923  25.55  0.001511014    2.120    0.528
       147  -8.9647     82.3711    106.7015   5.8146599228e+01   4.3852371641e+01    0.1439973    0.1034117  74.89  0.000702975    1.740    0.425
       148 -12.0984     50.9362    103.8872   6.6706956987e+01   4.8631928153e+01    0.3064317    0.2728837 -48.69 0.0008819834    1.188    0.158
       149 -10.8302     74.9905    104.0176   5.9698914131e+01   4.5551074447e+01    0.4273392    0.1603961 -50.29  0.001468893    2.460    0.594
       150 -10.8650     76.9874     97.5093   5.7678497899e+01   4.6739404650e+01    0.4469799    0.2761208 -31.72  0.001447402    2.128    0.530
       151 -10.8196     37.7212    103.0215   7.0419704860e+01   5.0188373998e+01    0.3338066    0.2052251  58.76  0.001840795    1.880    0.468
       152 -10.8136    110.5558    101.6265   4.9015004641e+01   4.0154875924e+01    0.5252846    0.2566742  61.20  0.001402194    3.700    0.730
       153  -9.4915      9.6666     98.9371   7.7943370182e+01   5.3304021949e+01    0.1603488   0.08589907 -85.19 0.0003678409    1.653    0.395
       154  -9.5051    226.1214     98.1502   2.2415168526e+01   1.4445495267e+01    0.1881455    0.1721841 -66.04 0.0003278452    1.279    0.218
       155  -9.3277     86.1241     98.2814   5.5152819451e+01   4.5168299965e+01    0.2355533    0.1483674 -19.32 0.0009491873    2.801    0.643
       156  -9.4475     81.9484     97.4928   5.6198872295e+01   4.5998465037e+01    0.1823802    0.1390515  36.84  0.000341761    1.423    0.297
       157 -10.1777     52.2088     93.6503   6.4387369350e+01   5.0829972970e+01    0.2090421    0.1771205  87.76  0.000269084    1.227    0.185
       158 -11.8583     57.5988     90.2863   6.2007836112e+01   5.0967621460e+01    0.6192029    0.3486472 -31.72 0.0007222159    2.465    0.594
       159 -10.7944     65.2040     85.0655   5.8404543665e+01   5.1187566977e+01    0.3283267    0.2238187 -64.38 0.0009778281    1.421    0.297
       160 -10.2563     27.0158     94.0161   7.2177135014e+01   5.3171728008e+01    0.2000597    0.1476861 -80.69 0.0003199324    1.202    0.168
       161 -11.1613     23.3736     90.3035   7.2709289524e+01   5.4294473746e+01    0.2710438    0.2037046   1.91  0.001755137    1.793    0.442
       162 -10.4033    226.2184     93.0993   2.1107243433e+01   1.5194633952e+01    0.2519848    0.2166062  64.22 0.0004063047    1.302    0.232
       163  -9.8612    101.9797     95.4705   4.9850004435e+01   4.3090353741e+01    0.2065596     0.123034  64.15  0.000809598    2.533    0.605
       164  -9.9760     31.8096     92.5575   7.0479585825e+01   5.3102782840e+01    0.1865727    0.1429184 -87.37 0.0003009176    1.264    0.209
       165 -10.7110     35.9866     90.7291   6.8870728647e+01   5.3147498088e+01     0.341379    0.1988324  72.18  0.001688744    2.382    0.580
       166 -11.4467     10.7031     91.0361   7.6661333682e+01   5.4997701346e+01    0.2197829    0.1753779  52.36  0.000463114    1.444    0.308
       167 -11.2773     19.6976    109.1260   7.6364680644e+01   5.0336817225e+01      0.29286    0.2250732 -46.65  0.001275159    1.446    0.309
       168  -9.8652    231.5233     91.4835   1.9838657957e+01   1.4220532506e+01    0.1456341    0.1356876 -10.25 1.777512e-05    1.003    0.003
       169 -11.6751    107.5578     84.8835   4.5364785466e+01   4.4322673149e+01    0.4070825    0.2883622  67.65 0.0004858415    1.899    0.474
       170 -10.7849    105.8222     91.3051   4.7647443505e+01   4.3284117414e+01    0.2771245    0.2122852  45.79  0.001399276    1.356    0.263
       171 -11.1069     96.6164     89.7277   4.9903207753e+01   4.5303772895e+01    0.3715992    0.3637762  52.36  0.001746957    1.075    0.069
       172  -9.6060    177.3210     89.1046   2.9140369324e+01   2.7674924769e+01    0.2155275    0.1940451 -26.09 0.0004268702    1.117    0.104
       173  -9.2526     73.9619     89.0482   5.6607292490e+01   4.9085456453e+01     0.161806    0.1416234 -56.19            0    1.039    0.037
       174  -9.5829     83.1707     88.5668   5.3646437376e+01   4.7804314349e+01     0.177415    0.1361819  16.05 0.0003782541    1.611    0.379
       175  -9.7715     46.6099     87.7501   6.4950494854e+01   5.2782191037e+01    0.1767103     0.109678 -72.85 0.0003959428    1.586    0.370
       176 -12.1461     16.4042    115.4661   7.7971734321e+01   4.9169795168e+01     0.315052    0.2690662  86.50 0.0007060154    1.117    0.105
       177 -10.6954     29.5331     85.4828   6.9974663098e+01   5.4895510580e+01      0.20278     0.153036  36.16 0.0007551252    1.568    0.362
       178 -10.6667     30.2955     81.5905   6.9019967637e+01   5.5709357592e+01    0.2768039    0.1898409 -60.06   0.00088558    1.184    0.155
       179 -10.2636    117.1146     83.2015   4.2158328885e+01   4.2765130447e+01    0.2339348    0.2072251  -4.43 0.0007761766    1.231    0.188
       180 -10.6562     43.0123     82.9911   6.5131241627e+01   5.4228723532e+01    0.2618465     0.226498   3.64  0.001426214    1.407    0.289
       181  -9.8951     40.7818     79.7836   6.5193884070e+01   5.5171328760e+01    0.2419514    0.1489881  38.75  0.001237057    1.878    0.468
       182 -12.8929     88.4002     77.4226   4.8996708475e+01   4.9381009255e+01    0.3978851    0.3413215 -28.70 0.0004505428    1.171    0.146
       183 -10.8751     76.6336     81.9938   5.3980564855e+01   5.0261973484e+01    0.3515436    0.1958605  42.27  0.001640324    1.966    0.491
       184 -10.0851      7.5288     80.8625   7.6258217448e+01   5.7442747200e+01    0.2897641    0.1198701 -57.71  0.001393618    1.835    0.455
       185 -10.8188     49.4336     78.1840   6.1945730537e+01   5.4635451940e+01    0.4675436    0.3876675 -74.68  0.002909868    1.212    0.175
       186 -10.1809     54.0546     75.0000   5.9620262002e+01   5.4820684209e+01    0.2269272    0.1561579  44.23 0.0006720698    1.695    0.410
       187 -11.0667     58.1167     73.2185   5.7783240465e+01   5.4725442868e+01    0.3229138    0.2277824 -16.17  0.001194731    1.830    0.454
       188  -9.7225     65.0449     79.4292   5.7062278174e+01   5.2466061972e+01    0.1813561    0.1339864  31.46 0.0003489359    1.526    0.345
       189 -10.0528    203.4606     77.9074   2.0915422694e+01   2.3038253001e+01    0.2162111    0.2023536  43.80 0.0003857827    1.072    0.068
       190  -9.7562    112.5130     78.1798   4.1967720117e+01   4.4734286219e+01    0.2713203     0.189611   2.91 0.0009689811    2.154    0.536
       191 -14.2669     16.7501     67.8679   7.1043113780e+01   5.9763296107e+01    0.7494169     0.495373 -76.53  0.001505138    1.390    0.280
       192 -10.9015      6.5446     68.0133   7.4633525450e+01   6.0324448384e+01    0.2205346    0.1649982 -78.64 0.0006620456    1.188    0.158
       193 -11.5891      2.6570     63.6742   7.5283698583e+01   6.1461522407e+01    0.5125037    0.2340168 -69.44  0.002024207    1.665    0.399
       194 -13.1429     13.0840     47.3409   6.8076756956e+01   6.4418171692e+01     0.503676    0.3915955 -18.54 0.0008130378    1.427    0.299
       195 -11.9784     11.9592     55.6725   7.0379584150e+01   6.2709374154e+01    0.8104383    0.2034594 -54.22  0.002993325    2.561    0.610
       196 -12.5723      4.6030     50.9454   7.2251812900e+01   6.4107304696e+01    0.7849148    0.4577315 -71.75  0.004859214    1.462    0.316
       197 -10.4448      6.7721     41.3496   6.9261959452e+01   6.6019227135e+01    0.3339237    0.1820299 -43.14  0.001317056    1.514    0.339
       198 -11.6991    167.8073     73.4836   2.6599101020e+01   3.2787349063e+01    0.4080381    0.2678005 -43.67 0.0003336376    1.584    0.369
       199  -9.1859    149.4703     77.5371   3.2013782045e+01   3.6596545602e+01    0.1583919    0.1484702  14.34 0.0001955213    1.075    0.069
       200  -9.8354     76.9825     76.7952   5.2462540868e+01   5.1346745429e+01     0.209752    0.1682102  85.14 -0.0006383859    1.629    0.386
       201  -9.7485     75.3235     74.3380   5.2316827294e+01   5.2129111414e+01     0.286607     0.168237 -30.93 0.0009287195    2.060    0.515
       202 -10.2020     99.3150     75.7026   4.5118683165e+01   4.7808755625e+01    0.2656152    0.2297206 -70.71   0.00142296    1.322    0.244
       203 -10.2714     37.9883     75.7663   6.5275594804e+01   5.6337696170e+01    0.2808661    0.1676667 -24.16  0.001426735    2.292    0.564
       204  -8.9822    234.6710     74.7117   1.5038978664e+01   1.5951264276e+01    0.1473314    0.1080578  21.62  0.000701425    1.617    0.382
       205  -9.7453     44.7322     74.5818   6.2703913933e+01   5.5939315673e+01    0.1553236    0.1183404  46.30 0.0008100818    1.552    0.356
       206 -10.4952      6.4207     73.5668   7.5550759543e+01   5.9112584687e+01    0.2490192    0.1659183   7.97  0.001373781    1.999    0.500
       207  -9.4748    206.8200     73.2272   1.9025064534e+01   2.2929317890e+01    0.2013128    0.1704669  11.58 0.0003341658    1.287    0.223
       208 -11.6560    104.0384     69.7742   4.1856340404e+01   4.8121766704e+01     0.648796    0.5421889 -62.06  0.001460562    1.355    0.262
       209 -11.3158     92.7262     68.3021   4.4883359042e+01   5.0537054347e+01    0.5490208    0.3904859 -32.56  0.002137322    1.407    0.289
       210  -8.9149    175.6674     70.2954   2.3986494353e+01   3.1328539145e+01    0.1589933    0.1237112 -73.68 0.0003834018    1.640    0.390
       211 -12.2177     45.7716     60.8988   5.8872040310e+01   5.8823835054e+01     1.013022    0.4101085  23.30 0.0004711903    3.258    0.693
       212 -11.6720     50.3495     68.2971   5.9198300145e+01   5.6720367800e+01    0.2939919    0.2201574 -43.43 0.0004393586    1.189    0.159
       213 -11.1735     51.3652     63.7947   5.7626694053e+01   5.7581068892e+01    0.3943531    0.2313233 -32.84    0.0010893    1.865    0.464
       214 -10.0259     43.4486     67.2759   6.1390314141e+01   5.7684029309e+01    0.3395455    0.1967149 -78.97  0.001586084    2.425    0.588
       215 -11.2293    122.4984     67.3374   3.5740633132e+01   4.4756715225e+01    0.3713554    0.3105744  87.96  0.001656064    1.550    0.355
       216  -9.0604    199.3428     68.2939   1.8918806070e+01   2.5580278586e+01    0.1610438    0.1152173  25.52 0.0005592564    1.660    0.398
       217 -11.7962    147.0749     65.6690   2.8865326899e+01   3.9319335748e+01     0.321061    0.2620459 -46.80  0.000964461    1.293    0.226
       218 -10.3506    133.7789     67.2359   3.2689523920e+01   4.2218299103e+01    0.4269957    0.2244781  30.23  0.001409533    2.708    0.631
       219  -9.5887     76.7658     67.8019   4.9931027225e+01   5.3303950426e+01    0.1834977     0.161921 -83.77 0.0006975769    1.368    0.269
       220 -12.7685     30.2476     63.2953   6.5213310182e+01   5.9774954364e+01    0.4269331    0.3545426 -59.01  0.001163212    1.055    0.052
       221 -10.8420    109.9014     63.9427   3.8212760103e+01   4.8091190470e+01    0.5220034    0.3064417 -59.09  0.002063247    2.437    0.590
       222 -10.5773    159.6271     64.6179   2.5636802995e+01   3.6368875323e+01     0.259397    0.2501548 -17.62  0.000175181    1.043    0.041
       223  -9.3102     85.6990     65.3190   4.6201467550e+01   5.2372364018e+01    0.1366536    0.1126456 -83.43 0.0004962785    1.622    0.384
       224 -10.5620     81.4456     64.9399   4.7485507928e+01   5.3157418903e+01    0.2460779    0.2009934  22.93  0.000530678    1.333    0.250
       225 -10.6609    209.9692     63.1359   1.5672668919e+01   2.3655945136e+01    0.2381885    0.2093468 -31.06 0.0003372644    1.116    0.104
       226  -9.9292    186.9380     64.4638   2.0035608937e+01   2.9365727807e+01    0.2329216    0.1525263  59.18 0.0004877967    1.539    0.350
       227  -9.5023    179.6971     63.9950   2.1272876749e+01   3.1315424742e+01    0.2156866    0.1938461 -30.18 0.0003851722    1.120    0.107
       228 -11.1870    202.0959     62.3144   1.6726538706e+01   2.5783362821e+01    0.3249103    0.2308515 -20.16  0.001501082    1.491    0.329
       229 -10.7797    155.5094     62.6320   2.5922912290e+01   3.7743706897e+01    0.3519867    0.2454931  12.92  0.001476826    1.908    0.476
       230 -10.1052     69.9663     62.9451   5.0770466969e+01   5.5341189963e+01    0.1960304    0.1636172 -84.81 0.0004962141    1.560    0.359
       231  -9.8349    123.7752     61.1928   3.3349954990e+01   4.5612949673e+01    0.2731971    0.2014232   7.78 0.0009757963    1.710    0.415
       232 -10.5831    119.2912     60.8963   3.4489778213e+01   4.6664012848e+01    0.3075545    0.2485062 -31.91 0.0002708708    1.214    0.177
       233 -11.6349    115.2273     55.5294   3.3788897461e+01   4.8526060216e+01    0.5128888     0.290809  42.97 0.0005391506    1.780    0.438
       234 -10.4142    152.0384     59.7366   2.5772395380e+01   3.9102330539e+01    0.4735442    0.2727866  28.76 0.0009050773    2.343    0.573
       235 -10.1908     90.0495     61.0403   4.3391748834e+01   5.2477993873e+01    0.2116891    0.1979375 -35.49 0.0003742113    1.064    0.060
       236 -10.1876    128.5005     58.3623   3.1117265828e+01   4.5040989912e+01     0.520938    0.2051785  39.46  0.001696945    2.993    0.666
       237 -11.2741    135.4788     58.1549   2.9238412931e+01   4.3435373827e+01    0.6966487    0.4618197 -75.80  0.002043055    2.745    0.636
       238 -11.0823    133.5650     50.6614   2.7135951181e+01   4.5155724019e+01    0.6380808    0.3617052 -64.09  0.002082984    3.654    0.726
       239 -10.0906    170.8280     57.3619   2.0969082425e+01   3.4667449079e+01    0.3615518    0.2338938  83.04  0.001423863    2.217    0.549
       240  -9.5299    162.6770     58.6858   2.3079100941e+01   3.6567734294e+01    0.1643706     0.118416  22.32 0.0003690733    1.660    0.398
       241  -9.5103     93.4861     57.9996   4.1255416009e+01   5.2448968035e+01    0.2324951    0.1903684  71.06 0.0007311212    1.637    0.389
       242 -10.3436     89.4986     55.4827   4.1682265741e+01   5.3661958643e+01     0.275978    0.2314248   1.06  0.000723203    1.260    0.206
       243 -11.2269     89.2001     51.6120   4.0414544215e+01   5.4450799709e+01    0.4204021    0.2446899 -18.97  0.001731558    2.389    0.581
       244  -9.3061    193.5041     62.5151   1.8264543445e+01   2.7967088659e+01     0.152157    0.1496311  19.16 5.122821e-05    1.008    0.008
       245  -9.3333     38.6418     58.0830   6.0772220803e+01   6.0151190231e+01    0.1831723   0.08960639 -47.81 0.0004433671    1.679    0.404
       246  -9.4069     78.4893     47.4725   4.2567206546e+01   5.7091628971e+01    0.1834472    0.1304447  25.09 1.184369e-05    1.532    0.347
       247 -11.0179     79.5895     56.7499   4.5443299784e+01   5.5117725856e+01    0.5261495    0.3159152 -12.83  0.002131495    2.773    0.639
       248 -10.2009     82.4789     50.9826   4.2451412466e+01   5.5755170571e+01    0.3677684    0.2478833  -5.85  0.001559918    1.998    0.499
       249 -10.1659     82.4983     47.5221   4.1191361315e+01   5.6402057834e+01    0.2676305    0.1368356  40.42 0.0009173671    2.076    0.518
       250  -9.3123    176.9985     56.0226   1.9336224353e+01   3.3262685160e+01    0.1867317    0.1796398  46.53 0.0004705027    1.021    0.021
       251 -10.3805    145.7923     54.1716   2.5368782568e+01   4.1584437251e+01    0.3396994    0.2091867  33.59  0.000489858    1.847    0.458
       252 -10.2984    149.5904     52.1092   2.3792810343e+01   4.0962536184e+01     0.352571    0.2840604 -73.54  0.001671861    1.564    0.361
       253 -11.3360    104.7001     52.4811   3.5809434201e+01   5.1295572551e+01     0.297076    0.2760774 -55.01 0.0007874913    1.217    0.178
       254 -11.9109     38.8545     50.3622   5.8508488630e+01   6.1760269938e+01    0.5525246    0.4438911 -27.45  0.002968572    1.203    0.169
       255 -10.4703     50.5841     42.9380   5.1431718020e+01   6.1978234919e+01    0.4012034    0.2269223 -53.71  0.002051708    1.727    0.421
       256 -11.6901     54.6970     48.7884   5.1816067305e+01   6.0309879588e+01    0.4546998    0.2641059  30.88 0.0005199895    1.939    0.484
       257 -10.1629     83.7441    248.4451   7.5971881344e+01   1.5878828015e+01    0.1956013    0.0716721  46.13 0.0004741193    1.943    0.485
       258 -11.5167     45.3176     44.8071   5.4181693873e+01   6.2218901105e+01    0.5564193    0.3528868 -70.51  0.002032235    2.280    0.561
       259 -10.6533     44.9682     38.3411   5.2094196421e+01   6.3532531558e+01     0.317762    0.1952513 -50.15 -0.000430966    1.469    0.319
       260  -9.6069     62.4518     52.9788   5.0284054932e+01   5.8448729345e+01     0.199886     0.117783 -47.87 0.0005504257    1.514    0.339
       261  -9.2649    159.9964     51.9538   2.1456637097e+01   3.8322804270e+01     0.180784      0.17449  -5.83 0.0003184561    1.042    0.040
       262 -10.5855    126.8184     51.0381   2.9012045690e+01   4.6691635824e+01    0.3387825    0.2521705 -34.15  0.001640079    1.339    0.253
       263  -9.7345     73.3882     49.9389   4.5262848440e+01   5.7445471851e+01    0.3139748    0.1205097 -44.86  0.001237146    2.375    0.579
       264 -10.8419    182.3196     49.0146   1.6163064083e+01   3.2901890655e+01    0.4856695    0.3088605  86.41   0.00194942    2.175    0.540
       265 -10.4815    141.6965     48.9631   2.4549141510e+01   4.3441002505e+01    0.2509776    0.2195145  58.45 0.0002254486    1.177    0.150
       266 -10.6853    163.6670     45.5012   1.8564764996e+01   3.8335592614e+01    0.5688818    0.2303364 -35.95  0.002021947    2.426    0.588
       267 -10.2575     62.2852     47.3767   4.8440591782e+01   5.9586172151e+01     0.168232    0.1241571  43.37 0.0004151571    1.616    0.381
       268 -10.0570    104.1068     46.4523   3.3784243329e+01   5.2482388973e+01    0.2100954    0.1417464  46.12 0.0004302789    1.523    0.343
       269 -10.9243    142.0379     45.3542   2.3205291847e+01   4.3918052916e+01     0.327688    0.1942499  63.72  0.001349808    1.889    0.471
       270  -9.8541    112.2320     45.2131   3.0916659930e+01   5.0963876378e+01    0.2180401    0.1870889   5.90 0.0004949675    1.171    0.146
       271 -10.5366    108.9701     41.0209   3.0278356910e+01   5.2361727033e+01    0.4872054    0.2921458  69.82  0.001895419    2.842    0.648
       272  -9.7864    115.5204     42.5340   2.8978223810e+01   5.0674721817e+01    0.2364483    0.1891487  30.42 0.0007400683    1.241    0.194
       273  -9.9828    120.9555     41.4718   2.7086818209e+01   4.9606054129e+01     0.259927    0.1854715  56.97 0.0006494438    1.494    0.331
       274 -10.1492    117.4955     39.5020   2.7282529836e+01   5.0707734603e+01    0.2637467    0.2411584 -24.63 0.0009346282    1.108    0.097
       275 -10.6832    188.8231     43.7402   1.3410728617e+01   3.1919660763e+01    0.3486449    0.2276428 -55.37  0.001413663    1.772    0.436
       276 -11.4601     96.7111     42.0466   3.4412511229e+01   5.4735378646e+01    0.4365984    0.3030777   3.61  0.001238666    1.798    0.444
       277 -10.8644     72.4359     42.5203   4.2895989811e+01   5.8997471348e+01    0.3388148    0.2425893 -50.63  0.001090874    1.509    0.337
       278  -9.8165    130.8031     42.0256   2.4733250723e+01   4.7191765406e+01    0.3325971    0.1713386 -30.57  0.001341418    1.960    0.490
       279 -11.6944     61.7619     41.6621   4.6580934418e+01   6.0759175856e+01    0.3060191      0.28207   3.64  0.001969798    1.151    0.131
       280  -9.5876     34.4863     43.6419   5.8230291463e+01   6.3562005810e+01    0.1203195    0.1007794 -38.20  0.000164157    1.043    0.041
       281 -10.4682     89.4796     41.4125   3.6518051862e+01   5.6239748954e+01    0.2718299    0.2472019  64.16 0.0005189354    1.383    0.277
       282  -5.3723     23.6097     41.3926   6.2115634986e+01   6.4943936814e+01    0.5717112    0.3562961 -87.25  0.002335549    2.762    0.638
       283 -12.6690     27.6826     37.6155   5.9207957247e+01   6.5382236131e+01    0.2571091    0.2090649 -45.22   0.00035579    1.065    0.061
       284 -11.0505     24.2485     34.9905   5.9871591501e+01   6.6186876942e+01    0.2545693    0.1631606 -38.75 0.0004242422    1.285    0.222
       285 -11.9940     84.1288     36.6426   3.6445951099e+01   5.8043266550e+01    0.7603855     0.414282 -17.86    0.0027167    2.490    0.598
       286 -12.1062     74.8148     35.1896   3.9159150809e+01   5.9916808371e+01     0.535775    0.4305951 -53.34  0.001386271    1.517    0.341
       287 -11.7286     65.4464     36.7582   4.3290758405e+01   6.1128043286e+01    0.3259335    0.2304295  40.86 0.0002698049    1.616    0.381
       288 -10.4425    234.1641     39.6441   5.8943369635e+00   2.0813491504e+01    0.4158802    0.2151438  80.97  0.001073031    2.462    0.594
       289 -10.5558    226.2504     39.8963   6.9175182230e+00   2.2731922065e+01    0.2553302    0.2265125 -48.46 0.0009058175    1.082    0.076
       290 -10.7266    148.0501     39.6641   1.9838887997e+01   4.3237856249e+01    0.3129533    0.2171659 -30.50 0.0004357702    1.467    0.318
       291  -9.3921    142.2572     40.3137   2.1365950975e+01   4.4617790364e+01    0.1525106    0.1133564  17.98            0    1.530    0.347
       292 -11.4488    247.9590     36.3957   3.5296948144e+00   1.7927482965e+01    0.2845671    0.2388297  41.39 0.0003202736    1.354    0.261
       293  -9.6025    154.8670     37.8138   1.7746366882e+01   4.1733886624e+01    0.2124246    0.1755877 -56.18 0.0007427724    1.366    0.268
       294 -10.3063    201.9300     37.1925   9.4089988124e+00   2.9320884147e+01    0.2227867    0.1913083 -68.11 0.0004324753    1.215    0.177
       295  -9.4308    157.0224     48.0783   2.0797809580e+01   3.9685205761e+01    0.1888027    0.1671029 -23.30  0.000484839    1.151    0.131
       296 -10.2542     92.5665     35.5260   3.3174170830e+01   5.6634911416e+01    0.3215325    0.2150274 -10.51  0.001150515    1.720    0.419
       297 -10.4156    193.8024     34.9189   9.9266340136e+00   3.1761122468e+01    0.4295402    0.1968456 -41.44  0.001653281    2.205    0.547
       298 -10.4910    129.3006     35.9166   2.2842353787e+01   4.8465185108e+01    0.2573693    0.2005332  41.55 0.0002621581    1.229    0.186
       299 -10.3008     97.4343     36.1672   3.1875638541e+01   5.5561860289e+01     0.226491    0.1934812  34.70 0.0003316009    1.174    0.148
       300 -10.4767     98.8294     32.7953   3.0079559607e+01   5.5806512884e+01    0.5057136    0.2570704  58.20  0.002037291    2.572    0.611
       301 -10.0645    241.0223     34.4450   3.7701090796e+00   1.9799517147e+01    0.2106985    0.1742946 -35.55 0.0003439354    1.141    0.124
       302  -9.3661    145.5933     35.1804   1.8781149417e+01   4.4497878355e+01    0.2146057    0.1445002  -7.49  0.000940263    1.753    0.429
       303 -11.4680    111.2307     34.7271   2.7179482428e+01   5.2849885662e+01    0.3019635    0.2425694  42.27  0.000848079    1.221    0.181
       304 -10.3003      3.4194     33.6518   6.8811152539e+01   6.7764670831e+01    0.2685604    0.1710169 -83.16  0.001652071    1.904    0.475
       305  -9.8663     33.9589     33.5225   5.5079415301e+01   6.5621031356e+01    0.2057204    0.1446963 -53.67 0.0009386297    1.352    0.260
       306  -9.7054    109.8974    250.1541   7.1790231462e+01   1.2033065099e+01    0.1696769    0.1102936  57.83 0.0006081266    1.233    0.189
       307 -10.5361     11.0283     24.2980   6.2512652712e+01   6.9215359815e+01    0.3347399    0.1403516 -32.37  0.001388299    2.372    0.578
       308 -11.3653      7.1697     28.8161   6.5761979019e+01   6.8549395813e+01    0.5924916    0.2653768 -76.60  0.002396047    3.793    0.736
       309 -10.6309      6.4196     25.1843   6.5027097093e+01   6.9306843470e+01    0.2065725    0.1756487 -75.33  0.000287023    1.414    0.293
       310 -12.4428     74.7255    239.8728   7.6834800243e+01   1.8365067162e+01    0.5448461    0.3636039 -60.31  0.003958833    1.967    0.491
       311  -9.3229    102.3081    243.3365   7.2473338903e+01   1.4095843312e+01   0.09558593   0.08112328  23.02 0.0004660361    1.678    0.404
       312  -9.5154    117.5340     33.2564   2.4861057323e+01   5.1638261803e+01    0.3487685    0.1366973  35.74  0.001095077    3.502    0.714
       313 -10.4785     19.5310     31.0150   6.0709453630e+01   6.7332961006e+01    0.2714351    0.1960523 -15.28 0.0007119756    1.441    0.306
       314 -10.0187     15.7252     31.6617   6.2659297103e+01   6.7470311460e+01    0.2478234   0.08603577 -49.46 0.0009619313    2.042    0.510
       315 -10.0449    163.0911     28.9690   1.3104523535e+01   4.0727295037e+01    0.4020262    0.2021357  -9.16  0.001433592    2.832    0.647
       316 -11.0874    196.6667     27.9687   7.4089928551e+00   3.1856589168e+01    0.5903153    0.2465476  76.38  0.001995228    3.033    0.670
       317  -9.9300    101.7353     28.7996   2.7552761896e+01   5.5795799466e+01    0.2680673    0.1905953 -47.78  0.001328823    1.691    0.409
       318 -10.1518     80.0563     27.7690   3.4180219333e+01   6.0225651794e+01     0.319965    0.1793846 -27.59   0.00152084    1.729    0.422
       319  -9.1536     49.1583     29.1833   4.6829759176e+01   6.4739843592e+01    0.1637307    0.1445981 -51.33  0.001060143    1.368    0.269
       320 -10.2299     12.1582     29.2400   6.3556783921e+01   6.8178585649e+01    0.1670761    0.1186888 -38.20 0.0004391703    1.150    0.131
       321 -12.0165    231.8711     26.6824   2.7334809691e+00   2.2944041132e+01    0.4729042    0.2693505  79.96  0.001834833    1.924    0.480
       322 -11.3489    119.4175     26.7760   2.1803673182e+01   5.2103291783e+01    0.6309547    0.3573065  54.86  0.002524935    1.741    0.426
       323 -10.6339    112.2713     26.9269   2.3763028440e+01   5.3739066018e+01    0.2960596    0.2540177  32.01  0.001034514    1.095    0.087
       324 -10.2040     61.1339     27.7676   4.1299719099e+01   6.3342683671e+01    0.2754762    0.1600349 -33.77  0.001201271    1.535    0.348
       325 -12.1260    216.3905     25.4820   4.1505673118e+00   2.6984467881e+01     0.410348     0.293494  63.36  0.002094225    1.371    0.271
       326 -11.0160    176.3699     26.3366   9.9460960496e+00   3.7490492241e+01    0.3705083    0.2580778 -55.15 0.0009160475    1.619    0.382
       327 -10.0824     16.1950     26.6722   6.0824985950e+01   6.8418415434e+01    0.1850133    0.1260979 -55.34 0.0003312085    1.285    0.222
       328  -9.1444     51.4402     26.4977   4.4749144615e+01   6.4919300842e+01    0.1290434       0.1055 -22.04 0.0002032535    1.011    0.011
       329 -10.4057    160.1140     24.3689   1.2063706974e+01   4.2080627044e+01     0.343094    0.2224409 -25.01  0.000939651    1.609    0.379
       330 -10.2851    155.9655     21.7941   1.1919693487e+01   4.3484879721e+01    0.2530699    0.2283636  45.94 0.0006734514    1.042    0.040
       331  -9.3120    155.2865     17.7007   1.0593170049e+01   4.4127535757e+01    0.2105628    0.1623328  31.78 0.0002983382    1.330    0.248
       332  -9.9663    161.5425     20.0616   1.0319299006e+01   4.2198705873e+01    0.2656926    0.2038636  10.20 0.0006522989    1.476    0.323
       333 -10.0119    165.0155     17.2219   8.7584577167e+00   4.1583180520e+01    0.3176106    0.1048788  52.31  0.001037308    2.634    0.620
       334 -11.7057    128.8616     24.1091   1.8425971094e+01   5.0170243437e+01    0.3123822    0.2551276  -9.55 0.0003122606    1.250    0.200
       335  -9.9004    127.4137     19.4882   1.6947853821e+01   5.1091826848e+01    0.2383239     0.217404  59.03 0.0007310383    1.146    0.128
       336  -9.6697     90.2492     25.4005   2.9704000610e+01   5.8652787048e+01    0.2566521    0.1264492  44.81  0.001129195    2.010    0.502
       337 -10.4709     21.5260     24.0239   5.7343281691e+01   6.8529389139e+01    0.2883171    0.1855487  13.91  0.001277458    1.782    0.439
       338 -10.4793     89.0021    240.9789   7.4526224030e+01   1.6297996924e+01    0.1434395    0.1300298  19.12  0.001130448    1.701    0.412
       339 -10.3333    195.6900    238.4556   5.5787301366e+01   3.3667401150e-01    0.2198618    0.1703566  32.90  0.000918733    1.055    0.052
       340 -10.0817     59.5211     21.4723   3.9189971247e+01   6.4618724679e+01    0.2337628    0.1232598  37.75  0.001114396    2.024    0.506
       341 -10.8464     35.1092    237.8871   8.3142239738e+01   2.3399558646e+01    0.2028876   0.09087895  56.69  0.001357623    1.599    0.375
       342 -10.0126     53.9602     23.0276   4.2187331198e+01   6.5168251128e+01    0.1944172    0.1602226 -20.66  0.000462544    1.029    0.028
       343 -10.9846     55.8443     19.1129   3.9632268793e+01   6.5536470386e+01    0.2610138    0.1882889 -21.93  0.001035115    1.203    0.169
       344 -11.2137     30.8739    234.7013   8.3653053747e+01   2.4368179018e+01    0.2578817    0.1366948  73.25   0.00103808    1.508    0.337
       345  -9.9054     40.5380    237.5163   8.2263077324e+01   2.2861591092e+01    0.1028828   0.07014252  64.86 0.0001206676    1.012    0.012
       346 -12.0808     34.2562     22.6791   5.0789018765e+01   6.7614913351e+01    0.2559465    0.1898488 -25.22 0.0001995764    1.137    0.120
       347 -10.3092     24.4830     19.9955   5.4358252522e+01   6.9030145853e+01    0.2230118    0.1549181 -40.59 0.0006573344    1.142    0.125
       348 -11.8668     28.8424     19.7596   5.2145458012e+01   6.8675365876e+01    0.2967158    0.1978173  -9.40  0.000343825    1.574    0.365
       349 -10.8311     32.4547     15.2756   4.8455097089e+01   6.9096331842e+01    0.2654618    0.1988365  -0.04  0.001011006    1.319    0.242
       350 -11.6156    249.0715     20.8676   3.5955872241e+02   1.9480145686e+01    0.2786379    0.2300771 -53.81 0.0003440717    1.099    0.090
       351 -10.5623    224.6230     21.5201   2.1351728215e+00   2.5342751210e+01    0.2348177    0.2277935  13.07 0.0004146885    1.147    0.128
       352 -10.9029     69.6001     21.6382   3.5301490375e+01   6.2993308064e+01    0.2724215    0.2222079  53.35 0.0009343919    1.620    0.383
       353 -10.5216    193.3335     20.8377   5.7094634928e+00   3.3571848206e+01    0.2607998    0.2114856  52.32 0.0001983657    1.214    0.176
       354  -9.0423     18.3054    237.3380   8.5724139493e+01   2.5236503063e+01   0.07898311   0.06946237 -77.92 0.0002880358    1.675    0.403
       355  -9.5063    102.7138     21.6473   2.4254290489e+01   5.6579694241e+01    0.1493705     0.100446  14.68 0.0002844781    1.665    0.400
       356  -9.9794     46.3832     20.5953   4.4380083382e+01   6.6581866420e+01    0.2028691    0.1547926  63.01  0.001128035    2.430    0.589
       357  -9.5489    191.1365    236.1478   5.6256105937e+01   1.3299122633e+00    0.1753077    0.1255555  26.49 0.0006432941    1.217    0.178
       358 -10.9866    160.7509    234.2883   6.1336002217e+01   6.4595440483e+00    0.3036021    0.2588072 -33.24  0.002234851    1.545    0.353
       359 -10.1451     67.5600    236.0855   7.7761219372e+01   1.9879040789e+01    0.2080327    0.1294547  42.51  0.001455402    1.469    0.319
       360 -10.2298    169.5832     17.2634   8.0366598280e+00   4.0351531421e+01    0.2551887    0.1950353  -3.74 0.0009371678    1.478    0.323
       361 -10.9768    183.0059    234.1597   5.7400864800e+01   2.8779556853e+00    0.2761417    0.2061421  43.18  0.001144877    1.144    0.126
       362 -11.5830    185.0150    227.9458   5.6194255378e+01   3.3222932079e+00    0.4145992    0.2589273  15.01  0.002324712    2.085    0.520
       363 -10.0383     59.6868    241.0104   7.9385265368e+01   2.0073960856e+01    0.1467704    0.1072961  65.57  0.001168635    1.060    0.056
       364 -10.0144    140.6738     17.6384   1.3357295113e+01   4.7958919385e+01    0.2445788    0.1543258  32.03  0.001029509    1.687    0.407
       365  -9.8943    108.8042     16.6948   2.0435851470e+01   5.5847644964e+01    0.2098667    0.1705892  26.56 0.0006200658    1.139    0.122
       366 -10.1125     54.5277    232.0967   7.9668477970e+01   2.2125175061e+01    0.1838051    0.1056943  60.58  0.001101067    1.304    0.233
       367  -9.9185     76.6924     15.9014   3.0047426480e+01   6.2582184327e+01    0.1893499    0.1541586   3.72 0.0001890938    1.094    0.086
       368  -9.5622      3.6245    237.7542   8.7944745547e+01   2.6576539432e+01    0.1247464   0.06174941  79.52 0.0006074665    1.547    0.354
       369 -10.1463    217.0941     16.0862   1.4636025623e+00   2.7857079831e+01    0.5218252   0.09746274  59.64  0.001573308    4.006    0.750
       370  -9.5317    193.2405     16.3641   4.3624071435e+00   3.4087745787e+01    0.1997741    0.1321063  83.63 0.0002686942    1.587    0.370
       371  -9.5564     98.9857     15.4635   2.2647107786e+01   5.8178057107e+01    0.2145667     0.168573 -12.18  0.000691134    1.227    0.185
       372  -9.6508    173.7261     15.6631   6.8664050218e+00   3.9407847592e+01     0.231901    0.1247648  -7.28   0.00082781    2.415    0.586
       373 -10.8383     39.6193    229.3029   8.1963576951e+01   2.4303981952e+01    0.2284248    0.1099824  64.11  0.001054542    1.648    0.393
       374 -10.6206    248.5343    228.5054   4.5466651657e+01  -6.7764532722e+00    0.2066751    0.1027753 -25.63  0.001222711    2.216    0.549
       375  -9.4555     59.0537    229.4803   7.8737588024e+01   2.2008668875e+01    0.1555893   0.08196617  45.57 0.0005715778    1.529    0.346
       376 -10.0493    191.6565    226.2058   5.4771230121e+01   2.4447047376e+00    0.2192819    0.1473958 -27.06   0.00137953    1.866    0.464
       377 -10.2309      4.0111    225.8092   8.7473853766e+01   2.8477341575e+01    0.1445147    0.1277756  51.60  0.001262379    1.600    0.375
       378  -9.4970     11.3091    224.3264   8.6278843816e+01   2.8047114179e+01   0.08127952   0.06915516 -73.68  0.000541142    1.657    0.396
       379  -9.8880     46.1595    244.5369   8.1751245777e+01   2.1117104086e+01    0.1964996   0.06401697  45.47  0.001136869    2.145    0.534
       380  -9.2187     41.4000     19.4975   4.6131946365e+01   6.7378888634e+01    0.1250846   0.09808987 -24.08 0.0001455171    1.026    0.025
       381 -10.0662     16.2862    222.0902   8.5391820178e+01   2.7945843183e+01    0.1401901   0.09304732  74.70 0.0005769796    1.093    0.085
       382  -9.8805    123.6475    221.7134   6.6550395955e+01   1.4218178423e+01    0.1724636   0.09767818  25.53 0.0006194681    2.692    0.629
       383  -8.7768    107.6691     10.3045   1.7974617259e+01   5.6840877063e+01    0.1338133    0.1096495 -64.40 0.0005674858    1.656    0.396
       384 -11.5335     48.7964    218.4306   7.9755068719e+01   2.5103903053e+01    0.4167503    0.2151815  33.64  0.002514225    2.247    0.555
       385  -9.6849    211.8114    218.8247   5.0111923622e+01   7.7780220943e-03     0.154896    0.1298995  42.49 0.0007130989    1.323    0.244
       386  -9.4349    136.1861    216.9589   6.3657339274e+01   1.2956681749e+01    0.1839204    0.1131836  58.09  0.001049738    1.583    0.368
       387 -10.0417     38.4712    216.9998   8.1444487458e+01   2.6522447068e+01    0.1392556   0.08529136 -87.59 0.0003124517    1.466    0.318
       388 -10.6844     14.8944    215.4964   8.5322782349e+01   2.9209179539e+01    0.2112111    0.1083254  57.28 0.0006263328    1.435    0.303
       389 -11.8382     11.5435    209.9804   8.5627728356e+01   3.0488750911e+01    0.3366855    0.1790452  66.91  0.001356741    1.394    0.283
       390 -11.3367      3.4178    205.0938   8.6770336267e+01   3.2085966063e+01    0.2560739    0.1910682  52.14  0.002162801    1.356    0.262
       391 -11.5527      7.4702    216.1049   8.6557037800e+01   2.9799105562e+01    0.2293082    0.1707289  67.25  0.001973602    1.153    0.133
       392 -11.9046      5.1526    211.3689   8.6740841301e+01   3.0828384328e+01    0.3976754    0.1684734 -79.38  0.002607108    2.043    0.511
       393 -11.0077     29.5493    215.1197   8.2857184720e+01   2.7808008170e+01    0.2149825     0.165145  41.19  0.001473575    1.539    0.350
       394  -9.9938     23.8814    216.1150   8.3863776723e+01   2.8217313286e+01    0.1616662   0.09485544  67.24  0.000420858    1.259    0.205
       395 -10.1816     19.8287    212.4322   8.4357782767e+01   2.9264953364e+01    0.1995133    0.1503335 -78.68  0.001626235    1.447    0.309
       396 -10.6272    155.6221     13.8959   9.1827716313e+00   4.4446728889e+01    0.2517484    0.1835672  51.53 0.0004296712    1.261    0.207
       397  -9.5956    110.3924    211.8190   6.7917032114e+01   1.7892950246e+01    0.1462485    0.1105043 -49.70 0.0009436997    1.717    0.418
       398 -10.1411    217.1714    209.4907   4.7665358633e+01   2.2907847079e-01    0.2074328    0.1636239 -15.83  0.000945382    1.383    0.277
       399 -10.0457     72.5108    208.7875   7.4750223496e+01   2.3858304484e+01    0.1961844    0.1329989  21.43  0.001144478    2.415    0.586
       400 -12.2440     20.1141    201.9977   8.3771028972e+01   3.1104082255e+01    0.5500193    0.2191496 -62.20  0.003137581    2.806    0.644
       401  -9.9190    148.0363    205.8423   5.9936526818e+01   1.2722961436e+01    0.2423107    0.1603903  29.05  0.001354812    1.620    0.383
       402 -11.1874     27.9498    205.5313   8.2593812503e+01   2.9679403712e+01    0.1955713    0.1195538  83.13 0.0005950024    1.330    0.248
       403  -9.8993     67.6079    203.1186   7.5173174499e+01   2.5525929919e+01    0.2015091    0.1211769  53.41 0.0005763994    1.351    0.260
       404 -10.4261    175.1531    202.0577   5.4166095928e+01   8.5491351497e+00    0.2167563    0.1549323  39.36 0.0004015542    1.150    0.130
       405  -9.2469    238.3721    200.8055   4.2503596732e+01  -2.2798927495e+00    0.1560976    0.1029834  -9.88 0.0003648242    1.547    0.354
       406  -9.0716    120.3157    200.3428   6.4621105715e+01   1.8291255430e+01    0.1158449   0.09708422   6.97 0.0007048173    1.711    0.416
       407 -10.5225     41.0400    198.0520   7.9752589640e+01   2.9658567082e+01    0.2975713    0.1364688  83.63  0.001328518    2.271    0.560
       408  -9.9879    134.8905    196.3724   6.1188975818e+01   1.6542896118e+01     0.188337    0.1650859 -88.85 0.0005200049    1.273    0.214
       409  -9.2475     56.4822    197.4807   7.6804869637e+01   2.7969947523e+01     0.113556   0.08905247  70.36 0.0004053553    1.028    0.027
       410  -9.0579    215.3028    194.3376   4.5396129901e+01   2.4530271080e+00     0.133046   0.08626596  13.72 0.0005858592    1.668    0.400
       411 -12.2747     15.8727    191.9086   8.3979647727e+01   3.3373202791e+01    0.3398427     0.311978 -71.20  0.002639731    1.547    0.353
       412  -9.5746     60.6559    192.1566   7.5539992938e+01   2.8464588270e+01    0.2057988    0.1329455  32.49   0.00126115    1.837    0.456
