#   1 NUMBER                 Running object number                                     
#   2 MAG_AUTO               Kron-like elliptical aperture magnitude                    [mag]
#   3 X_IMAGE                Object position along x                                    [pixel]
#   4 Y_IMAGE                Object position along y                                    [pixel]
#   5 X_WORLD                Barycenter position along world x axis                     [deg]
#   6 Y_WORLD                Barycenter position along world y axis                     [deg]
#   7 A_WORLD                Profile RMS along major axis (world units)                 [deg]
#   8 B_WORLD                Profile RMS along minor axis (world units)                 [deg]
#   9 THETA_WORLD            Position angle (CCW/world-x)                               [deg]
#  10 FWHM_WORLD             FWHM assuming a gaussian core                              [deg]
#  11 ELONGATION             A_IMAGE/B_IMAGE                                           
#  12 ELLIPTICITY            1 - B_IMAGE/A_IMAGE                                       
         1 -14.8206    163.7992     41.3639   2.9013791366e+02   6.3685448322e+00   0.06277746    0.0459858 -48.64  0.003749897    1.428    0.300
         2 -14.4973    177.9175      8.8363   2.8978431910e+02   6.6651003487e+00   0.05052275   0.04815118  -1.61  0.003751375    1.057    0.054
         3 -13.2385    192.4790      3.7132   2.8957459338e+02   6.6409191107e+00   0.03698466   0.01220113  38.67  0.002724038    2.757    0.637
         4 -10.2547    150.6008    245.4619   2.9141046975e+02   4.0714100821e+00  0.006703092  0.006384131  26.34 0.0001543949    1.020    0.020
         5 -19.9001     73.7442    169.7230   2.9195909725e+02   5.3908907186e+00    0.9011266    0.4059223 -68.54    0.0746794    2.510    0.602
         6 -10.7686    139.1560    200.8109   2.9131143672e+02   4.6561136485e+00   0.01226727  0.009115729  81.23 0.0007586394    1.641    0.391
         7 -10.8234     21.9175    243.1333   2.9300162822e+02   4.8312905155e+00   0.01223145  0.008887887 -65.15  0.001299635    1.467    0.319
         8 -11.9434    119.0104    240.4872   2.9177713157e+02   4.3095518672e+00    0.0155604  0.009383914 -69.92  0.001493311    1.845    0.458
         9 -10.7836      8.0000    239.9935   2.9315824890e+02   4.9468042950e+00  0.009163374  0.003941818 -65.24 0.0007322986    2.478    0.596
        10 -10.5786    139.3666    249.9747   2.9157480022e+02   4.0830533059e+00  0.009230956  0.008566072 -55.75 0.0005458023    1.140    0.123
        11 -11.3062     36.3610    186.4633   2.9251609422e+02   5.4087786920e+00   0.01567166   0.01074946   2.63 0.0006805758    1.636    0.389
        12 -10.9692     26.0007    184.7385   2.9263608891e+02   5.4877086240e+00   0.01062824  0.008477367  14.27 0.0002775714    1.229    0.187
        13 -12.3718     30.5287    183.1962   2.9257125517e+02   5.4799375615e+00    0.0198712   0.01342762  31.79  0.000761763    1.367    0.268
        14 -11.9517    153.5668    185.4766   2.9104872344e+02   4.7521275991e+00   0.01259878   0.01166986  25.08  0.001514483    1.012    0.012
        15 -10.8940    120.6683    183.3408   2.9144735223e+02   4.9648935517e+00   0.01538544  0.009199871  52.87  0.001291463    1.896    0.472
        16 -11.5110    117.1996    180.4157   2.9147477552e+02   5.0187196232e+00   0.02029315   0.01028976  48.42  0.001604383    2.178    0.541
        17 -10.8097    108.5458    182.4361   2.9159365468e+02   5.0445962499e+00   0.01124844   0.01036004  27.70 0.0002326795    1.022    0.021
        18 -11.4267      3.7991    179.7013   2.9288604509e+02   5.6723338181e+00   0.01471784   0.01171695  26.77  0.001031522    1.172    0.147
        19 -13.3905    195.6950    170.3730   2.9044177105e+02   4.6867117723e+00   0.02997011   0.02120116 -77.30   0.00180257    1.625    0.385
        20 -11.8771    193.9727    165.1955   2.9043511426e+02   4.7567638853e+00   0.01715756   0.01434658   7.69  0.001303779    1.200    0.167
        21 -14.0810    143.8045    168.3018   2.9107733119e+02   5.0076721345e+00   0.04614884   0.02237697  36.45  0.004089978    1.888    0.470
        22 -13.1262    137.9768    171.4741   2.9116720441e+02   5.0040783208e+00   0.03163648   0.01429258  33.16  0.002591139    1.975    0.494
        23 -10.4655     11.1835    174.2207   2.9276431386e+02   5.6942247210e+00  0.009520778  0.008597721 -25.33 0.0005075526    1.155    0.135
        24 -11.4792    126.1010    171.9447   2.9131786728e+02   5.0664403014e+00   0.01470424   0.01027602 -67.40 0.0009488896    1.546    0.353
        25 -12.2767    177.2063    170.0291   2.9067028849e+02   4.7965542804e+00   0.01542667  0.009571873 -75.96  0.001478173    1.903    0.474
        26 -11.7231    140.6949    174.3036   2.9114864461e+02   4.9556386424e+00   0.01416866   0.01043564  36.02 0.0006282942    1.276    0.217
        27 -11.5156     25.2497    225.2168   2.9286363270e+02   5.0208852110e+00   0.01673481  0.009121509 -50.24  0.001294571    1.898    0.473
        28 -11.3760    201.2772    164.3056   2.9033927592e+02   4.7252703897e+00   0.02338447   0.01396713 -69.77  0.002242711    1.865    0.464
        29 -11.5183    122.5531    165.7533   2.9132857614e+02   5.1587171536e+00   0.02002985   0.00862151  42.83 0.0007719023    2.332    0.571
        30 -10.7588     25.8595    164.6843   2.9252963007e+02   5.7218826464e+00   0.01655496  0.009665329  -4.94  0.001419375    2.348    0.574
        31 -10.8492    222.4611    161.7036   2.9006128675e+02   4.6341140033e+00   0.01187926   0.00935496  78.67 0.0008372458    1.493    0.330
        32 -11.7368    130.2573    161.4251   2.9120901324e+02   5.1650592419e+00   0.01501966  0.008990943  52.27 0.0006722295    1.876    0.467
        33 -12.5070    122.0463    157.3025   2.9128910058e+02   5.2599067375e+00   0.02033524   0.01362738  47.94  0.001262794    1.543    0.352
        34 -12.8534    163.6303    155.7853   2.9076221607e+02   5.0398554975e+00   0.02144181   0.01610823  63.17  0.001393029    1.522    0.343
        35 -11.7569     22.8191    154.9480   2.9251502540e+02   5.8524430725e+00   0.02134604   0.01394461 -70.69  0.002147006    1.698    0.411
        36 -14.3835    133.8618    145.5303   2.9107785428e+02   5.3293249967e+00   0.07296776   0.02557173 -76.18  0.004230664    5.398    0.815
        37 -10.9072    219.3463    224.1841   2.9043930089e+02   3.9257718707e+00  0.009158783  0.006528197 -83.24  0.000423816    1.671    0.401
        38 -13.9989    143.7676    144.0513   2.9094625287e+02   5.2899017824e+00   0.04538468   0.02235406 -85.33  0.003393267    3.364    0.703
        39 -11.5191    174.4354    148.9221   2.9059024217e+02   5.0578166340e+00   0.01377243   0.01086783  43.28 0.0008173333    1.245    0.197
        40 -11.0101     23.6616    214.5193   2.9282581976e+02   5.1544029060e+00   0.01953933  0.008330101 -45.44  0.001557518    2.597    0.615
        41 -11.5867      5.1993    137.8823   2.9264295574e+02   6.1510128538e+00   0.01614446   0.01208747 -87.37 0.0008309335    1.582    0.368
        42  99.0000    102.1615    208.0659   2.9181192183e+02   4.7828242974e+00   0.02765924   0.01527211  42.75  0.002566692    1.789    0.441
        43 -14.1326    135.7293    128.0981   2.9095996214e+02   5.5213614414e+00   0.06400727   0.01888552 -70.67  0.003817366    4.918    0.797
        44 -12.3739    116.0962    212.0751   2.9165986193e+02   4.6567074993e+00   0.01679604   0.01471012 -82.05  0.001838853    1.258    0.205
        45 -12.4479    110.5605    212.0534   2.9172875931e+02   4.6885358628e+00   0.02192374   0.01132872  53.47  0.001339815    2.376    0.579
        46 -12.4721    108.7516    208.0184   2.9172949371e+02   4.7457969993e+00   0.01512242   0.01345793  22.97 0.0007998434    1.055    0.052
        47 -12.3835    160.6510    128.0737   2.9064890228e+02   5.3790957719e+00     0.017644   0.01543027  56.10  0.001808266    1.196    0.164
        48 -11.3441    125.0476    243.5287   2.9171834372e+02   4.2397339302e+00  0.009423881  0.008148586 -61.78 0.0009833426    1.227    0.185
        49 -12.1447    140.1450    120.7945   2.9086520714e+02   5.5810342849e+00    0.0120906   0.01092689  38.18 0.0008214448    1.072    0.067
        50 -13.2043     11.7586    205.9685   2.9292824677e+02   5.3214808851e+00   0.03094587   0.01681187  15.52  0.002219612    1.951    0.487
        51 -12.5096    161.4649    197.5485   2.9101571252e+02   4.5665830669e+00   0.01789768   0.01377621  76.24  0.001644925    1.543    0.352
        52 -10.8339    167.6083    112.6231   2.9047815993e+02   5.5188658384e+00   0.01471034   0.00860061  56.03  0.001329595    2.061    0.515
        53 -12.2354    163.8205    203.0800   2.9101633626e+02   4.4887873857e+00   0.01732204    0.0126732  49.78 0.0003720992    1.419    0.295
        54 -12.2225    157.6532    201.7658   2.9108606593e+02   4.5393235328e+00   0.02893841   0.01504474  53.97   0.00190701    2.382    0.580
        55 -10.8673    205.3096    110.2308   2.8999504152e+02   5.3305919849e+00   0.01465008  0.009439205  17.13  0.001001587    1.551    0.355
        56 -10.9704     10.2915    101.7444   2.9238403259e+02   6.5424936277e+00   0.01249255  0.009987233  50.97  0.001038351    1.294    0.227
        57 -11.4034    154.4638    195.9520   2.9109431404e+02   4.6251693768e+00     0.021489   0.01074417  54.02  0.001749599    2.545    0.607
        58 -10.4384    144.5108     80.4759   2.9059161531e+02   6.0247025663e+00  0.006834764  0.006400226  23.49 5.194232e-05    1.001    0.001
        59 -14.4020    152.3592     56.3515   2.9036236731e+02   6.2600412738e+00   0.05848897   0.04387166  19.74  0.000944206    1.278    0.218
        60 -11.9750    168.9067    202.3928   2.9094923740e+02   4.4677000647e+00   0.01126805  0.009565334  84.77 0.0006326605    1.332    0.249
        61 -12.9424    167.8272     33.3900   2.9004417582e+02   6.4380283495e+00   0.01966898   0.01680062 -45.66  0.000807489    1.228    0.185
        62 -10.9075     13.4220     59.8782   2.9211826002e+02   7.0114860996e+00   0.01154239  0.008667623  36.17  0.000442815    1.256    0.204
        63 -10.4603    142.6756     33.1747   2.9035711261e+02   6.5846548095e+00   0.01214929  0.008248345  36.74 0.0007730306    1.382    0.277
        64 -11.3457    133.7534    246.9654   2.9162845671e+02   4.1500889376e+00   0.00910072  0.008253325 -46.77 0.0003864447    1.157    0.136
