#   1 NUMBER                 Running object number                                     
#   2 MAG_AUTO               Kron-like elliptical aperture magnitude                    [mag]
#   3 X_IMAGE                Object position along x                                    [pixel]
#   4 Y_IMAGE                Object position along y                                    [pixel]
#   5 X_WORLD                Barycenter position along world x axis                     [deg]
#   6 Y_WORLD                Barycenter position along world y axis                     [deg]
#   7 A_WORLD                Profile RMS along major axis (world units)                 [deg]
#   8 B_WORLD                Profile RMS along minor axis (world units)                 [deg]
#   9 THETA_WORLD            Position angle (CCW/world-x)                               [deg]
#  10 FWHM_WORLD             FWHM assuming a gaussian core                              [deg]
#  11 ELONGATION             A_IMAGE/B_IMAGE                                           
#  12 ELLIPTICITY            1 - B_IMAGE/A_IMAGE                                       
         1 -10.1414     24.3089     65.6397   1.2886412577e+02   6.0900438210e+01     1.108331    0.1663435 -50.22  0.003767695    4.023    0.751
         2 -10.4245      3.7060     39.6265   1.3053581732e+02   6.7660706081e+01    0.6112676    0.3739195 -54.98  0.002900165    1.225    0.184
         3  -9.0512     12.0264     34.0261   1.2508560807e+02   6.8252885975e+01    0.4399673     0.220007 -60.45  0.002463737    1.843    0.458
         4  -9.7356     39.4851      7.2766   1.0052587406e+02   6.9956387455e+01    0.6447189    0.2403125 -31.60  0.003053609    2.427    0.588
         5 -10.5589     38.8768     29.8075   1.1135714629e+02   6.6577270106e+01    0.8335202    0.4409571 -55.53  0.004133051    2.402    0.584
         6 -11.7309     44.7008     21.5081   1.0520973561e+02   6.7220616840e+01     1.289699    0.8695401 -57.71  0.007066111    2.337    0.572
         7 -12.2394     81.1395      9.3154   8.5862375580e+01   6.2824959723e+01     2.248889     1.184517  -1.17   0.01006162    2.537    0.606
         8 -11.7593    109.3725      4.0362   7.6090464262e+01   5.7328506741e+01     1.739496     0.768998  49.34  0.007864896    1.956    0.489
         9 -11.1926    121.2041      3.8389   7.3540219320e+01   5.4581491227e+01     1.014476    0.6872267 -78.88  0.005052266    2.030    0.508
        10 -11.4194    131.4140      3.2120   7.1394242608e+01   5.2163967748e+01      1.41986    0.5409751  67.28  0.005600702    2.504    0.601
        11 -13.7145    169.4198     16.5575   6.9974633670e+01   4.1214429909e+01     3.505674     1.203926  59.24    0.0121926    2.491    0.599
        12 -10.6463    116.8676     16.3069   7.9444517519e+01   5.4388099687e+01     1.035157     0.335259 -31.63  0.003869545    2.970    0.663
        13 -10.2222    111.6382     15.6436   8.0394418674e+01   5.5666281491e+01    0.5357098    0.2826919  38.58  0.002014146    1.908    0.476
        14  -9.7001     93.7709     17.6130   8.5891709549e+01   5.9343502819e+01    0.4264124    0.3654605 -49.53   0.00213458    1.428    0.300
        15 -10.3597    248.5038     15.3912   6.1195053745e+01   2.1622706991e+01    0.4955722    0.3647147 -11.69  0.002558298    1.767    0.434
        16 -10.8240     71.3047      5.2880   8.7051209962e+01   6.5118914720e+01      0.61846    0.3457354  38.05  0.002335678    1.665    0.399
        17  -9.5097     64.1127     16.4023   9.5009172153e+01   6.5062030803e+01    0.2619726     0.253934  70.22  0.001098714    1.458    0.314
        18  -8.1591     19.9786     14.2769   1.1345766297e+02   7.1126032021e+01    0.4391783    0.1801179 -29.65  0.002121644    2.552    0.608
        19 -12.0848    128.1945     18.0123   7.7642838073e+01   5.1508541711e+01     1.644368    0.9912732  52.45  0.007997888    1.518    0.341
        20  -9.7308     35.7692     20.6566   1.0878049989e+02   6.8456639845e+01    0.3987834     0.253972 -37.76  0.001889883    1.347    0.257
        21  -9.9839     61.2408      2.3117   8.9023338339e+01   6.7222062499e+01    0.5849957    0.2894143  38.17  0.003074115    1.901    0.474
        22  -9.4323     55.3476      8.1680   9.4286233395e+01   6.7529463455e+01    0.3234711    0.2414441  68.75  0.001835191    2.456    0.593
        23 -10.5863    249.6066      2.7646   5.8209440460e+01   2.2762704903e+01    0.8477951     0.496086  -9.34  0.004124207    2.634    0.620
        24  -8.4043     48.8113      6.4166   9.6021216216e+01   6.8749591889e+01    0.2868218    0.1545969  24.78  0.001534093    2.000    0.500
        25  -8.6598     51.9354      2.0387   9.2417925186e+01   6.8784317028e+01    0.2499082    0.1817302   6.89  0.001292388    1.216    0.178
        26  -8.9477    230.0703      6.1420   6.0452548235e+01   2.6946394166e+01    0.1951463    0.1755786  63.04  0.001234752    1.266    0.210
        27 -13.2937    167.6282      4.8310   6.6475417458e+01   4.2843854291e+01     3.913186    0.8501784  68.40   0.01198983    3.889    0.743
        28  -8.2408     26.3174      2.7355   1.0439484985e+02   7.2190436967e+01    0.2387788    0.1457235 -30.14  0.001540436    1.361    0.265
        29  -8.5214     16.6953      1.7251   1.0890400749e+02   7.3346797832e+01    0.1819041    0.1406476  28.91 0.0009881954    1.628    0.386
        30  -8.1938     77.2256     78.2434   1.1376283471e+02   5.1924501838e+01    0.2251884    0.1071386 -59.32  0.000878595    2.428    0.588
        31  -7.8367    204.0547     76.4940   8.2365734320e+01   2.3887092566e+01    0.2160611    0.1496764  60.21 0.0004910587    1.491    0.330
        32  -9.6708     74.0804     69.0397   1.1201642778e+02   5.4360321457e+01    0.3569695    0.2891484  75.71  0.001945835    1.673    0.402
        33  -8.3140     83.9922     69.4376   1.0889011453e+02   5.2665840363e+01    0.2100825    0.1393851  39.75 0.0002894894    1.634    0.388
        34  -8.6330     33.9283     68.7164   1.2608013917e+02   5.9404180402e+01    0.3119169    0.2133787 -11.44  0.001791877    1.887    0.470
        35  -9.5156     16.1671     64.1723   1.3156300844e+02   6.1818074780e+01    0.2791258    0.1429132 -68.03  0.001268955    1.721    0.419
        36  -9.4197     48.0413     62.2689   1.1910608177e+02   5.9303750978e+01    0.4237474    0.2655277  24.64  0.002312861    1.890    0.471
        37  -8.5016    198.5392     54.6929   7.7146597410e+01   2.8704673139e+01    0.2514968    0.2163344   0.50 0.0006328562    1.380    0.276
        38  -7.6021     66.6585     55.6888   1.1018983203e+02   5.8170582151e+01    0.1384379   0.09744657 -14.17 0.0007045708    1.697    0.411
        39  -7.9907     38.2352     53.4505   1.2014751681e+02   6.2192347102e+01    0.1553282    0.1174867  40.64 0.0006503218    1.640    0.390
        40 -10.7331      3.4579     76.3761   1.3846964424e+02   5.9922226266e+01    0.6921071    0.5005896  83.27  0.004656152    1.486    0.327
        41  -9.7764     89.6862     50.6251   1.0056430903e+02   5.5245832983e+01    0.4150462    0.3076591 -84.87  0.001944009    2.356    0.576
        42  -9.9200     82.2490     47.4119   1.0178748813e+02   5.7164805986e+01    0.4747785    0.3784597 -22.36  0.002325885    1.195    0.163
        43 -10.3417     81.2189     39.4887   9.9050084866e+01   5.8691811860e+01    0.5899552    0.4727893 -29.06  0.003427492    1.158    0.137
        44  -8.9645    111.3916     45.6352   9.2256204925e+01   5.1681879449e+01     0.286243    0.2462461  -1.60   0.00126682    1.195    0.163
        45 -10.5450    173.4359    242.9806   1.2279116228e+02   1.9230794144e+00    0.2989534    0.1963372  60.09  0.001793932    1.796    0.443
        46 -10.6331    161.2481    242.1003   1.2482558976e+02   4.0055162946e+00    0.4752597    0.2602268  65.79  0.002219262    3.134    0.681
        47  -9.5480    109.7433     38.0020   8.9814109138e+01   5.3217325247e+01    0.3130952    0.2523497 -33.91   0.00165123    1.245    0.197
        48  -9.5131    204.8332    225.6131   1.1475521389e+02  -8.7656562493e-01    0.1780398   0.09826513  47.91 0.0009543863    1.769    0.435
        49  -9.8727     50.4453     35.1903   1.0869665656e+02   6.4217392765e+01     0.482213    0.3589282 -56.68  0.002277834    1.669    0.401
        50  -9.0377    124.0246    206.0062   1.2709647141e+02   1.6067333159e+01    0.1829062    0.1536226  59.91 -0.003769674    1.014    0.014
        51 -11.4755     10.5516    139.2794   1.4417379043e+02   4.5293853811e+01    0.5741938    0.3647011  73.91  0.003656336    1.423    0.297
        52  -8.4351     69.5379     37.4668   1.0230285885e+02   6.1021106877e+01    0.3764339    0.2075103 -29.25  0.001827029    1.792    0.442
        53  -9.5229     66.2070     30.9155   1.0079152839e+02   6.2618617207e+01    0.6132597    0.2485844 -34.75  0.002658729    2.310    0.567
        54  -8.4743     26.9799     35.3052   1.1874638124e+02   6.6820038478e+01    0.2099391    0.1445022 -43.88  0.001101018    1.176    0.149
        55  -9.4717     86.3838     31.2445   9.3979967151e+01   5.9012933425e+01    0.3218858    0.2369273  -9.13  0.001673876    1.402    0.287
        56  -8.6572     90.2576     28.5554   9.1636514457e+01   5.8644024236e+01    0.2802289    0.1911637 -18.39  0.001472612    1.475    0.322
        57 -12.5366    241.0016    134.0149   9.0618203463e+01   6.0744470054e+00     1.463359     1.053809  57.32   0.00476004    1.641    0.391
        58  -9.5793    250.0536    130.0293   8.8288417429e+01   4.9190331009e+00    0.3893662    0.2266435 -42.35  0.001347742    1.694    0.410
        59 -11.2748     12.5144    128.6770   1.4265772794e+02   4.7534824929e+01    0.5905574    0.2763643 -82.49  0.003113795    1.810    0.447
        60  -8.3979     22.6715    126.0266   1.3975328585e+02   4.7319251559e+01    0.1818623    0.1320281 -77.60 0.0005991487    1.088    0.081
        61  -9.1779     40.6813    141.8788   1.3713552737e+02   4.1918645442e+01    0.2642217    0.2050437  52.28  0.001207655    1.350    0.259
        62  -8.4859     97.5050     27.7989   8.9159848293e+01   5.7276467577e+01    0.4125712    0.2585308   0.08   0.00190911    2.068    0.517
        63  -7.8448     28.5806     25.7505   1.1430582477e+02   6.8384047431e+01    0.1622549     0.099761 -51.74 0.0008809046    1.651    0.394
        64  -9.2005     97.2960     43.1420   9.5370525634e+01   5.5037793713e+01     0.248076    0.1870275  28.57  0.001308937    1.382    0.276
        65 -10.2176     10.4040    116.7488   1.4190600227e+02   5.0403202302e+01    0.3261003    0.1783267 -51.47  0.001604681    1.817    0.450
        66 -10.6988     13.3236    119.8826   1.4148687388e+02   4.9476632630e+01    0.3745886    0.2273202 -61.74  0.002296459    1.404    0.288
        67  -8.2088     24.4885    116.4673   1.3804002207e+02   4.9371769658e+01    0.1242259   0.09852917 -75.52 0.0001086043    1.019    0.019
        68 -10.1870     17.8757    105.5017   1.3839040743e+02   5.2431619432e+01    0.6206171    0.3687281  78.03  0.003456404    1.876    0.467
        69  -9.9862     29.6200    102.6855   1.3449338265e+02   5.2120234875e+01     0.475352    0.2341435 -46.66  0.002386259    2.042    0.510
        70 -10.0238     47.2399     98.8830   1.2842630355e+02   5.1253511776e+01    0.4016491    0.1886649 -54.19   0.00190328    1.785    0.440
        71  -7.0449      8.3224     18.6447   1.2133245550e+02   7.1328241372e+01   0.09794428   0.08488221 -83.13 0.0007046181    1.761    0.432
        72  -9.7827     52.0491     79.7484   1.2251934415e+02   5.5062111091e+01    0.2947213    0.2669736   0.80   0.00140804    1.278    0.218
        73 -11.5170     41.2061     83.6126   1.2710090437e+02   5.5393624449e+01    0.8199099    0.6524497 -83.49  0.005048404    1.340    0.254
        74 -10.7876     45.7677     81.3126   1.2503042089e+02   5.5428192707e+01    0.7835585    0.3212877 -59.37  0.003454126    2.087    0.521
        75  -9.0444      2.9000     89.3994   1.4062352137e+02   5.7061640265e+01    0.3484456    0.2085771  58.72  0.002103187    2.007    0.502
        76  -8.6945     18.7572     88.1666   1.3540760864e+02   5.6323689269e+01    0.1992904    0.1065772  69.93 0.0009449906    2.770    0.639
        77 -10.7400    183.7375    246.3653   1.2144543775e+02  -1.6235147119e-01    0.4927704    0.1504875  37.60  0.002081079    2.884    0.653
        78 -10.2216    225.0407     28.8765   6.6665128304e+01   2.5560945136e+01    0.4378499    0.4282805  37.41  0.001419488    1.214    0.176
        79  -8.7264    125.3514     28.9765   8.2437469530e+01   5.0888661141e+01    0.3308222    0.2585289 -32.96  0.001764879    1.315    0.240
        80 -10.6259     13.4821     77.5387   1.3525733693e+02   5.9071833354e+01    0.6202139     0.354267 -21.82  0.003432461    2.395    0.582
        81 -10.3364     16.5270     73.0055   1.3332048210e+02   5.9869834394e+01    0.3861208    0.2919429  -8.56  0.002569302    1.663    0.399
        82 -10.0277     11.2167     71.2541   1.3485598296e+02   6.0601421108e+01    0.5194029    0.2454629 -66.79  0.002779603    1.672    0.402
        83  -9.6061    104.7185     26.0872   8.6439789269e+01   5.5967823160e+01     0.481673     0.366047  58.10  0.002626464    1.402    0.287
        84  -8.0641    100.9875     83.4908   1.0799581278e+02   4.6680741846e+01    0.1989356    0.1285568  69.70 0.0008087855    2.413    0.586
        85  -9.2282    228.0812     78.6399   7.9204081317e+01   1.7754849774e+01    0.3573321    0.2724679  25.59   0.00177659    1.662    0.398
