#   1 NUMBER                 Running object number                                     
#   2 MAG_AUTO               Kron-like elliptical aperture magnitude                    [mag]
#   3 X_IMAGE                Object position along x                                    [pixel]
#   4 Y_IMAGE                Object position along y                                    [pixel]
#   5 X_WORLD                Barycenter position along world x axis                     [deg]
#   6 Y_WORLD                Barycenter position along world y axis                     [deg]
#   7 A_WORLD                Profile RMS along major axis (world units)                 [deg]
#   8 B_WORLD                Profile RMS along minor axis (world units)                 [deg]
#   9 THETA_WORLD            Position angle (CCW/world-x)                               [deg]
#  10 FWHM_WORLD             FWHM assuming a gaussian core                              [deg]
#  11 ELONGATION             A_IMAGE/B_IMAGE                                           
#  12 ELLIPTICITY            1 - B_IMAGE/A_IMAGE                                       
         1 -14.3782    166.1728     38.6716   7.7615954488e+01   3.9372900865e+01     1.339227     1.025642  -7.85  0.004222092    1.543    0.352
         2 -13.9588    181.0442      6.3300   6.5284928800e+01   3.9233872524e+01    0.9830884     0.802389  71.85  0.004136991    1.125    0.111
         3 -10.6312     13.2712    244.9224   1.5020213481e+02   2.3920177938e+01    0.2519149   0.09801344 -68.07  0.001543538    2.725    0.633
         4 -18.9943     73.7282    239.1261   1.3999005579e+02   1.7750488246e+01     7.097034     5.434528  64.32   0.04238945    1.061    0.057
         5 -13.3821    175.1836    193.9994   1.1507139335e+02   9.0522485027e+00    0.6831707    0.3938265 -57.25  0.003219039    2.336    0.572
         6 -12.3911    180.5095    192.7031   1.1380665615e+02   8.2786494708e+00    0.3583391    0.2817817 -64.95  0.001281681    1.650    0.394
         7 -13.0018    176.7114    188.2136   1.1375563221e+02   9.7500586434e+00    0.5749622    0.3468739 -64.49  0.002544941    2.666    0.625
         8  -9.9662     31.5592    204.7497   1.4496090727e+02   2.9339997298e+01   0.09272871   0.08573303 -39.56 0.0003266732    1.794    0.443
         9  -9.5397     24.2213    235.2057   1.4803125566e+02   2.4450541181e+01   0.07940837   0.06550822  76.57            0    1.323    0.244
        10 -11.7771     23.8767    231.1796   1.4787974219e+02   2.5202534565e+01    0.2811436    0.1397386  53.10  0.001497807    1.524    0.344
        11 -10.4887    138.2467    198.5031   1.2317407759e+02   1.4995233425e+01    0.5099754     0.211989  57.78  0.001838935    3.391    0.705
        12 -10.5550    219.7735    226.3556   1.1227584405e+02  -3.3836920523e+00    0.1909904    0.1398307 -41.10 0.0007491767    1.738    0.425
        13 -10.3814    110.1065    223.0861   1.3189194872e+02   1.5246302872e+01    0.1785595    0.1431407  60.06 0.0004005946    1.002    0.002
        14 -10.0257     32.2873    188.3968   1.4362565324e+02   3.2570441047e+01    0.1702552    0.1548945  89.37 0.0005524522    1.356    0.262
        15 -11.7520    154.3546    185.7011   1.1782496822e+02   1.4424212725e+01    0.2462161    0.2052933  68.35  0.000793045    1.260    0.206
        16 -12.5438     28.1597    183.9924   1.4410288104e+02   3.3926094962e+01    0.2343249    0.1915332  58.36 0.0007441857    1.279    0.218
        17 -13.0109    205.4968    180.4729   1.0676643720e+02   5.5759208601e+00     0.548104    0.3745125  43.63  0.001950057    1.389    0.280
        18 -12.8102    208.5176    178.4964   1.0581886090e+02   5.3199873478e+00     0.447099      0.37973  26.09  0.002037459    1.080    0.074
        19 -10.1309    108.6575    182.7885   1.2702302232e+02   2.3204038941e+01    0.1855545    0.1556473  88.39    0.0011078    1.141    0.123
        20 -12.8237    196.3670    172.0391   1.0684544534e+02   8.7200115524e+00    0.7293072    0.4022987 -47.87    0.0025771    2.083    0.520
        21 -13.1976    138.2571    171.2049   1.1869973331e+02   2.0286538466e+01    0.6454278     0.502712  77.77  0.003425676    1.442    0.307
        22 -11.9483    177.6633    171.2912   1.1040040231e+02   1.2553153136e+01    0.4028867    0.2231721 -52.44  0.001774864    2.142    0.533
        23 -11.4237    126.0918    172.1576   1.2153626200e+02   2.2355496410e+01    0.2907553    0.1994621 -64.28   0.00135605    1.557    0.358
        24 -12.0137    113.1137    169.6797   1.2401416188e+02   2.5198052711e+01    0.3556778    0.3241552 -46.61  0.001044838    1.293    0.226
        25 -12.4581    144.7844    168.8061   1.1684207831e+02   1.9520356074e+01    0.4907551    0.3330751 -82.50  0.002233804    2.125    0.529
        26 -10.6035     34.5952    168.2854   1.4142344348e+02   3.6616077361e+01    0.2229716     0.144856  59.97   0.00122169    1.394    0.282
        27 -10.1427    150.9213    250.4059   1.2764135213e+02   4.4826156418e+00    0.1622949    0.1096309  43.04 0.0003909041    1.153    0.132
        28 -11.4760    116.3581    179.7762   1.2490436147e+02   2.2512011962e+01     0.634672    0.3011207  66.94  0.002113172    4.079    0.755
        29 -10.7594    223.8452    163.8672   1.0006435852e+02   4.7156667491e+00    0.2263427     0.193562 -41.72 0.0004592484    1.298    0.230
        30 -11.2262    130.3113    161.6277   1.1872491765e+02   2.3777933940e+01    0.2489139    0.2024212  76.26 0.0005398589    1.289    0.224
        31 -11.5378     16.7764    217.2806   1.4833710658e+02   2.8488503075e+01    0.1786224    0.1318623 -78.65 0.0008287103    1.427    0.299
        32 -11.4516    164.3543    156.9452   1.1028488975e+02   1.7962095117e+01    0.2836943    0.2129618  37.90 0.0007921342    1.329    0.248
        33  -9.9246     15.5843    156.7682   1.4455220897e+02   4.0991492749e+01    0.1618267    0.1444622  11.91 0.0006453877    1.676    0.403
        34 -13.7481    134.1350    145.9742   1.1477430969e+02   2.6386360228e+01     1.312883    0.3944619 -55.99  0.003661865    4.525    0.779
        35 -11.1596    151.6314    150.1397   1.1164472169e+02   2.1957024825e+01    0.2441993    0.1950415  60.39 0.0003770361    1.278    0.217
        36 -11.2618    174.2393    149.2269   1.0654518701e+02   1.7397308051e+01    0.3675921    0.1989388  44.68   0.00142951    1.798    0.444
        37 -13.5776    143.8828    144.2683   1.1215248397e+02   2.4779595812e+01    0.8234793    0.4927161 -62.43  0.003472824    2.022    0.505
        38 -10.0361     15.4962    237.8518   1.4954996249e+02   2.4904905162e+01    0.1869538   0.08792876  54.57  0.000850919    1.540    0.351
        39 -11.8991    110.0276    208.6632   1.3021231914e+02   1.7877083755e+01    0.3466613    0.3028739  60.14  0.001835285    1.100    0.091
        40  -9.3272     18.8506    235.9002   1.4892806700e+02   2.4897933674e+01    0.1120558   0.05739912 -82.77 0.0004980105    1.710    0.415
        41 -12.9597    136.0000    128.4901   1.1048396841e+02   2.9807089757e+01    0.7281882    0.2095636 -50.88  0.002114571    3.743    0.733
        42 -12.7479    135.5613    122.3970   1.0914517553e+02   3.1226190885e+01    0.6826246    0.2885926 -56.61  0.002251236    2.979    0.664
        43 -11.6108      9.4962    139.0185   1.4440047876e+02   4.5433944747e+01    0.1817892    0.1582689 -44.03 0.0006355864    1.524    0.344
        44 -12.6090      3.0877    128.0484   1.4495140808e+02   4.8354576914e+01    0.6032372    0.1837398 -82.45  0.002503884    3.053    0.673
        45 -11.5655    161.1817    127.6239   1.0441806623e+02   2.4550144107e+01    0.4075879     0.270117 -45.47  0.001832096    1.514    0.340
        46 -11.5043     18.4461    128.7785   1.4116406614e+02   4.7041849647e+01    0.2666768    0.1440247 -50.99   0.00132422    1.951    0.488
        47 -12.3350      4.4825    120.2945   1.4384872134e+02   5.0004664876e+01      0.33967    0.2609917  12.34  0.002382853    1.847    0.459
        48 -11.3897    169.2942    114.9401   9.9468032170e+01   2.5271176576e+01    0.5379009    0.3486615 -73.00  0.001554559    2.470    0.595
        49 -11.6460    134.7087    112.3415   1.0685093142e+02   3.3589660902e+01    0.4400063    0.1348459 -46.93  0.001331713    3.226    0.690
        50 -18.7672     62.0002     97.7307   1.2362360770e+02   4.9740327427e+01     17.66616    0.7113593 -57.84   0.02267762   22.625    0.956
        51 -12.1181      4.0598    112.4341   1.4313216650e+02   5.1806615862e+01    0.3371628    0.2522706 -14.45  0.002289173    1.945    0.486
        52 -10.5378    205.6275    110.1156   9.0976349329e+01   1.7710721712e+01    0.2876937    0.2206821  43.50 0.0007700085    1.357    0.263
        53 -11.0246    159.0244    204.5336   1.1996465103e+02   1.0218650379e+01    0.2765036    0.1451133  52.81  0.001306701    1.891    0.471
        54 -12.5575     84.6870    109.4071   1.1955835181e+02   4.3729450257e+01    0.4165322    0.2367484 -52.31  0.001915107    1.611    0.379
        55 -11.2353     13.7028    109.9527   1.4017960432e+02   5.1719194861e+01    0.1737885    0.1573351 -38.62 0.0005885492    1.374    0.272
        56 -12.4146    163.3808    203.7996   1.1899950530e+02   9.5605691414e+00    0.3270083    0.2740353 -45.24 0.0009597241    1.372    0.271
        57 -12.1604    117.9516    108.7912   1.1023610215e+02   3.7851841728e+01    0.3537972    0.1966336 -41.17  0.001456564    1.865    0.464
        58 -12.7486    160.9741    198.4658   1.1861733312e+02   1.0906994358e+01    0.3714912    0.2614102 -65.93  0.001520845    1.835    0.455
        59 -11.6131    168.9989    202.5576   1.1770831785e+02   8.7541410465e+00    0.2171041    0.1843487 -80.00 0.0001412409    1.479    0.324
        60 -10.8765    101.1934     98.0930   1.1203730456e+02   4.3463730935e+01    0.2894304    0.1953118  72.34  0.001251792    2.131    0.531
        61 -11.2944     42.1693     91.8384   1.2857375957e+02   5.3422142916e+01    0.2722063    0.1921294  14.67   0.00105044    1.861    0.463
        62 -10.0213     98.8279     80.8390   1.0784133444e+02   4.7647398248e+01    0.2090555    0.1937125 -14.28 0.0004015842    1.133    0.118
        63  -9.9428    145.3398     80.2942   9.5230565637e+01   3.7755428352e+01     0.158048    0.1225591  15.59 0.0006068035    1.654    0.395
        64 -13.9712    154.4417     53.9684   8.4850861963e+01   4.0131150326e+01     1.132769      0.89103  45.62 0.0009903049    1.282    0.220
        65 -13.5344    167.3508    190.8696   1.1607981893e+02   1.1051225169e+01    0.6051207    0.4702836  88.91  0.003274641    1.758    0.431
        66 -12.3287    170.2702     30.9740   7.4453282596e+01   3.9314972768e+01    0.3945636    0.3349684 -18.70 0.0008867517    1.280    0.219
        67 -10.3412     13.6353     59.9157   1.3155098782e+02   6.2897370809e+01     0.169995    0.1192141 -61.01 0.0004636794    1.143    0.125
        68 -10.6172    139.7890     31.9917   8.0392029985e+01   4.6984477633e+01    0.4157187    0.2132487  77.46  0.001506691    2.937    0.660
