#   1 NUMBER                 Running object number                                     
#   2 MAG_AUTO               Kron-like elliptical aperture magnitude                    [mag]
#   3 X_IMAGE                Object position along x                                    [pixel]
#   4 Y_IMAGE                Object position along y                                    [pixel]
#   5 X_WORLD                Barycenter position along world x axis                     [deg]
#   6 Y_WORLD                Barycenter position along world y axis                     [deg]
#   7 A_WORLD                Profile RMS along major axis (world units)                 [deg]
#   8 B_WORLD                Profile RMS along minor axis (world units)                 [deg]
#   9 THETA_WORLD            Position angle (CCW/world-x)                               [deg]
#  10 FWHM_WORLD             FWHM assuming a gaussian core                              [deg]
#  11 ELONGATION             A_IMAGE/B_IMAGE                                           
#  12 ELLIPTICITY            1 - B_IMAGE/A_IMAGE                                       
         1  -9.7413    188.6155     20.7500   4.9964041517e+01   3.4806998931e+01    0.2845603    0.2508325 -64.42 0.0009138845    1.157    0.136
         2  -9.2083     97.7855     12.2723   6.2254699754e+01   5.9127014080e+01    0.3217754     0.228104   2.89   0.00127566    1.523    0.343
         3  -9.2855     40.9485     14.0287   8.5004007118e+01   7.0317070255e+01    0.2410217    0.1780588  19.54 0.0003088895    1.450    0.310
         4  -8.0867    170.8228      7.1576   4.7479731579e+01   4.0681553607e+01    0.1871727    0.1564668  30.44 0.0002899137    1.272    0.214
         5  -8.0069    137.6781      5.9593   5.1345465395e+01   4.9565982645e+01    0.1876834    0.1823658  -3.71 0.0003687491    1.041    0.040
         6  -8.6975    222.8181    245.2522   9.4495437837e+01   5.5145171939e-01    0.1311074     0.104608  58.03 0.0008517371    2.694    0.629
         7 -11.7704    237.8087    241.0960   9.1693695902e+01  -9.1376770253e-01    0.6082073    0.3643878  30.74  0.002813783    1.329    0.247
         8 -10.9978    246.0164    248.0282   9.1428831279e+01  -2.4314041817e+00    0.4988165    0.2761345  31.97  0.002517021    1.435    0.303
         9 -10.7883    250.0928    241.8702   9.0008685758e+01  -2.4250462984e+00       0.4583     0.226174 -28.97  0.003217012    2.364    0.577
        10  -9.9941    208.9019    250.3572   9.7277403350e+01   1.8115584187e+00    0.3482103    0.1072996  38.61  0.001595299    2.489    0.598
        11  -9.9607    211.1659    247.0039   9.6508105811e+01   1.8332024898e+00    0.2946171    0.1810019  46.82  0.002022877    2.130    0.530
        12 -10.5779    195.4740    248.5509   9.9160929967e+01   3.6554193802e+00    0.3421403      0.22292  15.49  0.002600414    1.330    0.248
        13  -9.5718    157.6744    222.0744   1.0227426856e+02   1.1634159470e+01    0.2363511      0.18813 -10.70 0.0009352208    1.471    0.320
        14 -11.1846    162.3605    234.4635   1.0295343510e+02   9.4824828616e+00    0.6110207    0.3069099  34.66  0.001754757    1.508    0.337
        15 -11.7804    166.0878    248.8036   1.0395576048e+02   7.3813818968e+00     1.180092    0.3233268  39.72  0.005794918    2.695    0.629
        16 -12.1266    174.2433    244.9052   1.0216870669e+02   6.7452572292e+00     1.134935    0.5629469  47.42   0.00687525    2.173    0.540
        17 -11.7043    164.2059    226.5363   1.0167468034e+02   1.0174185193e+01    0.7724341    0.3011495  31.72  0.003943415    2.262    0.558
        18  -9.4090    103.4239    242.1297   1.1404136774e+02   1.6160109730e+01    0.1719321    0.1031578  48.00 0.0005120533    1.328    0.247
        19 -10.5116    107.4692    237.5062   1.1293009722e+02   1.6287541126e+01     0.407307    0.2551619  66.40  0.002741725    1.972    0.493
        20 -10.5024    167.7110    242.4853   1.0297672747e+02   7.8596106665e+00    0.4311751    0.2150965  34.90  0.001233794    1.478    0.323
        21  -8.3561     79.7577    239.3723   1.1800836540e+02   1.9367846464e+01    0.1446052   0.08000412  30.42 0.0008478856    1.702    0.412
        22  -9.6310     88.2680    249.2971   1.1722596145e+02   1.7001898196e+01    0.2532051    0.1264741  34.78   0.00123014    1.588    0.370
        23  -9.4050    114.9772    228.6924   1.1075695197e+02   1.6549802206e+01    0.3132184    0.1562087 -54.73  0.001924636    2.566    0.610
        24  -9.5402    114.9454    221.3125   1.1002401687e+02   1.7607358059e+01    0.2629645    0.1846359  19.81 0.0007235311    1.609    0.378
        25 -10.7848     89.7375    222.3521   1.1485821877e+02   2.0695277151e+01    0.4927611    0.2841446 -44.22  0.003052887    2.556    0.609
        26 -11.4507     99.2774    227.1571   1.1350028115e+02   1.8783218397e+01    0.5296337    0.4411528  49.99  0.002888442    1.098    0.090
        27 -10.7010    245.8136    229.1148   8.8830720152e+01  -8.8275134560e-01    0.4081875    0.2213173  35.87  0.001903264    1.641    0.391
        28 -10.5172    236.6022    230.7549   9.0434867750e+01   1.1041651230e-01    0.2655327    0.2112861 -32.73  0.001838944    1.984    0.496
        29  -8.7519     61.4161    249.9099   1.2184664671e+02   1.9911759659e+01    0.1877725    0.1132841  23.58  0.001122994    2.005    0.501
        30  -9.6439     18.3754    249.7447   1.2898799615e+02   2.4159769851e+01    0.2678152    0.1007354  37.85   0.00180979    1.879    0.468
        31 -10.6916    132.0225    217.8960   1.0645913732e+02   1.5775170586e+01    0.6027512    0.3733159 -53.95  0.003913529    2.080    0.519
        32 -10.1056    128.4989    225.5038   1.0795588825e+02   1.5199839588e+01    0.2700719    0.2090313   5.72  0.001638895    1.603    0.376
        33 -11.0724    125.6227    221.0746   1.0800685530e+02   1.6205486006e+01    0.3853574    0.3107956  21.43 0.0007689593    1.271    0.213
        34  -8.0560     78.6482    231.6781   1.1765340792e+02   2.0622107430e+01   0.09488833   0.07709177   6.94 0.0007047879    1.750    0.429
        35 -10.2158    185.0502    226.9938   9.8148606116e+01   7.2517441543e+00    0.2385077    0.1915815  23.22  0.001102559    1.108    0.098
        36  -9.9382    181.4881    227.0038   9.8753237609e+01   7.7386683887e+00    0.2837811    0.1792528 -17.07   0.00188452    1.951    0.487
        37  -8.4972    145.0694    228.8964   1.0533775493e+02   1.2505384407e+01    0.2080749    0.1177711  32.56  0.001132356    1.413    0.292
        38 -10.0638    128.2526    231.7746   1.0866060194e+02   1.4385419923e+01    0.4289342    0.1874099  45.83  0.002433155    1.937    0.484
        39  -8.4865    119.3333    228.4826   1.0994048359e+02   1.6008963874e+01    0.1925221    0.1283585 -35.71  0.001187446    2.130    0.531
        40  -8.4857     72.7727    228.7757   1.1851641283e+02   2.1742274483e+01    0.1789547   0.08334419  58.27  0.001047989    2.107    0.525
        41 -11.1239     99.6843    219.4226   1.1271455807e+02   1.9886133209e+01    0.5628975    0.3525983  40.43  0.003060595    1.250    0.200
        42 -10.5458    169.7870    232.0504   1.0138868055e+02   8.7598598135e+00    0.3665951    0.2893785  49.40   0.00275542    1.499    0.333
        43  -7.7376      1.4860    226.4867   1.3116416036e+02   2.9137667670e+01   0.09599551   0.06675371  58.45 0.0001158119    1.016    0.016
        44  -9.1279    249.3059    223.7010   8.7524313492e+01  -8.5233499378e-01    0.1759256    0.1038636  37.18 0.0008693794    1.684    0.406
        45  -9.2147    191.8674    218.0801   9.5780305420e+01   7.3029100105e+00     0.240547    0.1856091 -38.26  0.001758836    1.730    0.422
        46 -10.0447     20.1099    222.7966   1.2778002433e+02   2.8131735407e+01    0.2192851    0.1715415  33.87  0.001189999    1.423    0.297
        47  -9.2638    148.9137    220.8067   1.0369529687e+02   1.3024022218e+01    0.2475579    0.1664815 -32.87  0.001246644    1.893    0.472
        48  -8.2688     50.5173    222.4653   1.2221199027e+02   2.5197419505e+01     0.167805   0.09143037  23.88 0.0009438578    2.245    0.555
        49  -7.8530    207.7256    221.7323   9.3663908936e+01   4.7215538943e+00    0.1061944   0.06533244  14.48 0.0006871627    1.478    0.323
        50  -9.3216     13.8421    221.4075   1.2885160827e+02   2.8914875437e+01    0.2000286   0.09193064  20.78  0.001137079    3.111    0.679
        51  -8.3888    183.0872    219.9327   9.7536045945e+01   8.3236444896e+00    0.1741215    0.1088562  15.18 0.0007143847    1.618    0.382
        52  -9.6915    176.0789    217.3839   9.8405111542e+01   9.6143942426e+00    0.3365662    0.2705662   7.46  0.002511489    1.210    0.174
        53  -9.5215     74.8162    219.1422   1.1741777126e+02   2.3004178972e+01    0.2930951    0.1849008  78.30  0.001014648    1.800    0.444
        54 -10.0471     84.6302    216.6416   1.1533769186e+02   2.2215834919e+01    0.2702928    0.2329699  -2.12  0.002044027    1.624    0.384
        55  -9.2879    143.9718    216.1101   1.0402705240e+02   1.4348351056e+01    0.2918849    0.1607687 -41.79  0.001566029    2.280    0.561
        56  -9.4850    119.4074    215.2724   1.0854121729e+02   1.7890948833e+01    0.3792349    0.1478952  44.22  0.001936641    2.106    0.525
        57  -9.4920    112.3134    214.2299   1.0978407612e+02   1.9009937715e+01    0.2686482    0.2156149  -0.12  0.001236519    1.665    0.400
        58  -8.9189    115.8554    210.5344   1.0870025397e+02   1.9088991241e+01    0.2572361    0.1835219 -88.22  0.001057573    1.980    0.495
        59  -8.0613    180.3038    215.3113   9.7381644167e+01   9.2608683777e+00     0.113416   0.07337885  12.75  0.000274178    1.612    0.380
        60 -10.5451    107.3727    223.3664   1.1164433286e+02   1.8303177610e+01    0.4636605    0.2849816  21.63  0.002413652    1.931    0.482
        61 -10.4564     77.8983    210.9361   1.1615624361e+02   2.3961956791e+01      0.32995    0.3050158  39.66  0.001955715    1.246    0.198
        62  -8.6429     93.8020    209.3870   1.1288986646e+02   2.2216870613e+01    0.1650116    0.1321183   4.37 0.0006686876    1.720    0.419
        63  -8.4628    186.0868    211.8515   9.5885904278e+01   8.8428537696e+00    0.1826564    0.1138345  11.99  0.001111928    1.727    0.421
        64  -7.8481    223.3410    211.6880   8.9667131246e+01   3.6212137399e+00     0.094591   0.08286568  41.22 0.0007046135    1.698    0.411
        65  -9.4509    202.7037    209.3384   9.2678434816e+01   6.7488527012e+00    0.2547833    0.1952837 -18.32  0.001172203    1.404    0.288
        66  -8.0590    125.3294    211.3461   1.0696748073e+02   1.7652907410e+01    0.1116886   0.08266328   6.61 0.0007050078    1.755    0.430
        67  -9.8795    244.9419    209.3773   8.5977649576e+01   9.6586634223e-01    0.2550825    0.1388515  34.23  0.001681816    1.575    0.365
        68  -7.9468    233.6797    210.6838   8.7893953701e+01   2.3262788233e+00    0.1147435   0.06459195  12.05 0.0002664151    1.658    0.397
        69  -8.4393    117.5213    206.1051   1.0787381581e+02   1.9538997663e+01    0.2110084    0.1612517   6.04  0.001053427    1.707    0.414
        70  -8.0761    193.4449    208.3549   9.4103358072e+01   8.1911467150e+00    0.2033193   0.09420334 -20.02 0.0008273066    3.288    0.696
        71  -8.8529    134.3128    208.7587   1.0493840634e+02   1.6761379855e+01    0.3186629    0.1207461  36.51  0.001362671    2.176    0.540
        72  -8.8315    208.2807    213.3425   9.2351221707e+01   5.5259323713e+00     0.178049    0.1034044  12.05 0.0009917311    1.774    0.436
        73 -10.0833    212.7093    207.7525   9.0777118229e+01   5.5034784462e+00    0.2245091    0.1668531  23.63  0.001531454    1.088    0.081
        74  -8.3139    162.7638    208.1934   9.9532198041e+01   1.2700480390e+01    0.1607998    0.1129655  18.74 0.0006174829    1.375    0.273
        75  -9.7185     11.2409    207.5275   1.2884574577e+02   3.1468240229e+01    0.2508242    0.1670264  16.46  0.001793718    2.088    0.521
        76  -8.4574     99.4112    206.4409   1.1148598206e+02   2.1956812759e+01    0.2144008    0.1216871  62.03  0.001113467    2.062    0.515
        77  -7.9720    177.3805    206.2717   9.6613132376e+01   1.0794033054e+01     0.120751   0.07487192  16.63 0.0004974515    1.698    0.411
        78 -10.1314    123.9942    205.9884   1.0659396134e+02   1.8645401303e+01     0.164435    0.1329256  39.88            0    1.009    0.009
        79  -8.3355     56.4140    205.6156   1.1998233546e+02   2.7364864654e+01     0.192226   0.08584487  85.31 0.0009502109    3.127    0.680
        80  -9.3741    248.9503    205.1601   8.4709603716e+01   8.3237335974e-01     0.175176     0.130757  32.81 0.0008643646    1.495    0.331
        81  -9.7017    211.6474    202.9074   9.0196880399e+01   6.1808916668e+00    0.2863839    0.1655889  36.48  0.001788797    1.483    0.326
        82  -9.0514    130.2026    201.6778   1.0484799187e+02   1.8410503331e+01    0.2472095    0.2160772  39.74  0.001790913    1.072    0.067
        83  -7.8181     49.3063    202.6453   1.2119299413e+02   2.8659348735e+01    0.1181121   0.06187631  60.84 0.0007041661    1.718    0.418
        84  -7.8747     80.3088    201.6382   1.1485021095e+02   2.5223555169e+01    0.1206273   0.07074568  62.09 0.0007040188    1.742    0.426
        85  -9.5188    250.2411    198.5650   8.3443404295e+01   1.2758239238e+00    0.3013224    0.1466049 -22.94   0.00151207    1.957    0.489
        86  -8.2412    200.4738    200.6931   9.1727059914e+01   8.0580890024e+00    0.2203277   0.08682337  38.39  0.001101978    2.120    0.528
        87  -9.0878     88.9896    199.3747   1.1286239156e+02   2.4500958086e+01    0.2229519    0.1498172  82.36  0.001000829    1.799    0.444
        88  -8.5514    149.2411    198.8792   1.0077573072e+02   1.6004634881e+01    0.2398804    0.1629317  74.13   0.00125676    2.798    0.643
        89 -10.9791    173.5644    195.1015   9.5636873958e+01   1.2821044945e+01    0.4773553    0.3958636 -38.35  0.002669078    1.478    0.323
        90  -8.5070    165.0911    198.2122   9.7677552279e+01   1.3696238821e+01    0.1846766    0.1341635  20.40 0.0005484488    1.277    0.217
        91  -9.7811    126.4584    197.1939   1.0501609534e+02   1.9651551792e+01    0.2742218    0.2136812  21.33  0.001073127    1.326    0.246
        92  -9.3811    124.4406    192.3138   1.0478716018e+02   2.0726839886e+01    0.2780083     0.193477  42.78 0.0006638782    1.219    0.180
        93  -8.0438    112.7431    198.1264   1.0788968570e+02   2.1477631290e+01    0.1962248    0.1070249  64.67 0.0009394633    2.801    0.643
        94  -8.6677    131.8792    195.7934   1.0375135022e+02   1.9070532252e+01    0.1772817    0.1613687   7.94 0.0007284803    1.205    0.170
        95  -8.9158    135.4630    193.2409   1.0269131023e+02   1.8931018944e+01    0.2887616    0.1709328  52.15  0.001601902    1.775    0.437
        96  -8.3325     66.7800    195.1909   1.1705175259e+02   2.8004250239e+01    0.2061705   0.08840057  62.05 0.0009597804    2.855    0.650
        97  -8.3214    186.0000    193.9908   9.3201929033e+01   1.1055152140e+01    0.1659397   0.06621706 -37.56 0.0004449777    2.851    0.649
        98  -9.6039    180.4589    192.6010   9.3982952165e+01   1.2089381179e+01     0.443884    0.2173692 -50.37  0.001920181    3.254    0.693
        99  -7.9667     77.8243    193.2484   1.1456680172e+02   2.6998599897e+01    0.2015162   0.09262189  61.89 0.0009447362    2.741    0.635
       100  -9.5089    138.0231    179.7388   1.0021560466e+02   2.0687193357e+01    0.5306541    0.2284384 -44.15  0.002482676    2.688    0.628
       101  -8.3913    144.2402    186.6269   9.9989681890e+01   1.8611467751e+01      0.17331    0.1567904  29.78 0.0003479467    1.074    0.069
       102  -9.2902    138.7216    189.1653   1.0146664965e+02   1.9071039052e+01    0.2768311    0.1907667 -52.86  0.001685925    1.765    0.433
       103  -9.4912    140.7482    184.7945   1.0041991587e+02   1.9445133988e+01    0.3907383    0.1998669  28.16  0.001900417    2.108    0.526
       104  -9.5397    203.5195    187.8415   8.9113600767e+01   9.1291232467e+00    0.3943236    0.3296132 -38.40  0.001821486    1.600    0.375
       105 -10.0538    197.5476    182.5496   8.9253726900e+01   1.0715822076e+01    0.5664231    0.3403144 -32.32  0.003317822    1.796    0.443
       106 -10.5839    204.7128    176.2008   8.6885242208e+01   1.0379917436e+01    0.5803015    0.3320294  37.07  0.002439152    1.547    0.354
       107 -10.4038    208.4456    169.8199   8.5077953468e+01   1.0582598305e+01    0.5270335    0.3766876   6.12  0.003249853    1.317    0.241
       108 -10.6829    214.8640    167.5206   8.3556353097e+01   9.8292511443e+00    0.7803329    0.3373881  30.84  0.003625889    2.345    0.574
       109  -7.4314     87.3378    189.6245   1.1218959013e+02   2.6415464652e+01    0.1283825   0.07586981  63.35 0.0007017633    1.867    0.464
       110  -8.9614    155.9668    187.8072   9.7852218691e+01   1.6592028706e+01    0.1995295    0.1837987 -63.58  0.001196444    1.415    0.293
       111  -8.9237    120.6644    186.8728   1.0483869246e+02   2.2182795190e+01    0.2892633    0.1483025 -63.07  0.001369322    2.673    0.626
       112  -9.8707     95.0279    187.1487   1.1027776543e+02   2.5818588132e+01    0.5322815    0.1960171  51.97   0.00192634    3.084    0.676
       113  -8.5739     55.1217    187.2479   1.1884250391e+02   3.0808346785e+01    0.2772802    0.1094544  62.59  0.001224303    3.157    0.683
       114  -8.0351     34.8163    188.1931   1.2321972930e+02   3.2782272854e+01    0.2033096   0.07063402  59.22 0.0009460978    2.859    0.650
       115  -9.1491    229.2948    185.5317   8.4446743511e+01   5.5167700521e+00    0.2586572    0.1748528  53.21  0.001530268    2.306    0.566
       116  -8.8594    148.6740    186.1906   9.9040313439e+01   1.7983458833e+01    0.2074747    0.1865561   6.32  0.001431251    1.154    0.134
       117 -10.1526    211.1338    183.1484   8.7010855660e+01   8.5215586442e+00    0.4449405    0.2596721  10.71  0.002440705    1.917    0.478
       118  -9.0240    108.7632    185.4567   1.0715119158e+02   2.4175999166e+01    0.3386049    0.1846249  64.21    0.0015953    2.698    0.629
       119  -8.0298     66.3299    185.6452   1.1629120289e+02   2.9800259200e+01    0.1270119   0.07150353  62.32 0.0007045492    1.781    0.438
       120  -8.7225    178.4977    176.5459   9.1688895930e+01   1.4592947189e+01    0.1911504    0.1205772 -34.71 0.0004961683    1.738    0.425
       121  -9.5611    174.2330    183.2609   9.3626472102e+01   1.4340493574e+01    0.2538091    0.1879297 -75.12  0.001056873    2.750    0.636
       122  -9.4138    175.2397    179.1804   9.2754391941e+01   1.4753132886e+01     0.292771    0.1873915   6.62  0.001016395    1.988    0.497
       123  -8.1428     74.4107    184.1584   1.1439479118e+02   2.9081024386e+01    0.1563441    0.1023537  87.39 0.0009317828    1.727    0.421
       124 -10.1282     13.9356    182.4961   1.2729396997e+02   3.5778341009e+01    0.3554514    0.2593627  -7.07  0.002400273    2.324    0.570
       125  -8.1876    217.9775    182.6975   8.5788033482e+01   7.5262550307e+00    0.1635664    0.1268934  16.97 0.0003975958    1.040    0.038
       126  -8.4303    165.4975    182.9512   9.5239309798e+01   1.5788583549e+01     0.192645    0.1419438  31.82 0.0005436765    1.154    0.133
       127  -8.0030    130.8076    183.3576   1.0224381596e+02   2.1224230681e+01    0.1807273       0.1023  30.41 0.0008026813    1.727    0.421
       128  -8.8663    157.2007    181.2460   9.6581265539e+01   1.7377996228e+01    0.2281758    0.1632575  17.87 0.0007313205    1.451    0.311
       129  -9.2435    147.8962    181.1271   9.8417093496e+01   1.8891543136e+01     0.229655     0.182959 -83.77  0.001132715    1.893    0.472
       130 -10.1190    148.9076    174.7346   9.7190615385e+01   1.9740216041e+01    0.3336021    0.3032566 -35.31  0.001533573    1.249    0.199
       131  -7.8750     44.6914    182.7737   1.2073849352e+02   3.2794961789e+01    0.1773433   0.05992104  42.46 0.0008653876    2.293    0.564
       132  -9.2569    183.2640    180.7979   9.1530621778e+01   1.3227361311e+01    0.2421384    0.1802965  36.62  0.001147066    1.220    0.180
       133  -8.6506    110.0255    179.9864   1.0616559417e+02   2.4949021810e+01    0.2261055    0.1565953  31.37   0.00133893    1.388    0.280
       134  -8.3241    104.1483    179.4415   1.0736602731e+02   2.5907118923e+01     0.179799    0.1448568 -76.58 0.0003792283    1.418    0.295
       135  -9.5985     96.6999    178.0595   1.0881878822e+02   2.7225841762e+01    0.3823562    0.2745772   7.70  0.002154386    2.038    0.509
       136  -9.5512    232.1763    177.8109   8.2625263079e+01   5.9343104310e+00    0.2692124    0.1605139 -11.26  0.001606263    1.627    0.385
       137  -8.2857    129.4597    177.2745   1.0163002193e+02   2.2449734302e+01    0.1565145    0.1216447 -73.78 0.0009356926    1.677    0.404
       138  -8.5107     87.6364    177.1376   1.1071165372e+02   2.8656501902e+01     0.244744    0.1610643  33.28  0.001439711    1.464    0.317
       139  -8.0295     59.7904    177.1594   1.1693773113e+02   3.2190199721e+01    0.2156978   0.09075712  61.60 0.0009501691    2.908    0.656
       140  -8.5315     12.2901    176.9620   1.2738533376e+02   3.6979171329e+01    0.2002546     0.116538 -82.21  0.001131209    1.585    0.369
       141  -9.5132    183.3938    173.9056   9.0310441035e+01   1.4156435433e+01    0.4621523    0.1988877 -26.89   0.00197026    3.118    0.679
       142  -9.1991    159.0195    175.4820   9.5277099777e+01   1.7960268479e+01    0.2741729    0.1438223  39.72  0.001397452    1.668    0.400
       143  -9.4040    104.9724    174.6612   1.0654996631e+02   2.6652524160e+01    0.3122791     0.194215  59.37  0.001520844    1.777    0.437
       144  -8.7649     20.4644    174.1102   1.2546319711e+02   3.6836542045e+01    0.2697259    0.1237721  84.66  0.001490835    2.111    0.526
       145  -8.3156    218.4729    174.0210   8.4155935144e+01   8.4671056788e+00    0.1649085    0.1075192 -21.62 0.0004374338    1.496    0.331
       146  -9.0902     77.0229    175.9746   1.1295070428e+02   3.0289119564e+01    0.4025532    0.1574925  51.92  0.001784617    2.624    0.619
       147  -8.9472    193.5287    173.0094   8.8291973973e+01   1.2607308388e+01    0.2279242    0.1445176  24.67 0.0005407108    1.468    0.319
       148  -9.3606    176.9501    171.2955   9.1060958807e+01   1.5600524836e+01    0.2587394    0.1726182 -28.00  0.000837167    1.622    0.383
       149  -9.1212    177.9967    167.5069   9.0179442162e+01   1.5974669724e+01    0.2803065    0.1870159  17.02  0.001411953    1.598    0.374
       150  -9.6933    161.9655    170.3278   9.3811743949e+01   1.8263953264e+01    0.3112786    0.2681876  34.01  0.001598503    1.085    0.078
       151 -10.3989    157.3841    164.6921   9.3743133455e+01   1.9929407957e+01    0.5846181    0.3828894  28.24  0.003178158    1.486    0.327
       152  -9.7968    149.6006    164.6165   9.5335612754e+01   2.1270798382e+01    0.3798456    0.2426552  52.16  0.001997829    1.697    0.411
       153  -7.8563     45.3095    172.6733   1.1980584291e+02   3.4695758915e+01    0.1245076   0.07007275  62.50 0.0007039299    1.658    0.397
       154  -8.9571    121.9313    170.0271   1.0214911585e+02   2.4895368612e+01    0.2861557    0.1928568  69.01  0.001386118    2.028    0.507
       155  -8.9151     14.6957    171.0223   1.2656839354e+02   3.7943476286e+01    0.2104397    0.1467737  19.24   0.00109024    1.812    0.448
       156  -8.4932     55.1775    169.9497   1.1730653377e+02   3.4143899351e+01    0.2683923    0.1274643  62.57   0.00131572    2.315    0.568
       157  -8.3411    134.8037    171.8052   9.9653474375e+01   2.2524112661e+01    0.1763551    0.1402162  58.25 0.0007506494    1.367    0.269
       158  -8.9293    197.7695    167.9391   8.6602428531e+01   1.2583339963e+01     0.302922    0.1469238  28.81  0.001431069    2.132    0.531
       159  -8.6849    111.8086    167.0859   1.0394769880e+02   2.7012377122e+01    0.3728911    0.1858632 -73.07   0.00144766    3.892    0.743
       160  -8.7611    191.8855    167.4292   8.7571051209e+01   1.3636750454e+01    0.2529519    0.1489825  29.47  0.001354033    1.577    0.366
       161  -8.8697     99.0647    166.2797   1.0672371198e+02   2.9090164956e+01    0.3068927    0.1597136  54.02  0.001194645    2.056    0.514
       162  -9.4690    185.7790    163.9038   8.8042032851e+01   1.5166562464e+01    0.3165613    0.2113187  -3.78  0.001499362    1.765    0.434
       163  -8.9329    139.4090    165.2645   9.7598811697e+01   2.2881474834e+01     0.299504    0.2054704  80.77  0.001420194    2.668    0.625
       164  -8.0033     29.3500    166.3045   1.2297024160e+02   3.7584853071e+01    0.1041586   0.08468276 -40.09 0.0004880599    1.702    0.412
       165  -8.5892     80.5935    170.6019   1.1152336596e+02   3.0854367878e+01    0.2289546    0.1139751  20.28 0.0009540376    3.298    0.697
       166  -8.3497    129.1748    188.6895   1.0333298762e+02   2.0603923091e+01    0.1863136    0.1624446 -84.43 0.0008457816    1.423    0.297
       167  -9.0457     79.9675    164.0520   1.1086854619e+02   3.2226386922e+01    0.3826005    0.1845598  66.27  0.001561851    3.268    0.694
       168  -8.0976     37.8034    164.8422   1.2089677609e+02   3.7055154975e+01    0.1684264    0.1083701  61.65 0.0004640738    1.363    0.267
       169  -8.6983    122.9467    163.0599   1.0082761915e+02   2.5985808986e+01    0.2048922    0.1543628   4.98  0.001124447    1.755    0.430
       170  -7.7520     70.3419    163.6601   1.1309545187e+02   3.3569558952e+01    0.1340803   0.08032893  64.17 0.0007049254    1.773    0.436
       171  -8.8972     93.3517    160.9649   1.0730336380e+02   3.0958482382e+01    0.2899707     0.183098  66.30  0.001500841    1.896    0.472
       172  -8.8758      9.4722    161.5114   1.2725699069e+02   4.0280824965e+01    0.3113972    0.1157243  68.66  0.001514591    2.609    0.617
       173 -10.3163    150.8013    159.9176   9.4247310193e+01   2.1845717836e+01    0.5269565    0.3379744  57.01    0.0026146    1.921    0.479
       174  -9.3166    145.5010    151.5120   9.3821932174e+01   2.4211847986e+01    0.1942225    0.1264254 -30.87 0.0001390062    1.782    0.439
       175  -8.4214    205.6361    159.6454   8.3634402488e+01   1.2362465371e+01    0.1897841    0.1257305   9.27 0.0004715782    1.581    0.368
       176  -8.9203    144.5201    159.7543   9.5548419400e+01   2.2957854645e+01    0.2324368    0.1596882  39.51 0.0002600675    1.316    0.240
       177  -9.3590    139.2917    159.0967   9.6557581315e+01   2.3967887352e+01    0.2969145    0.1932795  14.44  0.001439695    2.106    0.525
       178  -9.1200    105.9001    158.2375   1.0395374552e+02   2.9601246511e+01    0.3698995     0.240455  75.39  0.001359538    2.210    0.548
       179  -8.4940    167.7763    157.5356   9.0321836991e+01   1.9257787355e+01    0.2229283    0.1741658 -88.02  0.001029806    2.234    0.552
       180  -7.9413     78.6449    157.7026   1.1037061876e+02   3.3684632099e+01    0.1196885   0.09844971 -14.25 0.0007034895    1.697    0.411
       181  -7.8410    226.4117    156.2486   7.9480984167e+01   9.3270848043e+00    0.1315113   0.07850907  17.46  0.000658613    1.719    0.418
       182  -9.7766    213.2069    155.2208   8.1460414032e+01   1.1655903845e+01    0.2886091    0.2568704  37.29  0.001209191    1.340    0.254
       183  -8.1596    178.0111    156.1835   8.8046046661e+01   1.7654239216e+01    0.2218096    0.1329451  19.55  0.001060741    1.999    0.500
       184  -8.8586    119.5669    155.4261   1.0032877049e+02   2.7950226343e+01    0.2786902     0.197149  77.49  0.001422971    2.007    0.502
       185  -8.8789     82.1783    155.0185   1.0915147345e+02   3.3746693779e+01    0.3218292    0.1707296  67.25  0.001403337    2.709    0.631
       186  -8.9696     50.0965    155.5076   1.1709582787e+02   3.7682724342e+01     0.374525     0.135843  52.85  0.001593161    2.855    0.650
       187  -7.9601    243.6589    154.6908   7.6495060305e+01   6.7488045291e+00    0.1285446   0.07683121  11.06 0.0005251744    1.691    0.409
       188  -8.9947    133.3512    153.0690   9.6788589597e+01   2.6061314438e+01    0.3745854    0.2529773 -73.70  0.001817923    2.292    0.564
       189  -8.9281    133.9408    147.8754   9.5697015766e+01   2.6907310340e+01    0.2685042    0.1782789  12.44  0.001257876    2.163    0.538
       190  -8.8419    205.4328    151.8131   8.2118061256e+01   1.3442157847e+01    0.3020762    0.1193783 -30.44  0.001295741    2.591    0.614
       191  -9.5231    230.4236    149.6176   7.7515743419e+01   9.4670166103e+00    0.3623026    0.2116238 -46.22  0.001809737    2.592    0.614
       192  -7.9697    128.3355    158.6676   9.8894572739e+01   2.5896401025e+01    0.1333801   0.09922015  70.35 0.0007052177    1.735    0.424
       193  -8.4169    106.5149    152.9667   1.0297130329e+02   3.0531587014e+01    0.2600746     0.164589  -0.83  0.001038557    3.518    0.716
       194  -7.7502     91.2846    151.6373   1.0643788208e+02   3.3129536912e+01    0.1340041   0.09332784  72.60 0.0007019792    1.685    0.407
       195  -8.7043     28.4065    149.7463   1.2195102368e+02   4.1128286142e+01    0.3383776    0.1241724  67.71  0.001342772    3.582    0.721
       196  -9.8033    190.0844    147.5460   8.4021492137e+01   1.6772948888e+01    0.5160327    0.1840757 -34.25  0.002048298    2.908    0.656
       197  -9.6829     56.6825    146.1841   1.1440509995e+02   3.8911441061e+01     0.545379    0.2340576  61.93  0.002191972    3.188    0.686
       198  -8.9775     39.4358    147.6097   1.1897888602e+02   4.0512224268e+01    0.3334696    0.1602036  61.72  0.001645116    2.178    0.541
       199 -10.0529    149.1465    145.3110   9.1826772436e+01   2.4640258400e+01    0.4475379    0.3161039 -86.72  0.001952244    2.710    0.631
       200  -9.7075    107.4799    145.4034   1.0146799815e+02   3.1875884033e+01    0.5636143    0.2910453  63.27  0.002041505    3.350    0.701
       201  -8.4402     13.3560    146.8231   1.2549348732e+02   4.3045441677e+01    0.1973301    0.1208862  48.59 0.0008784963    1.457    0.313
       202  -8.9155    195.2552    146.4349   8.2838279199e+01   1.5997455427e+01    0.1703544    0.1219894  50.63  0.000561981    1.595    0.373
       203  -9.7757     69.0014    145.5005   1.1114928664e+02   3.7522100378e+01    0.3389467    0.2244375  57.71  0.001887603    1.487    0.327
       204 -10.1374     70.0768    141.3871   1.1030056609e+02   3.8266441457e+01    0.4143279     0.263053  84.59  0.002084491    1.885    0.469
       205  -9.0049     67.7158    153.4501   1.1250512171e+02   3.6004117731e+01    0.3048669    0.1667714  79.32 0.0009426675    2.506    0.601
       206  -9.1418    218.8032    143.6131   7.8156262890e+01   1.2190583133e+01    0.2430166    0.2320659 -51.75  0.001376705    1.494    0.330
       207  -8.1077    165.6280    144.3255   8.8145492248e+01   2.1770366215e+01    0.1927564    0.1636101  84.57 0.0007491405    1.687    0.407
       208  -9.2668    125.2824    143.0369   9.6777176893e+01   2.9333465752e+01    0.4599432    0.2949085 -87.78  0.001870483    3.188    0.686
       209  -8.6493    125.6603    136.0355   9.5320885505e+01   3.0616368804e+01    0.3285588     0.206457   6.95  0.001298391    3.072    0.674
       210  -8.9088     88.1157    143.8049   1.0601659357e+02   3.5216453576e+01    0.2800773     0.182571  76.63  0.001154406    2.003    0.501
       211  -8.3762    206.6826    143.0294   8.0089111060e+01   1.4413753108e+01    0.1836152    0.1528399  -0.88 0.0007466021    1.063    0.059
       212  -9.8844    196.4068    142.9789   8.1906663959e+01   1.6283299884e+01      0.23855    0.1892828  57.59  0.001359963    1.622    0.383
       213  -8.4316    181.5850    143.1775   8.4727461333e+01   1.8987238299e+01    0.1914461    0.1216063 -20.30 0.0009511213    1.748    0.428
       214  -9.1769     23.4301    138.2996   1.2228738697e+02   4.4065211217e+01    0.4407477    0.1518897  62.46  0.001728179    3.605    0.723
       215  -8.8057     22.9884    130.8481   1.2176063561e+02   4.5763930132e+01    0.4467761    0.1816905 -42.30  0.001756384    4.243    0.764
       216  -8.4197    243.3252    139.3456   7.3437145523e+01   8.5523567515e+00    0.1334159    0.0808353   9.01 0.0006914177    1.743    0.426
       217  -8.4734      2.8748    142.2054   1.2784113221e+02   4.4810705761e+01     0.295031   0.09119935  70.03   0.00119818    3.550    0.718
       218  -9.0855    108.0006    137.5997   9.9937921733e+01   3.3365838299e+01     0.421926    0.2610281   9.58   0.00169197    3.130    0.680
       219  -7.8735     81.3521    139.6871   1.0710400911e+02   3.7075831670e+01    0.1402446   0.09280185  66.90 0.0007045621    1.728    0.421
       220  -9.1163    208.3561    137.0608   7.8526691282e+01   1.4927909295e+01    0.3734058    0.2653223  89.67  0.001564598    3.832    0.739
       221  -8.5853    197.4765    137.5937   8.0563068982e+01   1.6860501380e+01    0.2267159    0.1166283 -43.03 0.0007147571    2.262    0.558
       222  -9.7214    150.3382    136.2068   8.9697202872e+01   2.6024763840e+01    0.4455433    0.2295113  26.66  0.001751928    2.676    0.626
       223  -8.8863     57.5563    136.3248   1.1292968255e+02   4.0964926636e+01    0.2732957    0.1795626 -23.35  0.001332624    2.589    0.614
       224  -9.4879     39.2376    136.4481   1.1789095060e+02   4.2983092884e+01    0.2962186    0.1635169  68.85 0.0008057525    1.924    0.480
       225  -8.8095    231.9757    133.3653   7.3878885210e+01   1.1188471493e+01    0.2550929    0.1669622 -15.48  0.001441166    1.389    0.280
       226  -8.4816    171.4152    134.2334   8.4821816991e+01   2.2328327351e+01    0.1821762    0.1291992 -45.88 0.0005984821    1.593    0.372
       227  -8.6529    113.0027    133.6541   9.7937658756e+01   3.3318314662e+01    0.3045155    0.1896494  71.26  0.001282673    2.610    0.617
       228  -9.0598    227.2707    131.6572   7.4240063247e+01   1.2228763311e+01    0.2818133    0.2147681 -13.04  0.001445857    1.156    0.135
       229  -9.2351    132.4100    131.9965   9.2888341527e+01   3.0164079058e+01     0.339995    0.2375994 -79.56  0.001550862    2.306    0.566
       230  -9.7606     83.5700    131.9868   1.0525523765e+02   3.8413846759e+01    0.3904778    0.2643459  76.41  0.001130022    1.843    0.457
       231  -9.3825    143.3440    131.8500   9.0327211298e+01   2.8138011898e+01    0.3391264    0.2223537 -59.58  0.001598065    1.983    0.496
       232  -8.7540    143.7822    126.8161   8.9123017853e+01   2.8981972028e+01    0.2418892    0.1537333   3.32  0.000952827    2.831    0.647
       233  -9.1453     12.8408    129.6465   1.2444005404e+02   4.6847824358e+01    0.3932514    0.1495672  66.69  0.001720608    2.909    0.656
       234  -9.4240     13.7603    120.6803   1.2346617195e+02   4.8807504615e+01    0.6717619    0.2490679 -45.18  0.002700672    3.979    0.749
       235  -8.5719    168.8374    130.0660   8.4423460957e+01   2.3515146445e+01    0.2190197    0.1627721 -68.04  0.001060331    2.087    0.521
       236  -8.8347    152.9629    129.6348   8.7696192981e+01   2.6689311287e+01    0.2753422    0.1856901 -59.99  0.001199202    2.017    0.504
       237  -9.7074     99.2604    128.0893   1.0037377968e+02   3.6794061935e+01    0.4743269    0.2984271  85.97  0.001991878    2.709    0.631
       238  -8.7291     73.1442    129.3196   1.0763936024e+02   4.0497651683e+01    0.2527022    0.1583204  81.84 0.0007872675    2.088    0.521
       239  -8.4117    220.8306    149.0924   7.8953007825e+01   1.1142214123e+01    0.1764655    0.1650423   0.77 0.0008425221    1.284    0.221
       240  -9.3510    118.2665    125.6280   9.4981432076e+01   3.4012910105e+01    0.5031691    0.3051708  71.69  0.001947728    3.057    0.673
       241  -9.7974     59.6879    124.7120   1.1068140241e+02   4.3311263258e+01    0.6019093    0.2974494  74.00  0.002245024    3.572    0.720
       242  -9.2502    132.4967    125.1291   9.1384894411e+01   3.1467721540e+01    0.2731147    0.2196617   9.14  0.001016181    1.464    0.317
       243 -10.1709     43.9667    122.8478   1.1494183349e+02   4.5568956417e+01    0.6989903    0.3228246  74.22  0.002471821    3.382    0.704
       244  -9.9750     28.4655    122.3981   1.1938391333e+02   4.7205295852e+01    0.7620546    0.2817452  69.54  0.002541735    4.785    0.791
       245  -9.3508    179.5509    123.4813   8.0768745158e+01   2.2466623791e+01     0.466466    0.2503279 -30.57  0.001875568    1.906    0.475
       246  -9.0274     84.7823    122.2768   1.0317722726e+02   4.0358965956e+01    0.3897478    0.2755032   1.45  0.001854389    2.251    0.556
       247  -8.3290    158.7299    122.1234   8.4730388277e+01   2.6874408258e+01    0.2243573    0.1584257 -84.30 0.0009359242    2.755    0.637
       248  -9.2552     99.7566    119.9293   9.8602093452e+01   3.8452323231e+01    0.6027117    0.3472883  12.37   0.00209161    3.964    0.748
       249  -8.6264    152.9661    123.9877   8.6419643630e+01   2.7695221119e+01     0.235774    0.1700276   6.79  0.001129613    1.780    0.438
       250  -9.6046    142.3571    120.1484   8.7929320693e+01   3.0501300606e+01    0.3765493    0.2586869 -64.00  0.001318214    1.995    0.499
       251  -8.8631    107.8473    120.3106   9.6524168732e+01   3.6972646005e+01    0.2485321    0.2316702 -10.12 0.0008060374    1.182    0.154
       252  -9.2942    131.2365    119.0046   9.0303479417e+01   3.2898479857e+01    0.3469696    0.2348118  88.58  0.001402907    2.823    0.646
       253  -9.1184     71.0886    119.9215   1.0662250540e+02   4.2891615330e+01    0.3380034    0.2022811  84.93  0.001366833    2.398    0.583
       254  -9.1027    119.8250    118.8974   9.3114188476e+01   3.5090007757e+01    0.4670414    0.2000613  28.86  0.001461616    4.017    0.751
       255  -9.5084      2.8891    117.0457   1.2632181862e+02   5.0377917516e+01    0.5415552    0.1807567  76.08  0.002139513    3.520    0.716
       256  -9.1453      2.2233    109.8847   1.2600599215e+02   5.2057931534e+01      0.32633    0.1754049 -37.91  0.001736242    2.512    0.602
       257  -8.2870    192.9815    116.4904   7.6575732222e+01   2.0849614324e+01    0.2071907    0.1339204  46.49  0.001025636    1.571    0.363
       258  -9.4293    109.7582    114.5890   9.4756168178e+01   3.7831945055e+01     0.447481    0.2825101 -81.05  0.001587242    2.825    0.646
       259  -9.9052     79.4561    113.0416   1.0289854509e+02   4.3232634732e+01    0.5062222    0.3131005  87.09  0.001744139    2.484    0.597
       260  -9.7198     92.8251    112.7726   9.8999344084e+01   4.1169263492e+01    0.4596366    0.2988521 -83.21  0.001795766    2.243    0.554
       261  -9.1161     93.7018    104.0684   9.6788802842e+01   4.2935004265e+01    0.4740975    0.2923099  14.88   0.00191287    2.745    0.636
       262  -9.1120    122.3012    112.7150   9.1052229500e+01   3.5872588242e+01    0.2963528    0.2336322  85.95 0.0008399103    1.687    0.407
       263  -8.6333    158.8299    111.4485   8.2131494732e+01   2.8725514100e+01    0.3341839    0.1586714 -51.43  0.001226817    2.840    0.648
       264  -8.8641    142.6900    111.7190   8.5828450953e+01   3.2013979480e+01    0.4004489    0.1675558  31.20  0.001209693    4.042    0.753
       265  -9.8292     66.4314    110.6432   1.0631001958e+02   4.5655551933e+01    0.3998643    0.2332989  70.70  0.001736089    2.451    0.592
       266 -10.9843     14.5896    109.0903   1.2215789964e+02   5.1425501380e+01    0.5870367     0.315604 -72.73  0.002445923    1.565    0.361
       267 -10.7327     22.9180    102.7190   1.1880853681e+02   5.2282334383e+01    0.7756406    0.3319165  69.23  0.003112843    3.256    0.693
       268 -10.2325     21.4350     92.3593   1.1794702071e+02   5.4869489546e+01    0.4814177    0.2300243 -37.94  0.002164645    2.808    0.644
       269  -9.5759    133.4138    108.3591   8.7210471852e+01   3.4541850801e+01    0.4354265    0.2328138 -37.53  0.001835117    1.963    0.491
       270  -8.9400     59.4596    109.5445   1.0823834075e+02   4.6832629267e+01    0.2737981    0.1222125 -62.78 0.0006274335    2.086    0.521
       271  -9.1346     61.0164    106.3363   1.0716641821e+02   4.7378360189e+01    0.2854604    0.2164348  52.42  0.001139442    1.358    0.264
       272  -9.2459    123.0842    107.3496   8.9547357092e+01   3.6802993801e+01    0.3782678    0.2152581  31.18  0.001580824    2.094    0.522
       273 -10.0481    111.4017    106.1266   9.2322457397e+01   3.9302951136e+01    0.7476642    0.4250826  19.31  0.002700033    3.241    0.691
       274  -9.8674    109.3582     99.3742   9.1186876260e+01   4.1106529208e+01    0.5686607    0.3529526  66.16  0.001908124    2.402    0.584
       275 -10.4264     45.8118    102.6637   1.1135043980e+02   5.0085941165e+01    0.7842554    0.3600546  65.72  0.002832167    3.788    0.736
       276  -9.0321    150.4625    104.1480   8.2120784478e+01   3.1791196326e+01     0.335231    0.2295616 -61.90  0.001170398    2.005    0.501
       277  -8.4816    139.7952    105.0633   8.4832090179e+01   3.3865029973e+01    0.2262211     0.198419 -79.75 0.0007858969    1.383    0.277
       278  -9.4312      6.6155    102.9655   1.2408015205e+02   5.3397126916e+01    0.3140553    0.1491923  72.67  0.001251091    2.167    0.539
       279  -8.9407    215.6435    103.0718   6.9463777987e+01   1.8190637225e+01    0.2177963    0.1572959 -40.13  0.001163795    1.465    0.317
       280  -9.0189    128.2855    102.1594   8.6902394206e+01   3.6797598551e+01    0.2771461    0.1951018  73.29 0.0009613767    2.065    0.516
       281  -8.9168     81.9259    100.0972   9.9372262902e+01   4.5774607286e+01    0.2887067     0.196299 -80.35 0.0008424778    1.880    0.468
       282  -9.6981    130.2152     97.3266   8.5134520069e+01   3.7348707272e+01     0.475767     0.273441  27.19  0.001582315    2.400    0.583
       283  -9.7986     63.9461     96.2121   1.0419035122e+02   4.9347849565e+01    0.4888217     0.287369  77.12  0.001944512    2.804    0.643
       284  -8.7258     94.9024     97.1659   9.4758696136e+01   4.4240567754e+01    0.2196706    0.1908792  88.38 0.0005340485    1.284    0.221
       285  -9.1457      7.9475     96.7182   1.2305334749e+02   5.4782878307e+01    0.2658063    0.1612011 -47.23 0.0009987939    1.784    0.440
       286  -9.7095      4.5981     91.4281   1.2365404433e+02   5.6234167258e+01    0.4219831    0.1616742  61.09  0.001793977    3.118    0.679
       287 -10.3590      8.4137     83.3181   1.2140667858e+02   5.7939868967e+01    0.4611723    0.3492152 -54.28  0.001035782    1.294    0.227
       288  -8.3556     82.9220     94.0498   9.7618880993e+01   4.6977222235e+01    0.2468475    0.1614166   6.84  0.001022515    2.637    0.621
       289  -9.8727     45.4298     91.9911   1.0955066080e+02   5.2664965745e+01    0.4691011    0.3081283  -3.61  0.002284712    2.364    0.577
       290  -9.4195    108.9784     91.5414   8.9208915772e+01   4.2820677259e+01    0.5672472    0.2974864  28.12  0.002102675    2.770    0.639
       291  -8.6409    138.7924     92.0143   8.1559338641e+01   3.6538665966e+01    0.3050026    0.1750283 -58.28 0.0008844333    2.475    0.596
       292  -8.6652    138.8201     87.7834   8.0347612773e+01   3.7321381676e+01    0.2622299    0.1650941   8.49 0.0009572573    2.869    0.651
       293  -9.1705    124.4161     90.9063   8.4847146942e+01   3.9820882368e+01    0.3736384    0.2611268 -77.53  0.001238621    2.285    0.562
       294 -10.0263     34.6807     89.5786   1.1286413561e+02   5.4370445313e+01    0.5471918    0.2590593 -86.00  0.002152754    2.745    0.636
       295 -10.4213     37.0870     81.0037   1.1037784160e+02   5.6186095837e+01    0.5142033    0.2919761 -20.96  0.002233465    2.949    0.661
       296  -8.7352     96.7053     90.5046   9.2488081292e+01   4.5366116149e+01     0.367156    0.2371592   3.79  0.001397063    3.033    0.670
       297  -7.8707    102.5251     88.4289   9.0199003560e+01   4.4722362948e+01    0.1434933    0.1406591 -32.95 1.406625e-05    1.016    0.016
       298  -9.4646     86.2362     86.5224   9.4631093632e+01   4.8100737666e+01    0.4213405     0.287016 -88.17  0.001084035    2.300    0.565
       299  -9.6393     88.5823     79.9224   9.2034337523e+01   4.9136159670e+01    0.7343859    0.3242366  25.58  0.002105419    4.992    0.800
       300  -9.5389     66.0096     86.7589   1.0133644322e+02   5.1256542973e+01     0.547478    0.2776457  16.97   0.00197473    3.665    0.727
       301  -9.3869    126.9233     83.8230   8.2148045909e+01   4.0669484478e+01    0.5862848    0.3445594  16.78  0.001996984    3.387    0.705
       302 -10.1098     48.4146     84.5036   1.0696763979e+02   5.4101398570e+01    0.4906363    0.2821424  71.68  0.002092997    2.668    0.625
       303  -9.9604     49.9020     76.9701   1.0469086957e+02   5.5703511839e+01    0.4698784    0.3248815   0.47  0.002025463    2.063    0.515
       304  -9.2455    104.6408     83.1600   8.8075139267e+01   4.5419505870e+01    0.3805537     0.269033 -81.38  0.001440074    2.188    0.543
       305  -8.7367    140.7051     83.3508   7.8600384222e+01   3.7717089271e+01     0.152754    0.1190384 -70.43 0.0005403615    1.681    0.405
       306 -10.0678     24.5437     81.0780   1.1509055127e+02   5.7326773704e+01    0.4207572    0.2392599  71.62  0.001528513    2.168    0.539
       307  -8.5317     74.8438     80.8185   9.6804189140e+01   5.1272673976e+01    0.2725053    0.1823607 -81.21  0.001115479    2.118    0.528
       308  -8.7411    140.9952     79.4801   7.7370351097e+01   3.8351681677e+01     0.220442    0.1226223  29.16 0.0006506812    2.514    0.602
       309  -9.7475    184.0782     77.8405   6.8059516664e+01   2.8634033760e+01    0.2633218    0.2061237 -26.22 0.0007709031    1.213    0.175
       310  -8.3675     61.7039     77.6927   1.0054677553e+02   5.3971014702e+01    0.2859003    0.1654602 -78.88  0.001160693    2.594    0.614
       311  -9.3306    128.1624     75.7967   7.9380386438e+01   4.1920396734e+01    0.4175415    0.2488418 -64.64  0.001500625    2.852    0.649
       312  -9.2238    106.3252     76.4755   8.5565799964e+01   4.6458426048e+01    0.4942889    0.2337233  30.30  0.001650531    3.311    0.698
       313  -8.5963    166.7621     75.7287   7.0673020427e+01   3.2999631454e+01    0.2485439    0.1053533 -41.70 0.0008953708    2.398    0.583
       314  -7.8271    140.2995     75.6304   7.6351807060e+01   3.9198790141e+01    0.1567316    0.1183913 -67.65 0.0007031259    1.738    0.425
       315  -9.3205     82.6156     72.9752   9.1911439483e+01   5.1706444890e+01      0.40763    0.2780857 -80.58  0.001510896    2.274    0.560
       316  -9.1838     10.0632     74.6641   1.1963624087e+02   5.9912012418e+01     0.219244    0.1922277 -52.44 0.0003722009    1.191    0.160
       317  -8.3158     13.5124     74.4871   1.1825754519e+02   5.9734521640e+01    0.1496915    0.1200137 -15.90 -2.534132e-05    1.541    0.351
       318 -10.0771     28.5486     70.4864   1.1152502548e+02   5.9523898433e+01    0.8013356    0.3633011 -23.93  0.002687244    5.054    0.802
       319  -8.9461     42.4085     72.5973   1.0649395263e+02   5.7618980783e+01    0.2657102    0.1210241 -77.23 0.0009584925    3.273    0.694
       320  -8.5796    105.9901     71.9590   8.4234326818e+01   4.7438247798e+01    0.2321554    0.1842258 -81.06 0.0006331473    1.674    0.403
       321  -8.9699     95.2203     71.2642   8.7282554460e+01   4.9736651031e+01    0.3912759    0.2151797 -60.14  0.001306196    2.430    0.588
       322 -11.2711      5.4252     56.8523   1.1877803204e+02   6.4433821736e+01    0.8147361    0.5016725 -64.21  0.004783563    1.292    0.226
       323 -10.6892      7.4957     66.8983   1.1951815444e+02   6.1923847608e+01    0.8546613    0.2304225 -50.78  0.003378039    3.154    0.683
       324  -8.7371      1.4682     69.4441   1.2234174065e+02   6.1630915170e+01     0.254413   0.09816202 -75.43 0.0008702312    2.072    0.517
       325  -9.6961     51.2992     69.5781   1.0226396550e+02   5.7257522381e+01    0.5023337     0.246483 -72.76  0.001931123    2.867    0.651
       326  -9.0819     16.1947     70.2855   1.1649795502e+02   6.0560376165e+01    0.3603073     0.176192  87.09  0.001215653    2.521    0.603
       327 -10.1480     18.4692     62.0733   1.1399395704e+02   6.2362110236e+01    0.5147762     0.186961 -45.68  0.002151868    2.697    0.629
       328  -8.9854    129.2415     69.6760   7.7149050933e+01   4.2803554176e+01    0.3059796    0.1698026  31.42  0.001158231    2.383    0.580
       329  -8.1260    146.5980     68.7494   7.2737843761e+01   3.8916768087e+01    0.2175407    0.1359786 -43.33 0.0006242958    1.629    0.386
       330  -9.7242    117.1424     67.1897   7.9500972301e+01   4.5981564300e+01    0.2488295    0.2383972   0.70 0.0002694311    1.038    0.037
       331  -9.1724     44.1045     67.5889   1.0456932394e+02   5.8603971335e+01    0.2508578    0.1756981   3.59  0.001298595    1.914    0.477
       332  -8.6952    106.2603     67.0199   8.2529347707e+01   4.8360437026e+01    0.2765816    0.1896721  31.00  0.001213828    1.665    0.399
       333  -9.5944     83.6846     64.4545   8.8818814987e+01   5.3335395324e+01    0.5239362    0.3318125   3.24  0.001976199    3.100    0.677
       334  -9.1271     37.7061     64.7939   1.0645239195e+02   5.9976037004e+01    0.2487548    0.1697224 -80.91  0.000980034    1.621    0.383
       335  -8.7000    109.9681     63.9560   8.0411127976e+01   4.8161435259e+01    0.2388619     0.188081 -78.80 0.0008587153    1.715    0.417
       336  -8.5824     95.5570     63.9408   8.4747836844e+01   5.1166320155e+01    0.3012794    0.1846167   8.52  0.001037175    3.465    0.711
       337  -9.0373     51.1912     60.9446   9.9833659125e+01   5.9257277633e+01    0.3628854    0.3026736 -85.57  0.002072136    1.376    0.273
       338  -8.3520    170.2190     60.8098   6.5454276504e+01   3.4454015504e+01    0.2080521    0.1694919  10.53 0.0004414339    1.337    0.252
       339  -9.6533     73.0441     59.1017   9.0757859478e+01   5.6349101198e+01    0.6884035    0.2316801 -52.48  0.002245357    3.174    0.685
       340  -9.2059     75.9501     49.9024   8.6334595384e+01   5.7736742535e+01    0.4340173    0.2755535  12.19  0.001800174    2.534    0.605
       341 -10.1545    100.5376     54.2772   7.9738663623e+01   5.2012725520e+01    0.3018925    0.2565621 -16.75 0.0002014583    1.209    0.173
       342  -8.7264     24.7568     59.1698   1.1060198004e+02   6.2550081427e+01    0.2138236    0.1369144  81.99  0.000911043    1.985    0.496
       343  -9.9797     26.4437     54.7341   1.0874393392e+02   6.3446487043e+01    0.3478772    0.2220487  -6.35  0.001771028    2.132    0.531
       344  -9.9500     39.3681     57.9051   1.0388491122e+02   6.1401289025e+01    0.2636089     0.228866  22.19  0.001618317    1.313    0.239
       345  -9.2884     54.3204     54.5504   9.6504792206e+01   6.0262749676e+01    0.4576547    0.2401461 -71.83  0.001652258    3.444    0.710
       346  -9.0785     43.8277     55.3327   1.0119367440e+02   6.1469039311e+01    0.3136534    0.1768262 -72.98  0.001241291    2.303    0.566
       347  -7.9992    119.4831     56.0214   7.4987896951e+01   4.7480693450e+01    0.2200068    0.1210844 -55.39 0.0008086566    2.507    0.601
       348  -7.7787    164.6716     59.6936   6.6126360340e+01   3.5977156287e+01    0.1573982    0.1127046  21.53  0.000387189    1.655    0.396
       349  -8.5785    111.0779     58.9769   7.8350438552e+01   4.8851175787e+01    0.3551589     0.195919  27.74  0.001297462    2.714    0.632
       350  -8.8669     92.2532     50.8035   8.1035744592e+01   5.4398318643e+01    0.3459505    0.2151118 -56.45  0.001478004    1.997    0.499
       351  -9.1886     30.9797     51.7182   1.0583799826e+02   6.3719160056e+01    0.2266687    0.1693496  89.60 0.0006531391    1.610    0.379
       352  -9.1148     62.7016     55.0338   9.3282955969e+01   5.8910005240e+01    0.2771333    0.2074442 -65.12 0.0009348804    1.487    0.327
       353  -9.1841     46.1649     49.1703   9.8155596504e+01   6.2556933717e+01      0.30125    0.2151655   2.13  0.001536377    1.810    0.448
       354  -8.7889     44.7168     44.7706   9.7245428185e+01   6.3709133426e+01    0.2988653    0.1860452 -77.48  0.001009323    2.581    0.613
       355  -8.9934     64.2957     47.0216   8.9701037955e+01   6.0343342815e+01    0.4173064    0.2576822   5.97  0.001678492    2.897    0.655
       356  -9.4504     22.6683     47.1738   1.0847514931e+02   6.5536525912e+01    0.3385681    0.2066373 -10.83  0.001610923    2.225    0.551
       357  -8.2393     81.9401     47.2908   8.3155940018e+01   5.7124113542e+01    0.1956515    0.1862601 -15.95 0.0005141519    1.031    0.030
       358  -8.6275     54.1366     46.5703   9.3745578664e+01   6.2019666196e+01    0.2678688    0.1621533 -22.28  0.001173863    2.292    0.564
       359  -8.7050    130.7771     45.7649   6.8411267770e+01   4.6471938065e+01    0.3295801    0.2091258  34.22  0.001419748    1.786    0.440
       360  -7.8352      1.3306     46.2774   1.1879780099e+02   6.7135365017e+01    0.1260072   0.07256988 -44.92 0.0002482818    1.599    0.375
       361  -8.3365    149.7691     44.6803   6.3955746328e+01   4.1884390432e+01    0.2466004    0.1032738 -38.32  0.000888576    2.306    0.566
       362  -9.7796     16.5604     43.4047   1.1046358858e+02   6.6895891402e+01    0.6738301    0.2205385 -59.00  0.002881606    2.276    0.561
       363  -7.7666     92.2838     43.3506   7.8065178462e+01   5.5758871445e+01    0.1510783    0.1123839   0.42 0.0007018311    1.655    0.396
       364  -8.8901     57.9819     42.8501   9.0664544860e+01   6.2214716576e+01    0.2573144    0.1808131 -73.31  0.001218541    2.098    0.523
       365 -10.0682      4.7935     41.2535   1.1598883316e+02   6.8141508507e+01    0.5175176    0.2333952 -85.59  0.002287513    2.670    0.625
       366  -9.5902      6.6447     34.1076   1.1320177730e+02   6.9689323766e+01    0.2682864    0.1934882  -8.23 0.0009823303    1.629    0.386
       367  -8.8776    113.8803     41.6878   7.1042300348e+01   5.1190014146e+01    0.2461616    0.2024471  -8.93 0.0005752289    1.269    0.212
       368  -8.4999     68.9597     41.6396   8.5686143199e+01   6.0623807760e+01    0.2444581    0.1928712 -67.42 0.0008887827    1.616    0.381
       369  -9.2265     84.2130     39.9747   7.9354289387e+01   5.8033006957e+01    0.2733884    0.2193255  16.20 0.0005140569    1.375    0.273
       370  -8.9720     36.8762     41.1928   9.9624995716e+01   6.5456387472e+01    0.1960785    0.1745445 -84.70 0.0007818927    1.325    0.245
       371  -8.0137    123.7511     40.4090   6.8035882369e+01   4.9012551941e+01    0.2187871    0.1328716  44.03 0.0007742153    1.676    0.403
       372  -8.9731     57.4855     37.1823   8.8529320100e+01   6.3436094990e+01    0.2989509     0.230068  40.69  0.001649983    1.442    0.307
       373  -8.6142     25.9283     36.6089   1.0349439484e+02   6.7635834204e+01    0.2583881     0.162322 -76.42   0.00101753    1.991    0.498
       374  -8.7808     70.3964     35.6402   8.2540256945e+01   6.1500178459e+01    0.2914758    0.1654439  22.62  0.001177226    2.606    0.616
       375  -8.9458     38.4615     35.5051   9.6671027156e+01   6.6490546954e+01    0.2245277    0.1283081  13.62  0.001031448    2.442    0.591
       376  -9.0436    119.4903     33.6493   6.6367807075e+01   5.1052610747e+01    0.3081173    0.1948892 -40.11 0.0007563357    1.602    0.376
       377  -8.7256     95.8221     33.9413   7.2955957403e+01   5.6581709712e+01    0.2796064    0.1437915  23.37 0.0008908302    3.749    0.733
       378  -8.8853     21.1905     34.1708   1.0516692880e+02   6.8615243408e+01    0.2000345    0.1467041 -42.32 0.0006258661    1.186    0.157
       379  -9.7655    222.2625     32.8040   4.9974892402e+01   2.5440353567e+01    0.2710209    0.1988785 -49.76  0.000468111    1.348    0.258
       380  -8.6338     60.4125     33.1635   8.5496460119e+01   6.3730869493e+01    0.1923729    0.1233339 -51.00   0.00047386    1.645    0.392
       381  -9.3155    106.2386     36.9129   7.1177884391e+01   5.3737233150e+01    0.2780185    0.2077305  42.39 0.0003673526    1.350    0.260
       382  -8.0596    105.2965     32.3159   6.9487310944e+01   5.4663693161e+01    0.1524357    0.1108302  16.18  0.000405368    1.606    0.378
       383  -8.9943     12.8246     31.4773   1.0891832751e+02   6.9885995366e+01    0.2768846    0.1632606 -73.10 0.0008485626    1.735    0.424
       384  -9.1947    148.0006     28.4853   5.8410261576e+01   4.4471268635e+01    0.3296318    0.2255521  45.28  0.001141601    1.472    0.321
       385  -8.9291      1.9747     27.8858   1.1418182266e+02   7.1355061323e+01    0.2020888    0.1580448 -14.42  0.000655898    1.436    0.304
       386  -8.2147     80.8431     27.5779   7.4945229308e+01   6.0834338303e+01    0.1948007    0.1403164  64.56 0.0009456446    1.773    0.436
       387  -9.2627     76.8078     25.5573   7.5405219295e+01   6.1989733168e+01     0.237517     0.206379  16.04 0.0007770894    1.142    0.124
       388  -9.0326     44.0425     25.7155   8.9552215445e+01   6.7722236160e+01    0.2161726     0.167532 -33.15 0.0004426071    1.135    0.119
       389  -9.0118    110.4389     24.4412   6.4688320736e+01   5.4543682992e+01    0.2474012    0.2347507  10.96 0.0002428296    1.005    0.005
       390  -8.9741     58.7463     22.2536   8.0925751293e+01   6.5983308050e+01    0.2118351    0.1916923 -37.38 0.0002848086    1.171    0.146
       391  -8.7919     84.6334     21.1736   7.0548547606e+01   6.0999752105e+01    0.2965638    0.2045936 -52.87 0.0009983163    1.816    0.449
       392  -9.6045     13.0092     21.3565   1.0514562137e+02   7.2094396622e+01    0.2491915    0.2216459  -5.19 0.0008340863    1.246    0.197
       393  -9.3544    107.5205    249.0530   1.1389945478e+02   1.4745471961e+01    0.2108461    0.1196626  31.33 0.0007133175    1.509    0.337
       394  -8.0310     48.3129     21.7001   8.5440652464e+01   6.7825975739e+01    0.1235095    0.1069817 -74.79 0.0003259522    1.607    0.378
       395  -8.7109     40.4994     20.9922   8.9011712415e+01   6.9125825902e+01    0.2383713    0.1894062 -69.35  0.001188093    1.754    0.430
       396  -8.0866     73.4757     19.9451   7.3801767643e+01   6.3542933879e+01    0.1950838    0.1102757 -51.74  0.000807769    2.425    0.588
       397  -7.8391    195.6870     19.3300   4.8753544687e+01   3.3173479959e+01    0.1515663   0.09475347 -53.56 0.0007043886    1.674    0.403
       398  -9.6061     28.9671     18.3754   9.4053086383e+01   7.1132226546e+01    0.3411144    0.2109077  45.35  0.001003662    2.138    0.532
       399  -8.3587      1.5009     19.5438   1.1190084811e+02   7.3241430177e+01    0.1226042   0.09563632 -51.34 5.374787e-05    1.016    0.016
       400  -8.5444     62.9544     20.9580   7.8458390529e+01   6.5436426308e+01    0.2099639    0.1678436 -64.32  0.000713067    1.730    0.422
       401  -9.1955     75.7217    248.4582   1.1932210665e+02   1.8548348316e+01      0.21029   0.07371136 -59.97  0.001221121    3.573    0.720
       402  -8.4699     50.5195     15.4980   8.1029385840e+01   6.8538890139e+01    0.2150347    0.1203815  29.49 0.0005531296    2.063    0.515
       403  -8.6888      3.0266    248.4690   1.3142058138e+02   2.5666392271e+01    0.1500339   0.09258445 -43.75  0.001045594    3.500    0.714
       404  -8.3391     80.3254     12.5990   6.7542832738e+01   6.3117640624e+01    0.2093443     0.163249 -59.19 0.0009399725    1.678    0.404
       405 -10.0254     97.5465    243.9792   1.1522117129e+02   1.6623698968e+01    0.3130209    0.2195689 -71.77  0.002439386    1.866    0.464
