#   1 NUMBER                 Running object number                                     
#   2 MAG_AUTO               Kron-like elliptical aperture magnitude                    [mag]
#   3 X_IMAGE                Object position along x                                    [pixel]
#   4 Y_IMAGE                Object position along y                                    [pixel]
#   5 X_WORLD                Barycenter position along world x axis                     [deg]
#   6 Y_WORLD                Barycenter position along world y axis                     [deg]
#   7 A_WORLD                Profile RMS along major axis (world units)                 [deg]
#   8 B_WORLD                Profile RMS along minor axis (world units)                 [deg]
#   9 THETA_WORLD            Position angle (CCW/world-x)                               [deg]
#  10 FWHM_WORLD             FWHM assuming a gaussian core                              [deg]
#  11 ELONGATION             A_IMAGE/B_IMAGE                                           
#  12 ELLIPTICITY            1 - B_IMAGE/A_IMAGE                                       
         1 -10.1317      9.6755     47.9559   1.2376246284e+02   6.4631009167e+01    0.6249511    0.2834803 -24.05   0.00272798    2.457    0.593
         2 -10.1940      9.3673     19.7061   1.1433260561e+02   6.9272513973e+01    0.3813933    0.2039586   9.38 0.0006045402    1.941    0.485
         3  -8.6311    231.0649     16.9998   6.0305763443e+01   2.6000933253e+01    0.2721348    0.1916404 -44.92  0.001327292    1.405    0.288
         4 -10.1948     24.3457     16.6041   1.0641612257e+02   6.8360469732e+01    0.3101186    0.2307911  16.21 0.0007263178    1.337    0.252
         5  -8.9551     31.4112     11.1224   1.0103800843e+02   6.8276578476e+01    0.2980175    0.1631659  -2.17  0.001447811    2.005    0.501
         6  -7.4479     32.6745      7.7379   9.8999534104e+01   6.8519302250e+01    0.1116083   0.06716935   4.73  0.000190568    1.561    0.359
         7  -9.6475     64.0829     14.3330   9.0169065430e+01   6.3352831701e+01    0.3647362    0.1878302  29.27 0.0007439967    1.855    0.461
         8  -8.3224     88.6184     13.1652   8.2308528534e+01   5.9116032543e+01    0.3179156    0.1308667  29.73  0.001291831    3.093    0.677
         9  -8.8759     74.5260     13.5424   8.6513741123e+01   6.1672143843e+01    0.2711457    0.2020457   0.13  0.001235939    1.249    0.199
        10  -8.7572     79.9027     12.6766   8.4564577055e+01   6.0795457110e+01     0.255996    0.2044894  36.80 0.0009447944    1.150    0.130
        11  -8.9332     97.1710     12.0536   7.9659734378e+01   5.7537161567e+01    0.2794208    0.1538696  42.06 0.0006066213    1.553    0.356
        12  -8.0766    106.0408     10.6922   7.7033584049e+01   5.5836171701e+01    0.1799315    0.1420995  44.60 0.0005711563    1.083    0.077
        13 -10.6341     20.2818      8.7742   1.0480546786e+02   6.9773594861e+01    0.2104202    0.1529125  -0.10 0.0003334476    1.101    0.092
        14  -8.4641      2.0327      7.8998   1.1294734765e+02   7.1479160853e+01    0.2074464    0.1409024 -33.80  0.001593465    1.318    0.241
        15  -8.2829    128.0980      7.9319   7.1515862535e+01   5.1254159607e+01    0.2086218    0.1277933  34.06 0.0006173957    1.682    0.405
        16  -7.7673     39.5150      8.4888   9.6569018451e+01   6.7576069769e+01    0.1138047   0.08543631   2.46 -7.555592e-05    1.012    0.012
        17  -8.2832     76.6617      7.1189   8.3275281685e+01   6.1901861351e+01    0.2474252    0.1161426  37.30 0.0006676157    1.858    0.462
        18  -8.8761     56.7018      4.7918   8.8590972001e+01   6.5480775538e+01    0.3522165    0.1731876  16.99  0.001780066    2.429    0.588
        19  -7.5129     84.6504      6.6580   8.0852044663e+01   6.0465106717e+01    0.1339799   0.07414191  26.26 0.0007043856    1.801    0.445
        20  -8.6216     68.7079      4.4206   8.4538225189e+01   6.3541817930e+01    0.3116868    0.1442387  -7.74  0.001508018    2.695    0.629
        21  -9.8081     49.0890      4.6681   9.1221605923e+01   6.6645839961e+01    0.2192342     0.154224  10.45 0.0003875166    1.164    0.141
        22  -8.5474    111.0862      4.5921   7.3762437977e+01   5.5281208580e+01    0.2006151     0.161835  19.55 0.0003379269    1.236    0.191
        23  -8.9648     12.4703      4.5922   1.0649177381e+02   7.1040455705e+01    0.1936329     0.160299 -21.32  0.001464978    1.448    0.309
        24  -7.6595    125.4279      3.7483   7.0650251421e+01   5.2200827976e+01    0.1526571    0.1152053  11.94 0.0003788826    1.491    0.330
        25  -8.0429    157.9752     11.1737   6.7504273167e+01   4.3982896223e+01    0.2195985     0.136328 -77.94  0.001078093    2.033    0.508
        26  -7.9774    182.1798      2.1608   6.1911547811e+01   3.9018329018e+01    0.1832844    0.1491044  61.16 0.0003961337    1.188    0.158
        27  -7.8777    143.1949      2.1613   6.7135372956e+01   4.8262037992e+01    0.1638493    0.1350202 -87.75  0.000313549    1.287    0.223
        28  -7.8097      2.8972      1.2657   1.0957954487e+02   7.2270613206e+01    0.1306726    0.0715284  10.00 0.0004008189    1.714    0.417
        29  -8.5461    237.1550    225.1343   1.0468666026e+02  -9.2533867940e+00    0.2194148    0.1534801 -14.99 0.0008533988    1.417    0.294
        30  -8.0511    248.9954    249.9976   1.0692878514e+02  -1.4308815905e+01    0.2157147    0.1008382  19.44  0.001015631    2.614    0.617
        31  -8.3423    213.7587    250.4481   1.1331513883e+02  -9.1054352751e+00    0.2344082    0.1026272  42.48  0.001133129    2.060    0.515
        32 -10.0310    200.5313    249.1878   1.1556454167e+02  -6.8055188951e+00    0.4954647    0.2522452  25.25  0.001357286    2.259    0.557
        33  -9.7823    209.1819    246.8574   1.1358069280e+02  -7.8785793059e+00    0.3939005    0.2027595  29.70  0.001388246    1.848    0.459
        34  -8.6499    184.3629    250.1497   1.1875063948e+02  -4.2698832143e+00    0.1832623     0.138729  29.07  0.001130066    1.175    0.149
        35  -9.2670    150.2954    249.5758   1.2514435453e+02   1.6035261209e+00    0.3565042    0.1328307  40.12  0.001305916    2.328    0.570
        36  -7.7792    123.4738    250.5431   1.3035272014e+02   5.9526980031e+00    0.2243758     0.108639  34.16  0.001029725    2.331    0.571
        37  -7.5357    158.3115    229.3213   1.2062334970e+02   3.6881639889e+00    0.1305117    0.1026106   8.09 0.0004259569    1.650    0.394
        38  -8.8521    247.6987    225.7050   1.0290358726e+02  -1.0957660160e+01    0.3246862    0.2215382 -32.86  0.001969982    1.487    0.328
        39  -7.9669    195.0086    229.0369   1.1331377687e+02  -2.8086106353e+00    0.2089407    0.1477691   9.14 0.0005505403    1.695    0.410
        40  -7.9950    187.0548    226.4709   1.1443448031e+02  -9.8313978329e-01    0.2079214    0.1181122  38.99 0.0005614685    1.573    0.364
        41  -7.7913     70.4931    226.0107   1.3766373670e+02   1.8963931044e+01    0.1773824    0.1109258 -72.65  0.000719215    1.536    0.349
        42  -7.8011    223.5724    225.1236   1.0718094570e+02  -7.0639554129e+00    0.1792401    0.1116236 -19.92 0.0009332702    1.801    0.445
        43  -7.8267    215.4654    221.9493   1.0813454153e+02  -5.2200577077e+00    0.1796298     0.125319 -36.14 0.0004382661    1.516    0.340
        44  -7.5046    206.4686    222.4748   1.0995038659e+02  -3.7539030920e+00    0.1350157    0.1134589  13.94 0.0002811902    1.108    0.098
        45  -8.0258     51.8973    221.5099   1.4075628198e+02   2.2447340586e+01    0.1733477    0.1068472  46.33 0.0009024332    1.556    0.357
        46  -8.3647    239.8558    219.1699   1.0310572480e+02  -8.8153151284e+00    0.2205665    0.1964412   6.41  0.001465446    1.121    0.108
        47  -8.4531    182.4711    219.8925   1.1421852701e+02   9.6708911463e-01    0.2599793    0.1739717  26.21 0.0008775392    1.584    0.369
        48  -7.7289    130.3282    220.3131   1.2494883747e+02   1.0412816754e+01    0.1290009    0.1082907   4.14 0.0003570552    1.670    0.401
        49  -7.6883     40.2347    220.5838   1.4284978461e+02   2.4112826205e+01    0.1467295    0.1123046  34.84 0.0009563843    1.716    0.417
        50  -8.5897    226.9502    218.4086   1.0532970738e+02  -6.6062191140e+00    0.3025226    0.1952303   6.42  0.001283984    1.876    0.467
        51  -7.6108    173.6602    218.7306   1.1579569943e+02   2.7904418593e+00    0.1361516     0.102224  14.15 0.0003208138    1.603    0.376
        52  -8.5284    193.4456    215.6383   1.1127630744e+02  -2.9840763590e-01      0.31802    0.2173118  11.76  0.001046095    1.859    0.462
        53  -7.2182    105.6714    217.6685   1.2965934536e+02   1.5214934740e+01    0.1239075    0.1083544 -11.36 0.0003985967    1.715    0.417
        54  -7.6284    203.5380    216.4414   1.0943345964e+02  -2.2533714334e+00    0.1348898    0.1184801  17.93 5.404838e-05    1.031    0.030
        55  -7.5078    210.3974    215.2913   1.0789179832e+02  -3.2790734085e+00    0.1423861   0.09582792  10.74 0.0004893535    1.790    0.441
        56  -8.3880    249.4191    212.4549   1.0014357715e+02  -9.3340817474e+00    0.2749195    0.2027575  53.36 0.0008509965    1.903    0.474
        57  -8.1398    121.5392    213.4472   1.2576066775e+02   1.3357931292e+01    0.2855654    0.1247339  41.65  0.001192769    2.129    0.530
        58  -8.0893    232.5231    211.9272   1.0308849246e+02  -6.5360431218e+00    0.1867445    0.1203839 -31.22  0.000674798    1.529    0.346
        59  -7.8845    169.1761    211.1211   1.1539806541e+02   5.0253115699e+00    0.3471318    0.1071394 -49.98   0.00115534    3.766    0.734
        60  -7.5606     42.6019    210.7481   1.4151913458e+02   2.5900812144e+01    0.1681097   0.09626631 -86.31 0.0009363313    1.561    0.360
        61  -7.6450    186.2116    210.5413   1.1180616396e+02   1.9312241703e+00    0.1957613    0.1226974  29.75  0.000930491    1.660    0.398
        62  -7.7300    162.9860    207.8418   1.1611184691e+02   6.8223811550e+00    0.2290374    0.1569694  17.73   0.00080887    1.978    0.494
        63  -9.2703    124.0582    205.9771   1.2408664295e+02   1.4465150533e+01    0.2075209    0.1850744  51.85  0.001208581    1.095    0.087
        64  -7.5780    247.2054    204.7700   9.9067312568e+01  -7.8383135933e+00     0.179518     0.134054   0.22 0.0007386353    1.307    0.235
        65  -7.6511    215.7718    205.4080   1.0500021902e+02  -2.5974581069e+00    0.1901368    0.1182924  29.02 0.0008833056    1.628    0.386
        66  -7.8170    117.7840    205.1689   1.2531039048e+02   1.5757840530e+01     0.176412    0.1658025  20.20 0.0004403442    1.308    0.236
        67  -7.0270     47.6945    205.6913   1.4003024769e+02   2.6362145757e+01    0.1118312   0.09161017 -51.51 0.0006391738    1.610    0.379
        68  -8.2345    236.9750    204.0572   1.0076766694e+02  -6.0509901516e+00    0.1975152    0.1708952   2.32 0.0004576395    1.013    0.013
        69  -7.5634    148.6756    204.6725   1.1859050250e+02   1.0169802027e+01    0.1403775    0.1130997   1.17 0.0007049451    1.695    0.410
        70  -7.1597     86.4842    204.4858   1.3190809718e+02   2.1145636021e+01    0.1336254    0.1169477  79.90 0.0001459227    1.052    0.049
        71  -8.2101    195.9642    200.6198   1.0798135308e+02   1.8861303860e+00    0.3198517    0.1609266  32.48  0.001325233    2.175    0.540
        72  -8.1360    250.4544    199.1396   9.7401180400e+01  -7.4993412159e+00    0.2459269    0.1145959 -31.77  0.001132443    2.063    0.515
        73  -7.8125    229.0703    199.4513   1.0132651892e+02  -3.9592996183e+00    0.2788153    0.1558883  -4.63   0.00103672    3.452    0.710
        74  -7.9053    184.8218    200.1715   1.1016561521e+02   4.0969660790e+00    0.1992238    0.1610649  16.81 0.0009462847    1.334    0.251
        75  -7.4070    139.5865    199.7960   1.1971321918e+02   1.2895578416e+01    0.1895556    0.1365286 -68.33 0.0009369567    1.568    0.362
        76  -8.6679    167.2062    196.5983   1.1318257704e+02   8.2134962857e+00    0.4919868    0.3093438  10.34  0.001867786    3.051    0.672
        77  -7.9234    243.9024    196.9015   9.8119489771e+01  -6.0777846482e+00    0.2026442    0.1594284  -2.99 0.0004483447    1.215    0.177
        78  -8.4401    192.9493    194.7835   1.0746163242e+02   3.5357107456e+00    0.3935052    0.1848917 -30.95  0.001470488    2.843    0.648
        79  -7.3752    124.7062    193.6209   1.2193657000e+02   1.7001894983e+01    0.1411679    0.1148017 -17.99 0.0007021125    1.748    0.428
        80  -7.1222    133.4832    192.4900   1.1978996761e+02   1.5607003409e+01    0.1451046    0.1345013  67.61 0.0008103693    1.003    0.003
        81  -7.5844     90.2075    192.3805   1.2942349228e+02   2.3258515799e+01    0.1967855    0.1155564  52.06  0.000944732    1.640    0.390
        82  -7.3579    246.3098    189.6787   9.6255616904e+01  -5.3272407054e+00    0.1218577     0.106223 -68.33 0.0003365223    1.646    0.393
        83  -8.2842    224.6520    189.2376   1.0012006835e+02  -1.4512016215e+00    0.1933393    0.1207321 -28.06 0.0004083969    1.646    0.392
        84  -7.4958    161.9657    189.7684   1.1301847822e+02   1.0630430847e+01    0.1999677    0.1174024  42.65 0.0008753641    1.627    0.386
        85  -8.1549     64.8315    189.4029   1.3460264404e+02   2.7741341559e+01    0.2261685    0.1698008  20.55  0.001244407    1.944    0.485
        86  -7.5765     45.4777    187.4222   1.3853682334e+02   3.0709727566e+01    0.1265783    0.1039733 -89.16 0.0001543434    1.041    0.039
        87  -7.2813    217.3037    184.2894   1.0051211153e+02   7.8405674938e-01    0.1412951    0.1054611   3.39 0.0003892097    1.568    0.362
        88  -7.7390    130.2742    183.0021   1.1881672304e+02   1.8303039955e+01    0.2463766    0.1629682   4.85 0.0008903965    3.364    0.703
        89  -7.6637    156.6222    180.7736   1.1244509166e+02   1.3588015664e+01    0.1956651    0.1420926 -58.88 0.0005710933    1.489    0.329
        90  -7.8151    183.5251    180.4812   1.0654954942e+02   8.1691846641e+00    0.1463954    0.1411148  19.29 0.0001394095    1.014    0.014
        91  -7.6586     13.4850    180.4824   1.4450516760e+02   3.5684699100e+01    0.1199621    0.0905581 -87.08 0.0003402469    1.016    0.016
        92  -7.7028     96.5551    178.4324   1.2581861083e+02   2.5427238344e+01    0.1425737    0.1276579  85.86 0.0001435638    1.005    0.005
        93  -7.5649    172.9439    188.0000   1.1030947171e+02   8.7978630823e+00    0.2439596   0.08055821  43.44 0.0007969265    2.904    0.656
        94  -7.4223    121.7160    177.6199   1.1980464724e+02   2.1138482057e+01    0.1467014    0.1169446 -22.22  0.000701212    1.726    0.421
        95  -8.0664    148.4282    174.8911   1.1311916318e+02   1.6521562052e+01    0.3316148     0.236159  15.34  0.001102003    2.048    0.512
        96  -7.3772    138.3282    175.3237   1.1551862591e+02   1.8450555294e+01    0.1494442    0.1217042  -5.81 0.0007049393    1.695    0.410
        97  -7.8523     47.2158    175.5868   1.3675487742e+02   3.3221975603e+01    0.1544665    0.1288085  21.60 0.0009468572    1.647    0.393
        98  -7.7326    183.4858    172.0111   1.0478962644e+02   9.8848861392e+00    0.2105431    0.1306795 -19.68 0.0008094434    2.458    0.593
        99  -8.3947    176.9010    167.7292   1.0528726814e+02   1.2145694016e+01    0.3916571    0.1963885 -29.13  0.001328169    3.041    0.671
       100  -7.0761    143.3142    169.3640   1.1317868055e+02   1.8784293733e+01    0.1548411     0.122524  -9.77 0.0007040256    1.763    0.433
       101  -7.6223    150.6702    165.6866   1.1071833470e+02   1.8094439245e+01    0.1536863      0.12386  -1.41 0.0007044106    1.674    0.403
       102  -7.3746    168.5092    163.5301   1.0622021887e+02   1.4810594597e+01    0.1523284    0.1479715   9.36 0.0004237291    1.071    0.066
       103  -7.3211    240.3050    162.3089   9.1638970258e+01   3.6556073671e-01    0.1405701    0.1042105  -1.79 0.0007018311    1.610    0.379
       104  -7.7318    122.9490    162.5622   1.1662458789e+02   2.4378494958e+01    0.1929731    0.1367281  12.32 0.0004736995    2.255    0.556
       105  -7.6077    205.3738    159.3144   9.7516491611e+01   7.8516375467e+00    0.1568942    0.1161246   6.22 0.0007032028    1.790    0.441
       106  -7.1690    115.3551    152.7373   1.1648400003e+02   2.8132927890e+01    0.1547434    0.1140703  74.52 0.0003529657    1.622    0.383
       107  -7.1577    168.6834    151.6805   1.0354554616e+02   1.7323413819e+01     0.157314    0.1253077   0.18  0.000704058    1.658    0.397
       108  -8.0933    133.4883    147.9709   1.1096627056e+02   2.5668553316e+01    0.2391519    0.1503502 -49.37 0.0006861541    1.568    0.362
       109  -9.3272     67.1291    144.6291   1.2727149793e+02   3.8012564005e+01    0.4821903    0.3069145  74.00  0.002247568    2.053    0.513
       110  -7.6116     41.4059    139.7821   1.3315025039e+02   4.2323870032e+01     0.190491   0.09873401 -56.14 0.0009382708    1.640    0.390
       111  -8.1150     14.1838    140.2006   1.4008647220e+02   4.4768493742e+01    0.2075657    0.0925276 -41.89  0.000952508    2.876    0.652
       112  -7.9246    139.7648    138.1006   1.0716316630e+02   2.6618797928e+01    0.2973601    0.2113919  13.79 0.0008186406    2.136    0.532
       113  -7.3097    107.6669    137.2887   1.1512677441e+02   3.3222155160e+01    0.1534873    0.1162997  80.34 0.0004734261    1.627    0.385
       114  -7.2335     55.3285    135.3041   1.2872398387e+02   4.1780925210e+01    0.1355608   0.09619554 -36.00 0.0007035045    1.650    0.394
       115  -8.5596      5.4395    133.9124   1.4146924329e+02   4.6854221672e+01    0.2697404    0.1573489 -14.69  0.001451315    2.933    0.659
       116  -8.3164     23.7706    130.0586   1.3627303922e+02   4.6308689528e+01    0.3120371     0.158634 -29.04  0.001372396    3.344    0.701
       117  -7.8867    132.3649    125.2794   1.0589839496e+02   3.1093792886e+01    0.1571121    0.1254057   3.86 0.0007012453    1.678    0.404
       118  -7.3146    173.6938    123.7337   9.5737660094e+01   2.2168524802e+01    0.1524066    0.1255256  10.91 0.0001735481    1.531    0.347
       119  -9.5486     13.5700    120.0837   1.3752171062e+02   4.9405649778e+01     0.465559    0.1843187 -40.23  0.002043747    3.104    0.678
       120  -7.9606     84.5873    121.6200   1.1784919312e+02   4.0892732876e+01    0.2634909      0.13848  20.14 0.0009474594    3.298    0.697
       121  -8.9139    245.1014    121.4076   8.1857278253e+01   6.7358779938e+00    0.2539794    0.1819861 -45.44 0.0004746101    1.257    0.205
       122  -7.9740    118.5946    119.7753   1.0808555979e+02   3.5174809687e+01    0.3189183    0.1901833  11.25 0.0009572185    4.294    0.767
       123  -7.0329    142.0155    112.0000   1.0007051150e+02   3.1916067051e+01    0.2524028   0.08952788  47.04 0.0005118728    2.859    0.650
       124  -8.9738      2.9858    109.1041   1.3881553831e+02   5.2564205922e+01    0.4017151    0.1766531 -36.79   0.00200476    2.685    0.628
       125  -8.3128    133.8139    107.2703   1.0086012658e+02   3.4736362186e+01    0.4379326    0.2081155 -37.46  0.001563952    2.279    0.561
       126  -7.5702    123.5061    107.4600   1.0358145173e+02   3.6895614909e+01    0.1526816    0.1473973 -20.72  1.80852e-05    1.057    0.053
       127  -9.1344     13.9477    106.0225   1.3520385956e+02   5.2531746834e+01    0.3276574    0.1441861 -43.46  0.001072181    2.161    0.537
       128  -9.0715     17.4891    103.4553   1.3371925561e+02   5.2844655652e+01    0.1923525    0.1552946 -58.68 0.0006593684    1.027    0.027
       129  -7.6064    109.6728    105.7132   1.0684930676e+02   4.0059413385e+01    0.1498514    0.1184276  -4.73 0.0002992938    1.611    0.379
       130  -8.0190     93.7079    103.7019   1.1083125976e+02   4.3439099619e+01    0.2675135    0.1847833  19.91  0.001241668    1.836    0.455
       131  -7.9203      3.3264    102.3110   1.3768672479e+02   5.4033616510e+01    0.1226028   0.06651052 -44.67 0.0002438885    1.661    0.398
       132  -8.1416    129.5563     97.4562   9.9251772763e+01   3.7715884797e+01    0.2731639    0.1417869  36.15   0.00087822    2.257    0.557
       133  -9.1654      7.6599     96.6751   1.3547387189e+02   5.4996973712e+01    0.1893998    0.1339221 -19.89   0.00105149    1.684    0.406
       134  -9.0574     20.2010     92.2226   1.3076084732e+02   5.5097178657e+01    0.2586541    0.1145606 -37.76  0.001240222    2.338    0.572
       135  -8.9295     43.8964     92.0828   1.2316672743e+02   5.2976721643e+01    0.3417025    0.2239258 -23.87  0.001844447    1.767    0.434
       136  -8.2782     14.6669     93.3018   1.3270976001e+02   5.5265979305e+01    0.1122773   0.08587338  79.48 0.0005338377    1.655    0.396
       137  -7.4878     56.9885     91.9512   1.1894937283e+02   5.1493166614e+01    0.1642926    0.1347884 -45.41 0.0003131643    1.058    0.055
       138  -7.9261    109.9984     90.9901   1.0266572816e+02   4.3100805148e+01    0.3748071    0.1820356  24.99  0.001131813    4.180    0.761
       139  -7.9811     96.7737     89.9634   1.0615550010e+02   4.5817172358e+01    0.3005877    0.1846789  11.84  0.001169478    2.778    0.640
       140  -8.3629     67.1778     85.9262   1.1409686245e+02   5.1415966752e+01    0.3635429    0.1858636  26.82  0.001624654    2.347    0.574
       141  -9.6144     35.7675     82.1194   1.2341514096e+02   5.5910388243e+01    0.5920475    0.2570753 -30.98  0.002343742    3.097    0.677
       142  -7.8581    126.8218     83.7599   9.6013150997e+01   4.1025228328e+01     0.254674    0.1641941   8.15 0.0009495058    2.780    0.640
       143  -7.7425     21.6840     83.6906   1.2847707569e+02   5.6799420803e+01    0.1271291   0.07302969 -36.44 0.0002694776    1.634    0.388
       144  -8.5573     89.1181     78.7360   1.0513346917e+02   4.9417564034e+01    0.4048837    0.1845721  30.45  0.001549066    2.791    0.642
       145  -9.8903      8.1137     77.3093   1.3162533038e+02   5.9057789348e+01    0.3942069    0.1650685 -38.27  0.001881782    2.209    0.547
       146  -8.3643    184.1147     77.7641   8.1589949508e+01   2.8548392483e+01    0.2814609    0.1991205 -62.41 0.0008600012    1.573    0.364
       147  -8.7715     48.3784     76.9996   1.1781892583e+02   5.5634700147e+01    0.3101648     0.212933 -31.26  0.001262804    1.361    0.265
       148  -9.9075     24.3843     72.8260   1.2499708291e+02   5.8818956594e+01    0.7855275     0.311176 -29.25  0.003130351    3.693    0.729
       149  -8.2931     23.3122     69.6205   1.2456205499e+02   5.9545207426e+01    0.2207238     0.169783 -52.64 0.0006274566    1.173    0.147
       150  -7.8197     74.8600     74.6979   1.0836891069e+02   5.2534380239e+01    0.2068372     0.157736   4.37 0.0005357044    1.465    0.317
       151  -8.7880     61.8522     67.1873   1.1035163359e+02   5.5851939979e+01     0.298641    0.1594037 -40.25 0.0009164997    1.675    0.403
       152  -9.5789     65.3598     61.2491   1.0726785632e+02   5.6443224741e+01    0.4386641    0.2964921 -19.55  0.002389725    1.532    0.347
       153  -7.2671    151.7678     71.0012   8.6247980394e+01   3.7600077893e+01    0.1866317     0.124934 -36.75 0.0004597424    1.535    0.349
       154  -7.9478    105.6424     67.7325   9.6825980613e+01   4.8374732244e+01    0.2392053    0.1686717   3.45  0.001123965    1.851    0.460
       155  -7.9553     80.3475     68.2677   1.0461093673e+02   5.2869807885e+01    0.2249804    0.1563478  18.47 0.0002608804    1.616    0.381
       156  -8.6616     83.6126     64.1773   1.0225925154e+02   5.3059412908e+01    0.4592922    0.2735752   7.47  0.001907037    2.763    0.638
       157  -8.8952     43.6624     67.7471   1.1682434099e+02   5.7985291833e+01     0.260994     0.158288   4.21  0.001007083    2.119    0.528
       158  -9.4228    239.6293     65.6688   7.0068358442e+01   1.7367692963e+01    0.2431486    0.2258513 -79.55 0.0005657871    1.122    0.109
       159  -9.5691     17.6178     62.2735   1.2470387426e+02   6.1416812081e+01    0.4377394    0.1853538 -42.06  0.001942719    1.868    0.465
       160 -10.8693     38.4096     57.5626   1.1565003648e+02   6.0454181287e+01    0.4704899    0.2794434 -10.15 0.0005332629    2.071    0.517
       161  -7.6079    122.0365     62.0005   9.0567150836e+01   4.5927434377e+01    0.2626638    0.1357348  30.99 0.0009929109    2.613    0.617
       162  -8.7232     51.8694     60.8640   1.1182226929e+02   5.8318068099e+01    0.2935367    0.2215879 -32.75   0.00129112    1.134    0.118
       163 -10.0035     16.9347     39.2195   1.1810425079e+02   6.5623125035e+01    0.5309465    0.1566447 -33.10  0.002056657    3.998    0.750
       164  -8.9673      3.7349     40.2248   1.2387429508e+02   6.6367887762e+01    0.2772987    0.1257816 -48.08  0.001180029    1.643    0.391
       165  -9.3704      2.1190     55.6838   1.2878309559e+02   6.3660800914e+01    0.4721554    0.2600099 -51.93  0.003015305    1.358    0.264
       166  -8.0992    218.0000    248.0168   1.1214232801e+02  -9.4417078827e+00     0.225749   0.09462683 -38.07 0.0009261311    2.661    0.624
       167  -8.3582     98.9834     55.3988   9.4686820039e+01   5.1737457706e+01    0.4553772    0.2233372 -15.15  0.001465046    4.356    0.770
       168 -10.3302     45.2114     49.0962   1.1036461364e+02   6.1184766686e+01    0.2937468    0.2087823   3.27 0.0009221262    1.430    0.301
       169  -8.0982    118.8587     51.3738   8.7942643635e+01   4.8273067256e+01    0.2115303    0.1666005  60.82 0.0006145146    1.375    0.273
       170  -8.0406     81.5359     51.5754   9.8666988102e+01   5.5523135147e+01    0.2203594    0.1232664  52.43  0.001016613    2.303    0.566
       171  -9.1248     75.0774     50.3191   1.0031128553e+02   5.6798262041e+01    0.2818531    0.1996392  14.93 0.0003759188    1.477    0.323
       172  -9.8521     24.8462     47.1814   1.1752935687e+02   6.3604562564e+01     0.572978    0.2656424   3.93  0.002618649    3.398    0.706
       173  -8.7290     31.4482     43.8178   1.1382180979e+02   6.3562375585e+01    0.2164591    0.1468019 -10.10 0.0004664306    1.426    0.299
       174  -8.2625    106.8746     48.1349   9.0008541276e+01   5.1274177213e+01    0.1855979    0.1776923  37.83  0.001137416    1.132    0.117
       175 -10.2292     83.1095     40.1907   9.4114309509e+01   5.6950516317e+01    0.3424761    0.2368265   1.22  0.001871104    1.589    0.371
       176  -8.4259     93.4013     42.6442   9.1897062693e+01   5.4717871133e+01    0.4939595    0.1527584  40.97  0.001774884    3.245    0.692
       177  -9.6387     38.4804     41.9871   1.1044455985e+02   6.3127336017e+01    0.3224782    0.1735114   9.48  0.001663414    2.355    0.575
       178  -8.7327    136.5089     39.4222   7.9944330017e+01   4.5951231528e+01    0.2630503    0.1990893  50.78 0.0002501304    1.208    0.172
       179  -8.6403    106.5247     36.9330   8.6238358294e+01   5.2883963669e+01    0.3116813    0.1961413  21.60  0.001526298    1.865    0.464
       180  -9.4533     54.8133     36.6979   1.0235441258e+02   6.1914980022e+01    0.3184639    0.2425238  36.76  0.001198177    1.498    0.333
       181  -8.5438     92.2248     37.5175   9.0402303405e+01   5.5643350010e+01    0.3340309    0.1775597  33.80 0.0009413194    1.908    0.476
       182  -9.4553     96.0632     33.2739   8.7771096476e+01   5.5452233547e+01    0.2714991    0.2050637  13.91 0.0002956844    1.321    0.243
       183  -9.5283     37.8088     35.4121   1.0831676763e+02   6.4236435409e+01    0.3139977    0.1994724   6.92  0.001225346    1.627    0.386
       184  -8.5757     69.2411     36.5914   9.7261510716e+01   5.9786634182e+01    0.1756326    0.1056123  27.44 0.0007744695    1.650    0.394
       185  -7.3175    111.4819     58.4791   9.2211206895e+01   4.8741683265e+01    0.1418244    0.1292662  13.22 0.0001358121    1.046    0.044
       186  -9.3667      7.2462     33.7182   1.2033175428e+02   6.7244875085e+01     0.344826    0.1941696 -29.74    0.0018153    1.422    0.297
       187  -8.0603     76.6269     34.4046   9.4013784938e+01   5.8868302943e+01    0.2509343    0.1483628 -26.87  0.001348368    1.657    0.396
       188  -7.4343    123.3519     40.3417   8.3202312941e+01   4.8828098067e+01    0.1493739   0.09772074  24.29 0.0004307481    1.806    0.446
       189  -8.3948     81.7984     32.2792   9.1589955873e+01   5.8245115306e+01    0.2560551    0.1754044   6.81 0.0008400035    1.554    0.356
       190  -9.2510      2.1417     45.4596   1.2605166779e+02   6.5538481044e+01    0.2528928    0.2202789 -22.33  0.001806636    1.236    0.191
       191  -8.8306    127.8940     30.2208   7.8839316484e+01   4.9059124871e+01    0.2142039    0.1882892   4.29 0.0002548365    1.206    0.171
       192  -7.6556     88.9998     30.9959   8.8951890080e+01   5.7089388971e+01    0.2438582    0.1120793  30.03  0.001018647    2.637    0.621
       193  -9.2267      1.5645     29.8227   1.2148822029e+02   6.8245305142e+01    0.2647119     0.105223 -49.46  0.001209715    1.999    0.500
       194  -8.2136    112.7117     29.7694   8.2179491598e+01   5.2461278266e+01    0.2637846    0.1437758  36.03  0.001027871    1.855    0.461
       195  -9.6634     71.4265     26.2941   9.2577651963e+01   6.0781570141e+01    0.3687338    0.2349844  26.94  0.001405029    1.469    0.319
       196  -8.9105     61.8374     26.9245   9.6057916208e+01   6.2234253684e+01    0.2009827    0.1596951  19.14 0.0005889204    1.132    0.117
       197  -9.0001     57.4673     25.1213   9.6878132927e+01   6.3119674428e+01    0.2761366    0.1568526  32.33 0.0008877589    1.664    0.399
       198  -9.1078     48.4538     25.7390   1.0043844078e+02   6.4306919049e+01    0.3406877    0.1613578  26.55  0.001245825    2.211    0.548
       199  -8.1939     80.4654     23.4776   8.8637609543e+01   5.9550769035e+01    0.2286334    0.1724062  18.16 0.0008784935    1.191    0.160
       200  -8.9650     84.6333     21.6450   8.6692594232e+01   5.8996547378e+01    0.2537123    0.2116799  35.51  0.000907309    1.144    0.126
       201  -7.6963    105.2409     31.5665   8.4686748230e+01   5.3817898263e+01    0.1804632    0.1110031  41.24 0.0004493313    1.477    0.323
       202  -8.4230     92.1313     21.1667   8.4391939127e+01   5.7626319475e+01    0.2590084    0.1842707  15.50  0.001519934    1.398    0.285
       203  -7.5661    218.6866    244.6412   1.1145998570e+02  -9.0870867233e+00    0.1517794    0.1168789 -37.39 0.0006433683    1.518    0.341
       204  -7.8451    116.8751     20.1625   7.7896865862e+01   5.2610876590e+01    0.1789772    0.1336187  27.64 0.0003987328    1.321    0.243
       205  -7.8755     45.5646     20.5127   9.9398625663e+01   6.5366063692e+01    0.1175542   0.09097499  -2.49 0.0001350358    1.018    0.017
       206  -8.0982     18.1669    247.8613   1.4859786385e+02   2.1284869199e+01    0.1337878    0.1110739  82.59  0.001066769    1.334    0.250
       207  -8.2988    233.5007    243.4836   1.0856908884e+02  -1.1222978885e+01    0.2641966    0.1437025  37.16  0.001246751    1.647    0.393
       208  -7.4101     74.2889    247.6732   1.3909436920e+02   1.4148921492e+01     0.125665   0.07308409  70.61 0.0007013312    1.614    0.380
       209  -9.8868    193.0627    243.9371   1.1613944500e+02  -4.7969279897e+00    0.3741236    0.2602388   4.70  0.001321623    1.812    0.448
       210  -7.7963    127.7210     16.9675   7.4532405572e+01   5.0513660085e+01    0.1677628    0.1553424  31.88 0.0002118727    1.089    0.082
       211  -8.0044    103.9897     17.2296   7.9871983272e+01   5.5649932539e+01    0.2381599    0.1101475  21.09 0.0008808539    3.720    0.731
       212  -8.1515    243.4698    243.9888   1.0687782503e+02  -1.2768611826e+01    0.1672409    0.1072489 -26.73  0.000858699    1.563    0.360
       213  -8.5217     50.4199     15.1252   9.5299972177e+01   6.5345517792e+01    0.2266946    0.1535006  19.69 0.0007743906    1.292    0.226
       214  -8.1224    146.6633     14.0016   7.0126172078e+01   4.6406282816e+01    0.2113653    0.1491285  52.39 0.0002563269    1.248    0.199
       215  -7.7059     95.4228    243.7320   1.3483082475e+02   1.1715093724e+01    0.1506731    0.1135426 -59.16 0.0008985373    1.566    0.361
       216  -9.5268    176.7502    242.7814   1.1907970680e+02  -1.8380796288e+00    0.2743726    0.1853306  10.23   0.00141626    2.063    0.515
       217  -9.3847    170.5370    239.9256   1.1984484126e+02  -2.9846495275e-01    0.2977274    0.2154315  -6.34   0.00125171    1.994    0.498
       218  -8.0268    134.8216     13.2181   7.1963909558e+01   4.9246606739e+01    0.1818416    0.1299879  40.24 0.0004064443    1.331    0.248
       219  -7.6718     36.5158    239.9839   1.4505649729e+02   2.0659993074e+01    0.1393003   0.08127371 -54.73 0.0008075457    2.361    0.577
       220  -8.9785    242.1402    237.3022   1.0595760584e+02  -1.1699604103e+01     0.363786    0.2061873 -20.95  0.001870788    1.876    0.467
       221  -7.7038    214.3484    239.3209   1.1137392648e+02  -7.6412817139e+00    0.1323126   0.08710087   9.67 0.0007048962    1.739    0.425
       222  -7.8271    121.5566    239.4688   1.2934184924e+02   8.2649923144e+00    0.1305149    0.1075825  60.90 0.0001475997    1.035    0.034
       223  -7.9754    248.9041    238.1618   1.0491311883e+02  -1.2806501730e+01    0.1717906    0.1483348  15.36 0.0005962871    1.204    0.169
       224  -7.8066    224.4760    238.4883   1.0935803739e+02  -9.1467029201e+00    0.1246417     0.103995  15.87   4.0262e-05    1.016    0.015
       225  -8.3028     79.3694    238.4371   1.3726675504e+02   1.5177006046e+01    0.2172233    0.1105651  38.90 0.0008047707    2.008    0.502
       226  -9.3574    157.1514    244.7148   1.2314958325e+02   1.2342768945e+00    0.2408953    0.1571353  29.57 0.0009274905    1.611    0.379
       227  -8.1577    195.2233    236.4174   1.1450932726e+02  -4.0133172121e+00    0.1827311    0.1571608 -39.67 0.0006364277    1.347    0.258
       228  -7.4678    148.6368    237.6881   1.2379930539e+02   3.9209919298e+00    0.1298111   0.09955084  12.72  0.000704036    1.754    0.430
       229  -9.9503    188.6086    234.6114   1.1548855454e+02  -2.5876314416e+00    0.3154376    0.2974191  80.71    0.0017909    1.319    0.242
       230  -8.4044    248.0972    233.4023   1.0421610254e+02  -1.2062823814e+01    0.2292136    0.1462637 -12.26 0.0008016277    1.591    0.371
       231  -8.2813    162.0437    234.1926   1.2063263069e+02   2.1644547497e+00    0.1997342    0.1638731  27.29 0.0005341209    1.234    0.190
       232  -7.8409    138.2374    234.6115   1.2541442758e+02   6.2948419147e+00     0.188375    0.1133402  35.62 0.0009468079    1.657    0.396
       233  -8.0280    231.5098    236.9335   1.0780498183e+02  -1.0032350914e+01    0.1691665    0.1149916 -30.79 0.0004279682    1.528    0.346
       234  -7.2268    153.2928    232.6850   1.2214074733e+02   3.9853042513e+00    0.1308659   0.09714522  70.89 0.0007007712    1.597    0.374
       235  -8.8565    224.7606    244.5980   1.1034027122e+02  -1.0032777142e+01    0.2011721    0.1900221  -2.37 0.0007010831    1.294    0.227
