#   1 NUMBER                 Running object number                                     
#   2 MAG_AUTO               Kron-like elliptical aperture magnitude                    [mag]
#   3 X_IMAGE                Object position along x                                    [pixel]
#   4 Y_IMAGE                Object position along y                                    [pixel]
#   5 X_WORLD                Barycenter position along world x axis                     [deg]
#   6 Y_WORLD                Barycenter position along world y axis                     [deg]
#   7 A_WORLD                Profile RMS along major axis (world units)                 [deg]
#   8 B_WORLD                Profile RMS along minor axis (world units)                 [deg]
#   9 THETA_WORLD            Position angle (CCW/world-x)                               [deg]
#  10 FWHM_WORLD             FWHM assuming a gaussian core                              [deg]
#  11 ELONGATION             A_IMAGE/B_IMAGE                                           
#  12 ELLIPTICITY            1 - B_IMAGE/A_IMAGE                                       
         1 -14.7507    197.1668    147.9290   8.0541126063e+01   1.2188326272e+01     3.748935     1.528549 -39.27   0.01392625    2.467    0.595
         2 -12.2734    196.6969     36.6013   5.1286745203e+01   3.1387111559e+01    0.8099809    0.6504596 -42.89  0.004185527    1.231    0.187
         3 -12.4177    208.9350     22.6128   4.5867470644e+01   3.0033896557e+01    0.8477423    0.6772581  22.40  0.004617156    1.633    0.388
         4  -9.5542     33.0000     23.9981   9.1822726748e+01   6.7779429666e+01    0.1976442   0.05790487 -45.62 0.0008029756    2.946    0.661
         5 -10.1302     21.2565      5.9911   8.9347972052e+01   7.1822719168e+01    0.1533589   0.07987668 -37.84 0.0004493252    1.610    0.379
         6  -8.9919    114.7411    241.2461   1.1277373241e+02   1.0533179601e+01    0.1837574    0.1421358 -76.07  0.001253253    1.497    0.332
         7  -9.9012    213.3258    250.2284   9.6129502332e+01  -6.1798639296e+00     0.474502    0.1276508  38.58  0.002008701    2.940    0.660
         8 -11.3825    178.5652    249.8615   1.0219934546e+02  -7.8956277280e-01    0.8236493    0.1998462  38.57   0.00311654    3.446    0.710
         9  -9.3542    126.2180    249.9613   1.1161399117e+02   7.3997306304e+00    0.2527305    0.1510718  53.30  0.001547256    1.397    0.284
        10  -9.8009     82.0347    244.4784   1.1895035972e+02   1.4763120226e+01    0.2441887    0.1769724  46.91  0.001710062    1.248    0.198
        11  -9.7243     70.0424    247.0562   1.2123274439e+02   1.5946848348e+01    0.1977602    0.1365411  82.39 0.0004724692    1.336    0.251
        12  -9.7510     73.2692    250.6073   1.2094747020e+02   1.4925722822e+01    0.3137475   0.07971867  41.52  0.001398032    3.000    0.667
        13  -9.9051     79.8168    249.7548   1.1976303081e+02   1.4185752995e+01    0.4301562    0.1459094  35.53  0.001886052    3.374    0.704
        14  -9.5913     85.1669    248.0557   1.1869986607e+02   1.3730846225e+01    0.2171985    0.1678786  62.97 0.0008278677    1.051    0.049
        15 -10.3265     61.8206    250.0339   1.2283660205e+02   1.6511563311e+01    0.2584055    0.1415898  43.18 0.0007264594    1.575    0.365
        16  -9.0151     63.3131    245.9076   1.2229755057e+02   1.7017924038e+01    0.1522699    0.1329143  67.30 0.0006082237    1.306    0.234
        17 -15.5269      6.4077     70.6293   1.1661290363e+02   6.0439476328e+01     12.71252     1.169658 -68.10   0.02923464    9.349    0.893
        18 -13.9829    117.7636    213.8244   1.0903396505e+02   1.4823103198e+01     1.282394     0.905095  69.16  0.004857178    1.465    0.317
        19 -10.6524    154.7519    217.4845   1.0217360113e+02   7.9390897079e+00     0.489024    0.1959626  45.34  0.002143818    2.140    0.533
        20 -10.2240    189.5597    236.6062   9.8369715805e+01  -7.8172546533e-01    0.2690589    0.1765555   6.94  0.001508104    1.997    0.499
        21  -9.9404    143.9012    210.1442   1.0326588996e+02   1.1077536079e+01    0.4675368    0.3218863  89.94   0.00239653    2.169    0.539
        22 -10.5640     34.9129    208.6098   1.2471380850e+02   2.7346141219e+01    0.3231967    0.1504801  54.78  0.001578268    1.771    0.435
        23 -13.0911    168.1853    159.6484   8.9193095083e+01   1.6008546232e+01     2.597718     1.272303  58.03  0.009307945    2.850    0.649
        24 -12.5366    138.5706    186.8713   1.0077022154e+02   1.6380126124e+01     1.847754     1.055198 -58.60  0.008679466    2.013    0.503
        25 -14.4252    134.7643    129.5571   9.0360901681e+01   2.9316920046e+01     2.905638      2.31683 -60.86   0.01341896    1.307    0.235
        26 -11.3226    181.4027    171.8558   8.8866655388e+01   1.1016258490e+01    0.5308965    0.4877667  55.87  0.002241822    1.168    0.144
        27 -10.7022     83.1698    163.8596   1.0975565090e+02   3.0704884960e+01      0.34466    0.2457641 -60.25 0.0004790763    1.386    0.279
        28 -11.9241     71.1219    159.7243   1.1204104800e+02   3.3390697086e+01    0.5079715    0.3113212 -47.85  0.001282549    1.896    0.472
        29 -10.3945     88.5427    157.7645   1.0752585433e+02   3.1275539498e+01    0.3145808    0.2324352 -40.96  0.001033966    1.664    0.399
        30  -9.3617     50.0084    234.0318   1.2375761346e+02   2.0769413152e+01    0.1729711    0.1210788  67.17 0.0004233835    1.059    0.055
        31 -12.0081     68.7536    144.2800   1.1033835607e+02   3.7318308665e+01    0.6999618    0.4210762  69.73  0.003312962    2.000    0.500
        32  -8.1787     45.3234    145.3001   1.1642369495e+02   3.9968581871e+01    0.1232146   0.09127128 -44.11  0.000702669    1.630    0.386
        33 -10.5739     90.6984    141.4996   1.0419743380e+02   3.4716829370e+01    0.2574466    0.2340095 -55.01  0.000269499    1.157    0.136
        34 -12.1348     23.2095    135.0488   1.2075072151e+02   4.4531725549e+01    0.4590679    0.2311914 -71.04  0.002468059    1.590    0.371
        35 -10.6463     58.7050    131.0701   1.1087347238e+02   4.1763725270e+01    0.3782067    0.1394757 -60.35   0.00153924    2.306    0.566
        36 -14.8570      7.0228    245.8403   1.3138656120e+02   2.3415054253e+01     1.886519     1.233095  40.33  0.003371815    1.721    0.419
        37 -12.9044    139.7976    170.3537   9.7624010649e+01   1.9487423976e+01    0.7925467    0.7366168  83.70  0.003020029    1.098    0.090
        38  -9.0214    106.1440    130.8514   9.8031476621e+01   3.4581276608e+01    0.2360956    0.2004461  87.78  0.001238229    1.246    0.198
        39  -9.4418     99.1993    127.6456   9.9204887364e+01   3.6556892456e+01    0.3159563    0.2333181  -8.20 0.0009686505    2.134    0.531
        40 -11.3297     27.0661    122.2813   1.1818297348e+02   4.7175966305e+01    0.3009126    0.1976234  51.30  0.001396923    1.662    0.398
        41 -14.1240    135.7989    159.9334   9.6577737211e+01   2.2450749999e+01     1.869194     1.251937  40.17  0.005886843    1.466    0.318
        42 -16.0668     62.0332    193.7110   1.1812359061e+02   2.7117352905e+01     2.958739     1.854601  40.34   0.01225844    1.603    0.376
        43 -11.2701    172.4961    229.9320   1.0056314725e+02   2.9689459280e+00    0.4693405    0.3290029  38.49  0.002181447    1.166    0.142
        44 -11.4504    164.5012     98.2058   7.5112684757e+01   2.9273864183e+01    0.7525711    0.5957292 -47.02  0.002442902    1.270    0.213
        45  -8.3016     86.4589     99.4518   9.6318594546e+01   4.5289130343e+01    0.1443582    0.1339266 -59.28 0.0001692006    1.028    0.028
        46 -14.7555      5.4549    214.4738   1.3029815555e+02   2.9205887819e+01     2.915485    0.9255863 -66.37   0.01531292    3.031    0.670
        47  -8.7153    151.0637     54.5093   6.4937382042e+01   4.0516933291e+01    0.2252037    0.1486442  58.34 0.0004863527    1.510    0.338
        48  -8.9302    152.2534     47.5835   6.2411419166e+01   4.1293601097e+01    0.2943761    0.2112882 -88.86   0.00107654    1.841    0.457
        49 -10.9933    188.1850     42.4152   5.4231279760e+01   3.2788488655e+01    0.3288936    0.3110726  25.12 0.0008825863    1.169    0.145
        50 -10.1957     99.3143    245.3252   1.1596556482e+02   1.2167497835e+01    0.2175209    0.2026333  42.19 0.0009152145    1.385    0.278
        51 -11.7672    199.8012     33.1894   4.9897905879e+01   3.1038737989e+01    0.4725332    0.4357328  77.36  0.002158711    1.061    0.058
        52 -15.8652     82.6191    215.0940   1.1614733574e+02   1.9984081365e+01      2.45863     1.896913  26.38   0.01001133    1.736    0.424
        53 -11.8174    104.6445    242.4727   1.1473552866e+02   1.1853456711e+01    0.6297112    0.3363492  42.90  0.002607213    1.530    0.346
        54 -11.9469    200.6695    240.9745   9.7003969634e+01  -3.1241422390e+00     1.177709    0.4732591  27.41  0.004876667    3.203    0.688
        55 -10.5524     64.5660    238.5244   1.2154174081e+02   1.8134851793e+01    0.3495442    0.1787171  42.92 0.0009500476    1.677    0.404
