#   1 NUMBER                 Running object number                                     
#   2 MAG_AUTO               Kron-like elliptical aperture magnitude                    [mag]
#   3 X_IMAGE                Object position along x                                    [pixel]
#   4 Y_IMAGE                Object position along y                                    [pixel]
#   5 X_WORLD                Barycenter position along world x axis                     [deg]
#   6 Y_WORLD                Barycenter position along world y axis                     [deg]
#   7 A_WORLD                Profile RMS along major axis (world units)                 [deg]
#   8 B_WORLD                Profile RMS along minor axis (world units)                 [deg]
#   9 THETA_WORLD            Position angle (CCW/world-x)                               [deg]
#  10 FWHM_WORLD             FWHM assuming a gaussian core                              [deg]
#  11 ELONGATION             A_IMAGE/B_IMAGE                                           
#  12 ELLIPTICITY            1 - B_IMAGE/A_IMAGE                                       
         1 -11.2854    236.1685     18.8626   2.1712459106e+01   2.4156453310e+01      1.13973    0.7097906  77.58  0.006563649    1.551    0.355
         2 -12.7616    232.1068     31.7135   2.4952600596e+01   2.3512175525e+01      2.18235    0.7728775 -50.88  0.002035906    2.775    0.640
         3 -11.5643    205.5325     20.4641   2.4961366336e+01   3.0974599646e+01      2.08472     1.161996 -12.72   0.00937526    2.724    0.633
         4 -14.1571    181.0936     79.2772   4.4287269303e+01   2.8565502064e+01     5.796541     2.863537 -39.92   0.01231469    1.975    0.494
         5 -14.5717    220.9639     77.0739   3.7058927056e+01   1.9600848966e+01      5.84454     3.179556  86.01   0.02145952    3.450    0.710
         6 -11.7225    213.5702     25.3713   2.5323840340e+01   2.8503867095e+01    0.8784462    0.5880212  -4.91  0.002634544    2.304    0.566
         7 -12.8948    219.2246     36.3558   2.7373951890e+01   2.5834744976e+01     2.436688     1.195307 -53.80   0.01108073    2.059    0.514
         8 -13.3870    249.5649     39.2837   2.4986386802e+01   1.8824574757e+01     12.40414     2.372107 -28.33   0.01818327   23.449    0.957
         9 -11.6368    249.8294     26.3698   2.2207737590e+01   2.0375287667e+01    0.6502156    0.3176894 -36.21   0.00146478    1.835    0.455
        10 -14.1075    228.2912     91.0050   3.9327676547e+01   1.5788346000e+01     7.762208     1.770117 -46.88   0.01382861    6.177    0.838
        11 -14.0262    245.8217     61.5754   3.0262909126e+01   1.6583142185e+01     1.766543    0.9712606  67.41  0.002826732    2.021    0.505
        12 -11.0314    134.2854     22.8128   3.6130772046e+01   4.8519827898e+01     0.642239    0.2853855 -25.61  0.002575812    2.492    0.599
        13  -9.2909    164.1486     22.3088   3.0734802813e+01   4.1032164443e+01    0.4585887    0.2821436  14.24  0.001997909    2.569    0.611
        14  -8.8249    128.4744     14.3984   3.4341480669e+01   5.0847800365e+01    0.2467807    0.1376986 -22.92 0.0006912472    2.009    0.502
        15 -12.0053    249.4350      3.6279   1.7530570490e+01   2.3022335560e+01    0.4713732    0.3006052  -4.81  0.002497397    2.919    0.657
        16  -9.5199     90.4813      9.7733   4.1559930947e+01   6.0187698531e+01    0.3052371    0.2253074 -12.76 0.0009684521    1.431    0.301
        17  -9.4252     79.3858     11.2074   4.5573374580e+01   6.2381943613e+01    0.2690167    0.2070432  -4.19 0.0007918813    1.291    0.225
        18 -10.3294    120.0882      9.2837   3.4177146617e+01   5.3387338999e+01    0.3902526    0.3058607 -32.71  0.001092935    1.443    0.307
        19 -10.1206    240.2160      6.8009   1.8804304482e+01   2.4618564739e+01    0.2149148    0.1888546 -30.31 0.0005858498    1.385    0.278
        20  -8.7323    235.7678      4.0698   1.8538119331e+01   2.5861334116e+01    0.3699937    0.2862402  16.83   0.00226553    2.083    0.520
        21  -9.0876    182.3366      3.7102   2.3094560826e+01   3.8358673781e+01    0.3356284    0.2491957  76.58  0.001962529    1.177    0.150
        22  -9.3751    136.9575      2.7648   2.8782886041e+01   4.9799637100e+01    0.2371549    0.1948013 -16.62 0.0005108016    1.408    0.290
        23  -8.2893    172.0186      2.3693   2.3870583390e+01   4.1042073767e+01    0.2430312    0.1582472 -62.19  0.001287891    1.616    0.381
        24  -7.7367    159.5100      1.3625   2.5095060673e+01   4.4262202003e+01    0.1338543    0.1104889  70.78 -7.322111e-05    1.050    0.047
        25  -8.6006    241.9294    183.2389   5.7189096349e+01  -1.6324219469e+00    0.1762394    0.1605476   4.47 0.0004289295    1.242    0.195
        26  -8.6115    171.3039    250.6069   8.2057218759e+01  -5.6794832018e-01    0.2223208   0.09318177  39.17 0.0006101077    1.922    0.480
        27  -9.0575    135.6381    249.5316   8.8918935078e+01   4.9741351328e+00     0.298934    0.1539311  54.06  0.001124146    2.217    0.549
        28  -7.9823    201.8009    181.6260   6.4395999397e+01   5.3229628228e+00    0.1790755      0.12488  44.36  0.000449797    1.526    0.345
        29  -9.1117    248.5197    179.0513   5.5240463761e+01  -2.0287639795e+00    0.1947045    0.1104302 -32.45 0.0005513864    1.589    0.371
        30 -10.3916    238.2944    175.6593   5.6328845030e+01   8.2508706860e-02    0.4160459    0.2964695  68.68  0.001187669    3.022    0.669
        31  -9.4000    213.7100    176.0902   6.0941928118e+01   4.1542458578e+00    0.2828038    0.2242701  26.88 0.0006189289    1.203    0.169
        32 -11.0607    228.5217    171.4924   5.7233664058e+01   2.3499780371e+00    0.6154175    0.3663927  -6.71  0.002805285    2.215    0.549
        33 -10.2389    230.5841    167.8419   5.6114891259e+01   2.5847193318e+00    0.4833064    0.2200922 -45.84  0.002014599    2.607    0.616
        34  -8.8043    218.4901    172.0361   5.9204964121e+01   3.9901209713e+00    0.2108048    0.1864529  41.60 0.0004111945    1.328    0.247
        35 -10.0655    241.2595    165.4070   5.3743547173e+01   1.1823480403e+00    0.3000822    0.1864559  -8.41  0.001487047    1.872    0.466
        36  -8.4446    249.6705    249.6966   6.7557285039e+01  -1.1264188566e+01    0.1174894   0.06590371   5.99 0.0007034852    1.651    0.394
        37 -11.8666    202.5650     83.5835   4.1569480582e+01   2.2728151960e+01     1.086963    0.7650672  50.32  0.004447983    1.480    0.324
        38 -10.3209    193.4323    246.0742   7.7157948284e+01  -3.2266507043e+00    0.2129297    0.1767341  22.40 0.0003225113    1.131    0.116
        39  -9.1552    159.9207    245.1174   8.3545133281e+01   1.9554779488e+00    0.1808304    0.1640924  18.18 0.0003244231    1.161    0.138
        40 -12.0295    184.7352     91.3514   4.6847869617e+01   2.5565232030e+01     1.278682     1.021072  35.23  0.006349526    1.360    0.264
        41  -9.5524    161.4681    240.8147   8.2649913131e+01   2.3690588077e+00    0.2312189    0.1803769  28.55 0.0004109502    1.048    0.046
        42  -9.4842    162.6065    162.8252   6.9019749456e+01   1.6261197746e+01    0.2546351    0.2361787  23.98 0.0003024809    1.020    0.019
        43  -7.4963    209.3248    163.6631   5.9228521740e+01   7.0634261973e+00       0.1339    0.1156796 -79.33 0.0007051301    1.719    0.418
        44  -7.9064    168.2001    160.3265   6.7211916881e+01   1.5656980843e+01    0.2060035      0.13304  47.06 0.0003269833    1.577    0.366
        45  -8.3904    130.9399    236.9839   8.8336219182e+01   7.7406214207e+00    0.2043854    0.1361961  62.16   0.00112642    1.793    0.442
        46 -12.8051    235.6149     55.6731   3.0078732390e+01   1.9569907224e+01    0.6243501    0.3575071 -41.82  0.001226648    1.540    0.351
        47  -8.4095    152.8821    157.5468   7.0195477228e+01   1.9289100238e+01    0.2347048    0.2080974 -84.79 0.0006298986    1.363    0.267
        48  -8.4493    136.6452    155.8513   7.3818272478e+01   2.2864902236e+01    0.2781494    0.2213448 -89.33  0.000850053    1.644    0.392
        49  -8.0688    105.9717    156.3958   8.1862298217e+01   2.8429991100e+01    0.1961004     0.172024  46.77   0.00104389    1.109    0.098
        50 -11.0215     13.4734    148.4978   1.0563939346e+02   4.2016933227e+01    0.7668133     0.396478  -4.07  0.003434634    3.683    0.728
        51  -9.6756    134.1041    146.8490   7.2553070199e+01   2.5371260993e+01    0.9764693    0.3005618 -55.66  0.002538477    4.833    0.793
        52  -9.8496    164.3761    148.8081   6.5580623048e+01   1.8781728138e+01    0.3981248    0.2986072 -73.35  0.001244226    1.905    0.475
        53 -10.9818    223.8255    145.7701   5.2647410229e+01   7.4499285402e+00    0.8838283    0.5893775  67.42  0.003991434    2.523    0.604
        54 -10.1504    217.6759    143.3817   5.3240145659e+01   9.0286227127e+00    0.4445179    0.2843308 -37.36  0.001924266    1.473    0.321
        55 -10.3554    214.6489    140.4423   5.3144062360e+01   1.0132076141e+01    0.5056593    0.3463399  61.98   0.00238864    1.993    0.498
        56  -9.0384    149.4995    152.2191   6.9871170303e+01   2.1103532518e+01    0.2334282    0.2033427  62.52  0.000441677    1.271    0.213
        57  -9.8615    192.7127    143.8329   5.8224706867e+01   1.3915796467e+01    0.3653616    0.2471594  25.04  0.001308329    1.679    0.404
        58  -8.8586    166.2419    142.9284   6.3815884777e+01   1.9606732335e+01    0.3610179     0.249002 -68.13  0.001467944    2.135    0.532
        59 -11.2861     14.8675    145.1209   1.0496255127e+02   4.2710649486e+01      1.02806    0.5995613 -37.11  0.005424346    2.260    0.558
        60 -10.7672    180.5566    137.8104   5.9413936170e+01   1.7615621832e+01    0.9161593    0.3620307 -40.03  0.002911139    2.526    0.604
        61  -9.0720    176.3180    131.6447   5.8881423623e+01   1.9749497341e+01    0.2954064    0.2085656 -76.33   0.00119895    2.333    0.571
        62  -9.7392    174.2026    126.2723   5.8046606159e+01   2.1287509398e+01    0.5628108    0.3264893 -57.07  0.001629721    2.275    0.560
        63  -8.6390    159.0122    141.9711   6.5290653009e+01   2.1325439643e+01    0.3386018    0.1924547 -50.72   0.00119243    1.916    0.478
        64  -8.4150    202.3240    141.4773   5.5743850546e+01   1.2399910822e+01    0.3185137    0.2121442 -67.16  0.001306309    2.575    0.612
        65  -9.5723    145.9966    140.9877   6.8234876988e+01   2.4255517512e+01     0.244527    0.1954403  87.31  0.001122494    1.681    0.405
        66  -8.7598     57.1671    236.8255   1.0320766460e+02   1.8243716858e+01    0.1429714    0.1374956  52.45  0.001080859    1.360    0.265
        67 -11.0820    194.9468    157.8244   6.0868195500e+01   1.0846637283e+01    0.8594275    0.5721167 -63.86  0.003675069    2.440    0.590
        68  -9.3020    160.0425    128.8939   6.1944946972e+01   2.3855968560e+01    0.4305144    0.2695574 -35.99  0.001825185    1.661    0.398
        69  -7.6226    113.3142    131.3138   7.4668014684e+01   3.3006164120e+01    0.1561538     0.122217 -11.41 0.0006959935    1.640    0.390
        70  -9.2125    135.8800    128.0665   6.7779339509e+01   2.9224193847e+01    0.5268841    0.2149513 -50.83  0.001476127    2.646    0.622
        71  -9.1046    204.8202    151.7088   5.7538934245e+01   1.0040185539e+01    0.3693842    0.2823895  46.80  0.001918445    1.414    0.293
        72  -9.3989    223.5089    128.6928   4.8886796436e+01   1.0438790252e+01    0.3044348    0.2240109  23.18 0.0007985425    1.557    0.358
        73  -9.6259    201.8507    126.5055   5.2355638407e+01   1.5255839146e+01    0.3541705    0.2012447 -33.38 0.0005814843    1.738    0.425
        74  -8.2187    215.4092    126.2170   4.9752213999e+01   1.2492915875e+01    0.1987296    0.1285901 -44.15 0.0003371808    1.524    0.344
        75  -7.5098     91.3820    127.2477   8.0091935498e+01   3.7917165342e+01    0.1491113    0.1168281  -6.97 0.0003781878    1.651    0.394
        76  -7.9577    166.5366    122.4766   5.8839928588e+01   2.3753212202e+01    0.1532845    0.1523374 -30.03   0.00080861    1.048    0.046
        77  -8.5203     56.9628    121.2362   8.9420588375e+01   4.4421914632e+01    0.2025214    0.1749642  75.34  0.000304969    1.233    0.189
        78  -7.8880    135.2843    120.3247   6.6021757080e+01   3.1072683609e+01    0.1586936    0.1248275  -6.18  0.000700356    1.600    0.375
        79 -10.7506     64.9061    143.6396   9.0943539792e+01   3.7868278528e+01     2.076565     0.639852  39.75  0.007387259    3.104    0.678
        80  -9.7706    170.7401    116.7040   5.6428466214e+01   2.3978547648e+01    0.4977218    0.3441033  36.53  0.001747954    1.519    0.342
        81  -8.0697    168.2656    113.4107   5.6141043061e+01   2.5199631250e+01    0.2124515    0.1862595 -81.92  0.000477665    1.352    0.260
        82  -8.8923    200.5257    115.6556   4.9996856178e+01   1.7533985282e+01    0.2535834    0.1407084  49.64 0.0009596895    1.883    0.469
        83  -9.9853    134.7017    110.6173   6.3663651851e+01   3.3330657887e+01    0.8686789    0.1421658 -43.86  0.001868101    6.176    0.838
        84 -10.3339    136.2228     99.5899   6.0252882962e+01   3.5349928753e+01    0.4466536    0.3321498 -24.45  0.002014144    1.523    0.343
        85 -10.2894    205.4585    110.0090   4.7694436130e+01   1.7479114031e+01     0.439983    0.3745377  22.95  0.002087591    1.288    0.223
        86  -9.9880    126.0081     87.0225   5.9384587342e+01   4.0236849895e+01    0.7531197    0.3977409 -63.61  0.002262759    3.971    0.748
        87 -10.3509    124.7868    107.8898   6.5637151781e+01   3.6062069434e+01     0.475134    0.3514687 -70.23  0.001612611    1.753    0.429
        88 -11.5238    121.6626     99.4013   6.4189880071e+01   3.8584209349e+01     1.207769    0.8175849 -65.22  0.005032947    1.966    0.491
        89  -8.2188    144.1034    106.8720   6.0211567434e+01   3.2044919571e+01    0.2216751     0.188363  14.62 0.0007013464    1.312    0.238
        90  -9.1997    163.1342    236.2586   8.1675188296e+01   2.8115213526e+00    0.2959296    0.1465115  44.41  0.001148467    1.861    0.463
        91 -10.1883    169.1413    101.7316   5.2872074290e+01   2.7302488894e+01     0.535527    0.3175656 -39.54 0.0007126408    1.673    0.402
        92 -10.4665    162.7185     99.3530   5.3670414935e+01   2.9273265754e+01    0.7930892     0.420731  35.72  0.002718276    2.274    0.560
        93  -9.3584    150.6401    103.9764   5.7792096001e+01   3.1157452518e+01     0.405511    0.2834135  45.90  0.001016373    1.424    0.298
        94 -10.1604     76.4546    104.6959   7.9582422681e+01   4.5759519262e+01    0.2551821    0.2455232 -34.43 0.0002445215    1.029    0.028
        95  -9.5444    206.9977    103.2222   4.5748370506e+01   1.8344428914e+01    0.3090256    0.2141031 -44.56 0.0004075785    1.396    0.284
        96  -7.6787    108.5087    110.5094   7.1009374743e+01   3.8782683071e+01     0.153128    0.1503733 -24.82 3.088232e-05    1.000    0.000
        97  -7.4104    190.7352    234.3089   7.5898550324e+01  -1.1884674979e+00    0.1088139   0.09441337  51.71 0.0001438817    1.534    0.348
        98 -13.1369    236.8325     71.1480   3.3506095434e+01   1.7066871487e+01     1.041386    0.7785375  83.16  0.005823277    1.516    0.340
        99 -10.0558    144.9906     94.7554   5.6631313037e+01   3.4337798677e+01    0.3752691    0.3511293 -46.66 0.0005545765    1.091    0.084
       100  -8.3598    212.4720     94.4596   4.2645366537e+01   1.8645603276e+01    0.2501494    0.1326696 -39.60 2.726109e-05    1.749    0.428
       101  -7.9145    215.2945     93.2850   4.1893316826e+01   1.8220226473e+01    0.2576263    0.2400355  -0.97 0.0002424487    1.161    0.138
       102 -11.0766    161.3170     90.8485   5.1635904983e+01   3.1247318386e+01    0.3795146    0.3437982 -40.40  0.001955494    1.107    0.097
       103  -8.7770    220.4913     91.2314   4.0566952127e+01   1.7424535548e+01    0.2661417    0.1902833  83.19 0.0008300117    1.833    0.454
       104 -10.1169    139.8686     90.1645   5.6612052826e+01   3.6446659170e+01    0.2995602    0.2631838 -63.50 0.0007620925    1.261    0.207
       105  -9.2277    221.8868    117.2842   4.6536653821e+01   1.2727645257e+01    0.4337347    0.2284624 -54.30  0.001272381    2.526    0.604
       106  -8.8077    246.8203    233.6037   6.5438549861e+01  -9.0702611392e+00    0.1540774   0.09506786  36.19 0.0009492582    1.718    0.418
       107  -9.4402    130.9722     86.5126   5.7876240397e+01   3.9221055211e+01    0.2461058    0.1523236  45.74  0.001028409    1.596    0.374
       108  -9.6486    148.3192     83.3273   5.2506474179e+01   3.5785449474e+01    0.2950774    0.2756436 -45.10 0.0009823223    1.093    0.085
       109  -9.6723    151.9908     81.5106   5.1100091435e+01   3.5244416798e+01    0.3627406    0.2325346  48.81  0.001181467    1.532    0.347
       110  -9.4721    140.1720     78.7119   5.3131508443e+01   3.8596282396e+01    0.3012798    0.2684623 -18.52 0.0009496389    1.175    0.149
       111  -8.9209    126.5956     76.1981   5.5912505521e+01   4.2238427072e+01    0.3710412    0.2464494  78.71  0.001416262    2.579    0.612
       112  -7.7314    104.6716    233.3240   9.3319463953e+01   1.2384854560e+01    0.1320896    0.0820752  61.17 0.0005914606    1.696    0.410
       113  -9.2112    151.0628     71.0796   4.8201357855e+01   3.7351669518e+01    0.3111261    0.2830951 -21.77 0.0003867198    1.147    0.128
       114  -9.8599    154.9797     69.9993   4.6994666855e+01   3.6576743254e+01    0.3450172    0.2651723 -41.47 0.0006622241    1.328    0.247
       115 -10.7059    154.1026     65.6543   4.5873865836e+01   3.7531258724e+01    0.7900358     0.290345 -41.49  0.002600288    2.768    0.639
       116  -7.9433     84.0003     71.7610   6.7712427394e+01   5.1884857541e+01    0.1804682    0.1213411  36.33 0.0002465681    1.512    0.339
       117  -8.6893    125.2257     69.5718   5.4181117719e+01   4.3792048150e+01    0.2711024     0.210032 -32.43 0.0005494333    1.323    0.244
       118  -8.9279    144.5005     67.9766   4.8775437173e+01   3.9495500297e+01    0.2394736    0.1511898 -37.27  0.001040529    1.619    0.382
       119  -7.5963    112.0081     63.2081   5.5820469513e+01   4.7928230007e+01    0.1915811    0.1171634  46.31            0    1.596    0.373
       120  -8.7842    125.8981     61.6103   5.1397749550e+01   4.5049796998e+01    0.2849061    0.2126954 -11.94 0.0006449012    1.582    0.368
       121 -10.2100    143.7008     59.6453   4.6344434567e+01   4.1093944437e+01    0.4545599    0.3059121  60.82  0.001550207    1.516    0.340
       122 -10.2334    135.1034     54.6689   4.6764361671e+01   4.3999168991e+01    0.4848418    0.2378911 -34.14  0.000797751    2.118    0.528
       123  -7.9852     72.5933     58.4876   6.7379235608e+01   5.6490823969e+01    0.1408179    0.1260133 -14.71 0.0001101235    1.019    0.019
       124 -13.0603     30.4866    150.7738   1.0141703992e+02   4.0018918175e+01     1.519468    0.9397999  -6.41  0.001920358    2.718    0.632
       125 -10.0215    217.2927     54.1917   3.1953681582e+01   2.3868155481e+01    0.2978628    0.2425065 -39.18 0.0005708922    1.194    0.163
       126  -9.9499    129.7097    228.2957   8.7480860294e+01   9.4375607350e+00    0.2195467     0.203986  45.57 0.0004003448    1.114    0.103
       127 -12.3559     41.3795    146.4092   9.7950079705e+01   3.9988058361e+01    0.9124814    0.7575428 -78.02  0.002731712    1.064    0.060
       128  -9.4650    199.0930     43.0613   3.1533948104e+01   2.9725311315e+01    0.3946894    0.1861148 -34.25 0.0009413277    2.080    0.519
       129  -8.6458    103.4718     44.0534   5.1554129146e+01   5.3008105503e+01    0.2113887    0.1403695 -32.39   0.00101805    1.555    0.357
       130  -8.7720    112.8427     50.7818   5.1268628995e+01   4.9862594858e+01    0.2091443    0.1850423  18.05  0.000394634    1.106    0.096
       131  -9.9561    163.0821     39.8803   3.6223841511e+01   3.9151687395e+01    0.3686901    0.2540491 -38.56  0.000874854    1.504    0.335
       132  -8.3405    171.0407     35.2931   3.3514471457e+01   3.7731282965e+01    0.2612736    0.1877894 -41.29 0.0006039881    1.432    0.302
       133  -8.7728    171.1785     29.7710   3.1874698827e+01   3.8382081880e+01    0.2821751    0.1910132 -30.80 0.0008799269    1.581    0.368
       134  -8.2224    108.2816     35.3574   4.6894093211e+01   5.3201347143e+01    0.1488644     0.103239  17.77 0.0003674901    1.666    0.400
       135  -9.9595    162.8406     32.3964   3.3993263398e+01   4.0177060077e+01    0.2872008    0.2281054 -33.94 0.0004596989    1.343    0.255
       136  -9.1680     80.4231    220.5351   9.7036196512e+01   1.8326755067e+01    0.3078915    0.1764759  51.04 0.0006978268    1.509    0.337
       137 -10.4799    132.4415     31.3225   3.9463590160e+01   4.7970757262e+01    0.5281505     0.265904 -23.99  0.001795137    2.264    0.558
       138  -9.0183    159.0406     26.4852   3.2816857756e+01   4.1854203994e+01    0.2824125    0.2372301  49.89  0.001082413    1.166    0.143
       139  -8.7346    158.9228     22.6690   3.1660041130e+01   4.2319260384e+01    0.2476574    0.1907764 -44.06 0.0003735815    1.381    0.276
       140  -7.8583     78.5165     26.5056   5.2639694326e+01   6.0709174656e+01    0.1368807    0.1171973  15.09 -2.454921e-05    1.010    0.010
       141  -8.7591    188.4567     24.2867   2.7929553231e+01   3.4694789856e+01    0.2183256     0.198996  75.82 0.0006467885    1.078    0.072
       142  -9.6388    178.9205     23.7499   2.9029616129e+01   3.7136190884e+01     0.468358    0.3194719  72.92  0.002162669    1.358    0.264
       143  -8.7443    224.7479    218.5570   6.6816953676e+01  -4.0952694322e+00     0.245935    0.1856702  54.11  0.001129825    2.145    0.534
       144  -8.9159     92.2617     23.2277   4.6744437909e+01   5.8318036931e+01    0.2234249    0.1993427  -3.78 0.0004689671    1.134    0.118
       145  -8.3086     78.5878     19.6971   4.9647689906e+01   6.1573086619e+01    0.1666004    0.1214512 -33.54 0.0003593385    1.519    0.342
       146  -7.6600    190.3491     15.2767   2.5294724672e+01   3.5228453274e+01    0.1343345   0.09296433  45.75 0.0007006183    1.637    0.389
       147  -8.6275    152.9333    215.2183   8.0671813835e+01   7.9633866077e+00    0.1889584    0.1570472  42.88 0.0002676146    1.140    0.122
       148  -9.0386     36.5495    214.7039   1.0567622514e+02   2.5020008059e+01    0.2081131   0.09934109 -70.68  0.001029254    2.026    0.506
       149  -9.3747    188.6620    210.0332   7.2335617906e+01   2.8462160305e+00     0.381272    0.2562959  60.22  0.001697972    2.421    0.587
       150  -7.8445    206.6321    206.2533   6.8082619218e+01   4.9467395759e-01    0.1206233   0.09990451  52.49 0.0004988462    1.631    0.387
       151  -9.0033     13.5176    202.8331   1.0957708499e+02   2.9822188176e+01    0.1713516    0.1563117 -73.16 0.0006065574    1.374    0.272
       152  -9.6409    193.0844    195.2874   6.8787834707e+01   4.5309475747e+00    0.8878325     0.438235 -59.79  0.002557689    6.636    0.849
       153  -8.0707    250.5099    198.4467   5.8607191671e+01  -5.0684726251e+00    0.1239857   0.09872331  -2.62 0.0003344388    1.032    0.031
       154  -7.3988     93.7135    191.2688   9.0564216408e+01   2.2489527895e+01    0.1364592   0.09529357  64.47 0.0002328385    1.500    0.333
       155  -8.8055     16.8541    187.0893   1.0788143661e+02   3.2893621249e+01     0.172429    0.1479376  62.29            0    1.170    0.145
       156  -7.6975    169.5252    184.9884   7.1860332868e+01   1.0585919855e+01    0.1826468    0.1299113 -74.44 0.0008069561    2.404    0.584
