#   1 NUMBER                 Running object number                                     
#   2 MAG_AUTO               Kron-like elliptical aperture magnitude                    [mag]
#   3 X_IMAGE                Object position along x                                    [pixel]
#   4 Y_IMAGE                Object position along y                                    [pixel]
#   5 X_WORLD                Barycenter position along world x axis                     [deg]
#   6 Y_WORLD                Barycenter position along world y axis                     [deg]
#   7 A_WORLD                Profile RMS along major axis (world units)                 [deg]
#   8 B_WORLD                Profile RMS along minor axis (world units)                 [deg]
#   9 THETA_WORLD            Position angle (CCW/world-x)                               [deg]
#  10 FWHM_WORLD             FWHM assuming a gaussian core                              [deg]
#  11 ELONGATION             A_IMAGE/B_IMAGE                                           
#  12 ELLIPTICITY            1 - B_IMAGE/A_IMAGE                                       
         1 -14.0952     68.7057    144.3843   9.7669006851e+01   3.7481560172e+01     4.289085      2.15914  69.41  0.003987086    5.048    0.802
         2 -13.5897    204.5224     41.7058   3.9129255681e+01   2.9623640772e+01     1.618415     1.269704  34.85  0.007769708    1.747    0.428
         3 -13.4405    216.6816     30.6134   3.5310857764e+01   2.8376615652e+01    0.9409287    0.7953112  34.98  0.004701014    1.667    0.400
         4 -11.0796      2.5934      6.5115   8.5751941528e+01   7.3743311719e+01    0.6043274    0.1639515 -46.10  0.002684222    3.522    0.716
         5 -12.6967    242.8167      5.7523   2.8186517769e+01   2.5864321276e+01     0.751853     0.534568 -85.38  0.005367627    1.192    0.161
         6  -9.3797     47.9291      2.4846   5.9842343647e+01   6.8426275407e+01    0.1746069   0.09926709  42.54 0.0004469541    1.533    0.348
         7  -8.8842     56.4953      1.4767   5.6062470316e+01   6.7015999450e+01    0.1216213   0.09534828  26.47 -2.375349e-05    1.003    0.003
         8  -9.4482    107.6024    203.7812   9.7029196237e+01   1.7083565335e+01    0.1902347    0.1361235 -75.58 0.0006321567    1.652    0.395
         9 -10.2415    102.0199    247.5911   1.0398578575e+02   8.8789047786e+00    0.5589554    0.1530895 -64.65  0.001797276    5.731    0.825
        10 -14.7939     39.1294    197.4457   1.1286614917e+02   2.7868846058e+01     4.647449     1.889853  68.61  0.005372138    3.857    0.741
        11 -14.1337     48.3606    187.5542   1.0958535424e+02   2.9190173019e+01     3.865797     1.587747  60.65    0.0137991    3.485    0.713
        12 -16.8089     14.7589    243.3963   1.2135140270e+02   2.0399629158e+01     7.673279     6.165339  79.23   0.05717081    1.119    0.107
        13  -9.5387    110.9209    203.1982   9.6136384866e+01   1.6687235077e+01    0.2181829    0.1793911  58.17 0.0004229252    1.251    0.201
        14 -10.6536    192.5512    194.1500   7.5833518098e+01   4.8356769108e+00     1.037608    0.5708892 -66.03  0.002904812    6.736    0.852
        15  -9.4394    122.3235    199.0023   9.2703573214e+01   1.5763628361e+01    0.3095958    0.2517147 -82.85  0.001154825    1.485    0.327
        16 -13.4307     15.8072    216.0662   1.1954743485e+02   2.6012534612e+01     0.985791    0.5429158  25.88   0.00260206    2.102    0.524
        17  -9.7081    207.5074    196.4947   7.3257005632e+01   2.0041313891e+00    0.1367168    0.1176476  -7.96 0.0001946335    1.009    0.009
        18  -9.2892    148.6332    189.3270   8.4678510105e+01   1.3362535666e+01    0.2974127    0.2071637  67.75  0.001299682    2.185    0.542
        19  -9.3275    146.7192    186.0134   8.4510765129e+01   1.4414550834e+01    0.2808051    0.2060157 -51.06 0.0009136827    1.432    0.302
        20 -10.2270     80.9365    182.0269   1.0048112886e+02   2.6262548721e+01    0.3289998    0.3007711 -57.74   0.00108303    1.123    0.110
        21  -9.3718     99.3949    180.8405   9.5462024974e+01   2.3720830013e+01    0.2635685    0.2337435   4.16 0.0006248719    1.276    0.217
        22 -10.0750    186.9288    175.2223   7.3259860946e+01   9.4361728765e+00    0.3598366    0.2962571 -42.74    0.0011618    1.234    0.190
        23  -9.0253     86.8324    176.7986   9.8111074050e+01   2.6666438478e+01    0.1995703    0.1629503  67.99  0.000330275    1.294    0.227
        24  -9.2608    183.6613    212.6726   8.1113945652e+01   2.8757552327e+00    0.1445254    0.0974084  -3.40 0.0007051695    1.730    0.422
        25 -11.4843     64.5379    172.7519   1.0347843652e+02   3.0838245917e+01     0.478805    0.3185879 -32.71  0.002246937    1.962    0.490
        26 -11.2513     69.2143    168.0483   1.0150365895e+02   3.1391852321e+01    0.3574863    0.2833099 -32.89  0.000615168    1.475    0.322
        27  -9.1774     89.4664    174.2637   9.6992647593e+01   2.6886416561e+01    0.2008628    0.1411725 -77.08 0.0009372074    1.595    0.373
        28 -14.7711      9.8346    206.9568   1.2022551874e+02   2.8579868617e+01     1.603557     1.123892 -75.56  0.004047504    1.311    0.237
        29 -12.1294     78.4845    159.3162   9.7480754609e+01   3.2281849377e+01    0.9444376    0.5426586  50.57 0.0003233089    1.928    0.481
        30 -12.8123     66.0470    154.8061   1.0027741887e+02   3.5181170013e+01     0.597679    0.4325507 -43.71  0.001089914    1.439    0.305
        31  -9.7312    119.5817    245.7592   1.0002379444e+02   6.6877590741e+00    0.2282882    0.1198444 -49.63  0.001140604    2.194    0.544
        32 -10.2617     32.1374    155.7196   1.1011660490e+02   3.8851249841e+01    0.3886847    0.2960545  32.35  0.002066948    1.449    0.310
        33 -11.5290     85.7204    152.7679   9.4221487357e+01   3.2839738244e+01    0.6590678    0.4623088 -23.33  0.002702137    1.878    0.467
        34 -10.4870    133.7205    144.6363   7.9169288347e+01   2.6247572193e+01     1.096076     0.295279 -53.80  0.002688275    4.973    0.799
        35  -9.1576    174.9137    149.1709   7.0265314357e+01   1.7020997726e+01    0.2263075    0.2116516 -77.30 0.0006893558    1.235    0.190
        36 -11.1560     55.5473    146.2774   1.0195028157e+02   3.8712710977e+01    0.5941533    0.4209116 -44.23  0.003002929    1.438    0.304
        37 -10.0346     32.7445    143.9618   1.0840117682e+02   4.1779106533e+01    0.4072904    0.2484588  60.45  0.001970823    1.916    0.478
        38 -11.6163     87.6203    138.1554   9.0735209481e+01   3.6218403441e+01    0.3139386    0.2776926 -39.77 0.0004393581    1.124    0.110
        39 -10.4161    100.5710    138.7066   8.7016868767e+01   3.3893953324e+01    0.6235229     0.377027 -21.17  0.002262429    2.736    0.635
        40  -9.9732    105.9474    130.8411   8.3653025370e+01   3.4850524528e+01     0.379164    0.3342709 -43.69  0.001289228    1.106    0.096
        41  -9.5979    110.1822    129.6054   8.2129778767e+01   3.4360346113e+01    0.3569893    0.2595036  16.21 0.0008432167    1.680    0.405
        42 -10.4104     44.2842    129.1276   1.0252028997e+02   4.4395696572e+01    0.3180101    0.2234875 -60.79  0.001549475    1.262    0.208
        43 -10.0327     97.2981    125.3753   8.4933639665e+01   3.7737066439e+01    0.3106102    0.2620754  -4.46 0.0007315447    1.346    0.257
        44  -9.5768     66.0363    125.0006   9.4689205650e+01   4.2772415264e+01    0.3977699    0.1927532  14.90  0.001385927    3.255    0.693
        45  -9.9525    135.1373    128.9415   7.5081357306e+01   2.9579623760e+01    0.3936154    0.2740684  49.24  0.001748311    1.516    0.340
        46 -10.5307     44.6844    122.7642   1.0124200329e+02   4.5964915061e+01    0.4147827     0.235442 -48.67  0.001434259    1.601    0.375
        47  -9.0787    135.0000    119.9992   7.2876360090e+01   3.1621443552e+01    0.2646987    0.0884766 -45.64 0.0008029952    2.946    0.661
        48  -9.1190    106.9645    118.4998   8.0340289692e+01   3.7605558136e+01    0.2212303    0.2001472 -39.11  0.000319881    1.077    0.072
        49 -10.1443    231.2714    113.6622   5.1787519770e+01   1.2813588928e+01    0.2738284    0.2693936 -22.95 0.0008350188    1.146    0.127
        50 -10.9842    245.8062    113.7115   4.9710477886e+01   1.0177006037e+01    0.2420836    0.1982275  -2.09  0.001447854    1.550    0.355
        51 -10.1594     21.8588    114.1030   1.0737474092e+02   5.0242580995e+01    0.1957409     0.169616  80.09 0.0003684506    1.269    0.212
        52 -10.2767    240.2991    169.0739   6.1882126970e+01   1.6700171372e+00    0.1906049      0.14675 -30.29 0.0005355657    1.095    0.087
        53 -11.1920     52.6754    108.7876   9.5671445650e+01   4.8530673195e+01    0.6195306     0.275261 -55.51  0.002541591    1.982    0.496
        54  -9.3444    205.4580    110.1579   5.5157006921e+01   1.8504218052e+01    0.2943522    0.2087411  40.36  0.001192821    1.610    0.379
        55  -9.4025     39.0615    101.8507   9.9006078351e+01   5.1732966566e+01    0.2019729    0.1832805  72.67 0.0005548412    1.302    0.232
        56  -8.4104    102.9324    165.0090   9.1712094602e+01   2.6989980577e+01    0.1737494    0.1717101  74.27 0.0002964125    1.007    0.007
        57 -11.1482    248.9189     99.7397   4.6405600175e+01   1.1913915918e+01     0.383567    0.1740065 -35.64  0.001770769    2.007    0.502
        58 -10.5785     34.3504    160.6402   1.1010731703e+02   3.7391648091e+01    0.3455705    0.2543684  67.69  0.000691124    1.394    0.283
        59 -10.1461    241.1814    101.6124   4.7803446371e+01   1.3009416397e+01    0.1687022    0.1224339  42.87 0.0009532496    1.701    0.412
        60  -8.4362    152.2826     84.0004   5.8918140440e+01   3.5135321625e+01    0.2355366    0.1036108 -56.49 0.0004683457    3.861    0.741
        61  -9.0470     72.9505     83.6617   8.1858572990e+01   5.1503057543e+01    0.2894818    0.2082446  54.14 0.0008944925    1.791    0.442
        62  -8.6475    160.3044     83.3038   5.6987398668e+01   3.3404275384e+01    0.1471916    0.1178595  14.41 0.0002789017    1.598    0.374
        63  -8.8607     91.9783     66.5033   6.9846087995e+01   5.1522721577e+01    0.2132789    0.1376861  42.04 0.0005359162    1.519    0.342
        64 -10.2951     13.4970     60.1092   9.9384871274e+01   6.3341825136e+01    0.2401314    0.2010741 -50.24 0.0005038331    1.180    0.152
        65 -12.4503    194.6672     48.5666   4.2010684103e+01   3.0915233835e+01    0.6593334    0.6081719 -39.93  0.001005881    1.204    0.170
        66  -9.9398    112.6236    242.7983   1.0115606678e+02   8.2576277588e+00    0.1690284    0.1226828 -79.86 0.0009491301    1.767    0.434
        67  -8.8178     88.9982    210.4327   1.0243593282e+02   1.8422140188e+01    0.2433529    0.1810109  87.47 0.0006343535    1.517    0.341
        68  -9.3945     48.1143     42.3025   7.7594414100e+01   6.3160977544e+01    0.3529389    0.2042981  49.21  0.001663778    2.600    0.615
        69  -8.0806    224.2653    206.6832   7.1956185712e+01  -2.2264065538e+00    0.1109854    0.1017969 -50.81  0.000293159    1.549    0.355
        70  -9.1801    198.0095     23.6210   3.5634715087e+01   3.3300130292e+01    0.1907696    0.1729014 -27.84 0.0005997045    1.360    0.265
        71 -10.4043      2.4309     22.7890   9.3006940351e+01   7.1183083254e+01    0.2810513   0.08314665 -49.10  0.001303057    2.681    0.627
        72  -8.7264    189.4920     14.9731   3.4486959304e+01   3.6170750408e+01    0.1697551    0.1186585 -36.45 0.0005638878    1.531    0.347
        73 -10.3532    117.8878    236.9692   9.9278300219e+01   8.5920908388e+00    0.2744304     0.188629 -63.09  0.001281207    1.719    0.418
        74 -10.7043    191.3163    205.2782   7.8179292398e+01   2.9958227226e+00    0.5009469     0.121192  32.65  0.001403053    5.132    0.805
        75  -8.7733    168.8929    235.8503   8.8091296475e+01   1.0754879486e+00    0.1890635    0.1544753   0.32 0.0004506996    1.169    0.145
