#   1 NUMBER                 Running object number                                     
#   2 MAG_AUTO               Kron-like elliptical aperture magnitude                    [mag]
#   3 X_IMAGE                Object position along x                                    [pixel]
#   4 Y_IMAGE                Object position along y                                    [pixel]
#   5 X_WORLD                Barycenter position along world x axis                     [deg]
#   6 Y_WORLD                Barycenter position along world y axis                     [deg]
#   7 A_WORLD                Profile RMS along major axis (world units)                 [deg]
#   8 B_WORLD                Profile RMS along minor axis (world units)                 [deg]
#   9 THETA_WORLD            Position angle (CCW/world-x)                               [deg]
#  10 FWHM_WORLD             FWHM assuming a gaussian core                              [deg]
#  11 ELONGATION             A_IMAGE/B_IMAGE                                           
#  12 ELLIPTICITY            1 - B_IMAGE/A_IMAGE                                       
         1 -14.8971      6.6778     25.0614   1.3390816875e+02   7.1220679325e+01     1.931687    0.8439732 -63.93  0.008104656    1.863    0.463
         2 -12.8441     80.2885     31.4889   9.9968958172e+01   6.0340870136e+01     0.759186    0.6797464 -87.38  0.002723169    1.512    0.339
         3 -13.0248     83.2746     22.6605   9.4726593227e+01   6.1147212211e+01    0.6651264    0.5378051  50.40   0.00163656    1.351    0.260
         4 -13.3702    123.6379     10.4840   7.8193271844e+01   5.3145724540e+01     1.543139    0.6543946  55.50  0.003375588    2.131    0.531
         5 -12.2003     73.3441      1.6639   8.6905879098e+01   6.6005030246e+01    0.4112835     0.358494 -42.43 0.0004534371    1.372    0.271
         6 -12.0061     75.2101     13.2009   9.2742854001e+01   6.4182214895e+01     0.406953    0.3146265 -27.65  0.001112294    1.247    0.198
         7 -13.9911    103.9079      4.1029   7.9515960220e+01   5.8701913860e+01     1.425194     1.053198  86.96   0.00690535    1.727    0.421
         8 -14.7075     86.2058      8.3017   8.6428995361e+01   6.2426358990e+01     1.479607     1.234109  52.19  0.008377097    1.261    0.207
         9 -13.0298     96.3414      3.7942   8.1220577245e+01   6.0560075619e+01    0.5989739     0.558558 -27.29  0.002624512    1.172    0.147
        10 -11.6837     63.9229     17.9874   9.9758226191e+01   6.5678889555e+01    0.3737514    0.2846563  37.74 0.0008166067    1.369    0.270
        11 -11.8962    185.8904     11.7420   6.9491857072e+01   3.7001835022e+01    0.4545144    0.3887704 -63.93   0.00218063    1.206    0.171
        12 -10.9662    192.8998      6.4238   6.7112203934e+01   3.5726708327e+01    0.4168365    0.1912012 -28.98  0.001494255    1.968    0.492
        13  -9.9177    150.2982      8.4637   7.2818420166e+01   4.6447641218e+01    0.2755238    0.1263375  62.06 0.0009250917    2.026    0.506
        14 -12.2039    138.7597      4.3222   7.2938093061e+01   4.9820352081e+01    0.8480327    0.3611316  53.57  0.003076416    2.115    0.527
        15  -9.2933    158.7585      4.9861   7.0373912256e+01   4.4548901520e+01    0.1780736    0.1180268 -16.90 0.0004222534    1.527    0.345
        16 -11.0543    126.3667      4.3954   7.5040771678e+01   5.3023578525e+01    0.5678508    0.2366145  73.29  0.002083759    2.762    0.638
        17 -11.4894     33.6519      3.7555   1.0664198994e+02   7.2888543396e+01    0.3809511     0.275911  -6.25  0.001392098    1.348    0.258
        18 -11.8200     61.4951    190.7194   1.4052041252e+02   2.9076495912e+01    0.3645037     0.169152  48.81  0.002009555    1.864    0.463
        19 -10.8474     69.3458    184.8995   1.3830395689e+02   2.9265744126e+01    0.3598868    0.1917189  41.88  0.002066561    1.596    0.374
        20  -9.9355    135.3755    188.7939   1.2462736014e+02   1.9675692059e+01    0.1622757    0.1111658 -35.08 0.0009573053    1.728    0.421
        21 -11.1813     50.0009    182.1947   1.4230178301e+02   3.1922883656e+01    0.1945775    0.1556865 -89.05  0.001390406    1.218    0.179
        22 -11.9525     36.1357    179.2197   1.4511856757e+02   3.3878950095e+01    0.3836969    0.3453204  14.19  0.002675357    1.422    0.297
        23 -10.7663     47.1155    176.9066   1.4251694333e+02   3.3249302758e+01    0.2084434    0.1513157 -83.95            0    1.343    0.255
        24 -10.8073     42.2972    176.0880   1.4352979937e+02   3.3896163741e+01    0.2476495    0.1683881  73.44 0.0009251599    1.358    0.263
        25 -11.5858     54.8726    171.5584   1.4029576362e+02   3.3490725991e+01    0.5133922     0.194878  50.90  0.002380994    2.544    0.607
        26 -10.0833     35.6805    169.0786   1.4450048198e+02   3.5935701615e+01    0.1619976    0.1320534  82.31  0.001158129    1.098    0.089
        27 -10.0374     48.4519    160.8812   1.4081173909e+02   3.6353659416e+01    0.2106018    0.1711225  21.52 0.0009984339    1.437    0.304
        28 -10.9548      8.2436    159.7948   1.5023142860e+02   4.0113714156e+01    0.3778085    0.1571895  34.44  0.002134663    2.161    0.537
        29  -9.8074     13.1167    153.8114   1.4877069347e+02   4.0999929935e+01    0.1744691    0.1223234  64.35 0.0004773109    1.209    0.173
        30 -10.3643    103.8960    151.4478   1.2600453072e+02   3.1213175633e+01    0.2447353    0.1808816 -53.26 0.0002829415    1.424    0.298
        31 -10.6498     43.8513    149.8084   1.4087974227e+02   3.9172841393e+01    0.1747402    0.1550889 -58.36 0.0006547762    1.264    0.209
        32 -10.9268     56.9815    120.0019   1.3357299181e+02   4.4446626166e+01    0.1882726    0.1722008 -82.35  0.001195696    1.012    0.012
        33 -12.4328     59.8914    146.1408   1.3636369031e+02   3.8235762159e+01     1.716628    0.7490326  65.14  0.006417595    3.819    0.738
        34 -12.3587     52.5418    144.2472   1.3804987685e+02   3.9473364840e+01    0.9212919    0.3690896  49.82  0.004008945    2.561    0.610
        35 -13.3617     48.2774    125.2171   1.3685824636e+02   4.4207961426e+01    0.9878908    0.8072545 -76.65  0.001993859    1.121    0.108
        36 -11.4345      6.2444    142.9921   1.4983451456e+02   4.3790140079e+01     0.290006    0.2539463  57.04  0.001173701    1.179    0.152
        37 -11.3101     81.4456    130.9890   1.2840708407e+02   3.8815727356e+01    0.3933899    0.2379401 -58.97  0.001937352    1.629    0.386
        38 -12.6937      9.7963    130.2360   1.4813002912e+02   4.6354209132e+01    0.4274667    0.3097985  18.61  0.002578771    1.677    0.404
        39 -11.7454    126.2253    128.5211   1.1617615130e+02   3.2149210529e+01    0.4472917    0.3402616 -15.84  0.001794677    1.596    0.373
        40  -9.8525    120.9746    127.7504   1.1732782710e+02   3.3232797201e+01    0.3265228    0.1832357  21.38  0.001308114    2.587    0.613
        41 -11.7312     67.3817    128.4228   1.3188806695e+02   4.1260802835e+01    0.3775514     0.350451 -58.29  0.001256544    1.118    0.106
        42 -11.9573     55.3358    124.4793   1.3472299474e+02   4.3603639899e+01    0.3664519    0.3041871  77.69 0.0006826769    1.176    0.149
        43 -10.0753    155.0123    118.0403   1.0693990224e+02   2.8707098992e+01    0.1742586    0.1609593  12.47 0.0003443172    1.020    0.020
        44  -9.9294    125.7840    113.8497   1.1297970503e+02   3.5176375296e+01    0.2174232    0.1894596  11.03 0.0006817252    1.210    0.174
        45 -10.4426     40.7975    143.9796   1.4108280677e+02   4.0744660864e+01    0.1935375    0.1646634  42.97   0.00033974    1.206    0.171
        46 -11.0484     79.8913    109.5265   1.2483806176e+02   4.3862452520e+01    0.4382384    0.2615771 -42.05  0.001767553    1.803    0.445
        47  -9.9355      5.2217    108.2343   1.4781977881e+02   5.1659611744e+01    0.1870478    0.1445892  12.40  0.001247119    1.625    0.385
        48 -13.6242     17.5533    101.1518   1.4326843196e+02   5.2556571279e+01    0.4677601       0.4245 -71.83  0.002080485    1.119    0.107
        49 -12.0631     58.8269     98.5853   1.2924086541e+02   4.9246283493e+01    0.5077934    0.3450932 -58.07  0.001794851    1.342    0.255
        50 -13.1323     55.2902     94.6384   1.2962961862e+02   5.0608528536e+01    0.6673729    0.4599439 -30.37  0.001999037    1.764    0.433
        51 -10.5494     32.2403    100.4547   1.3836279353e+02   5.1582178397e+01     0.270128    0.1184291  28.29 0.0009571823    2.447    0.591
        52 -10.9994      5.3306     97.5448   1.4688056274e+02   5.4158578937e+01    0.3959725    0.1855073 -86.60 0.0009828462    1.884    0.469
        53  -9.8397     81.8448     95.1846   1.2103225866e+02   4.6839738491e+01    0.2164727    0.1911537  85.63 0.0008194251    1.258    0.205
        54  -9.6979    164.4162     92.6924   9.8288882462e+01   3.1226714413e+01    0.2747156    0.1361134 -38.49 0.0008018246    1.968    0.492
        55  -9.9430     69.8245     95.7923   1.2504376083e+02   4.8464665573e+01    0.2006825    0.1753868 -36.98  0.000395047    1.180    0.153
        56 -10.0606     44.4876     90.1169   1.3246049811e+02   5.2894239163e+01    0.2936769    0.1503275 -52.29  0.001103914    1.763    0.433
        57 -11.1192    152.6192     88.3121   9.9656970287e+01   3.4571362568e+01    0.2697922    0.2626653  43.78 0.0005117711    1.124    0.111
        58 -10.8541    249.7325     86.5425   8.2567792128e+01   1.4417497933e+01      0.26434    0.1941517 -22.94 0.0007595598    1.143    0.125
        59 -11.0216     89.5238     86.4004   1.1633624155e+02   4.7567279932e+01    0.3668965     0.269389  41.00  0.001028115    1.429    0.300
        60 -11.2112    188.4757     94.1341   9.3886570355e+01   2.5771175975e+01    0.3726107    0.3161783 -88.76  0.001386042    1.648    0.393
        61 -10.9590     26.3305     85.3318   1.3811294048e+02   5.5708957612e+01    0.2568109    0.1540685 -43.32 0.0009860941    1.726    0.421
        62 -11.3412    128.3134     83.0606   1.0406917864e+02   4.0799875723e+01    0.4523409    0.3230058  37.25  0.001046334    1.440    0.306
        63  -9.9478    143.5356     81.3444   9.9733344545e+01   3.7821373882e+01    0.2604417    0.2093379 -53.38 0.0006539664    1.405    0.288
        64  -9.3695     54.6482     82.2798   1.2717903392e+02   5.3617694185e+01    0.1364325    0.1014558  69.03 0.0002681324    1.649    0.394
        65 -10.2392     67.5295     81.1289   1.2229751324e+02   5.2192624520e+01    0.2621545    0.1823517  50.88  0.001105997    1.657    0.396
        66 -10.5694     41.7622     78.2906   1.3105243453e+02   5.6011966042e+01    0.3494141    0.2217001 -27.93   0.00174236    1.965    0.491
        67  -9.7584     46.7079     74.4798   1.2830025620e+02   5.6391628654e+01    0.2500645     0.109972 -61.30   0.00106237    2.031    0.508
        68 -10.7298    144.5326     73.9614   9.7231592581e+01   3.8910467637e+01    0.2817702     0.221976  45.76 0.0004766698    1.294    0.227
        69 -12.9277     96.6060     71.6464   1.0971575059e+02   4.9477122144e+01      0.77048    0.4000638  37.48  0.001448593    2.069    0.517
        70  -9.0550    194.4498     73.5466   8.7158399167e+01   2.7513340334e+01    0.1456216    0.1317644  -6.66 0.0001081901    1.021    0.020
        71 -10.2202    120.8852     72.8338   1.0289666143e+02   4.4344231327e+01     0.227679    0.1993027   3.98 0.0004364111    1.193    0.162
        72  -9.4766     67.9833     73.0424   1.1993915061e+02   5.3982614750e+01    0.1688869    0.1492071 -48.31 0.0009592833    1.038    0.036
        73  -9.2399    182.9759     72.0672   8.8719930348e+01   3.0343093300e+01    0.1779926    0.1592485 -16.75 0.0004251288    1.042    0.040
        74  -8.9365     37.6863     72.2856   1.3130932792e+02   5.7856532250e+01    0.1287221    0.0970527  71.61 0.0002240687    1.580    0.367
        75 -10.7877     83.1265     68.4938   1.1318244362e+02   5.2577615737e+01     0.261967    0.2136623 -46.49 0.0003259193    1.159    0.137
        76  -9.7559    210.2672     68.5872   8.3298853234e+01   2.4663765578e+01    0.1918816    0.1265807  43.02 0.0009461451    1.598    0.374
        77  -9.9427    146.6767     66.7071   9.4423302604e+01   3.9659507562e+01    0.1565317    0.1147775  15.92 0.0003961375    1.615    0.381
        78  -9.6897     20.2819     66.3927   1.3715533677e+02   6.0727623218e+01    0.2163841    0.1277468  10.30  0.001142233    2.122    0.529
        79 -10.5403    103.8756     64.8653   1.0520109203e+02   4.9432615104e+01    0.4383155    0.2192335  49.01  0.001749689    2.180    0.541
        80  -9.5311     61.0329     65.0184   1.2019852055e+02   5.6797702742e+01    0.1649356    0.1552148 -33.59  0.000395707    1.055    0.052
        81 -11.2920    214.6956     62.0239   8.0869614150e+01   2.4532165726e+01    0.4463457    0.3462286 -21.44  0.002459667    1.163    0.140
        82  -9.6254    135.4895     63.4752   9.6005802455e+01   4.2802335356e+01    0.1518941    0.1441738  -7.85  1.14548e-05    1.010    0.010
        83 -10.0922     51.0991     62.9157   1.2351871552e+02   5.8584465469e+01    0.2279275    0.1965756 -15.78 0.0003215477    1.247    0.198
        84 -10.0073     54.3348     61.7159   1.2185406179e+02   5.8449704702e+01    0.2145736    0.1703448 -75.09 0.0007704761    1.430    0.301
        85 -10.0147    170.4460     62.6855   8.8193880124e+01   3.4673457363e+01    0.2628026    0.1365176  55.24 0.0009918429    1.989    0.497
        86 -12.9695    125.3572     57.4820   9.6507918459e+01   4.6161823441e+01    0.3668899    0.3163885  37.29 0.0008146516    1.170    0.145
        87 -10.2421    174.5248     56.5809   8.5533394032e+01   3.4581913755e+01     0.247528    0.2319036   5.60 0.0005024184    1.036    0.035
        88 -12.1330     68.8155     55.2863   1.1399945181e+02   5.7781628248e+01    0.4199958    0.3601548  44.50  0.001412953    1.317    0.240
        89 -11.2906    209.9391     54.7313   7.9486186010e+01   2.6504674860e+01    0.3186148     0.230998  35.31  0.001016961    1.493    0.330
        90 -11.6267    133.9296     53.9898   9.3110837317e+01   4.4758225630e+01    0.5423879    0.3223155  66.31  0.002201753    2.197    0.545
        91 -12.9910      3.1836     46.9922   1.4115794958e+02   6.6320032918e+01    0.6717548    0.4847102  71.65  0.002420022    1.592    0.372
        92 -13.2600    181.7266    221.5305   1.2037262264e+02   8.4370673246e+00    0.6876649    0.4928145  23.81  0.004913535    1.073    0.068
        93  -9.6190     60.1740     53.1225   1.1668888587e+02   5.9562083598e+01    0.1766086    0.1578089 -69.19  0.000269231    1.264    0.209
        94 -12.3869     41.8299     33.5406   1.1754097840e+02   6.6215514812e+01    0.7566189    0.5707164  59.20  0.002835022    1.932    0.482
        95 -13.0188     42.6986     47.3869   1.2229423418e+02   6.3117636995e+01    0.5690557    0.4526596   0.01  0.001109549    1.418    0.295
        96 -12.6554     42.2139     42.4212   1.2078682015e+02   6.4271544662e+01      0.57769     0.385637   2.34  0.002059156    1.904    0.475
        97 -11.3129    145.3281     50.7264   8.9339464927e+01   4.2539108457e+01    0.3365949    0.2834339 -23.07 0.0006681431    1.149    0.130
        98 -10.6623    176.5463     45.2416   8.1580851993e+01   3.5627841432e+01    0.2675847    0.2557873  35.76 0.0005369635    1.072    0.067
        99 -11.3870    157.5050     43.7042   8.4418400515e+01   4.0553323486e+01    0.3481605    0.2788548  32.60 0.0007478751    1.285    0.222
       100  -9.5843    138.5021     44.5946   8.8655247632e+01   4.5123465839e+01    0.1507517    0.1407173  14.37 9.935951e-05    1.040    0.038
       101 -10.3307    197.1836     41.2546   7.7281215450e+01   3.1108464529e+01    0.2313024     0.222768   2.19  0.000612509    1.047    0.045
       102 -10.4531    102.1024     41.6124   9.7052515069e+01   5.4085843065e+01     0.256104    0.2001033 -25.03  0.001298612    1.231    0.188
       103  -9.4464     95.4868     42.5494   9.9517529729e+01   5.5337773341e+01     0.147508    0.1365079  -9.38 8.384565e-05    1.005    0.005
       104 -10.6865    218.0547     38.3720   7.3891826078e+01   2.6575912529e+01    0.2625061    0.1971782  42.33 0.0008519132    1.447    0.309
       105 -11.3021    161.2007    222.1236   1.2411997649e+02   1.1168071699e+01    0.5614212    0.4313057  85.61  0.003559539    2.585    0.613
       106 -10.4826    140.1514    221.4900   1.2791669302e+02   1.4107270305e+01    0.2050079    0.1857042  17.85  0.001390854    1.172    0.147
       107 -13.5165     83.2815    207.9881   1.3753574587e+02   2.3509023852e+01     1.257794    0.7744408  72.27  0.007742832    1.949    0.487
       108 -11.8159    191.7568    217.9773   1.1812412937e+02   7.4822219553e+00    0.3809739    0.1844706  30.91  0.002132124    1.665    0.399
       109 -11.5197     77.1197    218.9321   1.3966978084e+02   2.2438766952e+01    0.2655093    0.1617867  62.48  0.001294049    1.649    0.394
       110 -12.0775     10.2937    209.9784   1.5185065925e+02   3.0498066735e+01    0.4783226     0.281718  19.52  0.003306143    2.140    0.533
       111 -11.4403      2.5284    208.8858   1.5324640094e+02   3.1293271556e+01    0.3397695    0.2738393 -69.23  0.002571125    1.554    0.357
       112 -10.8734     44.7944    208.2394   1.4519195778e+02   2.7697677750e+01    0.2171729    0.1654835  69.97  0.001015194    1.157    0.136
       113 -11.5072    176.5686     33.3147   7.7699696472e+01   3.7096436598e+01    0.2830297    0.2612854  34.50 0.0005644818    1.097    0.089
       114  -9.0455    141.2998     33.6703   8.3991668903e+01   4.5960304633e+01    0.1530534    0.1125829 -58.04 0.0002897136    1.643    0.391
       115  -9.4958    109.0010     28.5092   8.9524149762e+01   5.4560503109e+01    0.2202149    0.1424375  51.78 0.0005899824    1.552    0.356
       116 -10.4937     37.8914     27.2247   1.1684806207e+02   6.8000885205e+01     0.243568    0.1763722  41.37 0.0009225315    1.693    0.409
       117 -11.0518    241.7592     23.1062   6.7561095529e+01   2.2954237203e+01    0.3373185    0.2405459 -78.86  0.001424397    1.635    0.388
       118 -10.4818     93.1198     24.1697   9.2201999135e+01   5.8804989244e+01    0.2268252    0.1821747  17.19 0.0006430639    1.251    0.201
       119 -11.1004    150.8229     20.3316   7.7205232667e+01   4.5130222567e+01    0.5456061    0.2887441  39.92  0.002089248    2.029    0.507
       120 -10.5389    139.6335     20.5239   7.9251634925e+01   4.7988035018e+01    0.2656496    0.2333969  29.10 0.0005405066    1.117    0.105
       121 -10.0168    141.9662     16.3006   7.7173035667e+01   4.7845868261e+01    0.2090734    0.1879949 -10.38 0.0002732651    1.103    0.093
       122  -9.3797     54.2472    224.3101   1.4436428512e+02   2.4063421069e+01   0.08252291   0.07789378 -22.75 0.0001995049    1.509    0.337
       123  -9.9199    208.9261     18.1935   6.9101656768e+01   3.0775815833e+01    0.2078902    0.1701408 -56.92 0.0006311406    1.234    0.190
       124 -10.5290    175.2858     14.1234   7.1494146139e+01   3.9462682240e+01    0.2351998    0.1769006  10.20  0.001204903    1.467    0.318
       125 -11.0294    173.2659    229.6202   1.2292126255e+02   8.6181167124e+00    0.2096215    0.1481294 -38.95  0.001508288    1.803    0.445
       126  -9.3624     53.5272     10.4890   1.0021964559e+02   6.8702688038e+01    0.1349771    0.1164537 -11.05 0.0001749504    1.034    0.033
       127 -11.5639     37.0485    207.5045   1.4666015172e+02   2.8578834356e+01    0.2603922    0.1192087  36.99  0.001395231    1.777    0.437
       128 -11.7606     27.3227    219.8361   1.4909684913e+02   2.7388952477e+01    0.3892506    0.2230941  70.94  0.002816056    1.542    0.351
       129 -13.4645     70.9055    201.3472   1.3945799706e+02   2.6100649311e+01    0.8183976    0.5122312  76.64  0.005147217    1.802    0.445
       130 -11.0517     53.4373    200.9510   1.4298984198e+02   2.8092398421e+01    0.2464205    0.1812716  77.32  0.001455142    1.296    0.228
       131  -9.5011     36.6505    197.3330   1.4615977195e+02   3.0422739304e+01    0.1198469   0.05896586  58.27 0.0007047856    1.775    0.437
