#   1 NUMBER                 Running object number                                     
#   2 MAG_AUTO               Kron-like elliptical aperture magnitude                    [mag]
#   3 X_IMAGE                Object position along x                                    [pixel]
#   4 Y_IMAGE                Object position along y                                    [pixel]
#   5 X_WORLD                Barycenter position along world x axis                     [deg]
#   6 Y_WORLD                Barycenter position along world y axis                     [deg]
#   7 A_WORLD                Profile RMS along major axis (world units)                 [deg]
#   8 B_WORLD                Profile RMS along minor axis (world units)                 [deg]
#   9 THETA_WORLD            Position angle (CCW/world-x)                               [deg]
#  10 FWHM_WORLD             FWHM assuming a gaussian core                              [deg]
#  11 ELONGATION             A_IMAGE/B_IMAGE                                           
#  12 ELLIPTICITY            1 - B_IMAGE/A_IMAGE                                       
         1 -13.1593    184.0422     23.2281   2.8988397671e+02   6.3831094030e+00   0.07983252   0.04299499 -48.92  0.006007796    1.835    0.455
         2 -13.1958    190.7683     16.0115   2.8976224493e+02   6.4247387800e+00   0.06955738   0.04755154 -70.35  0.005288586    1.565    0.361
         3 -13.2692    197.1763      8.6462   2.8964322436e+02   6.4699485089e+00   0.07411313   0.04540551   2.66  0.001226673    2.256    0.557
         4  -9.6786     41.4932      2.4999   2.9138911634e+02   7.4771565403e+00  0.006471761  0.006432104 -44.18 0.0008106451    1.008    0.008
         5  -9.6087    150.0352    222.3219   2.9150376985e+02   4.3153203520e+00   0.01068938  0.008544355 -47.00 0.0001805699    1.244    0.196
         6 -10.9633    143.1965    249.8603   2.9175141293e+02   4.0418172712e+00   0.02058698   0.01390284   7.82  0.002089443    1.772    0.436
         7 -11.2324    121.3706    244.3162   2.9196660299e+02   4.2362151655e+00   0.02359475   0.01141928  45.52  0.002053262    2.260    0.558
         8 -12.2473    126.2117    240.2962   2.9188657310e+02   4.2530819529e+00   0.04576686   0.02050572 -58.89  0.003983143    2.144    0.534
         9 -17.3307      1.6630    218.4720   2.9317631606e+02   5.2486027338e+00     1.548823          nan -61.01   0.03883994   26.184    0.962
        10  -9.0826    163.8298    221.1626   2.9133905705e+02   4.2456365022e+00  0.009246635   0.00754651 -33.34 0.0006096877    1.290    0.225
        11  -9.2461    134.1603    217.8728   2.9165774155e+02   4.4615415501e+00   0.01026965  0.008864678  68.48 0.0006116783    1.268    0.211
        12  -8.7685    233.0072    216.4771   2.9052047192e+02   3.8827935431e+00  0.009552104  0.006461242  28.21 0.0002668386    1.484    0.326
        13  -9.9921    249.4536    241.8886   2.9048971889e+02   3.4937185480e+00   0.01614293  0.008974408 -85.39  0.001320009    2.835    0.647
        14  -9.3825    151.2382    213.4438   2.9143532980e+02   4.4095106492e+00   0.01828858   0.00822001 -52.20  0.001231804    2.123    0.529
        15  -9.5069    141.5636    212.7577   2.9154164153e+02   4.4754983459e+00   0.01456513   0.01152237  62.68   0.00121262    1.425    0.298
        16 -10.7966    101.4900    212.1182   2.9199571686e+02   4.7234651959e+00   0.02378172   0.01751974  44.18  0.002564084    1.395    0.283
        17 -11.1738    135.4539    241.2984   2.9178716347e+02   4.1861330724e+00    0.0161035   0.01418296  -8.33  0.001694519    1.214    0.176
        18  -9.4537    182.3170    213.5920   2.9108125501e+02   4.2209063240e+00   0.01300103  0.005990377  32.50 0.0007410882    2.098    0.523
        19 -11.8896    134.0986    234.1551   2.9175868617e+02   4.2758845025e+00   0.03839898   0.01928264 -80.42  0.002951709    3.193    0.687
        20  -9.6606    126.3410    205.5159   2.9167099736e+02   4.6497014824e+00   0.01183125   0.01105355  22.98 0.0008078709    1.079    0.073
        21  -8.2434    114.3019    206.3100   2.9181350365e+02   4.7129310213e+00  0.006844434   0.00492065 -27.72 0.0007015369    1.605    0.377
        22 -11.4252    135.7791    228.3080   2.9170349640e+02   4.3325930982e+00   0.02725602   0.01183913 -64.00  0.002274296    2.390    0.582
        23  -9.8538     93.2567    204.6812   2.9204408301e+02   4.8578593048e+00   0.02001311   0.01134276 -49.29  0.001937758    1.739    0.425
        24  -8.9479    175.2026    205.2417   2.9111100953e+02   4.3590795002e+00  0.008909458  0.007455444  60.49 0.0003320354    1.300    0.231
        25  -9.1751    171.4917    205.4512   2.9115468939e+02   4.3790121558e+00  0.006546677  0.006346734 -26.33 0.0002083174    1.034    0.033
        26  -9.6926    102.8941    203.3854   2.9192591510e+02   4.8148351236e+00   0.01231886   0.01050701 -30.72 0.0008318061    1.228    0.186
        27 -10.8987    146.1085    240.3302   2.9165950970e+02   4.1331932835e+00   0.01779725   0.01102153  39.66 0.0003864403    1.619    0.382
        28 -10.0244    166.8326    202.8142   2.9119164953e+02   4.4371586416e+00  0.009921311  0.009643334  86.88  0.000467478    1.055    0.052
        29  -8.7921    169.5453    200.4378   2.9114600472e+02   4.4479834580e+00   0.01022538  0.006481135 -63.42  5.60702e-05    1.591    0.371
        30  -8.5695    133.2780    202.6687   2.9157417020e+02   4.6405543848e+00    0.0067205  0.005028331  68.47 0.0006997796    1.602    0.376
        31 -10.1885    196.8861    200.3635   2.9083328482e+02   4.2842853949e+00   0.01514775   0.01200499  37.99 0.0009904501    1.266    0.210
        32  -8.6643    158.7850    199.3791   2.9126240942e+02   4.5247999031e+00   0.00893542  0.006356495  13.61 0.0004135795    1.557    0.358
        33  -9.7633    141.3452    198.4306   2.9145585225e+02   4.6404921238e+00   0.01696253    0.0112871 -15.10  0.000848334    2.000    0.500
        34 -15.6472     25.7259    248.4310   2.9308485027e+02   4.7622794742e+00    0.1083215   0.09067493 -45.80   0.01196375    1.191    0.160
        35  -9.1543     89.0024    204.5108   2.9209167950e+02   4.8853292031e+00   0.01365542  0.008263244  41.90 0.0006840974    1.685    0.406
        36 -11.4532     76.1875    194.5066   2.9217667820e+02   5.0765225683e+00   0.02409888   0.01414107 -37.08  0.002282938    1.957    0.489
        37 -11.1420     80.3299    187.5145   2.9208626383e+02   5.1315946422e+00   0.01762565   0.01333142 -29.39 0.0007493473    1.468    0.319
        38  -9.0600    113.9514    195.9681   2.9175381972e+02   4.8332114313e+00   0.01072206  0.007502987  56.61  0.001109884    1.641    0.390
        39 -10.3457    159.8920    194.0585   2.9121695059e+02   4.5789182113e+00   0.01719837   0.01171145  44.50  0.001015972    1.521    0.342
        40  -8.9568    173.0875    238.8736   2.9134245792e+02   3.9876792868e+00  0.009961116  0.008760919  73.84 0.0004702744    1.239    0.193
        41  -8.9649    150.7369    238.9679   2.9159826292e+02   4.1209462504e+00  0.009148069  0.008600762 -65.27 0.0005023706    1.066    0.062
        42 -15.8127     61.9648    215.5495   2.9246873433e+02   4.9212487927e+00    0.3714891    0.2643692  62.89   0.03902782    1.685    0.406
        43 -10.1868    155.5026    232.1027   2.9150156129e+02   4.1707293980e+00   0.01195424   0.01029881  32.57 0.0003959669    1.163    0.140
        44 -10.0117    191.6615    191.1663   2.9083618304e+02   4.4207648537e+00   0.01380337   0.01219485 -54.49 0.0006310847    1.117    0.105
        45  -9.2239    175.1132    190.8958   2.9102353338e+02   4.5234653770e+00  0.009925625  0.008772854  64.92 0.0004066382    1.214    0.177
        46 -10.1242    127.3434    228.8912   2.9180346733e+02   4.3765963734e+00   0.01943104   0.01046172  64.97  0.001520112    3.144    0.682
        47  -9.7404    250.5558    187.1969   2.9013942911e+02   4.1112190346e+00   0.01642922   0.00451057 -52.32  0.001142725    3.265    0.694
        48 -10.7507    142.6314    228.4683   2.9162620140e+02   4.2895949763e+00    0.0208551   0.01137241 -74.50  0.001447361    2.268    0.559
        49  -8.3861     82.2772    194.2678   2.9210555672e+02   5.0427330941e+00  0.006479439  0.004930353 -26.11            0    1.483    0.326
        50  -9.4468     67.6070    186.0773   2.9222296350e+02   5.2243064150e+00   0.01198216  0.009437534  25.48 0.0004375786    1.285    0.222
        51  -8.2140    161.3041    185.6528   2.9114896347e+02   4.6664387319e+00   0.00693679  0.004999611  66.66 0.0005748709    1.694    0.410
        52  -9.3829     89.8219    184.9349   2.9196180733e+02   5.1041352619e+00   0.01146267  0.009459045  68.44 0.0003765452    1.361    0.265
        53  -9.1396     79.1334    181.9957   2.9206597642e+02   5.2018443728e+00  0.009736228  0.009301656 -19.46 0.0004646701    1.062    0.058
        54  -9.7602     47.0853    180.2456   2.9242189288e+02   5.4139193033e+00   0.02019779   0.01191801   3.82  0.001495235    2.392    0.582
        55  -8.8713    134.7605    180.5571   2.9142092858e+02   4.8842699698e+00  0.009408713  0.005924869  40.09 0.0006056471    1.597    0.374
        56  -9.3450    128.9911    179.1100   2.9147796832e+02   4.9354796927e+00  0.009620469  0.009516774 -59.64  0.000342058    1.012    0.012
        57 -10.6514    181.5449    176.7378   2.9086266954e+02   4.6464419720e+00   0.01972185   0.01552187   9.41  0.001597128    1.389    0.280
        58 -10.8621     87.8148    175.8626   2.9192889248e+02   5.2198560622e+00   0.02136813   0.01408114 -11.00  0.001584882    2.058    0.514
        59 -10.1741     75.4982    174.0137   2.9205842018e+02   5.3148691327e+00   0.02012296   0.01226092 -47.90  0.001396892    1.634    0.388
        60 -11.4421    142.2500    221.2737   2.9158625380e+02   4.3740818362e+00   0.02232422   0.01802301 -89.11  0.002537094    1.404    0.288
        61  -8.8584    190.7683    227.9565   2.9107332844e+02   4.0060145867e+00  0.008980542  0.008378297 -66.58 0.0002987466    1.077    0.072
        62 -10.4429    249.6204    171.9015   2.9005555075e+02   4.2914048627e+00   0.01301416   0.01175936  15.73  0.001582709    1.132    0.116
        63 -10.5488     47.9553    170.2376   2.9235036644e+02   5.5231008213e+00   0.01766877    0.0141715 -80.34  0.002008791    1.363    0.266
        64  -9.9847    164.1958    226.0622   2.9136506694e+02   4.1874704177e+00   0.01409739  0.008820934 -70.32   0.00074138    1.740    0.425
        65 -11.5140     94.0400    166.8583   2.9180219632e+02   5.2853926239e+00   0.03326081   0.02064444 -36.00  0.001905279    1.836    0.455
        66  -9.6089     96.6841    159.0951   2.9172409209e+02   5.3582270304e+00   0.01304919  0.009004166 -34.04 0.0006365667    1.616    0.381
        67  -9.2973    108.0178    168.1121   2.9165001966e+02   5.1871418720e+00    0.0111286  0.009282929  22.50 0.0004599493    1.220    0.181
        68  -9.0922     58.9131    167.2608   2.9220663110e+02   5.4914735670e+00   0.01106309   0.00911827 -58.31 0.0005102482    1.197    0.165
        69  -9.2382    175.9796    166.0336   2.9086016168e+02   4.8021898724e+00   0.01023859  0.007586113  61.97 0.0003162178    1.571    0.363
        70  -9.1342    128.8556    165.8253   2.9139758684e+02   5.0880662606e+00   0.00954333  0.008619932 -29.50 0.0003478899    1.138    0.121
        71 -10.7252     36.9881    162.3023   2.9242707533e+02   5.6794716520e+00   0.01440248  0.008603091  34.36 0.0006509039    1.647    0.393
        72 -11.1186    245.0367    162.2361   2.9004808342e+02   4.4293498600e+00   0.01517799  0.008624772 -51.51  0.001471011    1.710    0.415
        73 -10.7230    116.8811    224.4418   2.9189563506e+02   4.4902560934e+00    0.0213996   0.01335143  22.57  0.001338504    1.683    0.406
        74 -15.4101     11.2906    248.1559   2.9324816052e+02   4.8517145477e+00    0.1333038   0.05038541 -55.65    0.0108553    2.449    0.592
        75 -11.1736    243.6632    154.5073   2.9001595486e+02   4.5258311220e+00   0.01439457   0.01104431  30.87   0.00124101    1.302    0.232
        76  -9.6448     82.6039    159.1051   2.9188527100e+02   5.4426185852e+00   0.01105547  0.009302846  16.58 0.0003210141    1.232    0.188
        77  -8.6729    115.5764    157.5103   2.9149817782e+02   5.2628664219e+00   0.00648445  0.006363395 -53.24 7.778501e-05    1.012    0.012
        78  -9.3257     88.9478    156.9371   2.9179931311e+02   5.4293241919e+00  0.009532774  0.009274165 -36.74 0.0002930112    1.021    0.021
        79 -11.0339     43.8637    156.5938   2.9231323029e+02   5.7035467164e+00   0.01980085   0.01039391  38.31  0.001070252    1.885    0.469
        80  -9.1250    134.8036    155.6473   2.9126676280e+02   5.1685771476e+00   0.01189776  0.008540623 -50.71 0.0009781318    1.369    0.269
        81  -9.3822     72.4242    156.1659   2.9198366243e+02   5.5372700455e+00   0.01572356   0.01005691  11.92  0.001547961    1.846    0.458
        82  -9.3381    113.9986    152.2650   2.9148387115e+02   5.3322716016e+00   0.01388204   0.01057554  87.85  0.001155111    1.564    0.361
        83  -9.9639    104.5275    150.8738   2.9158365091e+02   5.4050622270e+00   0.01884015   0.01307782 -26.84  0.001641816    1.711    0.416
        84  -9.1451    107.0763    145.9743   2.9152426176e+02   5.4457275618e+00   0.01297665  0.008399935 -16.48  0.001224894    2.108    0.526
        85 -10.7596     46.0475    151.3883   2.9225617975e+02   5.7499591304e+00   0.01685006   0.01280032 -11.50  0.001830901    1.558    0.358
        86  -8.0376    171.4856    159.3883   2.9087047806e+02   4.9051354275e+00  0.006490403   0.00626705  46.25 0.0001317666    1.052    0.049
        87  -9.5637     93.1059    150.5326   2.9171224356e+02   5.4775440317e+00   0.01490486   0.01104239  16.02  0.001144979    1.448    0.310
        88 -10.4834     55.7761    149.8425   2.9213527849e+02   5.7093384811e+00   0.01477885   0.01149273  14.26  0.001243505    1.375    0.273
        89 -10.7048     59.4875    145.4800   2.9206591278e+02   5.7369469488e+00   0.01993047  0.009892569 -42.29  0.001742283    2.220    0.550
        90 -10.5577    249.4135    149.1342   2.8991709358e+02   4.5524454814e+00   0.01345451   0.01149214  46.68  0.001589848    1.203    0.169
        91  -9.6211    143.3045    148.4112   2.9112487360e+02   5.2001032441e+00   0.01580418   0.01088548  87.13  0.001045926    1.893    0.472
        92 -10.0158    134.0000    144.9921   2.9121017961e+02   5.2951210136e+00   0.02968526   0.00984263 -67.94  0.001933033    4.044    0.753
        93 -10.1692    133.4841    140.4631   2.9118811710e+02   5.3499546545e+00   0.01946625   0.01308365 -55.35  0.001276534    1.449    0.310
        94 -11.8620     72.0886    138.6413   2.9187949532e+02   5.7395322682e+00   0.03725919   0.02847401  45.75  0.003477287    1.354    0.261
        95 -11.1307    248.8157    140.8507   2.8987265767e+02   4.6505646867e+00   0.03646026   0.01830642  10.50   0.00287905    3.003    0.667
        96 -11.5732    248.5844    134.0401   2.8983314522e+02   4.7296641767e+00   0.03277729   0.01739897 -61.22  0.003077274    1.866    0.464
        97 -10.8306     27.0017    141.1491   2.9241123300e+02   5.9810046039e+00   0.02028612   0.01160796  67.11  0.001697964    2.763    0.638
        98  -8.8202    194.1103    140.2656   2.9049375345e+02   4.9871946899e+00  0.009121714  0.008278537  31.86 0.0004145484    1.106    0.096
        99 -11.5760     58.8848    134.0966   2.9200266101e+02   5.8706350862e+00   0.02815358   0.01597899 -69.29  0.001599257    1.934    0.483
       100 -11.6747     47.5087    138.0132   2.9215706909e+02   5.8940543325e+00   0.02170232   0.01548345  -9.29  0.002249996    1.749    0.428
       101 -10.1900    113.9446    136.1250   2.9138488759e+02   5.5169755449e+00   0.01505159   0.01449972  29.84  0.001496898    1.045    0.043
       102  -9.0928    133.8199    135.2170   2.9115187773e+02   5.4078531092e+00  0.009009368  0.007478184 -26.09  0.000333366    1.298    0.230
       103 -11.7597     45.1073    130.4675   2.9213807789e+02   5.9946629417e+00   0.02560062   0.01719851  72.72  0.001774721    2.001    0.500
       104 -12.2307     67.7272    144.0127   2.9196253735e+02   5.7043130964e+00   0.03689881    0.0251183  57.37  0.003533033    1.722    0.419
       105  -8.3861     94.3461    135.4996   2.9160532529e+02   5.6418505698e+00   0.01352451  0.003985116 -48.63 0.0008364386    3.370    0.703
       106 -10.5389     66.2575    126.5673   2.9187181155e+02   5.9124558918e+00   0.01995409    0.0101442 -70.64  0.001732751    2.301    0.565
       107 -10.9534     32.8629    128.3488   2.9226527186e+02   6.0921981242e+00    0.0147696  0.009513391 -72.69  0.001080305    1.726    0.421
       108 -11.0313     97.8649    221.6725   2.9209593816e+02   4.6360298497e+00   0.03473483   0.02010335  72.82  0.002871241    2.899    0.655
       109 -10.2507     51.7852    132.9441   2.9207685934e+02   5.9263537611e+00   0.01184636  0.007892407 -57.40 0.0008952193    1.465    0.317
       110  -9.4694    209.8088    125.6401   2.9022392749e+02   5.0594881360e+00   0.01142417   0.01026633 -60.44 0.0004310998    1.106    0.096
       111 -10.4748     91.2671    219.5692   2.9215842079e+02   4.6996460802e+00   0.01701201    0.0111399  58.52  0.001058492    1.851    0.460
       112  -9.3455     70.6361    126.2977   2.9182000848e+02   5.8892743428e+00  0.007044754  0.004873115  59.71 0.0007032891    1.719    0.418
       113 -10.2586    244.1485    121.3670   2.8980531980e+02   4.9010230510e+00   0.05653699   0.01745143  44.51  0.003762483    3.876    0.742
       114 -10.0478    249.5154    117.4903   2.8972005240e+02   4.9128403074e+00   0.01865673   0.01063967 -49.91  0.001630485    1.720    0.419
       115 -11.0278    248.6014    112.8146   2.8970152747e+02   4.9716944594e+00   0.02143675   0.01660956 -35.52  0.001833826    1.366    0.268
       116 -10.1874     50.6008    122.7595   2.9202764722e+02   6.0498193797e+00   0.01280138  0.009549268  69.47 0.0008748373    1.617    0.382
       117 -11.7769     32.4901    115.8736   2.9219267324e+02   6.2369696918e+00   0.03851474   0.01023509 -58.68   0.00266517    3.387    0.705
       118  -9.5791    130.9197    119.0508   2.9108519201e+02   5.6099249346e+00  0.009457176  0.009290545 -35.30  0.001193552    1.010    0.010
       119  -9.6109     70.2770    117.2129   2.9176807794e+02   5.9952141694e+00    0.0119968   0.00909986 -33.45 0.0003445026    1.423    0.297
       120  -8.2748     80.5405    117.4666   2.9165210667e+02   5.9307326928e+00  0.006591997  0.006291586 -29.85 -9.240955e-07    1.053    0.050
       121  -9.3696    168.4421    113.4165   2.9062113046e+02   5.4483731681e+00   0.01554306  0.009145235  63.49  0.001368047    2.431    0.589
       122 -11.2040     61.2058    112.2633   2.9184144055e+02   6.1061611903e+00   0.02405322   0.01574269  43.70  0.002018064    1.577    0.366
       123  -8.4378    149.5120    111.4888   2.9082572835e+02   5.5843868410e+00   0.00650084   0.00641942  72.65 0.0001459939    1.032    0.031
       124  -8.8214    102.6724    110.8687   2.9135795780e+02   5.8731881998e+00  0.008992344  0.008244246 -68.28 0.0004659958    1.101    0.092
       125 -10.5816     70.4283    110.5884   2.9172546821e+02   6.0699804799e+00    0.0161775   0.01442294  42.33  0.001127495    1.138    0.121
       126 -10.0870    114.6273    106.8783   2.9119644329e+02   5.8469074736e+00   0.01141445  0.009356415  46.34 0.0005688609    1.258    0.205
       127  -9.9065    114.8014    244.0213   2.9203983740e+02   4.2790145106e+00   0.01270657  0.008771035  54.47  0.001249627    1.638    0.390
       128  -9.7948    134.5578    104.7832   2.9095537511e+02   5.7509543279e+00   0.01662213  0.006650156 -64.23  0.001312362    2.638    0.621
       129 -10.8929    248.2171     99.5815   2.8962393823e+02   5.1249461510e+00   0.02651697   0.01805033 -39.58  0.002779922    1.560    0.359
       130  -9.0165     76.3760     99.0108   2.9158587007e+02   6.1665273662e+00  0.008931579  0.008280701 -55.79  0.001092828    1.067    0.063
       131 -11.2652     32.9083     93.0747   2.9204730384e+02   6.4949094222e+00   0.04675395  0.007859675 -63.27  0.002219544    7.362    0.864
       132  -8.9977     63.5250     98.0037   2.9172687291e+02   6.2551313912e+00  0.009769212  0.006429443 -61.47 0.0003350985    1.509    0.337
       133 -11.0334     21.7749     90.4535   2.9215875345e+02   6.5914921461e+00   0.01785208   0.01206821 -10.52  0.001762974    1.946    0.486
       134  -8.6651    123.5434     89.4504   2.9098663788e+02   5.9922750722e+00  0.006441958  0.006423778 -73.99 0.0001621614    1.014    0.014
       135  -8.6761    101.8864     87.8201   2.9122454092e+02   6.1411064590e+00  0.008790568  0.007538092  69.05 0.0003128216    1.283    0.221
       136  -8.7141     99.9575     83.4951   2.9121989611e+02   6.2020780465e+00  0.009456271  0.006468315  28.04 0.0003187118    1.468    0.319
       137 -10.7219    115.6937    239.6784   2.9200293655e+02   4.3232821574e+00   0.01444096   0.01271786  75.24 0.0004966712    1.237    0.192
       138  -8.2924     83.2767     50.6682   2.9120800451e+02   6.6769908891e+00  0.006707559  0.005027751  68.69  0.000304865    1.600    0.375
       139 -10.8561    134.3905    249.4989   2.9184976052e+02   4.0988324424e+00   0.01863008   0.01260945  26.89  0.001789197    1.492    0.330
       140  -9.9834    141.5786    245.3353   2.9174204903e+02   4.1032279890e+00   0.01791468  0.007021316 -51.11  0.001454988    2.433    0.589
       141 -10.2125    152.4247    243.0945   2.9160439030e+02   4.0636665806e+00   0.01297923  0.008535373 -79.74  0.001284283    1.832    0.454
