#   1 NUMBER                 Running object number                                     
#   2 MAG_AUTO               Kron-like elliptical aperture magnitude                    [mag]
#   3 X_IMAGE                Object position along x                                    [pixel]
#   4 Y_IMAGE                Object position along y                                    [pixel]
#   5 X_WORLD                Barycenter position along world x axis                     [deg]
#   6 Y_WORLD                Barycenter position along world y axis                     [deg]
#   7 A_WORLD                Profile RMS along major axis (world units)                 [deg]
#   8 B_WORLD                Profile RMS along minor axis (world units)                 [deg]
#   9 THETA_WORLD            Position angle (CCW/world-x)                               [deg]
#  10 FWHM_WORLD             FWHM assuming a gaussian core                              [deg]
#  11 ELONGATION             A_IMAGE/B_IMAGE                                           
#  12 ELLIPTICITY            1 - B_IMAGE/A_IMAGE                                       
         1 -12.9618    195.1662     31.7648   6.6969437167e+01   3.2243732068e+01    0.9899214    0.7189435  44.15  0.005482997    1.574    0.365
         2 -13.8421    208.3972     14.7993   6.1433260987e+01   3.1071726718e+01     1.212044    0.9153915  36.03  0.007198283    1.805    0.446
         3 -12.4441      6.6658      2.8677   1.0820835571e+02   7.1189017336e+01     0.558615    0.3613633  -6.33   0.00422732    1.187    0.157
         4 -11.6718      1.8430      6.1119   1.1193239685e+02   7.1160654372e+01    0.6355846    0.1434052 -44.31  0.002788512    4.126    0.758
         5 -10.3187    189.9849     15.5288   6.3713615631e+01   3.5324561805e+01    0.1871517    0.1704572 -70.82 0.0006871046    1.156    0.135
         6 -10.9900    185.0041    250.3180   1.1691666234e+02  -4.0513947207e+00     0.453563    0.1454663  41.10  0.001490021    2.612    0.617
         7 -11.4600    149.9104    248.1708   1.2346251712e+02   2.2213572728e+00    0.4487389    0.3234151 -59.87  0.002644654    1.716    0.417
         8 -10.3957    143.1341    249.2943   1.2494754144e+02   3.1817062746e+00    0.2151949    0.1877305 -82.44 0.0006041987    1.356    0.263
         9 -11.7907    133.8176    248.9021   1.2672062677e+02   4.8171340966e+00     1.012347    0.2622176  43.77  0.003688225    3.140    0.682
        10 -10.3439    122.8907    249.7995   1.2896402969e+02   6.4758662412e+00    0.3833378    0.2522896  37.13  0.002190358    1.425    0.298
        11 -10.7565    121.9131    244.9639   1.2855148443e+02   7.4974937988e+00    0.4165775    0.2399439  64.73  0.002013692    2.076    0.518
        12 -12.0650    126.1224    240.4887   1.2713996181e+02   7.6044394074e+00    0.6770238    0.3980242  42.68  0.003588481    1.456    0.313
        13 -11.1121     99.1492    247.5686   1.3327793981e+02   1.0691723223e+01    0.5097681    0.3132189  66.71  0.002776198    1.663    0.399
        14 -10.3551    102.9404    247.3317   1.3252515470e+02   1.0140159740e+01    0.2828421    0.1799609  62.45  0.001030327    1.488    0.328
        15 -11.0852    115.4768    250.1383   1.3043880258e+02   7.6267487492e+00    0.4468861    0.3811804  43.07 0.0007885623    1.176    0.150
        16 -11.6962    109.6975    247.2435   1.3121256778e+02   9.0799244201e+00    0.5107263    0.4370646 -70.09  0.002394968    1.327    0.246
        17 -11.1978     87.8883    248.3178   1.3549187363e+02   1.2279497732e+01    0.5063028    0.3231948  54.45    0.0012994    1.292    0.226
        18 -10.4995     81.7546    246.7675   1.3648369954e+02   1.3482386106e+01    0.4111855    0.2355107  90.00  0.002201525    2.071    0.517
        19 -12.7758     64.6023    245.0833   1.3949574033e+02   1.6247056015e+01     1.683637    0.7585865  35.83  0.008397282    2.413    0.586
        20 -13.9175     10.3864    140.8360   1.4012831593e+02   4.4802484613e+01     1.195958     1.042605 -65.57  0.008701115    1.141    0.124
        21 -11.4610     32.7441    201.7611   1.4160534855e+02   2.9121201966e+01     0.331269    0.2028291  40.26 0.0002816737    1.712    0.416
        22 -14.5547      3.6540    178.5132   1.4543797120e+02   3.6981581778e+01     6.755646     1.003693 -75.07   0.01863832    7.132    0.860
        23 -12.3362     63.1734    221.3161   1.3746262618e+02   2.1175074697e+01     1.270785    0.5026634 -72.74  0.003506183    2.735    0.634
        24 -13.2287     11.6208    213.2294   1.4658716434e+02   2.8917749675e+01      1.10989    0.7283137  33.96  0.005573774    1.864    0.463
        25 -12.9812     11.1618    205.9767   1.4614239137e+02   3.0461527101e+01     1.220812    0.7099631   9.83  0.006192457    3.930    0.746
        26 -14.3514     32.4012    245.6258   1.4522832729e+02   2.0254387110e+01     1.944055     1.132429  43.48   0.01260655    1.649    0.394
        27 -14.0102      5.8899    245.2668   1.4957394700e+02   2.3222035222e+01     1.431891    0.7370108 -84.57  0.009507154    1.601    0.375
        28 -12.8290     13.9422    238.8600   1.4788863106e+02   2.3599291093e+01    0.5365032    0.3898296  62.77  0.001563651    1.179    0.152
        29 -13.2735     36.6921    228.4118   1.4316995281e+02   2.3107456699e+01    0.9037099    0.3792578  48.61  0.001859194    2.043    0.511
        30 -14.5554     43.5504    218.6974   1.4104533415e+02   2.4266646116e+01     1.479415     1.387897 -26.67   0.01060611    1.628    0.386
        31 -10.1398     84.4186    229.7607   1.3415684066e+02   1.6384372623e+01    0.2617161    0.2212135  13.38  0.001194194    1.745    0.427
        32 -10.6506    113.0268    230.1041   1.2841909732e+02   1.1758938504e+01    0.3170955    0.2476936  40.44 0.0008697057    1.239    0.193
        33 -11.6233    105.7644    228.8212   1.2973688092e+02   1.3209554808e+01    0.6312056    0.3346696  47.75  0.002985339    1.643    0.391
        34 -10.2739     91.1604    241.8147   1.3417740715e+02   1.3004259340e+01    0.2954093    0.2244296  72.98  0.001084248    1.199    0.166
        35 -10.7438     89.9524    238.0920   1.3400097792e+02   1.3902795894e+01    0.3068034    0.2195467 -66.47  0.001013118    1.502    0.334
        36  -9.9321    222.9408    244.7560   1.0879959303e+02  -9.3624717691e+00    0.1680055   0.08963992  34.74 0.0008885902    1.620    0.383
        37 -10.2623    144.2873    244.3357   1.2404097651e+02   3.8320858265e+00    0.2708702    0.1300881  55.63  0.001138735    2.414    0.586
        38 -11.5850    245.1813    241.6921   1.0421568295e+02  -1.2270358430e+01    0.2660724    0.1611041 -34.98  0.001575716    1.762    0.433
        39 -11.5536    135.1166    236.7882   1.2482875242e+02   6.7453983839e+00    0.4559717    0.3397681  11.14  0.002164199    1.918    0.479
        40 -11.5086    133.9971    232.4952   1.2445183685e+02   7.7285375408e+00    0.5175521    0.3335225 -33.84  0.001859826    2.223    0.550
        41 -10.2922     84.7099    234.0188   1.3457485850e+02   1.5494499617e+01    0.3118513     0.216214  65.76 0.0008263033    1.299    0.230
        42 -10.7963    165.6802    242.3673   1.1949894760e+02   4.8003074182e-01    0.3495682    0.1363252  42.14 0.0009984702    2.168    0.539
        43 -10.7047    173.1157    240.6105   1.1775158909e+02  -5.1637343762e-01    0.2758971    0.1689852  59.03  0.001341753    2.129    0.530
        44 -12.1542    135.5338    241.1505   1.2534719932e+02   5.8877863430e+00    0.5795535    0.4676482  16.89  0.002875633    1.527    0.345
        45 -11.1565    128.8492    234.8128   1.2582631283e+02   8.1856390660e+00    0.4572048    0.2885488  68.41  0.002276469    1.973    0.493
        46 -11.1157    122.2936    233.3624   1.2696224444e+02   9.5751014369e+00    0.3924752    0.3412155 -66.73  0.001563603    1.287    0.223
        47  -8.9302    172.9782    236.0057   1.1705703244e+02   2.6609728662e-01    0.1517135    0.1409112  24.26 0.0003308279    1.093    0.085
        48  -9.5673     71.6467    236.2138   1.3733435098e+02   1.6977727027e+01    0.1975546    0.1311669  79.04  0.001170601    1.447    0.309
        49 -10.6367    116.4767    238.7615   1.2884249490e+02   9.5358329281e+00    0.3832709    0.2573172 -35.19  0.001913542    2.252    0.556
        50 -10.2102    165.8031    234.7801   1.1830943713e+02   1.7322208067e+00    0.1785802    0.1517002  65.38  0.001069529    1.344    0.256
        51 -10.6638     63.0079    233.0397   1.3866769732e+02   1.8813568499e+01    0.1934889    0.1540707  63.22            0    1.081    0.075
        52 -10.7157    156.7959    231.6037   1.1964736194e+02   3.8782800850e+00    0.2271674    0.2260256  70.91 0.0003435071    1.152    0.132
        53  -9.3153     77.9086    232.7681   1.3576967468e+02   1.6753623884e+01    0.2922177    0.1818816  86.16  0.001587783    1.734    0.423
        54 -11.0419    142.0954    229.3890   1.2233365634e+02   6.8861952055e+00    0.4512562    0.2455997 -46.08  0.002173427    2.143    0.533
        55  -9.3056     56.9127    230.6738   1.3959972430e+02   2.0109394518e+01    0.2893455    0.1301928  51.32  0.001482828    1.928    0.481
        56  -8.9977    180.7130    229.3418   1.1441799971e+02   2.0044455037e-02    0.1267266    0.1038155  72.97 0.0002602953    1.643    0.391
        57 -10.1849     77.2040    220.8481   1.3459441483e+02   1.9277770072e+01    0.2830633    0.1981553  74.18 0.0008661125    1.360    0.265
        58 -10.1839     79.8390    227.7622   1.3484403680e+02   1.7472366293e+01    0.3053609    0.2533207  -9.66   0.00136847    2.045    0.511
        59  -9.9779     79.1592    224.6178   1.3462748841e+02   1.8212679873e+01    0.2599306    0.2300546  47.57 0.0009648858    1.257    0.204
        60  -9.3078    197.3701    226.5054   1.1060210517e+02  -2.4351249246e+00    0.2636999    0.1877734  68.20  0.001300827    2.323    0.570
        61 -10.4868     92.5049    226.0650   1.3209708411e+02   1.5883568988e+01    0.2832593    0.1767488  56.37 0.0009384284    1.449    0.310
        62 -11.5117    103.5278    238.5880   1.3139361638e+02   1.1679640320e+01    0.7446974    0.4113757  19.51   0.00271458    4.601    0.783
        63 -10.5174    132.4150    224.7108   1.2365233591e+02   9.4773350834e+00    0.2738526    0.1978733 -39.93  0.001290906    1.706    0.414
        64 -10.1802    129.6430    221.1358   1.2370574355e+02   1.0660120208e+01     0.352788    0.2268606 -83.78  0.001641493    2.294    0.564
        65  -8.8013    147.4099    225.4574   1.2063376174e+02   6.6700687810e+00    0.1346058    0.1199878  43.96 8.176922e-05    1.021    0.021
        66 -10.1227    117.2694    224.3190   1.2676131837e+02   1.2178269652e+01    0.2374365    0.1998836  67.94  0.000278137    1.116    0.104
        67 -10.7892     99.1821    223.2852   1.3038177515e+02   1.5385546070e+01      0.42147    0.2669277  54.65   0.00107465    1.426    0.299
        68  -9.0178     94.0058    217.8244   1.3075958103e+02   1.7334377381e+01    0.2633652    0.1745139 -87.67  0.001382193    1.705    0.414
        69 -10.5124    160.6879    223.5184   1.1756173556e+02   4.6310496517e+00    0.3256866    0.2193214  19.62  0.000919463    1.837    0.455
        70  -8.6697    155.6634    223.2906   1.1857105093e+02   5.5834241433e+00    0.1378016    0.1008837  66.11 0.0004367532    1.639    0.390
        71 -11.0199    141.9544    221.5935   1.2117773128e+02   8.3781659479e+00     0.280024    0.2450384  22.87 0.0002300445    1.243    0.195
        72 -10.2775    145.2789    221.6834   1.2049181148e+02   7.7623094786e+00    0.2413549    0.2135583  72.14  0.000460025    1.196    0.164
        73 -10.6246    245.7228    221.1847   1.0047569280e+02  -9.5491783277e+00    0.2828411     0.101235 -34.55  0.001206243    2.781    0.640
        74  -9.8448    110.8042    220.7365   1.2762057124e+02   1.3988390519e+01    0.3468675    0.1501137 -57.47  0.001221618    2.499    0.600
        75 -11.2028     72.8389    209.9564   1.3422564266e+02   2.2213681497e+01    0.4476893    0.2950533  27.61  0.001778986    1.962    0.490
        76 -10.8072     70.3924    218.2186   1.3568118932e+02   2.0811969553e+01    0.4847339    0.2626928 -69.56   0.00226539    1.826    0.452
        77  -9.9238    104.9857    218.7380   1.2857278756e+02   1.5365374889e+01    0.2176339    0.1864987 -65.81 0.0002499223    1.260    0.206
        78  -9.5003     99.7134    217.3624   1.2949989636e+02   1.6513116883e+01    0.2391465    0.1899004 -17.40  0.001023001    2.023    0.506
        79 -10.3399    137.4868    214.6267   1.2103546228e+02   1.0540588347e+01    0.3765591    0.2584032  83.82   0.00134843    2.100    0.524
        80  -9.2415    140.9911    212.8450   1.1999654604e+02   1.0255023516e+01    0.2394716    0.1485713  62.67  0.001085672    1.970    0.492
        81  -8.5510    133.6669    217.7151   1.2233475078e+02   1.0618200502e+01    0.1323617    0.1073403   9.09 0.0006552286    1.619    0.382
        82  -8.8953    119.4079    217.4644   1.2533679919e+02   1.3181259583e+01    0.1349049    0.1205716  60.63 7.848388e-05    1.017    0.017
        83  -9.8550     88.1238    212.8878   1.3136510916e+02   1.9294544524e+01    0.2472293    0.1793966 -76.88  0.000558346    1.383    0.277
        84  -9.9115     68.2530    214.6469   1.3571868137e+02   2.1867185190e+01    0.2230968    0.1617691  79.54 0.0005465787    1.274    0.215
        85  -9.9340    102.3966    212.3867   1.2825440339e+02   1.7110862884e+01     0.410421    0.1889107  63.92  0.001446502    3.561    0.719
        86 -11.4982     96.9619    239.8408   1.3283039148e+02   1.2481172161e+01    0.4988188    0.3459504 -45.69  0.002814365    1.932    0.482
        87 -10.4267    107.2623    209.3902   1.2677956587e+02   1.6929165513e+01    0.4047339    0.2912293 -26.89   0.00132134    2.196    0.545
        88 -10.7775    112.5234    208.3564   1.2548174460e+02   1.6250086208e+01    0.2582952    0.2283721  63.91 0.0002988066    1.014    0.014
        89  -8.3669    197.6854    208.2471   1.0725640357e+02   5.7664390268e-01    0.1277048     0.106156  62.96  0.000190205    1.517    0.341
        90  -9.1263    134.9312    208.0486   1.2053268849e+02   1.2326964320e+01    0.2180323     0.174736  -0.77 0.0009617836    1.732    0.422
        91 -11.0190     92.2029    204.6071   1.2938704611e+02   2.0426837018e+01    0.7641844    0.2970637  49.04  0.002300671    2.491    0.599
        92 -10.1401     93.5228    201.4746   1.2865938517e+02   2.0897060894e+01    0.3928681    0.2353482  41.68   0.00145834    1.602    0.376
        93 -10.9777    250.2133    200.8685   9.5861999811e+01  -7.2413868776e+00    0.5960751    0.1688785 -30.64  0.001842411    4.886    0.795
        94 -10.5683    249.6823    194.0938   9.4643129764e+01  -6.1111697900e+00    0.3145015    0.2453772  -3.15  0.001893868    1.211    0.174
        95  -9.3308     32.8483    206.9086   1.4205789014e+02   2.8006678507e+01     0.166056    0.1351904 -73.30  0.000334409    1.258    0.205
        96  -9.0975    125.6003    205.7424   1.2220871310e+02   1.4495105348e+01    0.1806475    0.1336643 -71.43 0.0007392158    1.521    0.342
        97  -9.9020    102.9716    202.9689   1.2678486648e+02   1.9021490728e+01    0.4057189    0.2329752  54.75  0.001448512    1.729    0.422
        98  -9.2330     74.9148    203.5771   1.3300412219e+02   2.3294500119e+01    0.2855635    0.2207467  -0.39 0.0007102304    2.217    0.549
        99  -9.0987    133.0121    202.7119   1.2007706034e+02   1.3776887358e+01    0.1975084     0.174549  49.92 0.0003263171    1.041    0.040
       100 -10.0468     84.3745    201.5565   1.3068521814e+02   2.2318418318e+01     0.417879    0.2428105 -39.66  0.001470249    2.591    0.614
       101  -9.3569     86.1008    195.8251   1.2951314844e+02   2.3317611202e+01    0.2032871    0.1660994  73.74  0.000402659    1.142    0.124
       102 -11.5801     98.6004    232.0085   1.3158434288e+02   1.3737731562e+01    0.5373137    0.3547268 -71.20   0.00217952    1.635    0.388
       103  -9.0610    196.5203    200.5090   1.0603228489e+02   2.1597019472e+00    0.1407492    0.1281164  17.34 3.732524e-05    1.003    0.003
       104  -8.5518    182.9930    200.2753   1.0878954384e+02   4.7618956636e+00    0.1740042    0.1178783  40.22 0.0002542943    1.375    0.273
       105  -9.5752    168.8995    197.5788   1.1128452948e+02   7.9901857516e+00    0.4820803    0.1930715 -46.64  0.001816625    2.685    0.628
       106  -9.6407     43.3563    199.3878   1.3920576105e+02   2.8410804685e+01    0.2782969    0.1902336 -38.02  0.001034987    2.253    0.556
       107  -8.6991    127.9490    199.7355   1.2070978522e+02   1.5330064757e+01    0.1746404    0.1170413  41.14 0.0003850982    1.407    0.289
       108  -9.2473    119.9773    199.4819   1.2245445333e+02   1.6826167522e+01    0.2091327    0.1303291  43.76 0.0003433561    1.493    0.330
       109 -11.7112     68.6004    187.3761   1.3229430750e+02   2.7813590747e+01    0.3099431    0.2451916 -47.72 0.0006700744    1.473    0.321
       110 -10.1544     55.4052    198.3261   1.3655614731e+02   2.7142281965e+01      0.56706    0.1900558  43.98  0.002396548    2.731    0.634
       111 -11.5109     62.9273    194.8287   1.3451688051e+02   2.6919926267e+01    0.3467791    0.2482202 -46.79  0.001771932    1.705    0.414
       112 -10.0768     57.5017    193.8477   1.3558143796e+02   2.7863055397e+01    0.3151237     0.300399 -61.25  0.002119367    1.298    0.230
       113  -8.5119    149.7366    198.7311   1.1568550181e+02   1.1454658241e+01    0.1332864    0.1115608   3.32            0    1.462    0.316
       114  -9.1686    134.0320    197.9517   1.1904636428e+02   1.4583282069e+01    0.1689132    0.1611516 -89.12 0.0005180493    1.082    0.076
       115  -9.8570    102.5760    195.9839   1.2582558698e+02   2.0611662792e+01     0.405114     0.279562 -26.39  0.001530303    2.377    0.579
       116 -10.0671     38.4802    193.9302   1.3965760011e+02   3.0180382721e+01     0.532881    0.1757886 -66.30  0.001916978    2.590    0.614
       117  -9.7301     40.7558    188.3798   1.3858287048e+02   3.1149986309e+01    0.3015131    0.1706783 -70.69  0.001085269    1.548    0.354
       118  -9.5651     97.7979    196.3419   1.2695866188e+02   2.1328612173e+01    0.2652615     0.179084  45.90 0.0007355697    1.400    0.286
       119  -9.8009    112.9053    193.6648   1.2311241196e+02   1.9342268940e+01    0.4462042    0.2065802 -60.14  0.001494012    2.352    0.575
       120  -9.1964     31.6631    195.2447   1.4120459125e+02   3.0654603363e+01    0.2720872   0.09243384  49.06  0.001202448    2.838    0.648
       121  -8.8987    159.5815    194.4813   1.1273817585e+02   1.0415781852e+01    0.1436205      0.13583  41.46 9.856457e-05    1.014    0.014
       122  -9.8716    119.8442    193.0965   1.2143465369e+02   1.8228943393e+01    0.3289052    0.2578152 -27.48  0.001249996    1.686    0.407
       123  -9.7383     20.4423    192.1735   1.4320679842e+02   3.2493108655e+01    0.3269947    0.1580936  87.79  0.001662432    2.106    0.525
       124  -9.4009     72.7629    192.9817   1.3210705879e+02   2.5955050764e+01    0.1833417    0.1661045 -63.62 0.0003754129    1.224    0.183
       125  -9.2831     25.5699    192.3148   1.4217550149e+02   3.1942415876e+01    0.2362719    0.1477272  71.45 0.0008777991    1.495    0.331
       126  -9.7561    191.4557    191.4708   1.0532057005e+02   4.7804895440e+00    0.2451533    0.2295534  16.87 0.0006301281    1.011    0.011
       127  -9.6385    115.0476    200.1083   1.2365943168e+02   1.7565839833e+01    0.2061061    0.1869379  68.87 0.0003020972    1.019    0.018
       128  -8.8949     84.7645    192.2344   1.2930418680e+02   2.4327379671e+01    0.1661363    0.1560972 -47.49  0.000374949    1.276    0.216
       129 -10.1698     32.7717    189.5399   1.4040732629e+02   3.1787709763e+01    0.3110534    0.2882636  83.21  0.002233656    1.224    0.183
       130  -9.1169    135.2138    190.0499   1.1739468649e+02   1.6039464586e+01    0.1906677    0.1827139  81.06 0.0003256268    1.053    0.050
       131  -8.4831    117.9940    189.9817   1.2133481967e+02   1.9244546964e+01    0.1687772    0.1533327 -73.74 0.0003439052    1.117    0.105
       132  -9.4550     15.1452    190.0936   1.4409285065e+02   3.3457363309e+01    0.1684947    0.1322935 -69.50 0.0006495613    1.264    0.209
       133 -10.9089    249.9951    187.6252   9.3317386064e+01  -5.1422149540e+00    0.3739017    0.1983117 -28.01  0.001796568    1.876    0.467
       134 -10.0211     76.8975    188.6868   1.3058880358e+02   2.6318887622e+01    0.2308942    0.2090392  63.57 0.0002724516    1.108    0.097
       135  -9.6657     30.1294    184.4287   1.4044464567e+02   3.3204838498e+01     0.300174    0.1712854 -61.68   0.00123949    1.606    0.377
       136  -9.7299    140.0453    183.0948   1.1500778502e+02   1.6608041175e+01    0.2174488    0.2043498  61.23 0.0003328383    1.028    0.027
       137  -9.3704    111.2092    187.6349   1.2250978459e+02   2.0974299699e+01     0.238148    0.1853687 -71.26 0.0007303491    1.333    0.250
       138  -9.3785     37.3398    183.9191   1.3883347284e+02   3.2536471968e+01    0.2176398    0.1464438  52.09  0.001300227    1.470    0.320
       139  -9.8776     24.4265    184.2305   1.4163707890e+02   3.3835804057e+01    0.1960383    0.1562731  52.67 0.0005636745    1.317    0.241
       140  -8.8152     65.9222    181.9826   1.3217469883e+02   2.9416415046e+01    0.1557344    0.1376347  70.63 0.0003656135    1.083    0.077
       141  -9.7478    115.1961    177.3871   1.1979259028e+02   2.2562792024e+01    0.4537019    0.2268848 -60.40  0.001832984    2.185    0.542
       142  -8.9165     47.9695    179.8175   1.3599559582e+02   3.2230701837e+01    0.1601275   0.09576304  36.01  0.000848068    1.826    0.452
       143  -9.7799     19.9932    179.1158   1.4207631825e+02   3.5402590152e+01    0.1771888    0.1427803 -84.38 0.0003403476    1.042    0.040
       144  -9.8116     12.0899    178.9270   1.4372859935e+02   3.6171481810e+01    0.2471272    0.1514796 -57.85  0.001123388    1.613    0.380
       145 -11.1173     11.8783    173.4288   1.4326306492e+02   3.7400409484e+01     0.451109    0.1773027 -58.17  0.002251992    2.259    0.557
       146  -9.2996     92.8072    178.1550   1.2527754695e+02   2.6252121817e+01    0.1999505    0.1746274  80.23 0.0002223202    1.092    0.084
       147  -8.6155     83.7035    178.3247   1.2747319637e+02   2.7658737131e+01     0.143887   0.09996749  76.22 0.0002382337    1.625    0.385
       148  -9.0257    182.2147    176.6640   1.0428531975e+02   9.4749168037e+00    0.2270257    0.1804539  57.93 0.0007796272    1.386    0.279
       149  -8.5409     34.7767    176.9830   1.3862452269e+02   3.4380494988e+01    0.1600659    0.0875624 -70.68 0.0003588993    1.566    0.361
       150 -11.5816     77.8886    175.1556   1.2836876337e+02   2.9274722286e+01    0.2821389    0.2771118 -74.79   0.00127275    1.173    0.147
       151  -9.9472     68.7537    166.9100   1.2930659877e+02   3.2515644735e+01    0.2424201    0.2151974  86.74  0.000567414    1.043    0.041
       152  -8.9395     68.6372    175.8389   1.3067337817e+02   3.0454084118e+01    0.1902936    0.1167763 -78.08  0.000479225    1.695    0.410
       153 -11.2751     64.7214    173.5332   1.3126851194e+02   3.1528922238e+01    0.4527771    0.2662105 -47.43  0.001207142    1.890    0.471
       154 -12.6264    248.2456    101.7561   7.5609187504e+01   9.6912806761e+00    0.8530279    0.4358635 -37.14   0.00391271    1.839    0.456
       155 -12.7644    248.4270    114.2521   7.8270459287e+01   7.5442893966e+00     1.303356    0.9070952 -12.35  0.006369954    2.036    0.509
       156 -12.7940    246.8410    158.3859   8.7914348941e+01   2.4102436712e-01     1.825254     1.064292 -62.89  0.007256714    3.248    0.692
       157 -11.5661    244.9951    162.1951   8.9022883881e+01  -7.7324908133e-02    0.4679661    0.2702028 -41.01  0.002285782    1.621    0.383
       158 -11.8967    248.1659    142.6495   8.4383913728e+01   2.7035480734e+00    0.7124596    0.5677632   1.87   0.00396544    1.483    0.326
       159 -12.8184    248.6936    133.3017   8.2311752845e+01   4.2184120220e+00     1.294761    0.8814276 -25.22  0.006657065    1.559    0.359
       160 -10.5375     18.8875    172.5365   1.4165814523e+02   3.6970369368e+01    0.4215716    0.2130291  60.70   0.00220916    2.156    0.536
       161 -12.0881     13.9118    166.8717   1.4217810063e+02   3.8679931215e+01    0.6717181    0.4097399 -79.99  0.004072299    1.351    0.260
       162 -10.3527    107.7874    172.8601   1.2076052015e+02   2.4923071925e+01     0.243509    0.2127728  61.84 0.0003536952    1.111    0.100
       163 -10.2001     28.6613    170.9747   1.3931842692e+02   3.6377973238e+01    0.3761313    0.2962834 -79.77  0.001627747    1.049    0.047
       164  -8.7023     52.5454    170.9873   1.3379850101e+02   3.3699857871e+01    0.1806031    0.1139674 -66.39 0.0001261325    1.411    0.291
       165 -11.2674     44.6854    166.5404   1.3506529889e+02   3.5666095062e+01    0.5761412    0.3229018 -60.58   0.00074275    1.579    0.367
       166  -8.6951     58.5069    167.4884   1.3188524830e+02   3.3758468127e+01    0.1340653    0.1161117 -87.20 0.0008103622    1.029    0.029
       167  -8.6889     53.7936    164.9644   1.3266346959e+02   3.4943061242e+01      0.17349   0.09394759 -64.95 0.0003897695    1.645    0.392
       168  -9.4706     33.0558    164.4631   1.3754425848e+02   3.7412777482e+01    0.2236142     0.136795 -62.75 0.0006044547    1.416    0.294
       169 -10.7626     89.5416    159.3582   1.2284671045e+02   3.1157158758e+01    0.4550965    0.2507988 -70.97 0.0009554725    2.168    0.539
       170  -8.4408     40.6240    161.7419   1.3540079577e+02   3.7232145658e+01    0.1211917   0.09281665 -34.96 0.0006972795    1.658    0.397
       171  -8.9669     78.9967    158.9201   1.2544449859e+02   3.2905500280e+01    0.1687465    0.1507075 -74.12  0.000972135    1.037    0.035
       172  -9.1209    126.2528    167.4370   1.1525287345e+02   2.2746792935e+01    0.2115579    0.1366372  52.85  0.000736813    1.596    0.374
       173  -8.8568     52.2428    158.3865   1.3208894358e+02   3.6667781137e+01    0.1718202    0.1164176  48.58 0.0007099089    1.554    0.356
       174 -12.1767     86.0131    166.6671   1.2501496696e+02   3.0007198774e+01    0.6684337    0.5056017  47.14  0.003578809    1.330    0.248
       175  -9.6639     30.7998    150.5898   1.3631395027e+02   4.0825185008e+01    0.2339412    0.1252856  29.47  0.001225311    2.197    0.545
       176 -11.2575     31.8974    155.7217   1.3671984486e+02   3.9536516821e+01    0.4120499    0.2160989 -50.59  0.001450082    1.888    0.470
       177 -10.1320     83.8814    155.7058   1.2362932312e+02   3.2914096922e+01    0.4072752    0.1778264  27.60  0.001044107    3.242    0.692
       178  -9.5633     72.2128    156.3306   1.2672687916e+02   3.4510652219e+01    0.3345397    0.1804585  12.98   0.00117607    4.077    0.755
       179  -9.0531    228.3657    155.2906   9.0503823212e+01   4.2536329039e+00    0.1978643    0.1252788 -46.22 0.0005193399    1.590    0.371
       180 -10.5166     23.5330    149.5093   1.3796396842e+02   4.1754461837e+01    0.2003787    0.1638954 -73.37 0.0006710394    1.022    0.022
       181  -9.9957    113.8545    150.5966   1.1492189061e+02   2.8959412492e+01    0.3059434    0.2561219 -58.11 0.0004221014    1.184    0.155
       182 -10.8675     98.5805    150.8360   1.1890727046e+02   3.1648242403e+01    0.3817308    0.3286498   9.25  0.002029796    1.414    0.293
       183  -9.4402    101.6795    146.3367   1.1718829304e+02   3.2159923020e+01    0.3993531    0.1929941 -38.88  0.001471304    2.620    0.618
       184  -9.8713     86.6148    150.3015   1.2191955282e+02   3.3755503609e+01     0.254974    0.1637891 -68.02 0.0005081735    1.631    0.387
       185 -10.5338     54.9547    148.7263   1.2990608881e+02   3.8597717150e+01    0.5325655    0.3272803  82.35  0.002498623    2.170    0.539
       186 -12.4078     68.2144    144.4457   1.2568828964e+02   3.7871593122e+01    0.6708384    0.4994538  86.78   0.00221617    1.539    0.350
       187 -11.8852     73.6368    139.3469   1.2328010013e+02   3.8302781208e+01    0.5613508    0.4756148 -77.24  0.003075237    1.174    0.148
       188  -9.6714     77.0038    147.0350   1.2383152644e+02   3.6002730839e+01    0.2032202    0.1881438 -71.33  0.001194135    1.008    0.008
       189 -10.0763     39.6381    146.7609   1.3354979429e+02   4.0810733506e+01    0.2145687    0.1383667  56.77 0.0008158236    1.751    0.429
       190 -10.2096    236.1945    145.9195   8.7093324311e+01   4.4106904247e+00    0.2619762    0.2040663  32.29 0.0007875431    1.401    0.286
       191  -9.6564    134.0000    145.0078   1.0861268334e+02   2.6277338228e+01    0.3165763    0.1851916 -48.99  0.001163386    1.721    0.419
       192 -10.0592    133.0359    140.4428   1.0781781401e+02   2.7499441454e+01    0.3457748    0.2844611 -52.46   0.00102225    1.225    0.183
       193 -11.1539     32.8372    140.7416   1.3441814543e+02   4.2894084415e+01    0.2685235    0.1839206  83.91   0.00108621    1.608    0.378
       194  -9.2896     37.2861    140.6477   1.3324354158e+02   4.2471599033e+01    0.1304517   0.08966337  80.13 0.0002859813    1.664    0.399
       195  -8.6982     41.5380    140.5036   1.3210363026e+02   4.2060331966e+01    0.1299638    0.1111648 -70.02 2.907376e-05    1.006    0.006
       196 -10.6112     56.1787    138.9220   1.2793106254e+02   4.0742521188e+01    0.2371576    0.2267074 -15.93 0.0003553135    1.204    0.170
       197 -11.0827     60.8297    137.0181   1.2632819794e+02   4.0600029971e+01    0.3267888    0.2346663 -79.11 0.0002322604    1.484    0.326
       198 -10.0095    110.1405    136.2948   1.1279282314e+02   3.2949311702e+01    0.3304124    0.2547837  -4.43  0.001147686    1.784    0.439
       199 -11.4661     44.9188    131.4055   1.2969335426e+02   4.3801609425e+01    0.3795728    0.3651164  74.27  0.002013111    1.149    0.130
       200 -12.0832     23.1324    154.4014   1.3866772585e+02   4.0675465801e+01    0.5161445    0.3464462  65.44  0.003091603    1.592    0.372
       201 -11.5028     33.0500    130.9776   1.3287047794e+02   4.5116669513e+01    0.4188696    0.1940008 -60.13  0.001043307    1.758    0.431
       202 -11.3246     30.1780    126.6096   1.3295757158e+02   4.6382668947e+01    0.3301071    0.2319144 -25.45   0.00136221    1.764    0.433
       203 -11.9860     24.2641    162.2296   1.3932809913e+02   3.8790098860e+01    0.2490723    0.2224711 -58.01 0.0004675163    1.251    0.200
       204 -11.4127     67.0975    128.3644   1.2292697418e+02   4.1781967273e+01    0.4361315     0.286794 -63.41  0.002209229    1.465    0.317
       205 -11.0709     24.3088    127.3776   1.3468543622e+02   4.6727711287e+01    0.2986577      0.17357 -37.14  0.001044264    1.959    0.490
       206 -10.4333    209.8628    125.8086   8.7328214459e+01   1.3571658476e+01    0.3069283    0.2394436 -32.90 0.0005059486    1.291    0.225
       207  -8.5049     85.9923    136.2267   1.1929015934e+02   3.7154032360e+01    0.1743815    0.1194691  37.59  0.000350428    1.541    0.351
       208 -12.2604     20.4821    121.4985   1.3483200841e+02   4.8368912937e+01    0.5776258    0.2152535  19.11   0.00251659    3.665    0.727
       209 -11.9318      8.2976    120.6348   1.3804924482e+02   4.9456577775e+01    0.2956373    0.2420551  49.75  0.001704798    1.460    0.315
       210  -9.7829     54.7068    120.7959   1.2495298295e+02   4.5115983860e+01    0.2684959    0.1936039   2.46  0.001162853    1.829    0.453
       211 -11.6117     30.4939    119.2820   1.3165064090e+02   4.8013418203e+01    0.3446665    0.2748131  38.78   0.00220832    1.466    0.318
       212  -9.4898    231.5621    116.5036   8.1399363411e+01   1.0601076931e+01    0.1416008    0.1308278 -47.36 4.126586e-05    1.008    0.008
       213 -10.9333    168.0544    113.2759   9.2807543804e+01   2.5556210751e+01    0.3731785    0.3050449 -81.43 0.0008249228    1.473    0.321
       214  -9.5798     69.2229    114.8080   1.1943097326e+02   4.4586008670e+01    0.2310789    0.1490086 -22.90  0.001061323    2.082    0.520
       215  -9.3504    203.5030    111.5241   8.5146969565e+01   1.7676459081e+01    0.1466156    0.1445805 -26.55 0.0002603605    1.060    0.057
       216 -12.2838     13.5282    114.0209   1.3562128668e+02   5.0556483162e+01    0.5170609    0.2353116  35.88  0.002704507    2.577    0.612
       217  -8.8721     44.6824    105.3238   1.2476250038e+02   4.9729307930e+01    0.1256282   0.09838075  80.01 0.0006532508    1.670    0.401
       218  -9.4116     60.2804    104.6691   1.1981470063e+02   4.8037306693e+01    0.1290446    0.1041689  88.18 0.0007001968    1.605    0.377
       219 -11.3435     14.9345    103.8292   1.3353949660e+02   5.2686839461e+01    0.2457569    0.1568417  32.10  0.001502375    1.887    0.470
       220 -10.6908     17.3387     99.0340   1.3195338576e+02   5.3549903927e+01    0.1900874    0.1751505  -9.94 0.0002195271    1.254    0.203
       221 -11.0364    249.5165    151.0325   8.5929208493e+01   1.0138455962e+00    0.5266432    0.3153316 -38.04  0.002569299    1.509    0.337
       222  -8.6845     42.6547     92.2502   1.2249200457e+02   5.2764876475e+01     0.115857   0.09723247  67.45 0.0002191667    1.580    0.367
       223 -12.3460    248.5611    171.6359   9.0353817793e+01  -2.2974994917e+00    0.6034977    0.5142903 -26.78  0.003678987    1.072    0.067
       224  -8.4285     77.9897     85.2334   1.0927517282e+02   4.9598801517e+01    0.1602041     0.113308  33.33            0    1.467    0.318
       225  -8.4886     45.6951     74.6991   1.1703091653e+02   5.6007334827e+01    0.1304341   0.08472013 -23.15 0.0002137956    1.593    0.372
       226 -10.7239    169.9867    248.2927   1.1953515532e+02  -1.2152381838e+00    0.3506979    0.2267105  12.39  0.001739144    2.178    0.541
       227 -11.8726    199.9835    246.3616   1.1340800180e+02  -5.9354351198e+00    0.5661374    0.2057906  40.56   0.00205757    2.362    0.577
       228 -10.5220    193.9460    245.0296   1.1435863716e+02  -4.7431517382e+00    0.1952578    0.1772619  -6.93 0.0003701119    1.190    0.160
       229 -11.3320     84.3042    240.6399   1.3536903385e+02   1.4267227660e+01     0.615078    0.4412616  65.97  0.003834064    1.210    0.174
