#   1 NUMBER                 Running object number                                     
#   2 MAG_AUTO               Kron-like elliptical aperture magnitude                    [mag]
#   3 X_IMAGE                Object position along x                                    [pixel]
#   4 Y_IMAGE                Object position along y                                    [pixel]
#   5 X_WORLD                Barycenter position along world x axis                     [deg]
#   6 Y_WORLD                Barycenter position along world y axis                     [deg]
#   7 A_WORLD                Profile RMS along major axis (world units)                 [deg]
#   8 B_WORLD                Profile RMS along minor axis (world units)                 [deg]
#   9 THETA_WORLD            Position angle (CCW/world-x)                               [deg]
#  10 FWHM_WORLD             FWHM assuming a gaussian core                              [deg]
#  11 ELONGATION             A_IMAGE/B_IMAGE                                           
#  12 ELLIPTICITY            1 - B_IMAGE/A_IMAGE                                       
         1 -14.8666    171.7178     45.1718   6.5792005812e+01   3.6707796115e+01     1.329944     1.146856   7.03  0.003945805    1.267    0.210
         2 -15.1756    193.7189     11.5651   5.1529515177e+01   3.5025291831e+01     2.939525     1.367251  65.09  0.009034862    2.035    0.508
         3  -9.9974     93.5496    248.1620   1.2112945811e+02   1.5658449953e+01    0.1076367   0.04771378  53.38 0.0006556587    1.686    0.407
         4 -13.2017    190.0047    249.2357   1.0595647244e+02   1.7453307849e+00    0.4118155    0.2155293  35.91  0.002684503    1.474    0.322
         5 -11.1320    138.7964    250.3316   1.1414818351e+02   9.1118581991e+00    0.2128922    0.1322076  39.24  0.001507177    1.340    0.254
         6 -10.8482    138.8320    243.2883   1.1345381946e+02   9.9962020904e+00    0.2372938    0.1425188 -66.77 0.0008001055    2.371    0.578
         7  99.0000     97.6076    249.9745   1.2062732380e+02   1.4871254586e+01    0.5854793    0.3255704 -65.29  0.004179052    2.236    0.553
         8 -13.2624    101.4802    242.9817   1.1946616197e+02   1.5325592156e+01     0.519678    0.1637781  52.63  0.002600403    2.641    0.621
         9 -13.5381    102.7476    239.1261   1.1894393791e+02   1.5701075744e+01    0.7468491    0.1873358 -54.98  0.003399167    5.095    0.804
        10 -11.1739     88.7644    249.8389   1.2200082119e+02   1.6048673274e+01    0.2741265    0.1278945  58.13  0.001771873    1.734    0.423
        11 -17.7460     70.2357    223.8151   1.2313364668e+02   2.2339994490e+01     8.128594     5.466741 -83.29   0.04981399    1.503    0.335
        12 -11.8602     12.2113    206.0678   1.3184690541e+02   3.1754565323e+01    0.2405533    0.1278698  37.02  0.001686629    2.002    0.500
        13 -10.3689     30.8262    205.0080   1.2864097829e+02   3.0096428507e+01    0.1295383    0.1084223  74.71 0.0005638528    1.288    0.223
        14 -12.6714    174.8167    198.9660   1.0178821312e+02   1.0282856969e+01    0.4340006    0.2873177   4.08   0.00226865    2.489    0.598
        15 -13.1915    180.9761    194.9056   1.0006505491e+02   9.7911957782e+00    0.4382985    0.3215965 -56.48  0.002681392    1.815    0.449
        16 -11.0843    125.0106    244.9576   1.1584700386e+02   1.1775216926e+01    0.1454199    0.1250915  53.47 0.0003406256    1.205    0.170
        17 -10.3901      8.3163    190.7759   1.3183842688e+02   3.4841240285e+01    0.1021393   0.05120587  61.82 0.0006812701    1.491    0.329
        18 -10.6490    134.8539    242.7254   1.1404297811e+02   1.0649907741e+01    0.2210041    0.1321176 -43.90 0.0009949118    2.448    0.591
        19 -10.3157    160.2446    239.9069   1.0961803004e+02   7.2357823139e+00    0.1716907    0.1275243 -47.57  0.001186658    1.805    0.446
        20 -11.2851    238.5154    185.0494   8.8598390493e+01   1.1386677211e+00    0.1695582    0.1110825 -23.41  0.001026454    1.572    0.364
        21 -10.8532    134.1225    196.7755   1.0893981329e+02   1.7487931274e+01    0.2014681    0.1609472 -72.17 0.0004735853    1.444    0.308
        22 -12.1290    162.4918    180.7973   1.0122390413e+02   1.5183522996e+01    0.2673323    0.1879515  74.34  0.001423689    1.967    0.492
        23 -13.0416    188.4332    176.0708   9.5575743202e+01   1.1169720420e+01    0.6432137    0.4163046 -55.73  0.001983637    2.152    0.535
        24 -10.3720    167.7832    245.1822   1.0899455656e+02   5.4794625130e+00    0.1415569    0.1020854  29.85 0.0003954061    1.325    0.245
        25 -10.6436     38.5390    185.6227   1.2602834286e+02   3.2819287154e+01    0.1123566   0.07785963  69.28 1.812847e-05    1.099    0.090
        26 -10.9101    167.0594    176.3355   9.9616351364e+01   1.5067007058e+01    0.1846558     0.145912  46.64  0.000412701    1.120    0.107
        27 -11.0891    194.7164    172.5163   9.3791749180e+01   1.0526686947e+01    0.2244775    0.1776309 -31.49 0.0008024256    1.391    0.281
        28  -9.9792    207.5300    171.4859   9.1311923958e+01   8.2973689716e+00    0.2174016    0.1156766 -47.59  0.001017673    2.510    0.602
        29 -11.4327    186.9826    165.9018   9.3992431415e+01   1.2975865350e+01    0.4188245    0.2496327 -46.46  0.001660243    1.956    0.489
        30 -11.1739    126.2541    228.0200   1.1399112708e+02   1.3931366989e+01    0.3302621      0.18881  47.39  0.001972085    1.338    0.253
        31 -10.9052    127.6539    223.4431   1.1327092577e+02   1.4384805632e+01    0.2277033    0.1661434 -83.22 0.0008966079    1.681    0.405
        32 -10.2807     13.3250    157.9021   1.2910640119e+02   4.0743778179e+01    0.1464859    0.1055002 -87.24 0.0003916288    1.144    0.126
        33 -11.0854    188.6593    154.1858   9.1409379052e+01   1.4485126910e+01    0.2649845    0.2019134  51.41  0.001101189    1.304    0.233
        34 -10.5184    191.8025    151.6825   9.0311644918e+01   1.4257412588e+01    0.2463163    0.1749728 -64.39  0.001114898    2.092    0.522
        35 -11.8135    161.6114    149.3259   9.5763963001e+01   2.0682218863e+01    0.2875287     0.218419  85.79 0.0008733192    1.788    0.441
        36 -11.2121    174.4664    148.9775   9.3107209219e+01   1.8177124995e+01    0.2662946    0.2252105  62.44 0.0007764246    1.263    0.208
        37 -10.8739    108.0424    228.6558   1.1714321533e+02   1.6492813136e+01    0.3992067    0.1648175  34.50  0.001926583    2.950    0.661
        38 -12.4214    160.5153    127.8623   9.1467445028e+01   2.4836702066e+01    0.3915478    0.3325439  88.76  0.001372428    1.384    0.277
        39 -10.9331    231.3034    113.7113   7.4850193213e+01   1.1850509913e+01    0.2558228    0.2211308  14.81 0.0007315647    1.119    0.106
        40 -11.8369    167.5885    112.5626   8.6346788515e+01   2.6151460048e+01    0.4271262    0.3177946 -76.96  0.001287169    1.862    0.463
        41 -19.1662     52.0330     96.6323   1.1238149614e+02   5.0371038363e+01      16.2296    0.8338593 -62.59   0.02561001   16.788    0.940
        42 -13.2745    121.1991    111.6090   9.6754893737e+01   3.6134095807e+01    0.4286437    0.3481867 -67.79  0.002275297    1.262    0.207
        43 -13.2088    117.1849    109.1748   9.7185189722e+01   3.7424894945e+01    0.4930058    0.3627552  38.15  0.002148368    1.478    0.323
        44 -12.3853    129.9358    109.7624   9.4181999472e+01   3.4785686305e+01     0.323268    0.2983799 -29.17 0.0008035014    1.186    0.157
        45 -10.9823    205.4614    110.0873   7.8344029608e+01   1.8040336683e+01    0.3200162     0.214411  44.00 0.0009299028    1.488    0.328
        46 -12.2522    112.0094    105.0901   9.7534192959e+01   3.9282228557e+01    0.3857794    0.2829336 -84.82  0.001868048    1.698    0.411
        47  -9.8618    124.6777     92.2906   9.1013388775e+01   3.9488211087e+01    0.1492409    0.1163144 -88.10 0.0003007907    1.608    0.378
        48 -11.0040     76.0847     86.6599   1.0305226924e+02   4.9451905012e+01    0.2414706    0.1823265 -85.59 0.0008818581    1.508    0.337
        49 -10.7487    148.1276     82.1438   8.2425908706e+01   3.6334056475e+01     0.233856    0.2091122  10.13 0.0004977584    1.246    0.198
        50 -12.0139    155.0620     79.3513   8.0028679829e+01   3.5222510948e+01    0.4696575    0.3019219  88.92  0.001729339    2.796    0.642
        51 -11.6916    176.0633    249.0280   1.0811491895e+02   3.8190031980e+00    0.1818703    0.1561506 -25.44  0.000675332    1.562    0.360
        52 -11.2617    113.2584     76.5058   8.9512158561e+01   4.5082458414e+01    0.4983814    0.2637491  57.97  0.001974966    2.375    0.579
        53 -14.4762    159.0596     59.4554   7.2957653028e+01   3.7730915332e+01      1.55819     1.176486  44.76  0.001189807    1.357    0.263
        54 -10.8271    113.2033    206.7094   1.1401396700e+02   1.9166385307e+01     0.197646    0.1515436  53.04 0.0005166659    1.068    0.064
        55 -13.0854    176.4218     37.7673   6.2522094903e+01   3.6512891018e+01    0.4624154    0.4074881  14.24 0.0009006576    1.224    0.183
        56 -10.8512     13.4794     59.6632   1.1793893271e+02   6.2242885052e+01    0.2040671    0.1554916 -67.07 0.0004612899    1.022    0.021
        57 -11.5498    125.2640    239.4170   1.1528667430e+02   1.2482941143e+01    0.2888085    0.1303968 -55.15  0.001720023    2.863    0.651
