#   1 NUMBER                 Running object number                                     
#   2 MAG_AUTO               Kron-like elliptical aperture magnitude                    [mag]
#   3 X_IMAGE                Object position along x                                    [pixel]
#   4 Y_IMAGE                Object position along y                                    [pixel]
#   5 X_WORLD                Barycenter position along world x axis                     [deg]
#   6 Y_WORLD                Barycenter position along world y axis                     [deg]
#   7 A_WORLD                Profile RMS along major axis (world units)                 [deg]
#   8 B_WORLD                Profile RMS along minor axis (world units)                 [deg]
#   9 THETA_WORLD            Position angle (CCW/world-x)                               [deg]
#  10 FWHM_WORLD             FWHM assuming a gaussian core                              [deg]
#  11 ELONGATION             A_IMAGE/B_IMAGE                                           
#  12 ELLIPTICITY            1 - B_IMAGE/A_IMAGE                                       
         1 -16.5864    242.4457     98.8410   8.1666163044e+01   1.2423870372e+01     15.48076     2.426014 -26.30   0.03708771    6.435    0.845
         2  -9.4269    154.3822    214.2048   1.2031446955e+02   1.3005471053e+01    0.1326268    0.1093703 -69.94 0.0009501434    1.704    0.413
         3  -8.6643    219.6350    250.2941   1.1400789636e+02  -4.0432797843e-01    0.0958254   0.06809227  47.00 0.0007029444    1.713    0.416
         4  -8.7816    156.3043    248.6405   1.2386298261e+02   8.5790942016e+00    0.1000435    0.0661756  58.35 0.0005718445    1.725    0.420
         5  -9.5127    177.9665    243.4453   1.1979591640e+02   6.0975570135e+00    0.1613853    0.1436338  79.75  0.001330163    1.738    0.425
         6  -8.9490    168.6548    243.3513   1.2130034999e+02   7.4296109195e+00    0.1037543   0.06900352  57.56 0.0007040376    1.815    0.449
         7  -9.4166    194.7459    239.3760   1.1658326133e+02   4.1061883808e+00    0.1414464    0.1057035  33.41 0.0007152429    1.107    0.096
         8  -9.1079    199.4455    237.2240   1.1554825210e+02   3.6394295079e+00    0.1113583    0.1055038 -41.34 0.0007561423    1.671    0.402
         9  -9.0626    190.3432    237.1903   1.1702915840e+02   4.9639580883e+00    0.1149075    0.1021355 -42.84 0.0009347957    1.690    0.408
        10  -8.8503    183.5568    236.5392   1.1806408693e+02   6.0182089684e+00    0.1096416   0.07870051  34.39 0.0002570004    1.020    0.019
        11 -10.1230    226.1787    232.0429   1.1054315310e+02   2.5739002356e-01    0.1520791    0.1431132 -52.28  0.000995058    2.009    0.502
        12 -10.1890    219.9469    233.7358   1.1177460781e+02   1.0021454540e+00    0.2547002    0.1732784  49.48  0.001685419    1.859    0.462
        13  -9.3657    170.4653    235.0081   1.2005184046e+02   8.0884320836e+00    0.1268072     0.108581 -32.73 0.0009079538    1.571    0.364
        14  -8.7356    162.6255    235.2932   1.2139346550e+02   9.1902872134e+00     0.107892   0.06860456  55.53 0.0007023956    1.735    0.424
        15  -9.2401    213.5908    233.7225   1.1279484464e+02   1.9231543765e+00    0.1145526    0.1009409 -12.77 0.0007737289    1.520    0.342
        16  -9.1222    209.3952    233.2165   1.1340581983e+02   2.5818366198e+00    0.1164884    0.1027947 -26.89 0.0005806772    1.638    0.390
        17 -10.2032    195.4618    231.8663   1.1550985147e+02   4.7611527293e+00    0.2270432    0.1843634 -21.51  0.001787664    1.560    0.359
        18  -9.3862    187.4674    232.1075   1.1686591924e+02   5.9151050673e+00     0.129613    0.1071369 -22.50  0.001016211    1.548    0.354
        19  -9.4259    158.5624    231.2195   1.2161417666e+02   1.0255059005e+01     0.159589    0.1092855 -55.27   0.00112285    2.108    0.526
        20  -9.9339    176.9575    229.7742   1.1833308094e+02   7.7233690250e+00    0.1981561    0.1502741 -67.17  0.001370078    2.331    0.571
        21  -9.3108    202.9922    229.9558   1.1401465093e+02   3.8429896658e+00    0.1564954    0.1164614  50.46 0.0006412104    1.645    0.392
        22 -10.3856    229.7088    228.4928   1.0947385804e+02   6.5661964617e-02    0.2391315    0.1621087  49.53  0.001593723    1.968    0.492
        23  -9.1323    216.1714    229.1615   1.1174929645e+02   1.9775322704e+00    0.1381782    0.1099619  37.37 0.0006271491    1.370    0.270
        24  -9.6769    211.1690    227.9187   1.1239247350e+02   2.8348290309e+00    0.1607463    0.1263391  35.80 0.0008233821    1.287    0.223
        25  -9.2193    184.4814    227.9235   1.1683186853e+02   6.8103185028e+00    0.1316213     0.109755 -27.60 0.0006264934    1.559    0.359
        26  -9.5848    167.4417    227.7327   1.1969617823e+02   9.3665063181e+00      0.16446    0.1108353 -50.60  0.001131762    2.112    0.527
        27  -9.4248    162.2861    227.4498   1.2054237647e+02   1.0161243365e+01    0.1594811    0.1304926  83.78   0.00116645    1.844    0.458
        28  -9.3194    206.6566    206.8629   1.1007268581e+02   5.7186256706e+00    0.1926702    0.1536744 -66.50  0.001191974    2.562    0.610
        29 -10.3276    218.3812    225.5200   1.1087464391e+02   1.9991310726e+00    0.2131432    0.1877062  55.73  0.001143163    1.819    0.450
        30  -9.4642    217.2905    220.3708   1.1030780057e+02   2.6626869964e+00    0.1668084    0.1486247  40.32 0.0008455384    1.544    0.352
        31 -10.1236    208.5509    212.5539   1.1061262893e+02   4.8030083915e+00    0.2490272     0.172284 -37.40  0.001661235    1.951    0.488
        32 -10.8067    210.8371    218.1556   1.1105616829e+02   3.8640956221e+00    0.2901062    0.2442229 -61.57  0.001275675    2.262    0.558
        33 -10.1542    194.8659    220.8718   1.1413550527e+02   6.0146897290e+00    0.1939283     0.162175 -31.45 0.0009983637    1.592    0.372
        34  -9.0056    145.6762    232.3408   1.2391941844e+02   1.1969411059e+01    0.1070408   0.06954473  59.65 0.0007050937    1.727    0.421
        35  -9.8241    205.9659    224.0395   1.1271078318e+02   3.9989367453e+00    0.1780711    0.1266665  30.75 0.0007600629    1.042    0.040
        36  -8.8956    200.5200    223.4667   1.1354051932e+02   4.8790021647e+00    0.1151079   0.08276676  29.14 0.0002798256    1.013    0.013
        37  -9.4349    185.3555    223.2507   1.1607453331e+02   7.1974263663e+00    0.1730695    0.1274051  57.72 0.0008982431    1.777    0.437
        38  -9.0592    147.2983    223.6480   1.2268470935e+02   1.2831176623e+01     0.107346     0.073837  61.67 0.0007035883    1.691    0.409
        39 -13.6259    215.2644    202.2533   1.0786871290e+02   4.8540059730e+00     2.242818    0.9668512 -39.72   0.01125182    3.157    0.683
        40  -9.2510    202.4813    205.5204   1.1058916691e+02   6.5330554241e+00     0.168443    0.1142907 -29.48 0.0007439714    1.766    0.434
        41  -9.1537    204.3638    212.6799   1.1134465230e+02   5.4413526691e+00    0.1298418    0.1207386 -37.41 0.0009813242    1.608    0.378
        42  -9.4106    203.3636    209.2280   1.1100030003e+02   5.9772422273e+00    0.1828239     0.141498 -35.43 0.0007477038    1.715    0.417
        43  -8.7052    149.6562    212.3036   1.2092531115e+02   1.3973118334e+01    0.1137953   0.07643317  59.24 0.0007040318    1.685    0.406
        44  -9.0577    199.0974    211.1348   1.1202053971e+02   6.4358557713e+00    0.1433205    0.1234596  37.85 0.0007042212    1.316    0.240
        45  -9.8292    160.2970    210.8229   1.1882514529e+02   1.2545063668e+01    0.1669756    0.1464564 -48.08  0.001146218    1.491    0.329
        46  -9.2347    188.6340    209.8985   1.1366130998e+02   8.2258752390e+00     0.134229    0.1106232 -48.69 0.0009369508    1.760    0.432
        47  -9.7425    176.5015    209.0058   1.1567979997e+02   1.0248483192e+01    0.1436539    0.1158087 -29.81 0.0006260588    1.535    0.349
        48  -9.3064    183.6881    207.4060   1.1417434757e+02   9.3079318219e+00     0.168094    0.1080073 -35.15   0.00105516    1.930    0.482
        49  -9.3089    197.3621    247.4289   1.1714846645e+02   2.9537793122e+00     0.136365    0.1211944  57.99  0.001006193    1.691    0.409
        50 -10.8256    231.8534    210.8436   1.0645825296e+02   1.3880971306e+00    0.3197044     0.233341  56.53  0.001992698    2.309    0.567
        51  -9.3427    138.7592    207.0005   1.2225555183e+02   1.6348685964e+01    0.1268231   0.09883242 -52.75 0.0008848109    1.615    0.381
        52  -9.2476    188.6034    205.2269   1.1298310504e+02   8.7877053823e+00    0.1469028     0.105518 -12.10  0.000946436    1.649    0.393
        53  -9.3850    149.1620    205.1789   1.2011691282e+02   1.5024861869e+01    0.1576645    0.1232987  58.32 0.0007964414    1.361    0.265
        54  -9.3587    198.4014    200.2163   1.1048267694e+02   7.8044665340e+00    0.1777154    0.1120938 -31.07 0.0008383426    1.884    0.469
        55  -9.9860    180.4991    198.9920   1.1350833289e+02   1.0872774330e+01    0.1872942    0.1197489 -42.79 0.0009788019    2.000    0.500
        56  -9.4920    160.5121    202.9867   1.1773954228e+02   1.3556025848e+01    0.1499016     0.119056 -43.26  0.001029738    1.586    0.369
        57  -9.6783    193.2554    201.6394   1.1161586241e+02   8.4700453946e+00    0.1895108     0.157291 -15.72 0.0008677879    1.381    0.276
        58  -9.9387    186.2540    200.9576   1.1276369975e+02   9.6887798520e+00    0.2335465    0.1571557 -37.62  0.001091748    1.848    0.459
        59  -9.1828    134.2770    202.6305   1.2255211804e+02   1.7654242558e+01    0.1128973   0.08001673  67.40 0.0004597389    1.684    0.406
        60  -9.6241    175.5076    203.9658   1.1514421975e+02   1.1041795482e+01    0.1488704    0.1181701 -34.52  0.001022938    1.564    0.361
        61  -9.9102    176.0000    197.5237   1.1411058392e+02   1.1797266753e+01    0.3425241   0.06970929 -41.69  0.001167548    6.047    0.835
        62  -9.8901    202.2174    197.5855   1.0939095694e+02   7.4922873503e+00    0.2233675    0.1898865  62.75  0.001386066    1.758    0.431
        63  -8.5430    190.6745    198.2965   1.1156149461e+02   9.2974242972e+00    0.1113732   0.08797736  56.61  0.000656236    1.627    0.385
        64  -8.7779    172.3087    198.6918   1.1496180149e+02   1.2243715369e+01    0.1126095   0.08662879  60.06 0.0003899926    1.616    0.381
        65  -9.8409    195.6499    195.8820   1.1028827267e+02   8.7758621771e+00    0.2250635    0.1408317 -40.43 0.0009303558    2.051    0.512
        66  -9.5752    167.3484    197.1893   1.1565830454e+02   1.3249823996e+01      0.14229    0.1145619 -54.60 0.0008699361    1.676    0.403
        67 -10.2395    144.4666    196.5070   1.1985477642e+02   1.6996295907e+01    0.2105399    0.1190743 -48.26  0.001209255    2.171    0.539
        68  -9.0007    138.6809    197.6530   1.2110004387e+02   1.7723212498e+01     0.114392   0.08617138  10.54 0.0007048915    1.731    0.422
        69  -8.6941    156.3589    196.6991   1.1763920936e+02   1.5087845694e+01    0.1194121   0.08375947  60.79 0.0005315742    1.715    0.417
        70 -10.0880    185.7597    194.2202   1.1181609589e+02   1.0620027250e+01    0.2494939    0.1706953 -42.23  0.001112818    1.872    0.466
        71  -9.1463    204.5347    194.4752   1.0847688248e+02   7.4779280271e+00    0.1375511    0.1178472 -32.51 0.0002370078    1.533    0.348
        72  -9.8294    205.8855    191.0524   1.0767039621e+02   7.6596874793e+00    0.2324899    0.1664472 -16.95 0.0009083055    1.525    0.344
        73  -9.4722    162.0038    193.9990   1.1619212358e+02   1.4558837222e+01    0.1407994    0.1271277  26.31 0.0008880471    1.129    0.115
        74  -9.4073    191.0121    191.5733   1.1043577170e+02   1.0082783271e+01    0.2869478    0.1644274 -56.96  0.001308188    3.773    0.735
        75  -9.1685    168.0000    192.9614   1.1491219663e+02   1.3723207233e+01    0.1680317   0.07057907 -42.61 0.0007970755    2.905    0.656
        76 -10.5080    200.4787    176.0789   1.0605306159e+02   1.0449091730e+01    0.4721957     0.200096 -18.75  0.001646523    4.768    0.790
        77 -10.0888    199.1001    191.2977   1.0892529505e+02   8.7636862596e+00    0.3262413    0.1453464 -34.81  0.001630703    2.636    0.621
        78 -10.4095    199.1049    183.1230   1.0754611284e+02   9.7832870791e+00    0.3887132    0.1633504 -47.17  0.001583976    4.074    0.755
        79  -8.7015    181.6841    191.2959   1.1210539198e+02   1.1678971067e+01    0.1139734   0.09029358  59.09 0.0006337713    1.605    0.377
        80  -9.3780    194.2774    189.9165   1.0957096133e+02   9.7444609978e+00    0.1640031    0.1513695 -37.90  0.000734985    1.470    0.320
        81  -9.1134    130.3266    190.3146   1.2174948972e+02   2.0129061147e+01     0.114092   0.08838227  11.34 0.0006386831    1.669    0.401
        82  -9.0065    174.4550    188.9288   1.1308149404e+02   1.3207592928e+01    0.1459831    0.1098641 -76.74  0.000807071    2.440    0.590
        83 -10.0316    120.5914    188.7814   1.2345312191e+02   2.1844620848e+01    0.1493037    0.1108473 -78.44 0.0009509727    1.672    0.402
        84  -9.3794    166.4627    187.0106   1.1429684040e+02   1.4813891056e+01    0.1637798    0.1231395 -36.95  0.001028135    1.586    0.369
        85 -10.3387    142.0000    185.9538   1.1887645345e+02   1.8982860532e+01    0.2843623   0.07070991 -49.21  0.001037688    4.811    0.792
        86  -9.2851    205.8047    186.1392   1.0685173303e+02   8.2648422001e+00     0.169528    0.1223736  10.07 0.0009987981    1.327    0.247
        87  -9.0763    196.0036    186.0005   1.0860406149e+02   9.9480888469e+00    0.1449464    0.1235263   3.26 0.0006205416    1.186    0.157
        88  -8.9607    183.2703    186.0334   1.1096457096e+02   1.2112330436e+01     0.165368    0.1480487  10.17 0.0007359096    1.163    0.140
        89  -9.3663    177.4134    184.2542   1.1177621704e+02   1.3352241488e+01    0.2055483    0.1205024 -32.32  0.001119311    2.034    0.508
        90  -8.9770    188.4845    184.5173   1.0974166717e+02   1.1424576550e+01    0.1271904    0.1020914  28.17 0.0002708969    1.007    0.007
        91  -9.1937    162.4157    184.2502   1.1464606568e+02   1.5890402589e+01      0.14596    0.1217733 -59.52 0.0007431547    1.581    0.367
        92 -10.9600    134.0796    183.3779   1.2007677440e+02   2.0648428538e+01    0.1937967    0.1654906 -36.61  0.001310159    1.414    0.293
        93  -9.7132    204.3096    181.1869   1.0626036649e+02   9.1313527470e+00    0.2359062    0.2011036 -58.54  0.001287798    1.887    0.470
        94 -10.6878    205.0369    177.2506   1.0542729488e+02   9.5004099389e+00    0.2256445    0.1711025 -35.33  0.001385898    1.613    0.380
        95 -10.1469    194.7556    180.4274   1.0788034562e+02   1.0881689205e+01    0.3595044    0.1399389 -32.53  0.001578295    3.055    0.673
        96 -10.3432    145.3861    179.7466   1.1730055330e+02   1.9405890443e+01    0.2080842    0.1219564 -53.17   0.00112554    2.097    0.523
        97  -8.9684    175.4469    179.5063   1.1136943407e+02   1.4356241803e+01    0.1274768    0.1057556  30.85 9.751719e-05    1.016    0.015
        98 -10.3686    162.7853    178.1331   1.1360395093e+02   1.6734799996e+01    0.3446536    0.2089018   1.37  0.001502357    3.218    0.689
        99  -9.5845    189.7927    177.7499   1.0834110924e+02   1.2102691947e+01     0.162388    0.1429534  47.80 0.0006886615    1.334    0.250
       100  -9.2762    169.3019    183.3157   1.1317197534e+02   1.4864361982e+01    0.1247281   0.08789571  13.98 0.0003864408    1.617    0.382
       101  -9.9386    170.5102    176.1272   1.1176042805e+02   1.5700777027e+01    0.1716423    0.1269873 -36.70  0.001026015    1.570    0.363
       102  -9.8185    158.4995    175.4847   1.1402180151e+02   1.7870342984e+01    0.2044226    0.1188201 -30.03  0.001019151    2.255    0.557
       103  -9.9243    209.6175    173.9400   1.0399038935e+02   9.1149851147e+00    0.3493349     0.120493 -31.04  0.001432514    3.296    0.697
       104  -9.7629    184.4989    182.0411   1.1007216858e+02   1.2440973380e+01    0.1683378    0.1241566 -33.10  0.001027709    1.580    0.367
       105  -9.0418    181.6861    175.3252   1.0945945899e+02   1.3860654459e+01    0.1190577   0.09925599  67.72 0.0007042134    1.664    0.399
       106  -9.5499    213.0022    160.8483   1.0086938582e+02   1.0178008039e+01    0.2393446     0.181221 -58.46  0.001264311    2.349    0.574
       107 -10.2377    211.7828    168.6033   1.0259732081e+02   9.4045494769e+00    0.3839409    0.2328259 -51.50  0.001801361    3.015    0.668
       108  -9.2979    212.7909    164.9818   1.0171828933e+02   9.6845555643e+00    0.2330166    0.1991578 -26.85  0.001131073    1.398    0.285
       109  -9.2274    173.6301    173.7187   1.1074201708e+02   1.5508992123e+01    0.1550802    0.1229138 -48.84 0.0008765753    1.600    0.375
       110 -10.5363    152.4981    174.5008   1.1506319052e+02   1.9046233122e+01    0.2192221    0.1252121 -40.46 0.0009160427    2.059    0.514
       111  -9.5802    164.4775    172.9778   1.1241912802e+02   1.7221865039e+01     0.174879    0.1281627 -40.17 0.0009861002    1.586    0.369
       112  -9.2195    192.5556    172.2539   1.0684321258e+02   1.2360834896e+01    0.1685374    0.1172631 -13.31 0.0009456541    1.623    0.384
       113 -10.0377    142.4897    171.0895   1.1655426624e+02   2.1282544822e+01    0.1736738    0.1269001 -47.01 0.0007421062    1.578    0.366
       114 -13.5631    226.8583    181.6611   1.0235388954e+02   5.2316081162e+00     2.008563    0.9450485 -43.23  0.009090542    3.492    0.714
       115  -8.9156    202.0109    202.0130   1.1012803709e+02   7.0097961841e+00    0.1797074    0.1360036 -32.33 0.0005950106    1.649    0.394
       116  -9.9453    158.4955    169.9576   1.1310890922e+02   1.8731013557e+01    0.1769254    0.1289626 -41.47  0.001030445    1.582    0.368
       117 -10.9885    205.1371    167.4383   1.0359494826e+02   1.0747990067e+01    0.4906735    0.1710975 -39.16  0.001974349    3.387    0.705
       118 -10.0850    204.3919    156.5670   1.0161148618e+02   1.2341458675e+01     0.592082    0.1503997 -30.79  0.001849263    4.932    0.797
       119  -8.8820    202.4748    184.5245   1.0717435603e+02   9.0300098230e+00    0.1867236   0.09691991  33.48 0.0001438932    1.622    0.384
       120 -10.2470    128.5826    168.2965   1.1900834491e+02   2.4040058526e+01    0.2159982    0.1241849 -56.72  0.001132721    2.037    0.509
       121  -9.6108    185.5610    168.5152   1.0750055391e+02   1.4136321192e+01    0.1318975    0.1098512  25.15 0.0001038569    1.008    0.008
       122  -9.6914    165.0000    167.9304   1.1145121905e+02   1.7904913507e+01    0.1908317    0.0750289 -42.38 0.0007995359    2.922    0.658
       123 -10.6657    179.1914    166.7554   1.0842091049e+02   1.5541045440e+01    0.2042653    0.1813881 -47.71  0.001018194    1.431    0.301
       124  -8.5235    179.6382    222.3190   1.1692945970e+02   8.1694577906e+00     0.109298   0.07729165  57.11 0.0007042179    1.770    0.435
       125  -9.3224    187.6611    163.4718   1.0615803838e+02   1.4476417595e+01    0.2094617    0.1225333 -33.14  0.001068577    1.899    0.473
       126 -10.4632    146.4111    163.2870   1.1446781903e+02   2.1912993561e+01    0.2289963    0.1250505 -40.96  0.001131495    2.113    0.527
       127 -10.5173    138.4926    163.9840   1.1624654303e+02   2.3147385831e+01    0.1797964     0.128561 -49.40 0.0007141905    1.586    0.369
       128 -10.4162    153.1440    161.6696   1.1278437156e+02   2.1005191456e+01     0.207986     0.183371 -59.54 0.0009105074    1.367    0.269
       129  -9.6571    159.4118    159.7847   1.1114769316e+02   2.0195943767e+01    0.1727761    0.1241772 -25.26 0.0009427451    1.643    0.391
       130 -10.6450    167.7187    157.5574   1.0902568788e+02   1.9041871067e+01     0.310033    0.1664338 -54.23  0.001363994    2.752    0.637
       131 -10.4395    200.0000    156.8945   1.0250771541e+02   1.3118547664e+01    0.3422911   0.07501582 -35.20  0.001055251    4.970    0.799
       132  -8.8875    187.6301    155.6853   1.0466162658e+02   1.5616565953e+01    0.1904554    0.1317341 -11.21  0.000779319    1.664    0.399
       133  -8.7974    179.6182    158.7056   1.0683597257e+02   1.6663710444e+01    0.1428296   0.09351742  16.77 0.0007019205    1.757    0.431
       134  -9.8119    130.4789    158.5188   1.1706373145e+02   2.5446320349e+01    0.1283052    0.1155063  43.03 8.454949e-05    1.009    0.009
       135  -9.5594    182.6353    162.4376   1.0694550749e+02   1.5549637294e+01    0.2061388    0.1254554 -34.09 0.0009910002    1.830    0.454
       136  -9.4550    176.0000    156.9794   1.0723155771e+02   1.7599709850e+01    0.1996435   0.07678297 -39.22 0.0007960301    2.898    0.655
       137  -9.5537    158.4692    154.0205   1.1028525384e+02   2.1314647841e+01    0.1907697    0.1333371 -39.89 0.0009164271    1.588    0.370
       138 -10.0753    184.0000    151.5435   1.0455703177e+02   1.6923989220e+01    0.4248164   0.07735769 -38.09  0.001165109    6.023    0.834
       139  -9.9459    137.7630    152.9985   1.1454207786e+02   2.5190646597e+01    0.1649858    0.1118553 -47.89 0.0008836435    1.629    0.386
       140  -8.6645    166.6568    221.7097   1.1909127133e+02   1.0203043883e+01    0.1127976   0.07300033  21.40 0.0007025325    1.653    0.395
       141  -9.8817    151.3843    152.1904   1.1144893903e+02   2.2913805231e+01    0.1733633    0.1285279 -57.09 0.0006593493    1.654    0.395
       142  -9.2692    176.0406    151.0001   1.0605645490e+02   1.8522453022e+01    0.2131759    0.1534506   5.20  0.000755125    1.628    0.386
       143  -9.7634    170.2061    150.9796   1.0725140877e+02   1.9629796839e+01     0.220759    0.1500101  -3.68  0.001051505    1.976    0.494
       144 -11.0296    207.7597    160.3613   1.0173827249e+02   1.1204820337e+01    0.4851096    0.1664117 -28.47  0.001826837    3.497    0.714
       145  -9.4627    146.6662    151.6738   1.1236922531e+02   2.3853025628e+01    0.1361857    0.1013578   7.18  0.000705142    1.715    0.417
       146  -9.3839    122.3316    150.3199   1.1749612246e+02   2.8293616735e+01    0.1282755    0.1016774  -0.70 0.0007048741    1.694    0.410
       147 -10.6910    192.1137    161.7213   1.0496340396e+02   1.3907007407e+01    0.2806001    0.1401795 -35.06  0.001327658    2.214    0.548
       148 -10.4987    234.1101    216.6579   1.0699934060e+02   4.9864703154e-01    0.1954331    0.1613909  21.85 0.0007871724    1.300    0.230
       149  -9.9340    132.8559    148.1492   1.1476461914e+02   2.6916920350e+01    0.1802378    0.1575507  -1.41  0.001079047    1.319    0.242
       150  -9.1406    206.0000    147.0520   9.9348236768e+01   1.3349626253e+01    0.2062849    0.0756378 -32.70 0.0007930339    2.878    0.652
       151 -10.9468    201.5896    145.0339   9.9759964302e+01   1.4489403349e+01    0.3496052    0.2310762 -55.29  0.001618539    2.548    0.607
       152  -9.1869    186.5603    145.9522   1.0290062694e+02   1.7281451585e+01    0.1950739    0.1334489 -31.97 0.0007080173    1.564    0.361
       153 -10.4124    208.1740    143.8748   9.8261574007e+01   1.3371048172e+01    0.1980647    0.1856309  16.84 0.0009605505    1.228    0.185
       154  -9.6257    195.3724    144.1614   1.0077892253e+02   1.5830100532e+01    0.1814098    0.1270842 -40.54 0.0005280662    1.667    0.400
       155  -9.2573    155.4492    144.5249   1.0910444592e+02   2.3483135706e+01    0.1367584     0.123758  29.41 0.0001377138    1.004    0.004
       156 -10.7158    148.1316    142.5116   1.1030977280e+02   2.5198943031e+01    0.2267395    0.1896371  -7.19  0.001026968    1.357    0.263
       157  -9.1716    155.2971    141.3111   1.0849545674e+02   2.4069100549e+01    0.1380137    0.1039214   7.36 0.0002837014    1.598    0.374
       158  -8.8758    203.6391    140.6938   9.8433200924e+01   1.4708689926e+01    0.1503964   0.09545517  16.50 0.0005143154    1.733    0.423
       159  -8.6588    180.0000    139.9990   1.0297649390e+02   1.9494716138e+01    0.2117894   0.07936655 -37.34 0.0007908806    2.863    0.651
       160  -9.2685    175.0000    139.9896   1.0401049043e+02   2.0482077993e+01    0.2149085   0.07959043 -38.43 0.0007972618    2.907    0.656
       161  -9.0221    188.3782    220.1579   1.1514344814e+02   7.0845343467e+00    0.1401956      0.11197 -24.78 0.0007102255    1.557    0.358
       162 -10.4976    209.5857    137.3215   9.6564715174e+01   1.4009705296e+01    0.2416208    0.1281169 -33.75  0.001048667    1.970    0.492
       163  -8.4566    172.2998    137.3125   1.0400610825e+02   2.1452861500e+01      0.14348    0.1033552  10.42 0.0003500646    1.606    0.377
       164 -10.1420    142.6233    137.1649   1.1048192875e+02   2.7183649718e+01    0.1930118    0.1276015 -32.86 0.0009511856    1.733    0.423
       165 -10.0676    138.4777    143.0444   1.1256498463e+02   2.6861425249e+01    0.1958688    0.1342245 -46.09 0.0006917106    1.577    0.366
       166  -9.4606    155.4348    135.0024   1.0716371988e+02   2.5149552236e+01    0.2048576    0.1376282 -40.09 0.0008819771    1.591    0.371
       167  -9.2801    138.3050    135.3131   1.1109626838e+02   2.8320940213e+01    0.1368278    0.1064176   2.34 0.0003815716    1.618    0.382
       168  -9.1250    182.5327    133.9679   1.0114172972e+02   1.9949038241e+01    0.2050587    0.1378184 -31.09 0.0008821898    1.560    0.359
       169  -9.0709    164.7448    133.9729   1.0490286466e+02   2.3508627994e+01    0.1777921     0.121467 -36.22 0.0008852291    1.556    0.357
       170  -8.9705    190.5836    217.5463   1.1440611021e+02   7.0398710165e+00    0.1276694    0.1091581 -41.40 0.0009454494    1.649    0.394
       171  -9.7646    145.3215    132.3313   1.0887752505e+02   2.7566009787e+01    0.1431995    0.1074862   4.03  0.000479904    1.697    0.411
       172  -9.2698    200.4441    136.9776   9.8231791782e+01   1.5881825289e+01    0.2051378    0.1330579 -26.78 0.0008417368    1.586    0.370
       173  -9.7663    200.8830    217.0297   1.1257232888e+02   5.5092403730e+00    0.3014697    0.1830498 -53.05  0.001678722    3.247    0.692
       174  -9.1555    173.5230    128.9807   1.0191104672e+02   2.2590696886e+01    0.1988945    0.1214837  -8.88 0.0008089374    2.443    0.591
       175  -9.2816    204.4908    217.0602   1.1196479957e+02   4.9507140921e+00    0.1404738    0.1091881 -21.26 0.0008071294    1.544    0.352
       176  -9.0477    169.5104    218.5121   1.1818913475e+02   1.0160263726e+01    0.1150162    0.0872216  37.66 0.0002568794    1.045    0.043
       177  -9.8829    137.0000    125.9554   1.0946182561e+02   3.0328094397e+01    0.2226133   0.07999018 -45.79 0.0007979575    2.911    0.657
       178  -9.0095    181.6111    125.1131   9.9318395384e+01   2.1562925302e+01    0.2029235    0.1321837 -18.77 0.0009394177    1.731    0.422
       179  -9.4108    146.4752    124.0275   1.0681979970e+02   2.8878676281e+01    0.2011216    0.1224085 -17.97 0.0008099497    2.544    0.607
       180  -9.0806    157.4926    119.4949   1.0325214964e+02   2.7508378741e+01    0.1453704    0.1348932  20.12 0.0001249185    1.005    0.005
       181  -9.5459    179.5232    216.9417   1.1623640327e+02   8.8148301494e+00    0.1378628    0.1139691 -33.14 0.0007893265    1.559    0.358
       182  -9.8184    237.4173    221.8153   1.0725645131e+02  -4.5712009504e-01    0.2189837    0.1895964 -52.34  0.001576438    2.384    0.581
       183  -9.0069    185.9630    215.5081   1.1492122815e+02   7.9874509638e+00    0.1768136   0.08852945  39.36  0.000609496    1.523    0.343
       184  -9.9789    192.8320    210.0611   1.1295042038e+02   7.5443926668e+00    0.3086112     0.156876 -42.45  0.001729147    2.654    0.623
       185 -10.1088    169.9389    213.0322   1.1739586818e+02   1.0771542153e+01    0.2177793    0.1965124 -24.00  0.001422704    1.391    0.281
