#   1 NUMBER                 Running object number                                     
#   2 MAG_AUTO               Kron-like elliptical aperture magnitude                    [mag]
#   3 X_IMAGE                Object position along x                                    [pixel]
#   4 Y_IMAGE                Object position along y                                    [pixel]
#   5 X_WORLD                Barycenter position along world x axis                     [deg]
#   6 Y_WORLD                Barycenter position along world y axis                     [deg]
#   7 A_WORLD                Profile RMS along major axis (world units)                 [deg]
#   8 B_WORLD                Profile RMS along minor axis (world units)                 [deg]
#   9 THETA_WORLD            Position angle (CCW/world-x)                               [deg]
#  10 FWHM_WORLD             FWHM assuming a gaussian core                              [deg]
#  11 ELONGATION             A_IMAGE/B_IMAGE                                           
#  12 ELLIPTICITY            1 - B_IMAGE/A_IMAGE                                       
         1  -7.7547     83.2385     11.0034   8.9676588409e+01   6.1872762978e+01    0.1765628    0.1031322 -29.09 0.0005322426    1.558    0.358
         2  -8.4603     55.6523     10.1133   9.8971564528e+01   6.6789794198e+01    0.1832886     0.175324 -49.03  0.000790779    1.302    0.232
         3  -8.5480     90.5146      9.0045   8.6529666324e+01   6.0691041732e+01    0.2033576    0.1223909 -29.53 0.0006002865    1.529    0.346
         4  -7.9887     12.8251      8.8054   1.1810593487e+02   7.1978718271e+01     0.144395    0.1215629 -68.00 0.0005153014    1.363    0.266
         5  -7.5268    101.3928      8.1744   8.3149641981e+01   5.8487414156e+01    0.1919638    0.1169799 -35.83 0.0004930924    1.611    0.379
         6  -7.9058      5.6607      8.3019   1.2166713540e+02   7.2594078957e+01    0.1006261   0.08112191  88.87   0.00040707    1.670    0.401
         7  -8.2288     68.8753      7.3802   9.2648890342e+01   6.5034511506e+01    0.1848227    0.1407868 -32.11 0.0006316536    1.202    0.168
         8  -8.6924     33.3004      5.1683   1.0617727285e+02   7.0617673597e+01    0.2674417    0.1671297 -61.06  0.001216602    2.337    0.572
         9  -8.4755     79.0211      3.6140   8.7336737817e+01   6.3673870620e+01    0.2551153    0.1589679 -40.74  0.000918527    1.680    0.405
        10  -7.7597     44.6845      3.3192   1.0002215257e+02   6.9450862095e+01    0.1135907   0.09235369 -58.57 0.0003173081    1.655    0.396
        11  -7.6309     15.6808      3.2959   1.1414585114e+02   7.2754973131e+01    0.1006629   0.08500167 -76.02 0.0003278671    1.612    0.380
        12  -8.3659     62.2775      1.5007   9.1949035398e+01   6.6991407252e+01     0.186049    0.1272197  51.37 0.0003100785    1.760    0.432
        13  -8.0835     20.9930    248.0000   1.4500911246e+02   2.5778775914e+01    0.1363434   0.03605835  39.87 0.0008073034    2.976    0.664
        14  -9.0515    247.7977    234.7525   1.1044491234e+02  -2.5088727222e+00    0.2139183    0.1873762 -19.84  0.001665487    1.651    0.394
        15  -9.5275    246.5626    228.7946   1.0980228675e+02  -1.8799779113e+00    0.3480898    0.1779075 -14.44  0.001611292    2.363    0.577
        16  -8.5676    248.9899    249.2237   1.1217260808e+02  -3.7170219931e+00    0.2367823    0.1334979  11.41  0.001743795    1.830    0.453
        17  -9.4308    248.6651    242.3920   1.1133933350e+02  -3.1900377586e+00    0.2578435    0.1678283 -26.75  0.001175863    1.993    0.498
        18  -8.7164    232.7066    247.8422   1.1423374957e+02  -1.4204581290e+00    0.2132311    0.1456707 -41.92  0.001663146    2.425    0.588
        19  -9.3097    211.3001    247.2769   1.1717948481e+02   1.5990640269e+00    0.2703719    0.2030072 -69.34  0.001802899    2.996    0.666
        20  -8.2018    191.9137    249.9335   1.2026452080e+02   4.0985228672e+00    0.1481634     0.100222  58.21  0.000706517    1.729    0.422
        21  -8.5635     93.9925    249.5858   1.3464192203e+02   1.7464248366e+01    0.2292814     0.111183  71.38  0.001469095    2.510    0.602
        22  -7.7088     86.3576    250.2459   1.3580377364e+02   1.8323241053e+01    0.1134005   0.07394397  83.23 0.0006278023    1.597    0.374
        23  -8.7650     12.5405    247.2907   1.4614693105e+02   2.6674226357e+01    0.1494009   0.05640838  41.57  0.001082172    2.111    0.526
        24  -7.9072     59.3360    245.6765   1.3947200946e+02   2.2092556847e+01    0.1006919   0.04599686  62.26 0.0007050912    1.714    0.417
        25  -8.5695    201.9382    243.1792   1.1804611961e+02   3.2875829360e+00    0.1798143    0.1367055 -50.81 0.0009855659    2.087    0.521
        26  -8.5171    169.0891    243.6167   1.2293451125e+02   7.9664365611e+00    0.1472124    0.1214195  61.90 0.0005459992    1.368    0.269
        27  -7.8030    139.3524    244.6579   1.2749117774e+02   1.2057479497e+01    0.1036804   0.06056091  62.82 9.173261e-05    1.809    0.447
        28  -8.8385     78.2174    243.5645   1.3657520859e+02   2.0176502174e+01    0.2353243   0.09526825  61.69   0.00145489    2.289    0.563
        29  -8.4733      9.6305    243.9374   1.4644537469e+02   2.7403083466e+01    0.1437605    0.0364035  73.78 0.0007034714    4.505    0.778
        30  -7.8997    213.7725    241.9256   1.1618508373e+02   1.7063923162e+00    0.1045053   0.08032744 -14.40 0.0007163784    1.618    0.382
        31  -8.9391    194.1192    240.2490   1.1884834480e+02   4.6869368534e+00    0.1998319    0.1485658 -45.16  0.001283774    1.953    0.488
        32  -9.2128    183.1756    240.3099   1.2047653718e+02   6.2698541492e+00    0.3235758    0.2062571  65.21  0.001826036    2.276    0.561
        33  -9.2174    160.3110    240.5148   1.2392812556e+02   9.5571488184e+00     0.240452    0.1716006  86.72  0.001165117    2.225    0.551
        34  -7.8598    153.4789    242.4881   1.2515828673e+02   1.0316900435e+01     0.103051   0.07306448  49.16 0.0003203155    1.071    0.067
        35  -8.4267    147.0134    240.4902   1.2593923419e+02   1.1459634489e+01    0.2585179    0.1494228  75.25  0.001496524    3.160    0.684
        36  -8.1464     88.2264    242.2082   1.3499159095e+02   1.9130199342e+01    0.1317216    0.0815542  66.28 0.0005758355    1.361    0.265
        37  -8.8361    241.5813    238.5711   1.1181842270e+02  -1.9370477346e+00    0.3942091     0.184481   2.38  0.002019566    4.011    0.751
        38  -8.7891    135.8407    239.1401   1.2751220555e+02   1.3192563673e+01    0.2123422    0.1013681  52.87  0.001163945    1.691    0.409
        39  -8.2494    129.7800    239.2160   1.2844565482e+02   1.4027919553e+01    0.1668735   0.08445109  66.81 0.0009503855    2.753    0.637
        40  -9.0202    230.9566    237.2666   1.1314307408e+02  -3.4662431245e-01    0.1709123    0.1582658 -68.33 0.0009463247    1.958    0.489
        41  -7.7735    209.0287    238.2629   1.1642467147e+02   2.7095514537e+00    0.1158276    0.1084381  78.35 0.0008071622    1.651    0.394
        42  -7.5625    190.2860    237.6633   1.1911486739e+02   5.4950368230e+00   0.09382617   0.07001715  60.91 0.0007015913    1.629    0.386
        43  -9.6205    214.8571    233.1644   1.1493558600e+02   2.3189394535e+00     0.381332    0.2839463  88.85  0.002349214    3.530    0.717
        44  -8.6711    203.0424    234.7529   1.1687273946e+02   3.9041575307e+00    0.1750897    0.1446163 -63.06 0.0009056739    2.028    0.507
        45  -9.7701    175.7655    233.4032   1.2081026967e+02   8.0683054564e+00     0.314626     0.202416 -61.64  0.002146591    2.605    0.616
        46  -7.8834    170.4243    235.9114   1.2190433329e+02   8.5869275978e+00    0.1147007    0.1036588 -49.21 0.0004541525    1.529    0.346
        47  -9.3152    108.9148    234.6181   1.3125967169e+02   1.7452858478e+01    0.3398295    0.1398517  56.49  0.001102978    2.183    0.542
        48  -8.9826     79.0872    234.8838   1.3587730030e+02   2.1243318145e+01    0.2161732     0.107316  72.24 0.0009810642    2.158    0.537
        49  -7.8873     58.0145    237.0000   1.3919539265e+02   2.3429862722e+01    0.1500474   0.04016112  41.11 0.0007415523    2.908    0.656
        50  -7.7442    153.2929    235.6270   1.2449183728e+02   1.1116307981e+01    0.1007154    0.0670137  66.00 0.0006600366    1.730    0.422
        51  -8.3377     99.6194    234.4551   1.3268587297e+02   1.8703368721e+01    0.1600661   0.09613258  75.19 0.0009288971    1.790    0.441
        52  -8.6947      2.8014    235.1406   1.4714044120e+02   2.9254441617e+01    0.1386433    0.0719668  63.31 0.0005912794    1.233    0.189
        53  -8.1309    122.8704    234.1546   1.2905355419e+02   1.5612182065e+01    0.1583574    0.1039363  61.51 0.0006698897    1.344    0.256
        54  -9.2486     68.1916    232.1643   1.3736892402e+02   2.2933129064e+01    0.3544737    0.1394523  67.74  0.001880259    2.963    0.662
        55  -7.7296     53.5684    234.5192   1.3972532705e+02   2.4277466706e+01   0.09746566    0.0625393  62.84 8.649668e-05    1.079    0.073
        56  -8.4302    194.1730    232.8567   1.1796227551e+02   5.3953494927e+00    0.1512072    0.1129521  48.75 0.0006259347    1.269    0.212
        57  -7.9651    145.1468    233.3885   1.2552026060e+02   1.2554944231e+01    0.1549319    0.0707247  51.55  0.000710946    1.779    0.438
        58  -8.0445    132.7857    232.7620   1.2738086919e+02   1.4398227570e+01    0.1445558   0.09403059  60.38 0.0009085385    1.392    0.281
        59  -8.6295     92.7824    232.1761   1.3357063697e+02   1.9896423520e+01    0.2821086    0.1211142  62.09   0.00164989    2.380    0.580
        60  -9.0251    236.1842    230.5537   1.1151146464e+02  -5.4513565766e-01    0.2448303    0.1499771 -24.45 0.0005579879    1.979    0.495
        61  -9.1639    186.5198    230.8624   1.1887700802e+02   6.7352734118e+00    0.2286319     0.177085  81.16  0.001304717    2.086    0.521
        62  -7.8003     36.6618    232.3134   1.4214055053e+02   2.6411346166e+01    0.1012712   0.04433874  62.36 0.0007046643    1.694    0.410
        63  -9.2009    151.3474    229.0243   1.2410066554e+02   1.2171572771e+01    0.2766471     0.163841  80.10  0.001471136    3.608    0.723
        64  -9.3923    148.8240    224.6970   1.2403362978e+02   1.3067391476e+01    0.3294437    0.2091603  76.48  0.001305906    2.403    0.584
        65  -8.5719      1.8059    230.7509   1.4715717358e+02   2.9974425700e+01    0.1723817   0.06199763  68.07 0.0008729138    2.026    0.506
        66  -8.9725    139.9985    229.6835   1.2594946670e+02   1.3746845254e+01    0.2258639    0.1692473 -75.46  0.001503286    1.768    0.434
        67  -9.5460      9.4498    229.2859   1.4601539911e+02   2.9504213470e+01    0.3045745   0.06473209  61.34  0.001601637    3.500    0.714
        68  -8.1223    229.9192    229.0145   1.1220219913e+02   4.8577751129e-01    0.1401057    0.1157738  55.84 0.0007146476    1.689    0.408
        69  -8.8242    162.4854    228.2523   1.2227514375e+02   1.0612015233e+01    0.2822483    0.1671176  64.34   0.00110065    2.196    0.545
        70  -8.6945    128.1201    227.5155   1.2761006911e+02   1.5723562080e+01    0.2152236    0.1310074  66.22   0.00114938    1.751    0.429
        71  -8.1646    120.0166    227.4612   1.2889061147e+02   1.6873104814e+01    0.1947137    0.1254144 -74.29   0.00140508    2.001    0.500
        72  -8.2904     18.5085    228.4924   1.4466564508e+02   2.8775835632e+01    0.1683448   0.04301735  48.18  0.001036122    2.358    0.576
        73  -9.4564    225.4169    221.6595   1.1185427436e+02   1.7907050161e+00     0.197948    0.1695127  38.25  0.001058302    1.321    0.243
        74  -8.3174     49.2002    227.0709   1.3998384567e+02   2.5834664930e+01    0.1907829   0.07428592  59.00  0.001217469    1.986    0.497
        75  -8.2685     39.4018    226.1136   1.4143268888e+02   2.7030780936e+01    0.3015156   0.09183133  68.44  0.001420929    4.199    0.762
        76  -8.5776    205.9161    226.1366   1.1535621457e+02   4.2980007593e+00    0.1554547    0.1199181  47.79 0.0007232124    1.308    0.235
        77  -8.9021    180.6449    224.1182   1.1896308863e+02   8.3366868243e+00    0.2142179    0.1708644  72.32  0.001039581    1.678    0.404
        78  -8.7444    104.8720    223.7875   1.3097880738e+02   1.9454719119e+01    0.2395896    0.1416516  77.12  0.001382818    1.989    0.497
        79  -8.8239     94.1268    224.2598   1.3273949302e+02   2.0820235923e+01    0.2895323    0.1250912  62.86  0.001619061    2.510    0.602
        80  -8.9932    216.6107    223.1586   1.1336294032e+02   2.9727799158e+00    0.2300335    0.1515349 -33.22  0.001079257    1.960    0.490
        81  -8.5892    173.0097    223.0354   1.2002361869e+02   9.6203870167e+00    0.1925972    0.1535134 -62.56 0.0007100244    1.785    0.440
        82  -8.2252     59.5677    223.7640   1.3818339485e+02   2.5153654938e+01    0.1253969   0.07302481  80.83 0.0008342195    1.592    0.372
        83  -9.3930    192.5231    221.2984   1.1677004126e+02   6.8218902692e+00    0.2541629    0.2094547 -81.56  0.001094898    1.988    0.497
        84  -8.4119    140.3916    223.1421   1.2521236507e+02   1.4507521975e+01    0.1266067   0.09486831 -84.47 0.0007424019    1.748    0.428
        85  -8.9366    238.9209    221.4845   1.0986369078e+02  -1.9030032094e-01    0.1520872    0.1425943  -6.53 0.0006835354    1.522    0.343
        86  -9.0464      8.1424    222.1569   1.4597135969e+02   3.0679993491e+01    0.2153714   0.05351346  47.42  0.001345087    2.404    0.584
        87  -8.2355    202.8574    220.2782   1.1505023788e+02   5.3408244203e+00    0.1472013    0.1444124 -14.34 0.0006058319    1.413    0.293
        88  -9.0361    159.2822    220.7511   1.2192635822e+02   1.1977012529e+01    0.2334916    0.1455309  62.57  0.001034592    1.827    0.453
        89  -9.1520    120.7270    219.5544   1.2802420187e+02   1.7832128445e+01    0.3832104    0.1605583  61.27  0.001847839    3.191    0.687
        90  -8.4937     82.8727    220.7652   1.3427077204e+02   2.2772700741e+01    0.2454417    0.1031065  62.09  0.001380169    2.387    0.581
        91  -8.2317     72.9820    220.7242   1.3585620969e+02   2.4010078239e+01    0.1740126    0.1020446  79.94  0.001064934    1.680    0.405
        92  -7.9730     27.6079    221.2559   1.4300490910e+02   2.8967206765e+01    0.1140766   0.07266994 -79.34 0.0009501646    1.620    0.383
        93  -8.4446    249.3729    218.6837   1.0796753202e+02  -1.4788140306e+00    0.1892217    0.1312816  57.61  0.001274282    2.239    0.553
        94  -8.3874    247.1580    216.2521   1.0792636262e+02  -9.5844471719e-01    0.1896593    0.1316338  -1.47  0.001426963    1.443    0.307
        95  -8.4452    209.9277    219.1450   1.1382270136e+02   4.3701541988e+00    0.1549897    0.1243985  47.85 0.0006196891    1.327    0.246
        96  -9.2755    132.8468    216.0860   1.2568846550e+02   1.6541472948e+01    0.3640736    0.2022314  73.23  0.001968802    2.886    0.653
        97  -8.7278     51.6770    217.3157   1.3903964779e+02   2.7018879714e+01    0.2367591    0.1101537  65.57  0.001154779    1.824    0.452
        98  -8.6729    169.3992    216.3276   1.1977998735e+02   1.0952675725e+01    0.2214683    0.1597188  82.66  0.001006754    2.199    0.545
        99  -8.6181    142.9315    216.4628   1.2407875524e+02   1.4987770410e+01    0.1785778    0.1363233  80.04 0.0006648464    1.568    0.362
       100  -7.9426    111.6022    216.8361   1.2925541926e+02   1.9499441335e+01    0.1327243   0.09058951 -88.57 0.0006992599    1.721    0.419
       101  -8.1137     61.7287    217.1649   1.3742013067e+02   2.5889881887e+01    0.1617627   0.08965394  70.71  0.001147379    1.569    0.363
       102  -7.1754     18.7030    216.6476   1.4417326473e+02   3.0538415157e+01   0.07643604   0.06581827 -75.59 0.0006157428    1.689    0.408
       103  -8.5573    232.2121    214.4934   1.0983698358e+02   1.4144995308e+00     0.192399    0.1606634 -40.54 0.0009325174    1.797    0.443
       104  -8.4366    185.7519    214.7968   1.1698346020e+02   8.5772370590e+00    0.1660387    0.1442875  83.50 0.0007686728    1.610    0.379
       105  -8.0745    154.2360    215.2039   1.2209258267e+02   1.3431089042e+01    0.1465823    0.1081785  62.57  0.000571295    1.379    0.275
       106  -9.0217     93.2775    214.3015   1.3204909636e+02   2.2370407983e+01    0.2789822    0.1306538  65.49  0.001062149    2.381    0.580
       107  -7.5727     41.3477    215.6758   1.4058912320e+02   2.8400997031e+01    0.1070594   0.04856594  63.50 0.0007049562    1.746    0.427
       108  -9.3583     73.3981    212.1674   1.3516498943e+02   2.5246170504e+01    0.4992527    0.1465652  57.98  0.002192535    3.836    0.739
       109  -8.1213    224.9207    212.9181   1.1069087055e+02   2.6691409211e+00    0.1456405    0.1276113  65.36 0.0008488421    1.713    0.416
       110  -9.2615    213.7930    212.2771   1.1228039413e+02   4.4517903400e+00     0.249849    0.1889863  55.54  0.001329132    1.580    0.367
       111  -8.5532    161.5273    212.7300   1.2060888869e+02   1.2613269571e+01    0.1991601    0.1419574  61.63 0.0008162742    1.470    0.320
       112  -7.9028    106.4801    212.9548   1.2973632249e+02   2.0770277631e+01    0.1323078   0.09843734 -79.58 0.0005839321    1.513    0.339
       113  -8.9470    204.3541    210.9375   1.1354442752e+02   6.0680228708e+00    0.2081766    0.1756021 -55.16 0.0007015781    1.768    0.434
       114  -9.3649    175.7240    210.2852   1.1799581298e+02   1.0678506346e+01    0.3079234    0.2057896  71.78  0.001384097    2.320    0.569
       115  -7.7635    242.6585    211.7475   1.0790578817e+02   8.7022745816e-02    0.1109327   0.06138705  25.08  0.000267624    1.576    0.366
       116  -8.1745    192.1823    210.4958   1.1539153618e+02   8.0417492993e+00    0.1585657    0.1396517  58.85 0.0007294122    1.356    0.262
       117  -8.7811    148.0409    210.5857   1.2256576902e+02   1.4978224668e+01    0.2107099    0.1491561  76.29  0.001021464    1.801    0.445
       118  -8.7240    116.3579    210.6287   1.2785778495e+02   1.9707331318e+01    0.2580691    0.1366122  62.54  0.001060217    1.956    0.489
       119  -9.1942      6.5121    209.0024   1.4576307771e+02   3.2850851900e+01    0.3786989   0.08912439  71.24  0.001577108    5.417    0.815
       120  -8.4363     85.7007    209.7058   1.3292066285e+02   2.4058796095e+01    0.2164618    0.1103413  68.98  0.001251249    2.087    0.521
       121  -7.6897     32.3310    210.6674   1.4176267834e+02   3.0124729308e+01    0.1062533   0.04800941  64.22  0.000705211    1.724    0.420
       122  -9.0593    236.7296    207.6082   1.0815049646e+02   1.3499976349e+00    0.3040192    0.1959799 -23.47  0.001688774    1.774    0.436
       123  -7.8439     46.3131    209.6405   1.3944594735e+02   2.8804824500e+01    0.1084953   0.05177138  65.96 0.0007042793    1.748    0.428
       124  -9.3279    246.3144    207.3349   1.0670846665e+02  -7.9083920464e-02    0.2064869    0.1632093  -2.34  0.000570593    1.293    0.226
       125  -7.7927    156.4051    208.1860   1.2089058251e+02   1.3989995896e+01    0.1295637    0.1047885 -75.08 0.0006245652    1.626    0.385
       126  -8.4486    139.1405    208.0486   1.2375313999e+02   1.6684650606e+01    0.2011869    0.1163696  63.13 0.0008053255    1.918    0.479
       127  -9.3483    124.4403    206.3926   1.2604874248e+02   1.9133297380e+01    0.2734486    0.1573252  68.15  0.001614432    2.071    0.517
       128  -9.0903     99.4154    206.2255   1.3029121606e+02   2.2747766555e+01    0.2804233    0.1598884  74.12  0.001435984    2.014    0.504
       129  -8.8852     11.9812    206.7234   1.4482070038e+02   3.2719837304e+01    0.1340138   0.08673622  61.89 0.0006963115    1.106    0.095
       130  -8.4196     56.7875    205.7403   1.3746581946e+02   2.8242826905e+01    0.2434573   0.09718785  62.04  0.001385515    2.305    0.566
       131  -9.3869    194.9460    203.6295   1.1399252475e+02   8.3674211045e+00    0.3206276    0.2552823  -2.30  0.001178306    1.465    0.318
       132  -9.1686    192.4555    197.3482   1.1348330983e+02   9.4994548478e+00    0.2886215    0.2460965 -60.55  0.001284843    1.649    0.394
       133  -9.0755    183.8867    203.9818   1.1582499014e+02   1.0118788570e+01    0.2525764     0.184896  65.27 0.0008670533    1.715    0.417
       134  -8.5144    131.3988    204.2166   1.2462233719e+02   1.8398985123e+01    0.2387363    0.1271557  65.63  0.001060471    2.414    0.586
       135  -7.9296    108.8547    205.5856   1.2861868726e+02   2.1520569816e+01    0.1562854   0.07784066  52.69 0.0006475508    1.628    0.386
       136  -7.8754     92.3936    205.2574   1.3139913200e+02   2.3853174832e+01    0.1354116    0.0888439  89.91 0.0007960714    1.632    0.387
       137  -9.5047    163.8668    203.0562   1.1899653756e+02   1.3466917755e+01     0.350244    0.1882999  58.67  0.001196699    2.108    0.526
       138  -9.3286    250.1232    201.9748   1.0532435570e+02  -1.8806644813e-01    0.2680364    0.1482348 -22.80  0.001413432    1.974    0.493
       139  -8.1575     49.0389    203.1609   1.3859265843e+02   2.9538332167e+01     0.182422   0.07320195  59.63  0.001078673    2.083    0.520
       140  -9.1965    243.0349    200.5995   1.0613985215e+02   1.0176269464e+00    0.2378449    0.1533214 -21.21 0.0007555763    1.705    0.414
       141  -8.3265    211.0304    202.0230   1.1121388206e+02   5.9416233868e+00    0.1562041    0.1313418  69.52  0.000561198    1.714    0.417
       142  -8.3266     79.8229    201.4913   1.3322457485e+02   2.6101775133e+01    0.2055666    0.1000809  69.72  0.001160181    2.295    0.564
       143  -7.8561    221.7324    201.1852   1.0943030012e+02   4.3102920526e+00    0.1413732    0.1357721 -19.48 0.0006382907    1.432    0.302
       144  -9.4002    149.6202    198.7823   1.2084982292e+02   1.6320715001e+01    0.3286265    0.2225998  82.63   0.00142755    2.208    0.547
       145  -8.6736    124.0327    199.3268   1.2533227196e+02   2.0225085801e+01    0.2257421    0.1410492  73.60  0.001169079    1.950    0.487
       146  -9.1924    113.0911    198.7886   1.2717893764e+02   2.1933997773e+01    0.3799352    0.1930031  66.72  0.001998541    2.503    0.600
       147  -9.0515     88.5380    198.4799   1.3144278512e+02   2.5434060989e+01    0.2957125    0.1628494  76.23  0.001456017    2.098    0.523
       148  -8.9976    236.6982    198.1190   1.0668679690e+02   2.2356141093e+00    0.2193835    0.1766642 -38.02  0.001282059    1.743    0.426
       149  -8.4133    176.9541    199.1041   1.1628326091e+02   1.1841925746e+01    0.1696256    0.1328343  57.72 0.0004915295    1.319    0.242
       150  -9.2687     61.5392    197.1830   1.3604074929e+02   2.9071529212e+01    0.3461323    0.1498082  72.21  0.001589399    2.762    0.638
       151  -8.5390    202.4651    197.6610   1.1191480613e+02   7.8122404265e+00    0.1898883    0.1569572 -46.11 0.0008089168    1.630    0.387
       152  -8.9989     12.7460    197.4399   1.4431389116e+02   3.4154414334e+01    0.2324434   0.08427639  76.86   0.00135266    2.548    0.608
       153  -8.5059    216.0162    195.6056   1.0945561345e+02   5.8120263474e+00    0.1785327     0.158242 -47.89 0.0007706534    1.606    0.377
       154  -7.9679    133.1569    196.1565   1.2336935694e+02   1.9293563900e+01     0.155082    0.1155204  69.35 0.0006568552    1.365    0.267
       155  -8.1322     53.4940    196.4834   1.3738284184e+02   3.0128092672e+01    0.1069458   0.07368183  67.20 6.472403e-05    1.087    0.080
       156  -8.5670    224.5905    194.2379   1.0790854872e+02   4.5560347510e+00    0.2047076    0.1608875 -46.94  0.001046847    1.877    0.467
       157  -8.7129    140.2399    200.9694   1.2272883050e+02   1.7497136005e+01    0.2503187    0.1654884  81.08  0.001035214    2.145    0.534
       158  -8.7701    185.2001    194.9086   1.1431551499e+02   1.0997038394e+01    0.1901184    0.1702842  60.25 0.0007789826    1.284    0.221
       159  -8.7515    160.7155    194.3194   1.1835801216e+02   1.5133300004e+01    0.2193692    0.1636447  72.58 0.0007238832    1.648    0.393
       160  -9.2350    245.6628    192.4937   1.0444949531e+02   1.3531438603e+00    0.3263152    0.1895729 -16.15  0.001239367    1.852    0.460
       161  -8.1890    230.7298    193.9759   1.0692647567e+02   3.5888725274e+00    0.1533511    0.1267802  11.86 0.0007404634    1.141    0.124
       162  -8.5569     76.9799    193.8413   1.3305753278e+02   2.7707476588e+01    0.1734787    0.1269131  79.66 0.0004992184    1.208    0.172
       163  -8.9069     43.6458    193.4192   1.3887900592e+02   3.1740696749e+01    0.2917963    0.1305131  72.48  0.001729078    2.193    0.544
       164  -8.0928     36.0082    196.7454   1.4039577115e+02   3.1998452727e+01    0.1888721   0.06403082  69.36 0.0008952605    3.486    0.713
       165  -7.9788    241.4616    192.4307   1.0506115656e+02   2.0226579988e+00     0.113305   0.08699753  24.95 0.0001537703    1.018    0.017
       166  -7.9676    198.9717    191.9487   1.1160971157e+02   9.0474690530e+00      0.16001    0.1356696  74.64   0.00060253    1.639    0.390
       167  -8.3796    179.0173    191.7814   1.1488795201e+02   1.2423117687e+01    0.1760072    0.1490428 -71.01 0.0006486899    1.614    0.380
       168  -8.6039    172.3298    191.7966   1.1602094020e+02   1.3542750640e+01    0.1967647    0.1638638  78.90 0.0007874119    1.522    0.343
       169  -9.0637    139.6211    190.6610   1.2154301002e+02   1.9081086751e+01    0.3143173    0.2015637  76.67  0.001203197    2.188    0.543
       170 -10.2890     92.2167    188.7652   1.2984071734e+02   2.6508575260e+01    0.7952842    0.1867137  51.15  0.003025143    4.118    0.757
       171  -7.9063     20.7592    191.0020   1.4267354082e+02   3.4483601541e+01    0.1968166   0.04796208  59.52 0.0009040504    3.675    0.728
       172  -8.7144    216.6186    188.3004   1.0820073400e+02   6.5000823740e+00    0.2156059    0.1777953 -30.09  0.001071069    1.470    0.320
       173  -8.8330    148.5998    189.1603   1.1975909576e+02   1.7844629528e+01    0.2152478    0.1413344 -66.67   0.00112276    2.064    0.515
       174  -8.5057    237.2003    188.4060   1.0503675625e+02   3.0957042296e+00    0.2193546    0.1457945 -18.76 0.0009688024    1.613    0.380
       175  -8.8063    191.4499    187.4255   1.1214772538e+02   1.0864073887e+01    0.2523726    0.2021554 -77.15  0.001081586    1.969    0.492
       176  -9.3328    155.8516    187.4779   1.1825124772e+02   1.6887283098e+01    0.2959197    0.1931031 -61.30   0.00122636    2.035    0.509
       177  -8.8560    129.2516    188.6375   1.2313152882e+02   2.1032565387e+01    0.2376677    0.1560291  70.71  0.001014177    1.734    0.423
       178  -9.8879    120.9947    186.9096   1.2440630278e+02   2.2587476553e+01     0.425887    0.2380284 -80.64  0.002177772    2.886    0.653
       179  -8.4983     34.3695    188.2606   1.4016806695e+02   3.3601233088e+01    0.2452788    0.1061064  72.35 0.0009201206    2.196    0.545
       180  -8.4039    242.5318    187.9953   1.0416859757e+02   2.2760988133e+00    0.1519195    0.1037361 -17.91 0.0008542253    1.544    0.353
       181  -9.0797    109.6935    186.2687   1.2638646380e+02   2.4403649287e+01    0.3302443    0.1812967  73.56  0.001278212    2.508    0.601
       182  -9.0002     54.8992    187.2635   1.3645481293e+02   3.1522043430e+01    0.3312953    0.1373398  64.52  0.001665303    2.439    0.590
       183  -8.0447    230.4686    187.0499   1.0583667736e+02   4.3320101779e+00    0.1530324    0.1082286 -23.55  0.001018647    1.568    0.362
       184  -8.7866    164.7792    186.7617   1.1658879567e+02   1.5489757774e+01    0.1993491    0.1611677 -68.02 0.0006912967    1.603    0.376
       185  -8.2934    249.3002    185.7726   1.0279272382e+02   1.4059721244e+00    0.1797331    0.1671985 -34.05 0.0009086593    1.597    0.374
       186  -8.9057    182.8822    184.9649   1.1320648544e+02   1.2642497533e+01    0.2301975    0.1733956 -39.97 0.0008899583    1.600    0.375
       187  -8.7656    210.1517    184.4381   1.0860479759e+02   8.0255370257e+00    0.1862215    0.1649891 -24.98 0.0004859926    1.348    0.258
       188  -8.4355    202.8409    184.7471   1.0984289146e+02   9.2395707055e+00    0.1813776    0.1523862 -84.36 0.0006624382    1.879    0.468
       189  -9.0017     66.5840    184.4885   1.3410856518e+02   3.0598987569e+01      0.29595    0.1474406  66.87  0.001063835    1.976    0.494
       190  -8.2120    224.1161    183.8452   1.0628756168e+02   5.7257120522e+00    0.1623817    0.1425014  40.38 0.0004223708    1.267    0.211
       191  -8.6941    174.1819    183.6815   1.1449970874e+02   1.4307615877e+01    0.2152934    0.1727909  84.92 0.0007425682    1.713    0.416
       192  -8.5492      2.0377    184.0212   1.4554419662e+02   3.7346036233e+01    0.1706349   0.09388218  54.81  0.001318285    1.397    0.284
       193  -8.0486    197.2830    183.6616   1.1058367409e+02   1.0325643702e+01    0.1073693   0.09128211  77.06 0.0006274359    1.626    0.385
       194  -8.7793     44.3745    182.4235   1.3799422577e+02   3.3549521834e+01    0.2869259    0.1344481  70.12  0.001090014    2.027    0.507
       195  -8.3584    240.6021    181.4516   1.0334847429e+02   3.2317289334e+00     0.185974    0.1390188 -54.07  0.001140653    2.365    0.577
       196  -9.2848    147.6440    180.6799   1.1874819587e+02   1.9252105283e+01    0.3142905    0.2235745 -88.47   0.00128275    1.990    0.498
       197  -7.4652     83.2967    182.5920   1.3084996825e+02   2.8766112889e+01    0.1206986   0.06876151  72.14 0.0006985357    1.837    0.456
       198  -9.5969     25.4453    178.8713   1.4118596604e+02   3.6131828844e+01    0.5140142    0.1758123  75.32  0.002398872    3.596    0.722
       199  -8.2104     19.3327    182.6538   1.4248713670e+02   3.6051248025e+01    0.1110694   0.05049535  65.68 0.0007049548    1.765    0.433
       200  -8.6090    137.7419    179.3368   1.2036128401e+02   2.1102879900e+01    0.2369852    0.1550832 -76.62  0.000933352    2.140    0.533
       201  -8.5575    205.2848    178.1169   1.0834976412e+02   9.6090797643e+00     0.229543    0.1857438 -50.43  0.001222311    1.668    0.401
       202  -9.2886    191.5141    178.3496   1.1068872309e+02   1.1994313146e+01    0.2391395      0.20186  63.69 0.0005375082    1.397    0.284
       203  -9.1744     35.6894    176.0293   1.3913396374e+02   3.5609133269e+01    0.5794077    0.2005866  86.18  0.002482683    4.184    0.761
       204  -9.5770    248.4775    176.5965   1.0132504667e+02   2.4197160296e+00    0.3744043    0.2335923 -33.58  0.001959551    1.900    0.474
       205  -8.5669    250.5320    172.9324   1.0036835124e+02   2.4420502074e+00    0.1587898    0.1050806 -18.98 0.0005501523    1.528    0.346
       206  -8.2173    231.2521    177.3451   1.0406655608e+02   5.2168332437e+00    0.1699952    0.1380031 -43.78 0.0006203093    1.712    0.416
       207  -8.3247    217.5529    177.3379   1.0622429859e+02   7.5656656803e+00    0.1768772    0.1723997 -88.05 0.0006102675    1.433    0.302
       208  -8.2513    169.2211    178.2605   1.1453102900e+02   1.5911935741e+01     0.157437    0.1324766  70.57 0.0006814609    1.356    0.263
       209  -8.7024    129.1213    177.3594   1.2168163399e+02   2.2822977295e+01     0.236726    0.1560881  76.76 0.0008255133    1.914    0.477
       210  -9.3285    182.9928    176.1125   1.1178197082e+02   1.3789379982e+01    0.2622721    0.2128974 -48.39   0.00106183    1.512    0.339
       211  -7.7147     97.5355    177.5433   1.2763806514e+02   2.7643680530e+01    0.1132238   0.09518614  63.51 0.0003093281    1.068    0.064
       212  -8.5282     89.0728    177.1629   1.2919715871e+02   2.8911115634e+01    0.2158467    0.1237196  61.69 0.0008342764    1.614    0.380
       213  -9.9461     57.3240    173.3647   1.3486309505e+02   3.3686463378e+01    0.6573527    0.2662023  76.63  0.002747006    4.094    0.756
       214  -8.7131     12.7124    176.5000   1.4334165273e+02   3.7736078663e+01    0.2554214   0.09532262  63.80  0.001305333    2.233    0.552
       215  -7.5092    211.5271    176.5218   1.0705757546e+02   8.7081995003e+00    0.1201212    0.1003607  31.47 4.755707e-05    1.043    0.041
       216  -9.3055    158.9466    174.9456   1.1585242491e+02   1.8177630588e+01    0.3432005    0.2700994 -71.80  0.001609612    1.628    0.386
       217  -9.1649    104.3321    174.9128   1.2603620032e+02   2.7094894666e+01    0.4156551    0.1831583  61.67  0.001866794    2.906    0.656
       218 -10.5559     75.9911    171.0071   1.3104629028e+02   3.1775947222e+01    0.8238401    0.3300925 -83.13  0.003181688    4.702    0.787
       219  -8.5100     74.7805    160.3913   1.3013252158e+02   3.3886162427e+01    0.1848712    0.1578831   6.19 0.0008511069    1.922    0.480
       220  -8.0097    224.3897    174.2044   1.0459163543e+02   6.7353685574e+00    0.1497633    0.1087846 -38.18 0.0008336487    1.703    0.413
       221  -9.4122    175.6949    172.2435   1.1242567461e+02   1.5616079939e+01    0.2934445    0.2027814 -45.96  0.001180884    1.721    0.419
       222  -8.4585    143.0103    172.5890   1.1841845342e+02   2.1277774490e+01    0.2125464     0.163351 -81.13 0.0008966658    1.605    0.377
       223  -8.5048    134.8986    171.6738   1.1980228669e+02   2.2789723926e+01    0.2211157    0.1532783 -80.09 0.0009256499    1.890    0.471
       224  -9.5799    121.4016    170.6322   1.2221803711e+02   2.5173400998e+01    0.3060315    0.2098444  89.71  0.001213796    1.810    0.448
       225  -9.0368     45.0932    170.9639   1.3699314543e+02   3.5520496781e+01    0.3130515    0.1494454  86.82  0.001243053    2.151    0.535
       226  -9.2244    230.9517    170.5400   1.0290939286e+02   6.0039607871e+00    0.2726066    0.2006229  43.25   0.00114683    1.292    0.226
       227  -8.1845    237.0855    169.7954   1.0182578849e+02   5.0266095283e+00    0.1665523    0.1493631  37.61  0.000631178    1.294    0.227
       228  -8.3931    205.6413    169.9447   1.0688650632e+02   1.0545725599e+01    0.2097786    0.1487795 -48.84 0.0009410757    1.886    0.470
       229  -8.4570    198.2105    169.9946   1.0814368517e+02   1.1875302557e+01    0.1731986    0.1597618  66.33 0.0007350181    1.325    0.245
       230  -8.7223    149.8141    169.7321   1.1671980351e+02   2.0556164953e+01    0.2180711    0.1666615 -70.24 0.0007177067    1.615    0.381
       231  -8.1079    244.4751    169.4787   1.0064562559e+02   3.8009244256e+00    0.1168419    0.0982598  20.46 0.0001214283    1.098    0.089
       232  -8.2820    218.7530    168.4321   1.0446666035e+02   8.3853235264e+00    0.1862914    0.1462118 -39.05 0.0005924063    1.568    0.362
       233  -9.0509    166.9701    168.6856   1.1340333596e+02   1.7686382861e+01      0.26734    0.1906064  61.54  0.001088375    1.511    0.338
       234  -8.1987     88.6988    168.5780   1.2830025740e+02   3.0479086218e+01    0.1946566    0.1227775  83.52 0.0007578186    1.729    0.422
       235  -8.6116    111.6369    167.7475   1.2371125542e+02   2.7213487710e+01    0.2308455    0.1541132  76.14 0.0007983883    1.684    0.406
       236  -8.8677    192.0090    166.7182   1.0863326690e+02   1.3428796185e+01    0.2162425    0.1980356 -77.04 0.0008574993    1.425    0.298
       237  -9.1273    184.9848    166.5861   1.0983386171e+02   1.4727657686e+01    0.2108812    0.1731241 -63.57 0.0007626174    1.621    0.383
       238  -9.8468    136.8512    164.5146   1.1836301055e+02   2.3629674380e+01    0.5541598    0.2397784  58.61   0.00227357    3.037    0.671
       239 -10.0634     94.8395    162.8945   1.2639353553e+02   3.0621770332e+01    0.6552333    0.3176907  75.80  0.002561305    4.125    0.758
       240  -9.0030     20.3771    166.0475   1.4134522701e+02   3.8927123728e+01    0.2726378   0.09501166  57.49  0.001235653    2.431    0.589
       241  -8.3037    233.8508    164.9423   1.0143704974e+02   6.1143655377e+00    0.1954192    0.1524573 -23.40 0.0007102761    1.383    0.277
       242  -8.7537    159.4295    164.4858   1.1409368426e+02   1.9669532225e+01    0.2387116    0.1939049  80.39 0.0007669859    1.480    0.324
       243  -9.4683     33.4974    163.3538   1.3864081063e+02   3.8153493126e+01     0.465362    0.1404686  57.53  0.002155787    3.256    0.693
       244  -8.1301    240.0121    164.3382   1.0037593098e+02   5.1053280117e+00    0.1692487    0.1327871  30.81 0.0004642524    1.108    0.098
       245  -8.4023    213.0176    163.6492   1.0453410465e+02   9.9908371446e+00     0.187415    0.1661635 -35.83 0.0006410624    1.366    0.268
       246  -8.2718     57.2393    163.8990   1.3401498519e+02   3.5434892026e+01    0.2438862    0.1525551  21.56  0.001380498    2.779    0.640
       247  -8.5239    246.1783    162.6139   9.9120497001e+01   4.2230792056e+00    0.2091647    0.1519918 -14.80 0.0008285051    1.356    0.262
       248  -8.4441    204.8548    163.0558   1.0578580646e+02   1.1556600396e+01    0.1760894    0.1632707  53.98  0.000521848    1.258    0.205
       249  -9.5453      3.7759    162.4296   1.4427298581e+02   4.1033533686e+01     0.364143    0.1125609  53.33  0.001852675    2.484    0.597
       250  -8.6359    151.5890    161.0541   1.1499696348e+02   2.1612269055e+01    0.2522924    0.1890671  81.65 0.0009243006    1.711    0.415
       251  -9.1420    177.4561    160.6047   1.1012754833e+02   1.6958959382e+01    0.2355948    0.2019691 -89.33 0.0008368503    1.502    0.334
       252  -8.4524     60.4954    160.0392   1.3298531677e+02   3.5767896837e+01    0.2560928    0.1365653  74.91  0.001074455    1.992    0.498
       253  -8.1630    227.3153    159.2146   1.0139224044e+02   7.9272468788e+00    0.2104861    0.1347478 -48.96 0.0008820689    2.324    0.570
       254  -9.5373    105.8496    158.0784   1.2353481508e+02   2.9831910823e+01    0.3984687    0.2300784  75.81  0.001216139    2.383    0.580
       255  -9.5245    250.2049    157.7684   9.7600513710e+01   4.0357931847e+00    0.2733808    0.1550035 -24.41 0.0007302462    1.768    0.434
       256  -7.9840    237.1722    159.1888   9.9843440440e+01   6.1649706823e+00    0.1486534    0.1441401 -13.41 0.0005520595    1.354    0.262
       257  -8.3132    128.2173    159.1367   1.1921584952e+02   2.6006136753e+01    0.2303129    0.1410677  66.30 0.0007328002    1.908    0.476
       258  -8.1623    196.6810    158.0802   1.0626786640e+02   1.3726435024e+01    0.1809629     0.158415 -63.30 0.0007838627    1.504    0.335
       259  -8.3341    188.1818    158.1490   1.0776831425e+02   1.5310020997e+01    0.1610451    0.1470479  74.36 0.0004477085    1.312    0.238
       260  -9.1676    167.5902    157.3893   1.1136538917e+02   1.9268035823e+01    0.2759105    0.2222007  88.39  0.001040804    1.629    0.386
       261  -7.9009     79.5129    158.4735   1.2894802712e+02   3.3609343158e+01    0.1561914    0.1447358 -39.53   0.00099848    1.533    0.348
       262  -9.1569     81.7611    155.0145   1.2806564399e+02   3.3952140486e+01    0.3875329    0.2080411  71.31  0.001440587    2.251    0.556
       263  -8.3649    217.8964    156.5821   1.0241119842e+02   9.9644350355e+00    0.2297071    0.1544819 -46.95 0.0008761503    1.979    0.495
       264  -9.0506    157.6490    156.0844   1.1300371506e+02   2.1306807468e+01    0.2697914    0.2067355 -71.41 0.0009732947    1.665    0.399
       265  -9.3403    119.5773    155.4160   1.2036858934e+02   2.8104622174e+01    0.3404888    0.2237544  86.23  0.001581368    2.024    0.506
       266  -9.0866     49.6581    155.3493   1.3473092727e+02   3.7935595195e+01    0.3549816    0.1628893  67.81   0.00184737    2.364    0.577
       267  -8.8033    242.6213    154.8203   9.8169566586e+01   5.6791707477e+00    0.2082055    0.1755453 -52.82 0.0005229698    1.761    0.432
       268  -8.6187    239.7072    153.3085   9.8319933129e+01   6.3667219447e+00    0.1808736    0.1431838 -47.77 0.0002916064    1.774    0.436
       269  -7.7097    204.5677    155.5054   1.0443110014e+02   1.2588722178e+01    0.1255657    0.1113893  30.08 0.0001180314    1.047    0.045
       270  -8.4335    144.4691    154.8180   1.1532536752e+02   2.3906183284e+01    0.2383113    0.1832452  77.81 0.0009204997    1.516    0.341
       271  -9.0767     67.8420    153.8211   1.3081374968e+02   3.6036023294e+01    0.3586415    0.1776024  75.77  0.001257338    2.643    0.622
       272  -9.5374    132.8354    152.9688   1.1731601233e+02   2.6279889219e+01    0.3767631     0.255587  73.83  0.001330493    1.813    0.448
       273  -8.7595    133.5904    148.1983   1.1636535879e+02   2.6981145570e+01    0.2828968    0.1946387 -43.46  0.001187731    1.667    0.400
       274  -8.8205    151.8127    153.0852   1.1360028306e+02   2.2861873346e+01    0.1942346    0.1642922  79.47 0.0006500406    1.312    0.238
       275  -8.9802     20.2626    152.8189   1.4050244392e+02   4.1420758066e+01     0.197411   0.08140788  50.87  0.001043019    2.054    0.513
       276  -8.4007      9.2283    153.3928   1.4273797086e+02   4.2270613128e+01    0.1419491   0.07163899  50.51 0.0009515854    1.700    0.412
       277  -8.2083    182.6411    151.4790   1.0752189667e+02   1.7315994914e+01    0.2014139    0.1561421 -65.81 0.0007424993    1.763    0.433
       278  -9.6373     29.4328    150.7305   1.3848203224e+02   4.0959883074e+01    0.4160965    0.1585144  69.65  0.001960092    3.093    0.677
       279  -8.9508      3.0916    150.6916   1.4379805514e+02   4.3277504828e+01    0.2889072    0.1345761  88.75  0.001854278    1.707    0.414
       280  -9.5486    248.8338    149.4400   9.6179046422e+01   5.1608067479e+00    0.2834451    0.1725312 -27.54 0.0008490395    1.664    0.399
       281  -8.8288    247.0226    144.1180   9.5380905839e+01   6.0685640687e+00    0.2257408    0.1568723 -17.41 0.0006280103    1.389    0.280
       282  -8.3195    243.3356    150.0094   9.7117619661e+01   6.0815600121e+00    0.2508864    0.1074694 -28.00 0.0009966523    2.354    0.575
       283  -8.9082    189.4944    150.3348   1.0607153013e+02   1.6167172033e+01    0.2519973    0.2191379 -64.91 0.0008769496    1.467    0.318
       284  -8.4570    162.9080    150.9647   1.1109283581e+02   2.1143668916e+01    0.1995851    0.1539741  82.82  0.001115132    1.705    0.413
       285  -8.6026     98.2938    150.6743   1.2404281398e+02   3.2364881275e+01    0.2565765    0.1706778  78.29 0.0008720052    1.666    0.400
       286  -8.3366    212.9120    150.0490   1.0197079519e+02   1.1720130900e+01    0.1781344    0.1699514  68.37 0.0005190762    1.319    0.242
       287  -8.4612    198.8669    149.1020   1.0418068058e+02   1.4535484322e+01    0.1833779    0.1710251  66.30  0.000439212    1.269    0.212
       288  -9.8747     89.1483    146.1473   1.2533797849e+02   3.4595344761e+01    0.5837169    0.3046231  85.86  0.002474647    3.294    0.696
       289  -9.6447     39.8569    147.9168   1.3607184303e+02   4.0451462355e+01    0.4479941    0.1810386  64.83  0.002080679    2.789    0.641
       290  -9.0612    233.1904    147.7314   9.8227825443e+01   8.1942426547e+00    0.2000818    0.1592618 -27.57 0.0005854176    1.357    0.263
       291 -10.0893    106.6929    144.3405   1.2132182457e+02   3.2244391929e+01    0.6328537    0.3641781  84.38  0.002193616    2.855    0.650
       292 -10.5235     54.9539    143.3192   1.3237440623e+02   3.9675910482e+01    0.8452774    0.4326999 -80.90  0.003243575    1.923    0.480
       293  -8.1645    223.4731    146.8818   9.9605508053e+01   1.0116253134e+01    0.1735674    0.1209212 -24.68  0.000296517    1.483    0.326
       294  -8.9081    134.4330    140.4683   1.1483431314e+02   2.8203701114e+01    0.3735726    0.1836676 -37.60  0.001616403    2.758    0.637
       295  -9.6232    139.1137    145.0268   1.1469418339e+02   2.6546444581e+01     0.461878    0.2710589 -69.32  0.001494375    2.529    0.605
       296  -8.9972    139.6005    137.9054   1.1329464243e+02   2.7713382321e+01    0.3599461    0.2452839  17.44   0.00172043    2.367    0.578
       297  -9.0842     77.8029    146.9071   1.2787172695e+02   3.6055580669e+01    0.2231651    0.1432481  88.39 0.0006601113    1.627    0.385
       298  -9.3400     13.5219    146.3632   1.4143412281e+02   4.3256643597e+01    0.2727939    0.1218183  61.10  0.001061194    1.950    0.487
       299  -7.9999    206.7548    146.5677   1.0232133357e+02   1.3356700801e+01    0.1687406    0.1180608  55.00 0.0004826516    1.521    0.343
       300  -8.4162    175.5139    146.0487   1.0779717655e+02   1.9503517125e+01    0.2443069    0.1744676  63.22 0.0009194037    1.598    0.374
       301  -8.3007    240.0215    145.3247   9.6684958528e+01   7.2117415572e+00    0.1931129    0.1469225  15.38  0.000481966    1.187    0.158
       302  -8.3579    242.6968    143.3144   9.5868942989e+01   6.9487526260e+00     0.392125    0.1696549  -9.81   0.00140668    4.157    0.759
       303  -9.8824    125.0223    142.6236   1.1717197165e+02   2.9488202965e+01    0.4750122    0.2934853 -79.87  0.001469283    2.417    0.586
       304 -10.8191     69.2563    141.6212   1.2904696534e+02   3.8239201777e+01    0.5639361    0.3561141 -78.67  0.002386726    1.507    0.336
       305  -7.8272    194.3830    144.2055   1.0400247712e+02   1.6092711744e+01    0.1709519    0.1209474 -47.01 0.0005002366    1.679    0.404
       306  -8.8051    165.4670    143.9949   1.0930221491e+02   2.1769374069e+01    0.2423863    0.1995996  63.46 0.0007844178    1.271    0.213
       307  -9.4983      2.5506    141.2770   1.4337783934e+02   4.5125159205e+01    0.3705056    0.1400623  83.17  0.001997296    2.406    0.584
       308 -10.1692    149.2562    145.1675   1.1268625555e+02   2.4654277026e+01     0.523797    0.3339156  81.93  0.002017649    2.760    0.638
       309  -8.4768    181.9415    141.5137   1.0571557355e+02   1.8937601287e+01    0.2833154    0.1702946 -48.15 0.0009460041    1.963    0.490
       310  -9.7445     23.7495    138.4541   1.3868548448e+02   4.3911227481e+01    0.4518278    0.1816946  65.94   0.00210901    2.629    0.620
       311  -7.5682    218.6091    138.7954   9.8748618912e+01   1.2072816996e+01    0.1726759    0.1178055 -39.16 0.0006479555    1.651    0.394
       312  -8.5879    172.2679    138.3373   1.0689216149e+02   2.1343601616e+01    0.2614897    0.1842041 -76.57 0.0007288625    2.285    0.562
       313  -8.2401    207.2281    137.9385   1.0048318406e+02   1.4430566306e+01    0.1871626    0.1784513 -77.22 0.0009770643    1.322    0.244
       314  -8.6892    197.6027    137.6170   1.0209157751e+02   1.6395056695e+01    0.2401335    0.1920751 -53.62 0.0008482451    1.554    0.357
       315  -8.9147    151.0241    136.3664   1.1066860052e+02   2.5823756771e+01    0.4432639    0.2368792  28.88  0.001800202    2.873    0.652
       316  -8.3490    162.5378    136.3456   1.0837323687e+02   2.3587361408e+01    0.2239716    0.1300766 -48.26 0.0007319191    1.911    0.477
       317  -9.2079     39.2118    136.0421   1.3506252413e+02   4.2885525264e+01    0.2497797    0.1526611  76.57 0.0008645866    1.492    0.330
       318  -8.6481    250.7099    130.2135   9.1936990980e+01   6.9461826480e+00    0.3591044    0.1118497 -23.39  0.001319677    3.503    0.715
       319  -9.3876    248.3961    135.2301   9.3340772428e+01   6.8108276397e+00    0.2944758    0.1873053 -29.84 0.0006545553    1.591    0.371
       320  -8.4310    246.9661    130.3106   9.2508742062e+01   7.6392208688e+00    0.2098472    0.1588023 -25.74 0.0006137769    1.329    0.248
       321  -7.7936    187.8419    135.6035   1.0342701077e+02   1.8650763311e+01    0.1798853    0.1219553  57.48 0.0003074989    1.572    0.364
       322  -8.6253    179.6231    134.1469   1.0464503431e+02   2.0531742101e+01    0.2784011    0.2164008 -68.23  0.000887048    1.725    0.420
       323 -10.1990     83.3656    132.8617   1.2467375639e+02   3.8057433240e+01    0.4430601    0.2450458 -76.70  0.001373517    2.046    0.511
       324  -7.6443    231.4922    133.9811   9.5658425827e+01   1.0168756475e+01    0.1830083    0.1216593 -24.48 0.0003946925    1.501    0.334
       325  -8.9865    112.7232    133.2483   1.1817062170e+02   3.3365647795e+01     0.294667    0.2019186  84.19 0.0009182023    1.822    0.451
       326  -7.6651    237.4313    133.5151   9.4634204495e+01   9.0794943992e+00     0.127648    0.1129693   9.83 0.0008058068    1.056    0.053
       327  -9.0821    143.1497    131.9159   1.1140715091e+02   2.8113255882e+01    0.2970708    0.2170964 -75.94 0.0008432588    1.752    0.429
       328  -9.9435    132.1168    131.2503   1.1360054022e+02   3.0305678676e+01    0.4682699    0.2948647 -71.02  0.001919275    2.142    0.533
       329 -10.6558     98.5632    130.7870   1.2089893894e+02   3.6170949145e+01    0.5747874    0.2740037 -63.89  0.002018634    2.271    0.560
       330  -9.9397     73.3838    128.8051   1.2635842865e+02   4.0279446040e+01    0.4950374     0.239222 -69.42  0.001788609    2.064    0.515
       331 -10.4482     60.0394    125.2354   1.2897957890e+02   4.2743981393e+01    0.6702657    0.3322316  78.87   0.00260572    2.996    0.666
       332  -9.6380     13.1627    129.5760   1.4030169223e+02   4.6608972302e+01    0.4044261     0.172361  68.10  0.001792942    2.322    0.569
       333  -7.8292    220.6262    130.2654   9.6606367735e+01   1.2781809837e+01    0.1235603    0.1061431 -89.86  0.000427416    1.668    0.401
       334  -7.9804    204.4698    130.2651   9.9330675638e+01   1.6050386089e+01    0.1759591    0.1252349 -44.07 0.0009323848    1.609    0.379
       335  -7.8868    192.7912    130.3573   1.0141819928e+02   1.8426933955e+01    0.1710087    0.1661762 -25.40 0.0004171576    1.133    0.117
       336  -9.1362    168.2153    129.4799   1.0585084720e+02   2.3587516673e+01    0.2791444    0.2280788  85.46 0.0008487572    1.539    0.350
       337  -8.7093    161.7754    130.3928   1.0731063883e+02   2.4732219387e+01    0.1961328    0.1191858  39.19  0.000556969    1.649    0.394
       338  -9.6354    152.8436    128.8007   1.0878031624e+02   2.6780510143e+01    0.3934514    0.2470703 -53.51    0.0012593    1.790    0.441
       339  -8.4347     25.4943    130.1751   1.3757659250e+02   4.5420869133e+01    0.1740021    0.1336441 -13.43  0.001157905    2.345    0.574
       340  -8.0499      1.8404    130.5816   1.4287411203e+02   4.7279762212e+01    0.1417399   0.07432657  51.14 0.0009443953    1.739    0.425
       341  -8.0003    211.4307    129.1565   9.7896906668e+01   1.4785979319e+01     0.183016    0.1202923 -44.12 0.0006969841    1.775    0.437
       342 -10.6278     44.8980    123.6168   1.3236598153e+02   4.4835388664e+01    0.9993076    0.4343383  77.95  0.004019472    3.797    0.737
       343  -9.7700    117.9145    124.9930   1.1549785494e+02   3.4060255904e+01    0.5134981    0.3518532 -81.19  0.001789979    1.848    0.459
       344  -9.0816    179.4646    124.9974   1.0271975470e+02   2.2002683683e+01    0.3298016    0.2510563  83.59  0.000886273    1.850    0.459
       345  -8.0134    228.3779    125.2699   9.4263621993e+01   1.1872145713e+01    0.1792788    0.1170522 -35.72 0.0006013372    1.617    0.382
       346 -10.1867     28.4085    122.1932   1.3612418958e+02   4.6794034576e+01    0.7283369    0.2881339  73.31  0.003055301    3.683    0.728
       347  -7.7316    188.4194    124.1893   1.0086826207e+02   2.0261640373e+01    0.1817484    0.1281169 -46.86 0.0005080951    1.601    0.375
       348  -8.9025    135.1294    123.6418   1.1144062628e+02   3.1150613201e+01    0.3594059    0.1874857 -51.42  0.001640908    2.024    0.506
       349  -9.7886    130.7129    118.1930   1.1127221920e+02   3.3014296193e+01    0.5000333    0.2870436 -60.09   0.00164791    2.038    0.509
       350  -8.3261    129.6915    124.0308   1.1270247379e+02   3.2102615089e+01    0.1796822    0.1677631 -62.27 0.0003602365    1.106    0.096
       351  -8.3317     85.0389    122.7257   1.2266705234e+02   3.9874487987e+01    0.2401352    0.1669751   7.79  0.001147614    2.935    0.659
       352  -7.8007    203.1429    122.1489   9.7770877946e+01   1.7480109692e+01    0.1776821    0.1625826 -65.09 0.0004309543    1.341    0.254
       353  -7.7633    195.1212    122.1869   9.9201397149e+01   1.9158657557e+01    0.1774049    0.1626405 -75.61 0.0004135784    1.332    0.249
       354  -8.7163    171.9900    121.6318   1.0341383855e+02   2.4102742756e+01    0.2459373    0.1997312 -48.65 0.0005639225    1.336    0.252
       355  -9.2926    158.5217    121.4375   1.0605619240e+02   2.6918472925e+01    0.2939309     0.232971 -68.52  0.001004486    1.516    0.340
       356  -8.5736    100.4717    119.8292   1.1851410584e+02   3.8059065760e+01     0.485416    0.2675404  22.12  0.001797578    4.182    0.761
       357  -9.5169     71.1825    119.8805   1.2551983782e+02   4.2424080321e+01    0.3566534    0.1985131 -81.46  0.001394618    2.063    0.515
       358  -9.2806    242.9904    119.4165   9.0713288044e+01   9.6868806093e+00    0.2716243    0.2205075  74.42 0.0009505941    1.743    0.426
       359  -9.7121      3.1313    117.5136   1.4167651317e+02   4.9824419649e+01    0.4376997    0.1658987  72.18  0.002176334    2.809    0.644
       360  -7.6581     18.3303    118.3243   1.3814195607e+02   4.8487923420e+01    0.1061034   0.07303056 -53.14 0.0007050246    1.702    0.412
       361  -9.8808    141.5211    118.2636   1.0892548293e+02   3.0905428992e+01    0.4995992    0.2739109 -55.71 0.0009683708    2.106    0.525
       362  -9.7892    109.1672    114.2824   1.1538668550e+02   3.7708557058e+01    0.4395398    0.2817063 -76.59  0.001181088    1.998    0.500
       363  -9.1034    109.7149    107.4204   1.1381868984e+02   3.8992989366e+01    0.3434374    0.2371345  13.91  0.001564807    2.580    0.612
       364  -8.6191     58.9830    115.5887   1.2784976936e+02   4.4897347645e+01    0.2155132    0.1664753   4.67  0.001278678    2.142    0.533
       365  -8.1169    250.1523    115.1429   8.8705522228e+01   8.7856065304e+00    0.2043073     0.157714  16.70 0.0008289093    1.210    0.173
       366  -8.0656    192.8972    115.1842   9.8000708222e+01   2.0685799430e+01    0.2044252    0.1865669 -69.85 0.0005103974    1.309    0.236
       367  -7.7839    153.3166    115.6806   1.0585063022e+02   2.8994323747e+01    0.1403671    0.1094066 -87.92 0.0003927224    1.658    0.397
       368  -9.8950     78.8865    112.5706   1.2240373796e+02   4.2883434317e+01    0.4792045    0.2908469  83.18  0.001870206    2.193    0.544
       369  -8.2411    167.0896    114.3206   1.0272359070e+02   2.6352569570e+01    0.1981611    0.1782735  51.38 0.0005954661    1.083    0.077
       370 -10.1307    133.9395    109.5606   1.0865956285e+02   3.4028143663e+01    0.6303274    0.2827035 -51.94  0.002261277    2.417    0.586
       371  -9.9787     92.7006    112.4602   1.1897780702e+02   4.0818005267e+01    0.4739593    0.2760915 -73.00  0.001346887    2.018    0.505
       372  -8.6578     93.4982    104.9834   1.1729089979e+02   4.2241548980e+01    0.3407264     0.228475  11.35  0.001512143    2.985    0.665
       373  -8.8400    159.3584    111.9769   1.0374800208e+02   2.8388888883e+01    0.2809374    0.2040016 -61.98  0.000741207    1.668    0.401
       374 -10.1791    121.5405    111.9670   1.1201523876e+02   3.5940229860e+01    0.4336285    0.2987752 -77.63  0.001421924    1.870    0.465
       375  -8.6034    174.7878    111.9402   1.0064771176e+02   2.5103817691e+01    0.2470326    0.1903228 -58.99 0.0006639156    1.548    0.354
       376 -10.0369     66.3848    109.8194   1.2507220724e+02   4.5184198207e+01    0.5036355    0.2639952 -66.69  0.002423994    1.758    0.431
       377  -9.8265     14.5279    111.4990   1.3841804387e+02   5.0220449039e+01    0.3158999    0.1535139  62.37  0.001244656    2.057    0.514
       378  -7.8016     53.6394    111.7378   1.2861357407e+02   4.6356289280e+01    0.1101076   0.09076998 -36.33 0.0004431047    1.633    0.388
       379  -8.7740      3.5692    109.9411   1.4097831497e+02   5.1354359260e+01    0.2655501    0.1522519 -30.54  0.001508398    3.274    0.695
       380  -9.4660    248.5501    108.6619   8.7455222614e+01   9.8655748455e+00    0.3580599    0.2568945  -9.79  0.001579631    1.318    0.241
       381 -10.3962    248.3746    102.8123   8.6116236109e+01   1.0597615302e+01     0.409492      0.34543 -37.99  0.002459138    1.319    0.242
       382  -8.4116     43.7560    109.2164   1.3076840921e+02   4.8002302417e+01    0.2094351    0.1679229  23.60  0.001399613    1.682    0.406
       383  -8.2451    189.0847    108.0754   9.7011455253e+01   2.2607320823e+01    0.2122576    0.1708355 -68.31 0.0005239261    1.607    0.378
       384  -9.2891    139.9537    104.7085   1.0618670643e+02   3.3735506122e+01    0.3557313    0.2657533 -82.44 0.0009833383    1.760    0.432
       385 -10.4816     45.7240    102.5269   1.2927643755e+02   4.9227777362e+01    0.6928309    0.3377621  73.43   0.00303573    3.105    0.678
       386 -10.5305     22.8760    102.7925   1.3536022338e+02   5.1380757064e+01    0.6537318    0.2960343  75.57  0.002941607    2.762    0.638
       387  -9.4833    150.5613    103.2078   1.0350617752e+02   3.1804707010e+01    0.4360633    0.2657507 -59.58  0.001151583    2.098    0.523
       388  -8.7890     79.1265    104.9475   1.2093570819e+02   4.4457560144e+01    0.2297703    0.1759206  -0.37  0.001232042    2.204    0.546
       389  -8.3996    166.6256    104.1532   1.0039116568e+02   2.8179581110e+01    0.2308826    0.1975548  71.30 0.0006739597    1.289    0.224
       390  -9.1658      7.2081    103.4527   1.3949760101e+02   5.2456927850e+01    0.2679325    0.1351643  74.75  0.001060015    1.913    0.477
       391  -9.9006    128.4191    102.1195   1.0818979053e+02   3.6541305724e+01    0.3709363    0.2572524 -60.25 0.0007651219    1.562    0.360
       392 -10.3445    108.8499     98.8644   1.1211747771e+02   4.0879094460e+01    0.7054896    0.4138002  72.71  0.001404473    2.840    0.648
       393  -9.0422    108.3126     92.4063   1.1071677487e+02   4.2287030758e+01    0.4450224    0.2447338  30.72  0.001858576    2.613    0.617
       394  -7.9401    175.4404    102.2491   9.8169346648e+01   2.6556911644e+01    0.1942769    0.1337946 -47.50 0.0004479926    1.568    0.362
       395  -8.2461    159.8361    101.1471   1.0103738842e+02   3.0179134237e+01    0.2149225    0.1901996 -74.91 0.0004429694    1.271    0.213
       396  -9.0448     82.1403    100.0698   1.1918966151e+02   4.5045404797e+01    0.3097916    0.2009637 -78.56 0.0008338352    1.747    0.428
       397  -8.9865     95.0085     97.0935   1.1521191525e+02   4.3637672870e+01    0.2887983    0.1975649 -70.30 0.0005861673    1.558    0.358
       398  -9.9074     63.9607     95.9699   1.2323297491e+02   4.8472212764e+01    0.4950482    0.2740981  87.44  0.001649947    2.799    0.643
       399  -8.3373    151.2552     95.6833   1.0147193289e+02   3.3013253588e+01    0.3357976    0.2290751   2.54  0.001410486    2.465    0.594
       400  -7.4818    182.7409    109.6771   9.8582255259e+01   2.3744777693e+01    0.1399179    0.1075757   9.57 0.0003185191    1.551    0.355
       401  -8.2035    176.4628     93.4478   9.5722284731e+01   2.7772359214e+01    0.2522893    0.1273735 -45.94 0.0006687708    2.169    0.539
       402  -8.2300    164.8640     94.1563   9.8217196443e+01   3.0278243192e+01    0.2177245    0.1931026 -66.02  0.000470652    1.248    0.199
       403 -10.3772    123.5148     91.3552   1.0669810826e+02   3.9603697273e+01    0.6641845    0.4811554  41.72  0.001859429    1.454    0.312
       404  -8.6612     45.5320     92.8665   1.2777196081e+02   5.1343408163e+01     0.328316    0.2138043   0.03  0.001671626    3.024    0.669
       405  -7.8569    188.5179     93.5474   9.3471778722e+01   2.4997972840e+01    0.1416099    0.1400488   7.53 0.0001482564    1.056    0.053
       406  -9.1552    139.1003     92.4314   1.0332494235e+02   3.6209421929e+01    0.2952213    0.2371553 -87.43 0.0005127432    1.519    0.342
       407  -9.3825      5.3134     92.1007   1.3888181702e+02   5.4990594398e+01    0.3473778    0.1584574  64.48  0.001465583    2.390    0.582
       408  -7.7581    157.6294     91.7889   9.9097157620e+01   3.2305187914e+01    0.2062841    0.1303568 -49.28 0.0004215468    1.693    0.409
       409  -9.4429     34.8260     89.8231   1.3030137252e+02   5.3102978875e+01    0.4302612    0.2130354 -89.87   0.00160827    2.508    0.601
       410  -9.0605     23.2626     90.1716   1.3364243761e+02   5.4066594859e+01     0.236825    0.2086392  84.65  0.001397377    1.162    0.139
       411  -7.7453    150.8192     89.4061   9.9921663799e+01   3.4236523030e+01    0.1960959    0.1340941  39.90 0.0003986321    1.539    0.350
       412  -9.8354     86.3411     86.6701   1.1511105404e+02   4.7232098638e+01    0.4258883    0.2927009  88.89  0.001063219    1.934    0.483
       413  -8.1727     86.3514     81.3159   1.1380268360e+02   4.8356845148e+01    0.2065373    0.1172305  29.44 0.0009215635    2.440    0.590
       414  -8.6280     64.1792     88.2321   1.2163611296e+02   5.0116722631e+01    0.2456846    0.1545354 -18.80  0.001047781    3.520    0.716
       415  -9.6636     48.4988     84.3625   1.2538442658e+02   5.2869775613e+01    0.4501426    0.2521442  74.01  0.001892058    2.582    0.613
       416  -9.6351    104.7616     83.2579   1.0931876012e+02   4.4792027487e+01    0.4333639    0.2771401 -66.92 0.0009945454    1.880    0.468
       417  -8.3086    104.8838     77.3913   1.0771155977e+02   4.5955057720e+01    0.2422634    0.1966906  -7.04 0.0009193659    1.642    0.391
       418  -8.3800    158.0172     84.0486   9.6923266183e+01   3.3569194956e+01    0.2163988    0.2115533 -42.87  0.000354118    1.029    0.028
       419  -9.0860    140.8847     82.7320   1.0031286901e+02   3.7625510947e+01    0.3898574    0.1976493 -46.94 0.0009522053    2.016    0.504
       420  -7.8017    170.3407     83.6584   9.4293764398e+01   3.0795868082e+01    0.1544021    0.1158637 -72.13 0.0007049048    1.774    0.436
       421  -9.4513      9.8766     81.1508   1.3632043872e+02   5.7034156203e+01    0.3323222    0.1580219  67.93  0.001300891    2.522    0.603
       422  -8.0229     35.5017     82.4858   1.2888725677e+02   5.4639105602e+01    0.1208725   0.09792954 -71.48 -0.0001258149    1.037    0.036
       423  -9.6244     24.5052     80.3834   1.3183629749e+02   5.6091169266e+01    0.4384534    0.2066174 -87.27  0.001417757    2.449    0.592
       424  -8.2397    150.4452     80.7619   9.7628526880e+01   3.5861500371e+01    0.2660534    0.1363568 -43.60 0.0009301263    1.953    0.488
       425  -8.6505    119.3276     80.6012   1.0487115057e+02   4.2537515879e+01    0.2894525    0.2157224 -76.08 0.0007864602    1.689    0.408
       426  -8.8228     74.5221     80.3949   1.1693162376e+02   5.0368558709e+01    0.3048966    0.1907777 -72.94  0.001151523    1.811    0.448
       427  -8.3562    166.8325     79.8492   9.3932089213e+01   3.2247617462e+01    0.2156962    0.1952116   1.39  0.000420549    1.163    0.140
       428  -8.5786    183.6245     78.7142   9.0371905961e+01   2.8457023935e+01    0.2773639    0.1430095 -26.65 0.0007383897    2.064    0.515
       429  -9.1408     65.3182     77.6730   1.1898160566e+02   5.2245263246e+01    0.2759292    0.2037592 -74.71  0.001598352    1.338    0.253
       430  -9.8476     63.3890     73.6163   1.1859712007e+02   5.3376000813e+01    0.4445927    0.2223255 -66.03  0.001531234    2.089    0.521
       431  -9.3435    128.0067     75.4510   1.0127398531e+02   4.1742913901e+01    0.3770419    0.2481274 -59.15 0.0007806951    1.767    0.434
       432  -8.4041    163.4740     73.5326   9.2797145985e+01   3.4089257952e+01    0.2927632    0.1428408 -36.08 0.0008661934    2.004    0.501
       433  -9.5300     82.4009     72.6958   1.1269437045e+02   5.0793843901e+01    0.3733507    0.2380458 -72.34  0.001026686    1.957    0.489
       434  -7.6848    151.4976     73.5255   9.5312221695e+01   3.6890470201e+01    0.1472319    0.1428213 -61.84  0.000161873    1.057    0.054
       435  -8.4766    115.4634     72.7525   1.0362380282e+02   4.4835303567e+01    0.2560271    0.1321942 -48.54 0.0006459944    1.900    0.474
       436  -8.8695    105.9949     72.3068   1.0598146111e+02   4.6762922835e+01    0.2671853    0.1844324 -61.96 0.0008309069    1.596    0.373
       437  -8.1958     42.4274     73.1554   1.2498745713e+02   5.5977182333e+01    0.1798871    0.1027123 -75.51 0.0008856105    1.744    0.426
       438  -7.7140    175.4943     72.5442   9.0138752970e+01   3.1376098166e+01    0.1471195    0.1445469  -4.32 5.265237e-05    1.014    0.014
       439  -9.2288     95.1448     71.1381   1.0862074204e+02   4.8979052645e+01    0.3602707    0.2131176 -61.90 0.0008691248    1.936    0.483
       440  -9.3623     51.3512     69.6797   1.2140098999e+02   5.5735776150e+01    0.3927189    0.2135708 -77.57  0.001345449    2.327    0.570
       441  -8.6239     28.6244     70.7022   1.2888924064e+02   5.7849686047e+01     0.248895    0.1545515 -42.91  0.001016375    1.767    0.434
       442  -8.1936     32.0444     68.2054   1.2729864159e+02   5.8084957496e+01    0.1871889    0.1527312 -65.74  0.000773218    1.044    0.042
       443  -8.7893     16.7327     70.1693   1.3261688481e+02   5.8929336645e+01    0.2572394    0.1424127  88.77 0.0009511546    1.901    0.474
       444  -7.5718    157.0000     70.0105   9.3093137562e+01   3.6207774009e+01    0.2385123   0.08379127 -34.85 0.0003989315    2.809    0.644
       445  -8.5629    147.0678     68.4435   9.4760198807e+01   3.8793350285e+01    0.2812471     0.193377 -51.34  0.000541917    1.564    0.361
       446  -8.5399    140.3759     75.4253   9.8348936944e+01   3.9069974462e+01    0.2776298    0.1711717 -43.39 0.0008113879    1.595    0.373
       447  -8.5748    138.5978     66.3950   9.6046232540e+01   4.1085318252e+01    0.3221146    0.1685612 -43.58 0.0008990774    1.886    0.470
       448  -8.8841    121.5271     65.9073   1.0001836667e+02   4.4895994275e+01    0.3695949     0.226764 -58.05  0.001005729    1.960    0.490
       449  -8.2424     82.8579     66.0920   1.1072584967e+02   5.2089189207e+01    0.2743809     0.170958 -26.42  0.001239146    2.319    0.569
       450  -8.6934     64.4007     63.6702   1.1572990252e+02   5.5358435384e+01    0.3698001    0.2279817 -19.30   0.00160927    3.077    0.675
       451  -8.6749     37.2213     64.3239   1.2477265264e+02   5.8431742362e+01    0.2799533    0.1740702  82.91 0.0009164054    2.134    0.531
       452  -8.9347    110.1656     63.7531   1.0229723303e+02   4.7622923385e+01    0.2857041    0.2264592 -71.02 0.0007450472    1.480    0.325
       453  -8.2624    158.2271     61.9492   9.0371028291e+01   3.7248590171e+01    0.2067726    0.1900306 -29.47 0.0003469076    1.068    0.064
       454  -9.2935     97.4314     60.4358   1.0476910281e+02   5.0701314381e+01    0.3660022       0.2678 -35.44  0.001439892    1.358    0.263
       455  -9.4987     73.3509     59.7473   1.1178183549e+02   5.4885224309e+01    0.3497752    0.2115752 -62.29  0.001001629    1.747    0.428
       456  -8.1777    164.7205     59.9978   8.8451260948e+01   3.5981079397e+01    0.1947956    0.1312913 -31.11 0.0008827906    1.460    0.315
       457  -7.9913    147.1759     59.4221   9.1918402940e+01   4.0303985043e+01    0.1930224    0.1463736  70.71 0.0003131688    1.523    0.343
       458  -8.2379     88.9974     59.3243   1.0687073605e+02   5.2428753687e+01    0.1878131    0.1703658 -53.53 0.0005960237    1.037    0.036
       459  -9.6919     23.4628     56.5384   1.2779403672e+02   6.1364455290e+01    0.4214735    0.2257498  88.20  0.002060501    2.623    0.619
       460  -9.4725      7.5355     57.3548   1.3356132770e+02   6.2329270723e+01    0.2948439    0.1723476  83.57  0.001074049    1.856    0.461
       461  -7.9553    194.8718     57.8168   8.2357322809e+01   2.8798526018e+01    0.2112891    0.1751551 -67.95  0.001043667    1.404    0.288
       462  -8.1500    130.5318     57.9143   9.5249448654e+01   4.4391776522e+01    0.2221422    0.1393424 -39.28 0.0005464884    1.531    0.347
       463  -8.2769    140.1125     56.4715   9.2536300669e+01   4.2454672659e+01    0.2383433    0.1980265 -57.13 0.0003731184    1.301    0.231
       464  -9.2972    119.0353     55.4951   9.7304236968e+01   4.7331462862e+01    0.4784536    0.2417634 -49.96  0.001438553    2.169    0.539
       465  -9.4600     54.3446     55.7279   1.1683087574e+02   5.8351899152e+01    0.3385316    0.2021357 -68.85  0.001074832    1.834    0.455
       466  -8.6871     44.0805     55.5739   1.2031531347e+02   5.9593895097e+01    0.2404669    0.1535998 -72.17 0.0009883271    1.606    0.377
       467  -8.4183    105.8938     53.4621   1.0011627396e+02   5.0409695859e+01    0.2605674    0.1850689 -56.64 0.0006226244    1.535    0.348
       468  -9.4464     92.4300     50.7319   1.0304246825e+02   5.3489487681e+01    0.3779421    0.2264431 -53.37  0.001099636    1.734    0.423
       469  -8.1307    129.8515     49.5434   9.2596760485e+01   4.5982586040e+01    0.2427422    0.1700231 -41.51 0.0004848364    1.390    0.281
       470  -7.9584    144.5833     49.0270   8.9053005287e+01   4.2618274108e+01    0.2333845    0.1410991 -33.80 0.0005147008    1.599    0.375
       471  -8.6856    135.9587     47.9742   9.0621410754e+01   4.4832795669e+01    0.2141645    0.2061014 -29.01            0    1.019    0.019
       472  -8.7061    120.8970     47.6209   9.4128054240e+01   4.8310368793e+01    0.2660086    0.1987227 -39.09 0.0004627697    1.278    0.218
       473  -8.3104    112.1192     47.0902   9.6217771296e+01   5.0287229406e+01    0.2212004     0.169168 -67.34 0.0006607852    1.637    0.389
       474  -9.1314     82.0252     46.3896   1.0472804627e+02   5.6151668154e+01    0.2879124    0.1804707 -46.35 0.0006876933    1.445    0.308
       475  -8.5531     45.0368     44.8575   1.1692725519e+02   6.1734442196e+01    0.2202999    0.1520348 -57.17 0.0005629879    1.235    0.191
       476  -8.7394     16.7780     44.8524   1.2764386134e+02   6.4387966201e+01    0.2075598    0.1346548 -82.78 0.0005943462    1.590    0.371
       477  -9.4634    250.2537     43.0707   7.0792726300e+01   1.7194591136e+01    0.2624116    0.1782291 -21.44 0.0005535897    1.346    0.257
       478  -8.7637    133.0898     43.6176   8.9753796395e+01   4.6206286641e+01    0.3052786    0.2107654 -56.37 0.0008755933    1.719    0.418
       479  -8.6976     58.2372     42.7793   1.1147033686e+02   6.0501691131e+01    0.2861039    0.1802085 -66.87  0.001008253    1.933    0.483
       480  -8.2706     92.8579     42.7004   1.0007221797e+02   5.4902468793e+01    0.2147918    0.1732666  15.14 0.0007640854    1.465    0.317
       481  -9.2490     69.4905     41.4874   1.0710274475e+02   5.9124207243e+01    0.4244885    0.2293473 -60.58   0.00126686    2.372    0.578
       482  -9.3654      5.2746     42.2124   1.3154562328e+02   6.5705955096e+01    0.2795879    0.1582304 -85.74  0.001066616    1.831    0.454
       483  -8.5235    105.9554     41.4832   9.5854050908e+01   5.2542595406e+01    0.2687026    0.1809981 -48.71 0.0005555846    1.527    0.345
       484  -7.8204    140.4598     41.4854   8.7332089699e+01   4.4789250099e+01    0.1480069    0.1423976 -33.55 7.828384e-05    1.042    0.041
       485  -8.5089     36.8524     41.1184   1.1886938404e+02   6.3400493005e+01    0.1839929    0.1497913 -73.92 0.0005741817    1.282    0.220
       486  -8.7701     95.7602     38.2837   9.7557803182e+01   5.5134665421e+01    0.2445444    0.1712116 -47.43 0.0007824479    1.419    0.295
       487  -8.4103     80.7863     36.9655   1.0167661931e+02   5.8122220139e+01    0.2167535    0.1424792 -60.46 0.0004966161    1.915    0.478
       488  -7.7887    133.4878     36.4833   8.7072476577e+01   4.7220250798e+01    0.1467713    0.1411315 -19.62 -1.834167e-05    1.020    0.019
       489  -8.0942    125.7938     35.7732   8.8598178969e+01   4.9133725359e+01    0.1934693    0.1666567 -58.01  0.000292908    1.287    0.223
       490  -8.7620    111.7618     34.8794   9.1779929704e+01   5.2417424089e+01     0.266558    0.1813137 -48.76 0.0006722985    1.574    0.365
       491  -8.9450     48.2956     33.3114   1.1183847121e+02   6.3667161077e+01    0.2591707    0.1731279 -56.34 0.0009127326    1.402    0.287
       492  -8.0804    119.2034     33.2001   8.9223108524e+01   5.1035905964e+01    0.2007409    0.1620499 -52.06 0.0004382804    1.350    0.259
       493  -8.6588     60.7201     32.6929   1.0693382425e+02   6.2109630750e+01    0.2273527    0.1725563 -78.07 0.0005378955    1.896    0.473
       494  -8.0279    139.2524     31.9436   8.4117110000e+01   4.6492266313e+01     0.197745    0.1230254 -29.80 0.0008794324    1.553    0.356
       495  -8.8155     72.1267     31.3248   1.0235262062e+02   6.0600134005e+01    0.2550632    0.1574065 -55.39 0.0006281397    1.853    0.460
       496  -9.0383     12.9301     30.4117   1.2549833575e+02   6.7690553236e+01     0.287659    0.1407202 -69.12  0.001530463    1.875    0.467
       497  -8.0156     42.1786     30.1127   1.1308149435e+02   6.5029334040e+01    0.1610973    0.1328705 -65.40 0.0004123205    1.307    0.235
       498  -8.4310    101.4895     29.1095   9.2281559848e+01   5.5513122064e+01    0.2167266    0.1296895 -34.53 0.0008828586    1.551    0.355
       499  -8.7749     81.4880     27.5878   9.7694006179e+01   5.9640386042e+01    0.2673746     0.204557 -57.11 0.0007051111    1.534    0.348
       500  -8.7068      3.6531     27.7488   1.2885654445e+02   6.8829704547e+01    0.2189704    0.1419662 -73.67 0.0008909705    1.371    0.271
       501  -8.0055     88.5481     34.5161   9.8272355438e+01   5.7161547876e+01       0.1376    0.1242296 -37.77 0.0001194696    1.064    0.060
       502  -8.8293     91.8124     26.4306   9.3983445046e+01   5.7889052231e+01    0.3036309    0.1773806 -43.89  0.000879256    1.700    0.412
       503  -9.1204    144.8405     24.5452   8.0190658015e+01   4.6105766286e+01    0.3281213    0.2071965 -46.91  0.001353741    1.730    0.422
       504  -8.1093    104.4784     22.9766   8.8906273061e+01   5.5819403769e+01    0.2114967    0.1296323 -32.65 0.0005445872    1.523    0.343
       505  -8.9435     63.5670     21.2350   1.0115594146e+02   6.3738583413e+01    0.2996586    0.1966084 -54.32 0.0009044131    1.762    0.433
       506  -8.8001     48.3417     21.7094   1.0725904318e+02   6.5850569849e+01    0.2268556    0.1834079 -67.08 0.0006523905    1.546    0.353
       507  -8.2576     19.5209     21.5512   1.1973663763e+02   6.8977091470e+01     0.200574   0.09894797 -66.11  0.000996299    2.155    0.536
       508  -8.1901     12.1638     20.7751   1.2289216935e+02   6.9702348585e+01    0.1734558    0.1099714  76.21 0.0009373858    2.776    0.640
       509  -8.8255     73.9635     19.3499   9.6616823661e+01   6.2329078879e+01    0.2796744    0.1658997 -47.53 0.0007470888    1.787    0.440
       510  -8.0213    155.3459     18.7112   7.6056545868e+01   4.4130860728e+01    0.1536697    0.1112606 -62.72   0.00033696    1.656    0.396
       511  -7.9126     87.8174     17.7963   9.1427829389e+01   6.0003949873e+01    0.1847249    0.1487952 -46.73  0.000461158    1.346    0.257
       512  -8.0366     38.8194     18.4200   1.0984993437e+02   6.7637170636e+01     0.167247    0.1316056 -46.44 0.0005511193    1.130    0.115
       513  -7.5868    112.9763     17.0050   8.4162724352e+01   5.4773154161e+01    0.1696224    0.1539003 -11.11 0.0003562657    1.033    0.032
       514  -8.1753     30.1500     16.2050   1.1277214473e+02   6.9008305036e+01    0.1569906    0.1278806 -62.16 0.0006069818    1.361    0.265
       515  -7.7525      7.4289     15.2635   1.2331302778e+02   7.1122979070e+01    0.1611719   0.09121031 -68.80 0.0009497043    1.726    0.421
       516  -7.9126     17.1788     14.1908   1.1809721161e+02   7.0604139003e+01    0.1447005    0.1230211 -69.80 0.0004728078    1.346    0.257
       517  -7.6584    119.7015     11.3528   8.0149993197e+01   5.3918715181e+01    0.1476142    0.1053322 -54.27 0.0007036094    1.694    0.410
       518  -8.9834    175.6305    247.4374   1.2236820717e+02   6.6444223776e+00    0.2255834    0.1861608  87.53  0.001139799    1.809    0.447
       519  -8.0901    113.0232    248.7108   1.3176836774e+02   1.5136328752e+01     0.152424    0.1035744  80.48 0.0009116913    1.671    0.402
       520  -7.9892     28.1791     10.4089   1.1115054573e+02   7.0275203177e+01    0.1372967    0.1116296  43.99 0.0005149888    1.641    0.391
       521  -9.0868    103.8072    246.9298   1.3300165197e+02   1.6552249058e+01    0.2674998     0.143433  87.01   0.00174629    2.770    0.639
       522  -9.0462    243.1453    246.3383   1.1260415167e+02  -2.7291654875e+00    0.3028539    0.1556921 -10.81  0.001956661    2.528    0.604
       523  -8.6614    218.5096    247.9743   1.1623874836e+02   5.3144763318e-01    0.1409542   0.09586815 -35.26  0.001128113    2.084    0.520
       524  -8.7410    156.1465    247.9746   1.2529873935e+02   9.3437163794e+00    0.1488986    0.1045327  56.16 0.0005682442    1.292    0.226
       525  -8.6419    132.2618    247.8416   1.2883660300e+02   1.2666309779e+01    0.1732677    0.1133896  63.49 0.0008011354    1.476    0.322
       526  -8.8448     67.3730    245.5753   1.3829475062e+02   2.1189279101e+01    0.1474496    0.1011799 -83.47 0.0008584798    1.590    0.371
       527  -9.8933    224.0123    244.3025   1.1501573622e+02   6.1218358523e-02    0.3134108      0.19574 -39.81  0.002245227    2.416    0.586
       528  -9.0283    147.3740    246.3992   1.2645222259e+02   1.0743694022e+01    0.2205412    0.1200863  65.50  0.001370567    2.483    0.597
       529  -9.0146    120.3825    245.7200   1.3043141241e+02   1.4522323528e+01    0.2651806    0.1443713  69.64  0.001417728    2.290    0.563
