#   1 NUMBER                 Running object number                                     
#   2 MAG_AUTO               Kron-like elliptical aperture magnitude                    [mag]
#   3 X_IMAGE                Object position along x                                    [pixel]
#   4 Y_IMAGE                Object position along y                                    [pixel]
#   5 X_WORLD                Barycenter position along world x axis                     [deg]
#   6 Y_WORLD                Barycenter position along world y axis                     [deg]
#   7 A_WORLD                Profile RMS along major axis (world units)                 [deg]
#   8 B_WORLD                Profile RMS along minor axis (world units)                 [deg]
#   9 THETA_WORLD            Position angle (CCW/world-x)                               [deg]
#  10 FWHM_WORLD             FWHM assuming a gaussian core                              [deg]
#  11 ELONGATION             A_IMAGE/B_IMAGE                                           
#  12 ELLIPTICITY            1 - B_IMAGE/A_IMAGE                                       
         1 -11.9371     18.8072     27.8868   8.7407918427e+01   7.0387486570e+01     1.113747     0.425119 -55.38  0.000798737    3.356    0.702
         2 -11.5518     14.4037     38.5190   9.4281346327e+01   6.8778225704e+01    0.8518448    0.5290639 -71.92  0.004324634    2.398    0.583
         3 -12.0613     27.3403     53.9423   9.2506781643e+01   6.4408933041e+01     1.217154    0.7111252 -18.76  0.001686283    1.931    0.482
         4 -11.5245      7.7808     15.3682   8.8819761611e+01   7.3630888479e+01    0.6800315    0.4011519  17.88  0.001869703    1.611    0.379
         5 -11.7996     21.8957      6.4068   7.4493842862e+01   7.3418005354e+01    0.5801804    0.4418022  37.05  0.003806495    1.526    0.345
         6 -12.1800     14.1595     10.9444   8.2127199424e+01   7.3713347405e+01    0.3227103       0.2279  -2.94 0.0002789265    1.222    0.182
         7 -11.6938     15.5737      3.9238   7.7136976971e+01   7.4572802490e+01     1.162553    0.4636817  16.20   0.00413277    4.760    0.790
         8 -11.2891      6.4896     35.9880   9.8131525531e+01   6.9880172133e+01     1.270937     0.475399 -49.42  0.006007401    2.105    0.525
         9 -10.0317     26.5219     21.6476   7.9886479006e+01   7.0558692666e+01    0.5537554    0.3578859  -5.44  0.002109429    1.605    0.377
        10 -10.9200     41.3349     21.8741   7.1952352167e+01   6.8394166632e+01    0.3473765    0.3005982  87.49  0.001078089    2.055    0.513
        11 -11.4770     42.0634     15.7011   6.8452769617e+01   6.9132677319e+01     0.686998    0.2845529  28.63  0.000714724    2.917    0.657
        12 -12.4585    107.6538     29.1682   5.1721077827e+01   5.3885895628e+01    0.4839506    0.3921564  30.06  0.002751837    1.283    0.220
        13 -12.7012    105.1690     20.8604   4.9195221157e+01   5.5420454188e+01    0.3175955    0.2839813 -73.03 0.0005104512    1.266    0.210
        14 -10.6974    205.9360     24.1926   3.5618949795e+01   3.1418486144e+01     0.488664     0.336713 -73.82  0.001213354    1.333    0.250
        15 -10.1002     69.5963     11.4363   5.5058521362e+01   6.4391379477e+01    0.2714891    0.1812176  41.72 0.0001153314    1.285    0.222
        16 -10.0930     78.9902     11.6269   5.2206906428e+01   6.2351364522e+01    0.2630666    0.1965406  46.38 0.0001844514    1.145    0.127
        17 -11.4156     73.3820      3.7685   5.0256526597e+01   6.4303016065e+01    0.6315978    0.4562608 -29.49  0.003793323    1.587    0.370
        18 -10.0402     69.1617      7.0499   5.3114076147e+01   6.4914401820e+01    0.2122311    0.1715654  47.07 0.0003032727    1.100    0.091
        19 -10.4845     71.2912     17.2170   5.7179404989e+01   6.3413169291e+01    0.6563811    0.3676416   2.11  0.002836395    2.683    0.627
        20 -11.5876     62.1184     17.0538   6.0411113734e+01   6.5298677764e+01    0.7796883    0.3161376  38.17 0.0003696193    2.396    0.583
        21 -11.1913    175.5998     12.8845   3.5741759324e+01   3.9379983381e+01     1.048978    0.4484962  70.67  0.004953055    2.096    0.523
        22 -11.0619    165.9653     18.9309   3.8418612972e+01   4.1008269601e+01    0.4345234    0.3186792 -19.77  0.001881592    1.649    0.394
        23  -9.2347    185.4974     14.5597   3.5196822202e+01   3.6951610669e+01    0.2225498    0.1859792 -67.72 0.0005829368    1.063    0.059
        24 -10.7977    182.1537     18.4423   3.6501671733e+01   3.7304121398e+01    0.3705213    0.2297705  52.43   0.00070784    1.786    0.440
        25  -9.7565    131.7989     21.5812   4.4128416641e+01   4.8946496551e+01    0.3742228    0.2415535 -11.56  0.001891622    2.008    0.502
        26 -10.4259    236.8299      7.3598   2.9802898071e+01   2.6985410351e+01    0.2657338    0.1778977 -66.61  0.001044824    1.200    0.166
        27 -10.2618    232.1620      6.2655   2.9855169899e+01   2.7992464450e+01     0.347121    0.2092896 -22.84  0.001372328    2.100    0.524
        28 -10.8039    237.3178      3.0133   2.8923120248e+01   2.7331124368e+01    0.4066209    0.2129006  86.70  0.002510597    1.812    0.448
        29 -10.4872    230.5086     14.4303   3.1611578120e+01   2.7465840771e+01    0.3241817    0.2114384 -46.70  0.001143974    1.288    0.224
        30 -12.0531    117.0415     22.2322   4.7122124867e+01   5.2444753647e+01    0.2601248    0.2313582   9.83 0.0004187306    1.269    0.212
        31  -9.8460    116.8873     15.4409   4.4738631865e+01   5.3181672756e+01    0.2726231    0.2536188   7.57 0.0009389799    1.214    0.176
        32  -9.9368     84.4851     20.4561   5.4432970575e+01   6.0205655064e+01    0.4888267    0.2982203 -62.95  0.001867426    2.945    0.660
        33 -11.0225    217.9766     18.4437   3.3343057371e+01   2.9539120136e+01    0.4509936    0.2778888 -83.38  0.001400609    1.544    0.352
        34 -10.2993    211.1051     14.8615   3.3082340096e+01   3.1345559941e+01    0.4013759    0.1659558 -49.51  0.001161431    2.073    0.518
        35 -10.4939    146.0954     12.3275   3.9029740140e+01   4.6414218696e+01    0.4476683     0.273422  70.17  0.001396992    1.442    0.307
        36 -11.0921    243.9933     13.7563   3.0636879799e+01   2.4972307682e+01    0.2988693    0.2635085  37.44  0.001272603    1.722    0.419
        37 -11.1470    133.2531     12.5124   4.0933730638e+01   4.9503055414e+01    0.3223621    0.2350793  35.03 0.0002006993    1.571    0.364
        38 -10.2250    128.1400      8.8527   4.0524294153e+01   5.1076557246e+01    0.4269333    0.3337208 -67.08  0.001574905    1.365    0.268
        39 -11.1689     97.9267     12.7126   4.7708967033e+01   5.7947014714e+01    0.5281035    0.2444534  53.75 0.0008383284    1.798    0.444
        40  -8.8983     97.5090      6.9711   4.5510918402e+01   5.8565243231e+01    0.2460052    0.1607158  18.33 0.0007990288    1.855    0.461
        41  -9.1584     51.3569     12.7350   6.2627939197e+01   6.7867028884e+01    0.2162629    0.1444821 -35.37  0.001229311    1.710    0.415
        42  -9.7276     31.4469     12.4556   7.2279701904e+01   7.1242729143e+01     0.325945    0.1907186  38.60  0.001822078    1.673    0.402
        43 -10.7857    201.2434      8.2002   3.2336138398e+01   3.4121964158e+01    0.5974973    0.2306504  75.35  0.002851836    2.408    0.585
        44 -10.8785    191.8138      8.6716   3.3198706676e+01   3.6132557833e+01    0.4710487    0.2832898 -40.43  0.001093826    1.574    0.365
        45 -10.7051    195.9999      3.7606   3.1708471911e+01   3.5687799218e+01    0.3933896    0.2799851  81.61  0.001790768    1.267    0.211
        46 -10.1345    224.3567      9.9882   3.1097034851e+01   2.9145959780e+01    0.2890989    0.1514094 -46.06  0.001567912    1.573    0.364
        47  -9.2338     56.0465     10.6417   5.9610000315e+01   6.7216116201e+01    0.2165921    0.1648402  -1.13 0.0006430604    1.327    0.247
        48 -10.2873    213.1937      9.6358   3.1778931124e+01   3.1452733658e+01    0.2913373    0.1838095  68.58  0.001196772    1.603    0.376
        49  -9.7843    166.0401      9.3577   3.5797317116e+01   4.1947270057e+01    0.2798026    0.2347345 -40.85   0.00135632    1.277    0.217
        50  -8.4970     38.0162      9.9487   6.7393223764e+01   7.0538303394e+01    0.1447158    0.1188871   3.64 0.0005387614    1.076    0.071
        51  -8.5595    120.1702      8.4103   4.1669903470e+01   5.3042123323e+01    0.1854594    0.1508693 -35.97 0.0006613381    1.376    0.273
        52  -8.9142     90.7133      8.8549   4.7858897045e+01   5.9975183970e+01    0.2575633    0.1531365  34.80  0.001086181    1.723    0.420
        53  -9.1009     88.0507      6.2938   4.7434480271e+01   6.0811089659e+01    0.2328411    0.1404532  52.18  0.001005738    1.385    0.278
        54  -9.3823     43.5249      9.2148   6.4290092007e+01   6.9690089398e+01    0.2274348    0.1446412  35.33 0.0006129263    1.360    0.265
        55  -9.8396    106.8081      6.2642   4.3315494595e+01   5.6430487389e+01    0.3790441    0.3054062 -69.66   0.00103098    1.420    0.296
        56  -9.9701     61.3663      6.1480   5.5317902083e+01   6.6620896401e+01    0.3842778    0.2713352  73.60  0.002119761    1.946    0.486
        57  -8.7509     48.4751      7.8154   6.1288008266e+01   6.8957258607e+01    0.2498059    0.1102835  55.50  0.001085411    2.712    0.631
        58 -10.3216    247.9937      4.9636   2.8737452430e+01   2.5151663144e+01    0.2645907    0.1509116 -89.25 0.0007171166    1.655    0.396
        59 -10.7573    250.0114      1.4355   2.7978839495e+01   2.5140278851e+01     0.460446    0.1935745  62.25 0.0003225519    2.793    0.642
        60 -10.7387    208.8272      3.8578   3.0815866574e+01   3.2937057312e+01     0.358202    0.2691948 -59.15  0.001293522    1.122    0.109
        61  -9.6789    152.9174      5.9104   3.6284081367e+01   4.5368127303e+01    0.2125017    0.1681571  56.83 0.0005053076    1.274    0.215
        62 -10.1994     39.8830      4.7723   6.3557532245e+01   7.0829355658e+01    0.3192403    0.2624843  47.05  0.001120933    1.408    0.290
        63 -10.6197     31.0143      3.5838   6.7451601577e+01   7.2434787229e+01    0.2965346    0.2020063 -37.15  0.001077357    1.777    0.437
        64 -11.0871    160.6234      2.7456   3.4553095567e+01   4.3820133541e+01     0.664857    0.2678683  67.03  0.003109778    2.096    0.523
        65 -10.4966    217.7756      2.7998   3.0007960054e+01   3.1192224732e+01    0.2887534    0.2293415 -80.68  0.001458241    1.097    0.089
        66 -10.9158    179.5396      2.1869   3.2642958101e+01   3.9494570492e+01    0.3075335    0.1828737  73.56 0.0009120341    1.497    0.332
        67  -9.7298    127.7272      1.6195   3.8185190777e+01   5.1783475728e+01    0.3147768    0.1451723  54.70  0.001084417    1.894    0.472
        68 -10.5702     89.9158      1.9068   4.5134078854e+01   6.0744465076e+01    0.4297503    0.1924057  67.00  0.001529707    2.081    0.519
        69  -9.5644     50.1001      2.2924   5.7602678153e+01   6.9218740070e+01    0.2039652     0.183471   6.15 0.0007320028    1.180    0.152
        70  -8.9654    135.8013      1.7523   3.7127400085e+01   4.9826392993e+01    0.1853033    0.1564973  63.52  0.001185654    1.109    0.098
        71  -9.9783    115.7164      1.8891   4.0117026744e+01   5.4654387269e+01    0.2099126    0.1588106  72.54 0.0002777454    1.161    0.139
        72  -8.3480     81.8183      2.4028   4.7312102967e+01   6.2549190863e+01    0.1818018   0.09540312  50.43 0.0004154821    1.561    0.359
        73  -8.2247      2.7413      2.6762   8.5786401373e+01   7.6133225893e+01    0.1181321   0.06900419 -17.97 0.0006944354    1.552    0.356
        74  -8.6662     55.8218      1.3845   5.4878230901e+01   6.8183565582e+01    0.1632517   0.09418491  41.78 0.0001257073    1.439    0.305
        75  -8.5186    109.0174      1.0000   4.0934990493e+01   5.6326367471e+01    0.2090572   0.06344138  67.67 0.0003791541    2.810    0.644
        76  -9.8819     13.9856    113.4841   1.1128729071e+02   5.1157619207e+01    0.2959834    0.1728793   8.35  0.001160096    2.023    0.506
        77  -9.5017    201.4887    249.5557   8.2925065674e+01  -3.4034370629e+00    0.2073002    0.1521247   7.48  0.000617367    1.048    0.045
        78 -10.2980    115.9558    248.4799   1.0014843527e+02   7.6998274302e+00     0.252673    0.2208122  28.73  0.001106648    1.066    0.062
        79  -9.5292     61.9901    120.3897   9.5242235829e+01   4.4465359797e+01     0.256653    0.2061899 -66.96 0.0003067527    1.250    0.200
        80  -9.5742    221.5620    119.3388   5.5221837763e+01   1.4504336949e+01    0.3095408    0.2321626  36.60  0.001790775    1.557    0.358
        81 -10.3072     44.3022    119.4637   1.0128456152e+02   4.6908792863e+01    0.4206861    0.2201435  34.32  0.001839132    1.963    0.490
        82  -9.2729     93.7883    118.8969   8.4326240534e+01   3.9785667213e+01    0.2656862    0.2135983  14.75  0.001093496    1.383    0.277
        83 -10.5786      3.9163    117.0448   1.1531208679e+02   5.0852951369e+01    0.3592344    0.2972216 -38.43  0.002214256    1.257    0.205
        84  -8.4663     67.6149    118.3058   9.2852647816e+01   4.4196369026e+01    0.1589547    0.1131222  64.69 0.0007019413    1.798    0.444
        85  -8.7882    239.3081    117.3270   5.2255341769e+01   1.1807388655e+01    0.1241604   0.09146487  -8.95  0.000703815    1.655    0.396
        86  -9.4053     70.6655    116.4364   9.1385320331e+01   4.4212983700e+01     0.289877    0.2188625  84.36 0.0008520494    1.733    0.423
        87 -10.6854     62.8309    111.4499   9.3003445783e+01   4.6608706259e+01    0.5165178    0.2219657 -57.39 0.0004184924    2.217    0.549
        88  -9.0959     57.9851    108.0004   9.3974909517e+01   4.8143940553e+01     0.215715    0.2020085 -36.45 0.0003129216    1.024    0.023
        89 -10.2569     62.0935    105.0928   9.1790677108e+01   4.8296336447e+01    0.3543881    0.2789112   7.30 0.0009855331    1.414    0.293
        90  -8.8474     52.9730    113.4932   9.6998311954e+01   4.7411060353e+01    0.3183642    0.1463893  26.34  0.001154895    2.313    0.568
        91  -9.9630     48.1330    115.5387   9.9164149412e+01   4.7478987561e+01    0.4320466    0.2581953  42.49  0.001210329    1.808    0.447
        92  -9.2789     48.8333    111.7745   9.8152254995e+01   4.8357998387e+01      0.26454    0.2007058 -59.75 0.0006706959    1.240    0.193
        93  -8.0356     76.2750    114.6665   8.9056689165e+01   4.3782726399e+01     0.150472    0.1193804  78.98 0.0004734598    1.601    0.375
        94 -10.4934     32.1114    112.1986   1.0441692275e+02   5.0036222675e+01    0.3691595    0.2880635  73.57  0.001464689    1.463    0.316
        95  -8.0028    155.2891    113.2870   6.6167701715e+01   2.8673165798e+01    0.1472117     0.118023   0.70   0.00022939    1.536    0.349
        96  -8.7135     20.3951    104.1907   1.0749408188e+02   5.3079636203e+01    0.1927801    0.1837693 -18.57 0.0009151558    1.129    0.114
        97  -9.9278     20.4971    112.5174   1.0876614050e+02   5.0940550681e+01    0.2640182    0.2611214 -80.81  0.001106028    1.108    0.097
        98 -10.9318     20.7682    108.5632   1.0805630682e+02   5.1934666631e+01    0.4549784    0.3250911 -15.15  0.002430764    1.604    0.377
        99  -9.1065    121.1548    111.5963   7.4326973497e+01   3.6198828212e+01    0.2596493    0.2095153 -56.71 0.0004391444    1.314    0.239
       100  -7.9072     40.6566    111.7006   1.0115549869e+02   4.9305609031e+01    0.1517294    0.1001438 -31.50 0.0007036217    1.674    0.403
       101 -10.6395      3.4934    109.4909   1.1460312206e+02   5.2797664373e+01    0.4718184    0.3521928 -18.72  0.002757427    1.513    0.339
       102 -10.1886      7.5503    108.5676   1.1299836422e+02   5.2812566384e+01    0.4113431    0.1759684 -63.65            0    1.882    0.469
       103  -9.6208    102.6293    108.8007   7.9013512907e+01   4.0523209183e+01    0.3570263    0.2524611  -5.66  0.001492631    2.036    0.509
       104  -9.2417    116.3557    108.0531   7.4743489460e+01   3.7963649621e+01    0.2713746    0.2189555  24.60  0.000856353    1.334    0.250
       105  -8.6020     43.7547    106.9700   9.9054927439e+01   5.0171191862e+01    0.2172931    0.1532022  52.03  0.001058545    1.654    0.395
       106 -10.5315     35.9016    107.5707   1.0215017378e+02   5.0854877570e+01    0.5135866    0.2501391 -49.70  0.002220416    1.855    0.461
       107 -10.0878     84.0881    104.2471   8.3803170066e+01   4.5001016357e+01     0.456312    0.2391747 -38.45  0.001030452    2.103    0.524
       108  -9.6504    132.0070    104.0056   6.9391916741e+01   3.5551997686e+01     0.221836    0.2178699 -14.93  0.001200225    1.006    0.006
       109  -8.4189    108.2347    104.6251   7.6195874129e+01   4.0368164019e+01    0.1526074    0.1213486 -77.77 0.0006910898    1.614    0.380
       110 -11.7293    101.5373    102.8019   7.7742646905e+01   4.2101696292e+01    0.4504784    0.3370244  16.37  0.001217261    1.587    0.370
       111  -9.7443    101.2578     98.6428   7.6679249476e+01   4.3088173697e+01    0.2898442    0.2623437 -11.92 0.0004854863    1.149    0.130
       112  -9.5289     72.0548    104.1162   8.7949891503e+01   4.7036230843e+01    0.4357633    0.1912441  43.13  0.001601633    2.470    0.595
       113 -10.5848     33.9906    102.9605   1.0199288639e+02   5.2216201948e+01    0.2617243    0.2301875 -47.73   0.00120808    1.040    0.039
       114  -9.1154    127.0904    101.7507   7.0072356532e+01   3.7076702038e+01     0.424989    0.2305731  29.68  0.001392584    2.471    0.595
       115 -10.8923    110.7685     99.8313   7.4124307212e+01   4.0912409257e+01    0.7124861    0.4839316  70.84  0.002431713    2.239    0.553
       116 -11.4368    117.6436     97.9585   7.1614513335e+01   3.9884490368e+01    0.2857803    0.2637224  31.64 0.0002928861    1.085    0.078
       117 -10.3425     50.6096    100.4770   9.5014867523e+01   5.0983409961e+01    0.4313167     0.350428 -52.25  0.001157106    1.152    0.132
       118 -10.5664     42.7954     99.4267   9.7812125130e+01   5.2178503379e+01    0.6732021    0.2041389  33.80  0.002334146    3.206    0.688
       119  -9.7804     23.1881     94.7291   1.0470789359e+02   5.5251792603e+01    0.3095773    0.2178601 -52.73  0.001112763    1.242    0.195
       120  -9.5269      7.0391     89.5397   1.1046939656e+02   5.7627184179e+01    0.4708723    0.2825923 -71.75 0.0009817942    1.502    0.334
       121  -9.4190     16.6580     99.1867   1.0813052136e+02   5.4619912966e+01    0.3230577    0.2137249 -37.75 0.0009771285    1.480    0.324
       122  -9.4549     20.9543     99.0059   1.0639193273e+02   5.4351859985e+01    0.2509334    0.1953348  31.43 0.0009153645    1.423    0.297
       123  -9.9389      2.0860     92.3079   1.1292272213e+02   5.7187471689e+01    0.3174301      0.20564  59.95 0.0003341397    1.869    0.465
       124  -9.4751     13.5037     95.8985   1.0885016064e+02   5.5659167519e+01    0.2527917    0.2114706 -51.39  0.000709573    1.055    0.052
       125 -10.0577      2.4500     86.6499   1.1194032429e+02   5.8569956856e+01    0.5112206    0.1340856 -60.61  0.001986372    2.616    0.618
       126 -10.4387      2.4680     80.5633   1.1096398801e+02   6.0057306894e+01     0.356401    0.2553889 -66.36  0.001664504    1.215    0.177
       127 -10.4194      8.9372     98.3362   1.1105438539e+02   5.5324390658e+01    0.6312963    0.3807995 -32.72  0.002827721    1.718    0.418
       128  -9.2636      4.0042     97.5050   1.1288089570e+02   5.5797851685e+01    0.3709514    0.2029909 -51.68  0.001091999    1.556    0.357
       129  -9.4257     79.0271     98.7818   8.4090549059e+01   4.7162565316e+01    0.2399087    0.2316553 -22.37 0.0008181168    1.011    0.011
       130 -10.4374     57.7022     99.7828   9.2141982447e+01   5.0219608558e+01    0.4493553    0.2785986 -34.40  0.001562567    1.756    0.430
       131  -9.6112    137.3216     97.5156   6.6277217088e+01   3.5726158553e+01    0.2724461    0.1874927 -20.45  0.001174752    1.859    0.462
       132  -9.6489    171.0512     97.0138   5.8695792971e+01   2.8405608286e+01    0.2127095    0.2014286 -41.01  0.001205777    1.021    0.020
       133  -8.8741    150.0993     97.1342   6.3143646381e+01   3.2982767910e+01    0.2167598    0.1991594   4.41            0    1.185    0.156
       134  -9.8610    125.8219     97.0109   6.9099506300e+01   3.8335929634e+01    0.2792886    0.2362998  23.96  0.001161902    1.275    0.215
       135 -10.8675     43.6473     89.3738   9.5117508362e+01   5.4553600989e+01      1.06353    0.5437371  52.87  0.002271052    3.000    0.667
       136 -10.5926     51.4976     82.9445   9.0197938708e+01   5.5093599934e+01    0.3796422    0.3321492  13.89 0.0006813541    1.161    0.138
       137 -10.9469     45.1209     80.9580   9.2314090973e+01   5.6379125970e+01    0.8267638    0.4237213  25.13   0.00306386    2.054    0.513
       138 -13.2878     52.9372     74.3535   8.7095056702e+01   5.6852339747e+01    0.7432356    0.3922305 -58.37  0.001368028    2.098    0.523
       139 -11.1364     45.2960     68.6966   8.8661442230e+01   5.9140050702e+01    0.4358198    0.2538205 -38.33 0.0001812604    1.658    0.397
       140 -11.1719     31.9494     93.5784   1.0088952864e+02   5.4767679867e+01    0.5603834    0.3624547 -48.13  0.001999082    1.385    0.278
       141 -11.4215     29.7961     85.7855   1.0007533469e+02   5.6887414113e+01    0.9559736    0.4794839 -30.76  0.002802548    2.323    0.570
       142  -8.7225    155.1840     95.8584   6.1672073635e+01   3.2101737541e+01    0.2009895    0.1753313  17.00 0.0006258815    1.302    0.232
       143  -9.1105    130.0301     96.4945   6.7845232117e+01   3.7528454335e+01     0.227345    0.1501622  45.55 0.0005123879    1.517    0.341
       144  -9.6177     86.7289     96.0352   8.0677466428e+01   4.6438020318e+01     0.260617    0.2188027  30.79  0.000600848    1.199    0.166
       145  -9.1472     80.4080     95.0791   8.2589832153e+01   4.7785417935e+01    0.3069189    0.2312444  75.58  0.001385246    1.916    0.478
       146  -8.9026    165.7921     94.1945   5.9011913596e+01   3.0068409945e+01    0.2092244    0.1940638 -73.37  0.000421647    1.115    0.103
       147  -8.9703     39.0443     94.0036   9.8092327729e+01   5.3939912400e+01     0.208737    0.1790698 -38.47 -0.002661949    1.082    0.076
       148  -9.8417    134.9855     91.3197   6.5131307866e+01   3.7470462980e+01    0.2620715    0.2184348 -40.85 0.0001737741    1.197    0.165
       149  -9.2648     52.4345     90.2500   9.1783385555e+01   5.3242872592e+01    0.2424419     0.173861 -61.92 0.0007002528    1.441    0.306
       150 -10.6225     86.5505     88.4338   7.8547461568e+01   4.8174820630e+01    0.3896956    0.3423347 -28.24 0.0005600774    1.134    0.118
       151  -9.4881     87.0275     83.6646   7.6948673770e+01   4.9121420326e+01    0.2596253    0.2113422 -62.44 0.0004444186    1.417    0.294
       152 -10.3085     71.2972     88.9531   8.4146837801e+01   5.0738933705e+01    0.4067628     0.252717 -56.29 0.0003434154    1.696    0.410
       153 -11.2840     79.5411     83.5509   7.9540030675e+01   5.0529636448e+01    0.7411767    0.3208749  36.03  0.002771326    2.356    0.576
       154  -9.7853     73.3988     79.5807   8.0570838468e+01   5.2478042633e+01    0.3783793    0.2588606 -33.50 0.0008897931    1.512    0.339
       155  -8.7759     58.7791     88.5785   8.8825685290e+01   5.2760631094e+01    0.4062515    0.2381286 -80.08   0.00145007    3.329    0.700
       156  -8.5086     17.2809     88.3328   1.0594927229e+02   5.7289162041e+01    0.2143013     0.169319 -57.34 0.0006384614    1.107    0.097
       157  -9.5353     14.1962     87.8080   1.0716027062e+02   5.7629186413e+01    0.4031182    0.2064793 -43.73   0.00160278    1.759    0.432
       158  -9.7184    117.5601     84.7463   6.7806190955e+01   4.2616566497e+01    0.3507927    0.2663578  13.90  0.001624046    1.664    0.399
       159 -10.9616    123.6832     86.2111   6.6571204124e+01   4.0981821377e+01    0.4517096    0.3757996 -46.89  0.001538005    1.224    0.183
       160 -10.6605    128.3816     85.5054   6.5131874288e+01   4.0075353630e+01    0.4909009    0.3553123  13.61 0.0008964106    1.916    0.478
       161  -9.4337    132.9192     82.6889   6.3162525990e+01   3.9591884312e+01    0.2376148    0.2044279 -56.25 0.0003852426    1.220    0.180
       162  -8.8300     95.9742     87.7382   7.5201840409e+01   4.6512979965e+01    0.4816239    0.2421224  46.47  0.001886185    2.061    0.515
       163  -9.8962    154.6833     85.4340   5.8961310555e+01   3.4141769472e+01     0.384608    0.2645986  10.51 0.0008870799    2.383    0.580
       164  -9.5870     65.8943     85.6131   8.5226647897e+01   5.2373607904e+01    0.3954562    0.2541989  12.82  0.001736961    1.938    0.484
       165  -8.3961    104.4647     85.5031   7.1857613015e+01   4.5258510385e+01     0.154429    0.1429316   2.00 1.687856e-05    1.106    0.096
       166  -9.8418    140.0639     83.0612   6.1550567139e+01   3.7899976123e+01    0.4957181    0.2997052  19.63  0.001671379    3.113    0.679
       167  -9.1837     17.8551     72.2778   1.0230192434e+02   6.1125461395e+01    0.2898083    0.1861614 -30.22  0.001163216    1.506    0.336
       168 -10.2817     20.2514     79.8946   1.0293220439e+02   5.9129502610e+01    0.4131642    0.3013903 -16.99  0.001102792    1.423    0.297
       169  -8.2857     18.3043     76.3290   1.0302184831e+02   6.0132054027e+01    0.2189424    0.1201743 -58.90  0.000725798    1.577    0.366
       170 -10.8982    151.2673     80.4844   5.8314116193e+01   3.5805168244e+01    0.5626688    0.2947043  62.79  0.002082319    2.260    0.558
       171  -9.5620    119.8914     79.8287   6.5681786776e+01   4.3060860451e+01    0.2314629    0.2010764   9.59 0.0003106686    1.286    0.222
       172  -8.2759     63.2262     79.9840   8.4604789297e+01   5.4064771530e+01     0.188752    0.1166807 -49.86 0.0008420565    1.583    0.368
       173  -9.6904    137.1629     78.9585   6.1043664534e+01   3.9314988844e+01    0.2526154    0.2146208  54.93 0.0006352855    1.173    0.147
       174 -11.5107    178.3609     75.1048   5.1717467229e+01   3.0562207189e+01    0.6163769    0.3773428  55.03  0.002603153    1.681    0.405
       175  -9.1264    171.8156     77.6021   5.3507497076e+01   3.1620516708e+01    0.2198617    0.1415287  58.07  0.001049673    1.598    0.374
       176  -9.3764    110.9803     77.0531   6.7317093929e+01   4.5556587937e+01    0.2560106    0.2295946 -59.34 0.0007196929    1.213    0.176
       177  -9.0670    110.8887     72.2011   6.5807626601e+01   4.6495227029e+01    0.4041648    0.2154286 -28.05  0.001558317    2.379    0.580
       178  -8.4914     94.4161     78.5167   7.2870821789e+01   4.8750757181e+01    0.1490773    0.1418745  -2.20 0.0001556208    1.026    0.025
       179 -10.4945     89.2778     74.8521   7.3404369140e+01   5.0519623427e+01    0.6110956    0.3563797 -38.97  0.001619721    1.750    0.429
       180 -10.1697     94.4625     70.1526   7.0143514677e+01   5.0396893120e+01    0.4986615     0.308824 -40.46  0.002257368    1.646    0.392
       181  -9.2040     12.4697     78.0558   1.0604146290e+02   6.0119654331e+01      0.22835    0.1594752 -28.66  0.000379439    1.394    0.283
       182  -9.2498     68.5951     75.7863   8.1208712390e+01   5.4116524198e+01    0.3898453    0.1702966 -51.36  0.001241561    2.379    0.580
       183 -10.1483     28.0459     76.3970   9.8606376330e+01   5.9301164329e+01    0.3513804    0.2650343 -36.66 0.0003864499    1.203    0.169
       184  -9.6592    184.7489     75.9650   5.0886458369e+01   2.9009846225e+01    0.1932008    0.1683825 -45.84 0.0004232329    1.083    0.077
       185 -10.6521    142.9631     66.8785   5.6166001365e+01   4.0065429970e+01     0.440577    0.3421962  27.25  0.001964508    1.542    0.352
       186 -10.7542    145.3902     72.0744   5.7171313043e+01   3.8625603484e+01    0.5903331    0.3399291 -27.49  0.001907839    2.053    0.513
       187  -9.0712    141.5282     75.4842   5.9018128532e+01   3.8931357151e+01      0.21067    0.1443156 -26.33 0.0007671142    1.664    0.399
       188  -9.7368     63.6341     74.6488   8.2797570339e+01   5.5174892804e+01     0.279884    0.2152202  81.02  0.001322691    2.035    0.509
       189 -10.6829    169.9149     73.1156   5.2655070579e+01   3.2788242036e+01    0.3352645    0.2314157 -37.16 0.0007670791    1.426    0.299
       190  -9.9972     15.7763     59.9576   1.0022168148e+02   6.4113910071e+01    0.6645653    0.3752778 -69.10  0.002663038    1.956    0.489
       191 -11.1495     44.6654     47.3578   8.1523446290e+01   6.3605523153e+01    0.9426173    0.4498923  33.29  0.004268248    2.066    0.516
       192  -8.5267    192.6484    248.3022   8.4406912864e+01  -2.1766223302e+00    0.1069406    0.0870583  40.97 0.0007039297    1.700    0.412
       193  -9.4913     32.0622     47.8943   8.7983640307e+01   6.5138253111e+01    0.2625583    0.1977759  43.95  0.001154872    1.669    0.401
       194  -9.1241     31.0046    248.2420   1.1822081713e+02   1.7880691956e+01    0.1544804    0.0820548  32.53 0.0008901806    1.628    0.386
       195 -11.7820      8.0393     51.5704   1.0200946279e+02   6.6499349529e+01      1.00227    0.5590231 -17.30  0.003716804    1.859    0.462
       196  -9.8149    163.6989    246.0371   8.9795541814e+01   1.8010235082e+00     0.175646    0.1448936   0.98  0.001181429    1.102    0.092
       197 -11.2113     25.3798     46.0090   9.0816022985e+01   6.6250344286e+01    0.8737394    0.4392895 -12.66  0.003607525    2.908    0.656
       198 -11.5686     32.3641     63.4575   9.3022404213e+01   6.1828293067e+01    0.9044715    0.3386075 -49.94  0.003131628    2.302    0.566
       199 -11.0060     28.0147     63.4538   9.5118682098e+01   6.2275542681e+01    0.4702456    0.2711866 -45.32 0.0003360706    1.523    0.343
       200 -10.6726      9.2795     62.7651   1.0421504786e+02   6.3913764914e+01    0.5170499    0.3210663  55.19  0.001698795    2.339    0.572
       201  -8.3407    219.5038    245.5050   7.9039423979e+01  -4.9327665957e+00    0.1182617    0.0842802  -0.70 0.0001093736    1.072    0.067
       202  -8.6014      1.4593    244.4476   1.2394977264e+02   2.1382999150e+01    0.1126493   0.08244872  58.64 8.846873e-05    1.038    0.037
       203  -9.7353    102.2842    241.8774   1.0238385692e+02   1.0675803462e+01    0.2640554    0.1082974 -56.40  0.001216489    2.793    0.642
       204  -9.3851    202.2340    242.3457   8.1709363088e+01  -2.5009531393e+00     0.163691   0.09277884  32.31 0.0009514133    1.685    0.407
       205 -10.9204     79.7581     69.8517   7.5085166629e+01   5.3362877811e+01    0.2644155    0.2496465  -0.24  0.000298028    1.010    0.010
       206 -12.4210      2.4352     66.2786   1.0836879065e+02   6.3464621296e+01    0.6512954    0.5677115 -89.23 0.0002586423    1.319    0.242
       207  -8.3616    226.4645     70.3795   4.3894937186e+01   2.1235020979e+01    0.1243318    0.1056339 -56.86  3.31209e-05    1.036    0.035
       208  -8.3710    215.4642     70.4785   4.5224868922e+01   2.3381202654e+01    0.1298307    0.1120414 -54.31 0.0001838336    1.004    0.004
       209  -9.4902     36.6610     69.5290   9.2816238524e+01   6.0002667094e+01    0.3564157    0.2178593 -50.47  0.001657571    1.496    0.331
       210  -9.6756    119.7782     67.6549   6.1918286681e+01   4.5321466956e+01     0.410134    0.2661877  30.21  0.001800836    1.870    0.465
       211 -10.0049    173.4970     68.9835   5.0933457137e+01   3.2635062347e+01    0.2891763    0.2062406  56.97  0.001004809    1.426    0.299
       212  -8.7615     87.0483     68.1224   7.1934191644e+01   5.2291790676e+01    0.2181119    0.1886081   8.94 0.0003709581    1.191    0.160
       213 -10.9596    141.9130     59.9165   5.4303014430e+01   4.1435209912e+01    0.3269207    0.2722238  36.04 0.0003607549    1.301    0.232
       214 -11.1629    134.7956     64.7335   5.7326366602e+01   4.2337749349e+01     0.518792    0.4147255 -83.30  0.002631683    1.496    0.332
       215 -10.0391    131.5142     58.6973   5.6198479351e+01   4.4089160015e+01    0.5612444    0.3731485  48.66  0.002702018    1.459    0.315
       216  -8.6970     68.1214     66.8578   7.8462620569e+01   5.6066371875e+01    0.1955851    0.1580275 -10.35            0    1.298    0.230
       217  -9.6306    136.7518     55.6520   5.4088656415e+01   4.3322129616e+01     0.364381    0.2021631 -29.63  0.001275456    2.003    0.501
       218  -8.6141    106.2972     66.3139   6.5217799785e+01   4.8584725350e+01    0.2108285    0.1325871  54.33 0.0005678165    1.645    0.392
       219  -9.8316     83.2088     64.3016   7.1957365036e+01   5.3783103725e+01    0.4426477    0.2290475 -46.52  0.001182164    2.056    0.514
       220  -9.1989     75.1025     65.6945   7.5384819432e+01   5.5055382299e+01    0.2751597    0.2046297 -47.47 0.0007857386    1.419    0.295
       221  -8.7950     77.2389     62.0112   7.3303894656e+01   5.5369891311e+01     0.220207    0.1848116  -4.70 0.0003105077    1.237    0.191
       222  -8.9820    202.4679     64.5635   4.5501854034e+01   2.6927265415e+01    0.3352364    0.2001476  -3.10 0.0006007818    4.267    0.766
       223  -9.8619     97.1870     63.8490   6.7148949950e+01   5.1002683869e+01    0.2420415     0.226255 -15.49 0.0002622938    1.080    0.074
       224  -8.6124    110.3454     62.9160   6.2929901677e+01   4.8285248466e+01    0.1952607    0.1817083 -31.33 0.0004447483    1.110    0.099
       225  -9.5378    193.9129     61.1211   4.5811081963e+01   2.9267562736e+01    0.3479366     0.172724 -38.93  0.001055668    1.846    0.458
       226  -9.7953     53.9124     60.9711   8.2312089967e+01   5.9566587905e+01    0.2662715    0.2397956 -82.36 0.0004629373    1.476    0.322
       227 -10.2457     53.0577     54.1675   8.0245093661e+01   6.1051309674e+01    0.4389371    0.2900055 -25.81  0.002196875    1.592    0.372
       228  -9.9508    171.1843     58.8499   4.8603864851e+01   3.4715171707e+01    0.3122505    0.2263565 -49.61 0.0009194013    1.341    0.254
       229 -10.6159    167.5405     57.6923   4.8884994136e+01   3.5731472962e+01    0.4787338    0.2572746 -32.49  0.001559218    1.934    0.483
       230  -9.6246    160.4623     60.9882   5.1019925848e+01   3.6889331104e+01    0.2257503     0.185698  68.73  0.001234022    1.203    0.169
       231  -9.4840    151.1314     60.8805   5.2730831780e+01   3.9102247659e+01     0.256784    0.2076721  45.74 0.0008204789    1.283    0.220
       232  -8.8545    114.8365     61.0785   6.1091316690e+01   4.7581788698e+01    0.2232794    0.1956104 -80.60 0.0009153949    1.328    0.247
       233 -10.1095     71.2911     60.0581   7.4849437786e+01   5.6845928906e+01    0.4142858    0.2316637  38.12  0.001393209    1.749    0.428
       234  -9.9088     40.4510     59.0466   8.7759414934e+01   6.1835051687e+01     0.243985    0.2176039 -29.68 0.0004003211    1.076    0.070
       235  -9.6204    198.9535     58.1555   4.4418499925e+01   2.8599937285e+01    0.2096888    0.1697022 -47.77  0.000303219    1.129    0.115
       236  -9.5395     65.1282     56.6867   7.6058743169e+01   5.8583863186e+01    0.2556586    0.2311861  19.75 0.0005477036    1.072    0.067
       237  -8.6649     68.0000     54.9967   7.4283374998e+01   5.8392156740e+01    0.1840733    0.1728608 -66.08 0.0004903068    1.317    0.241
       238  -8.5562    218.3189     56.6615   4.1769873900e+01   2.4766113732e+01    0.1362297   0.08180867 -62.31 0.0004787314    1.709    0.415
       239  -8.2053    214.0429     56.7598   4.2268756653e+01   2.5621900244e+01    0.1493365    0.1041095  72.75 0.0003099398    1.518    0.341
       240  -9.8861    131.7687     44.0508   5.1466315580e+01   4.6204788404e+01    0.5796973    0.2530304  56.38  0.002369678    2.094    0.522
       241  -9.6394    127.4659     39.4847   5.0874584735e+01   4.7857237550e+01     0.483376    0.2995626  18.48  0.002047871    2.597    0.615
       242 -10.6451    119.1277     52.4786   5.7122199359e+01   4.7976595887e+01     1.073658    0.6986891  16.43   0.00322506    2.364    0.577
       243 -10.3808    131.0054     34.7544   4.8595659449e+01   4.7613538677e+01      0.48794     0.316265 -40.18  0.001126498    1.624    0.384
       244 -10.3346    127.6312     48.1581   5.3693588840e+01   4.6612982153e+01    0.2800086     0.236965 -36.47 0.0001833269    1.245    0.197
       245 -10.2044    125.9829     45.2379   5.3100808388e+01   4.7424490300e+01    0.3881774    0.2201012  61.77   0.00175447    1.726    0.421
       246  -9.6227     98.8556     54.9748   6.3541916927e+01   5.2186405656e+01    0.3111912    0.2422237  67.80 0.0003439304    1.512    0.339
       247  -9.9494     88.9512     49.1452   6.4523338513e+01   5.5280919765e+01    0.4124459    0.3548247  -6.29  0.002306922    1.214    0.177
       248  -9.7416     93.4848     54.5571   6.5054931015e+01   5.3419801293e+01    0.3949383     0.257721  34.77 0.0007971884    1.562    0.360
       249 -10.8129     92.9468     51.0112   6.3935188298e+01   5.4123578984e+01    0.3965271    0.2609683  27.38  0.000306506    1.732    0.423
       250  -9.1959     60.7873     54.2237   7.6932524934e+01   5.9792826833e+01    0.5120496    0.2654278 -22.90   0.00194417    2.925    0.658
       251  -9.5818     44.8310     54.8748   8.4250420299e+01   6.2114332458e+01    0.3592894    0.2424154  28.90  0.001601992    1.478    0.324
       252  -9.1067     79.8458     54.4320   6.9608896560e+01   5.6254382591e+01    0.2624319    0.2253167 -77.30  0.001405749    1.576    0.365
       253  -9.4427    191.7359     53.4471   4.4201292919e+01   3.0836777943e+01    0.2533101    0.2120401  46.79 0.0009885073    1.390    0.281
       254 -10.1025    147.3167     53.1118   5.1174109009e+01   4.1183520432e+01    0.6601894    0.3367398  80.60  0.002310161    3.383    0.704
       255 -10.1239    174.5393     50.8187   4.5925750744e+01   3.5093868224e+01    0.2736108    0.2363953 -28.55 0.0005548708    1.271    0.213
       256  -9.0191    160.3199     50.6810   4.8133068181e+01   3.8440921693e+01    0.2240019    0.1675579  89.27  0.001034032    1.444    0.307
       257  -8.9232    165.8224     51.8616   4.7558842647e+01   3.6977296239e+01    0.2316707    0.1559625 -66.36   0.00113877    1.678    0.404
       258  -9.6854    163.8596     46.9654   4.6508836657e+01   3.8120937572e+01    0.3390028    0.2748873   8.46  0.001640955    1.648    0.393
       259  -8.8646     83.3321     51.2588   6.7199277135e+01   5.6101164759e+01    0.2442087    0.1885689 -47.06  0.001277302    1.453    0.312
       260  -9.4005     72.3951     51.2979   7.1180399932e+01   5.8248106709e+01     0.331593    0.2296991 -26.86  0.001669885    1.519    0.342
       261 -10.4965    154.1019     48.2658   4.8501632774e+01   4.0258033328e+01    0.4293014    0.3170245 -79.69 0.0008362492    1.527    0.345
       262  -8.8665    106.8487     52.8345   6.0468813727e+01   5.0752644898e+01    0.2152024    0.1821121  31.94 0.0003604551    1.178    0.151
       263  -8.8861    181.9424     49.0612   4.4404578802e+01   3.3638351236e+01    0.2085631      0.16307  27.44  0.001138204    1.728    0.421
       264  -9.2772     68.2686     48.4282   7.1669161315e+01   5.9521077304e+01    0.2458307    0.2351021  48.76  0.000629879    1.227    0.185
       265 -12.5003     62.0626     44.2982   7.2534007456e+01   6.1357133750e+01    0.4629897     0.281485  36.85 0.0005166389    1.568    0.362
       266 -10.7395     79.9977     43.3910   6.5328959767e+01   5.8065872178e+01     0.546604    0.3932202 -27.11  0.002869085    1.462    0.316
       267  -9.4799    234.8264     47.0222   3.8038235361e+01   2.2803616401e+01    0.1781724    0.1500179 -70.37 0.0003091928    1.097    0.088
       268  -9.5754    202.4788     46.5993   4.1217496157e+01   2.9420594732e+01    0.2201134    0.2037055  76.44   0.00060113    1.181    0.153
       269 -10.1429    114.7629     46.3846   5.6135433528e+01   4.9913997982e+01    0.2868287    0.2271085 -16.69 0.0008764121    1.434    0.303
       270  -9.5177    112.9566     41.2258   5.4783343786e+01   5.1073067182e+01    0.2114861    0.1981083 -21.51 0.0002401308    1.145    0.126
       271  -8.4539    145.6621     46.1583   4.9392555580e+01   4.2572364126e+01    0.1933563    0.1639478  84.16 0.0004173038    1.177    0.150
       272 -10.7215     93.3019     44.2627   6.1313005924e+01   5.5108362351e+01    0.4988399    0.3194463 -65.66 0.0005721956    2.700    0.630
       273  -9.1177     98.4937     44.0000   5.9666100809e+01   5.3997597266e+01    0.3528385    0.1465248  55.49  0.001345511    2.422    0.587
       274  -9.7544    244.4167     44.0014   3.6597189654e+01   2.1393602350e+01    0.2490008     0.183404  62.77  0.001678323    1.606    0.377
       275  -8.8630    187.6590     44.2827   4.2427757523e+01   3.2984654295e+01    0.2282175    0.1670913  86.43 0.0009559789    1.370    0.270
       276  -8.3777    184.3235     43.6686   4.2697172640e+01   3.3818207116e+01    0.2546664    0.1377138 -64.60 0.0008364372    2.214    0.548
       277  -9.3798    177.8392     43.8839   4.3614408214e+01   3.5272023132e+01    0.3140425     0.156454  79.69  0.001328498    2.456    0.593
       278 -11.8167    104.2013     39.2453   5.6318570276e+01   5.3383753887e+01    0.4920363    0.4295651 -66.18 0.0006805782    1.340    0.254
       279 -10.5021    116.3818     33.9402   5.1404666321e+01   5.1229140751e+01    0.5610075    0.3010278  33.10 0.0008006176    2.449    0.592
       280  -9.2892    142.8357     42.5436   4.8812384600e+01   4.3745324628e+01    0.3510637    0.2012503  39.20  0.001557679    2.101    0.524
       281  -8.6040     76.2944     44.6942   6.7161901398e+01   5.8605683889e+01     0.198348    0.1212332  36.66  0.000414295    1.571    0.363
       282  -9.5986     35.1202     41.2756   8.3866603522e+01   6.6045716852e+01    0.3846346    0.2295715   7.06  0.001319399    1.956    0.489
       283 -10.9035     40.9104     38.7791   7.9895362364e+01   6.5717535838e+01    0.3987994    0.2361536  -2.88 0.0009150107    2.316    0.568
       284 -10.6713    228.4438     39.1272   3.6935042072e+01   2.5030286598e+01      0.44038    0.2336238 -33.53  0.001738714    1.799    0.444
       285  -8.9051    191.2202     41.8512   4.1379947258e+01   3.2503501705e+01    0.2050038    0.1511492 -63.98 0.0008742545    1.284    0.221
       286  -9.6544    221.7103     40.6454   3.7871145925e+01   2.6180263741e+01    0.2896461    0.2095885  63.34  0.001808186    1.525    0.344
       287  -9.7444    158.1084     39.6383   4.5336443842e+01   4.0459233670e+01    0.2943319    0.2626787 -72.22 0.0009702771    1.079    0.073
       288  -8.6794    196.9870     40.2517   4.0316298312e+01   3.1433188048e+01    0.1734761    0.1439643  -4.46  0.001036291    1.632    0.387
       289  -8.9750    164.9415     37.4420   4.3682819544e+01   3.9114738847e+01     0.435816    0.2594381 -62.94  0.002085685    1.911    0.477
       290  -9.0644    120.7065     38.4730   5.2002740819e+01   4.9610820592e+01    0.3134448    0.1631276 -49.52  0.001327472    2.320    0.569
       291  -9.0817    128.6366    240.5093   9.6447821050e+01   7.3926251978e+00      0.28574    0.0967145  36.35  0.001191219    2.429    0.588
       292  -9.3416    208.0706     37.1952   3.8413641003e+01   2.9427067120e+01    0.2461466    0.1929019  -1.05  0.001276568    1.889    0.471
       293  -9.2574    208.9937     32.6665   3.7281630020e+01   2.9782821749e+01    0.2368979    0.2003373 -44.89 0.0008902699    1.185    0.156
       294  -9.5534    186.2159     36.5768   4.0654516848e+01   3.4293221527e+01    0.3346025    0.1615982 -49.23  0.001570672    1.987    0.497
       295 -10.8428    178.4315     36.8566   4.1687946453e+01   3.6035920980e+01    0.4477649    0.3167778 -76.95   0.00133355    1.446    0.308
       296  -9.0549    179.3020     32.0898   4.0333050842e+01   3.6417389335e+01    0.1813598     0.172689  86.56 0.0005169444    1.137    0.120
       297  -9.9002    136.7850     37.7058   4.8433440971e+01   4.5841802145e+01    0.2926596    0.2228057  50.70  0.000346337    1.274    0.215
       298 -10.2584    141.9059     33.2715   4.6109029874e+01   4.5157983911e+01    0.4087431    0.3021214  17.27  0.001149764    1.822    0.451
       299  -9.6285    146.0263     29.0223   4.4112094080e+01   4.4666859760e+01     0.250104     0.175818  66.23 0.0004476833    1.301    0.232
       300 -10.3606     87.6642     32.9354   5.8632503303e+01   5.7962886230e+01    0.3794044    0.2927044   2.34  0.001972198    1.467    0.318
       301  -9.9808     73.3588     36.8727   6.5060245883e+01   6.0408401196e+01    0.3500904    0.2716747  49.54 0.0008026278    1.314    0.239
       302  -9.1104     66.6182     34.1573   6.6456173442e+01   6.2135153532e+01    0.3879177    0.1781532 -29.36  0.001644744    2.444    0.591
       303  -8.6168     74.8547     23.1083   5.8622915317e+01   6.1972956756e+01    0.1771395    0.1580231  13.10 0.0003674543    1.088    0.081
       304 -10.7695     79.0377     32.9291   6.1416871968e+01   5.9812860109e+01    0.5381023    0.4076843  31.21   0.00164781    1.244    0.196
       305 -10.0904     71.6504     30.0700   6.2794129338e+01   6.1728202346e+01    0.5306623    0.2794519  40.26  0.002497341    1.751    0.429
       306  -9.2345     74.9400     26.9605   6.0279972735e+01   6.1469425365e+01    0.3016027    0.2586581 -61.28 0.0009719928    1.542    0.351
       307  -9.2088    238.3700     37.1653   3.5696221650e+01   2.3359518729e+01     0.179055    0.1488629  76.86 0.0008290469    1.334    0.250
       308  -9.4298     96.0273     35.6294   5.7214163223e+01   5.5741270523e+01     0.427022    0.2293234  64.73  0.001819475    2.216    0.549
       309  -9.8738    248.9886     35.3041   3.4514737625e+01   2.1622398376e+01    0.2679613    0.1591036  69.15  0.001694422    1.858    0.462
       310  -9.9418    248.0278     30.8418   3.3708165658e+01   2.2322892278e+01    0.2384691    0.1708975 -33.08  0.001621645    1.448    0.310
       311  -8.4263     55.6644     29.7203   6.8995565525e+01   6.4823913681e+01    0.2005434     0.129561 -26.68  0.000595614    1.593    0.372
       312  -9.1854     51.9988     28.9839   7.0278692229e+01   6.5576286196e+01    0.1903585    0.1632887   7.69  0.001176236    1.019    0.019
       313 -10.7827     56.3727     35.1830   7.1120343744e+01   6.3860737161e+01    0.3500136    0.2775736 -59.30  0.001468968    1.809    0.447
       314 -10.5229     49.4843     33.4321   7.3442250389e+01   6.5307992024e+01    0.5091314    0.2415726  30.85  0.001226903    2.142    0.533
       315  -9.4061    223.6006     34.3794   3.6336987583e+01   2.6570161462e+01    0.2092669    0.1922863 -66.80 0.0009827899    1.173    0.147
       316  -8.6935     61.4121     34.2570   6.8585142113e+01   6.3099837488e+01    0.1742922    0.1260993 -42.65 0.0006524486    1.577    0.366
       317  -8.6266    247.0033    239.2320   7.3384064703e+01  -7.0873430128e+00    0.1384137   0.07641785  22.77 0.0002912129    1.666    0.400
       318  -8.9861    221.4621    237.4762   7.7452704112e+01  -4.0927075940e+00    0.1180837   0.08736371  -1.98 0.0002110843    1.018    0.018
       319  -8.6220    139.8677    236.8424   9.3534198215e+01   6.4959717698e+00    0.1665706    0.1355774  42.06 0.0004019029    1.297    0.229
       320 -10.1575     24.7940     30.2027   8.4871008908e+01   6.9320713446e+01    0.4576758    0.4038247 -70.31  0.002919739    1.700    0.412
       321  -9.5791     34.3967     31.3028   8.0016932220e+01   6.7925208005e+01    0.2865067    0.2095443  40.86   0.00165799    1.611    0.379
       322 -10.0583     31.6029     27.9134   7.9990033248e+01   6.8871608790e+01    0.4831352    0.3051215 -24.03  0.002028837    1.551    0.355
       323  -9.9643     36.9654     26.8402   7.6601574634e+01   6.8301266799e+01    0.3477039    0.2180154 -21.95  0.001137283    1.628    0.386
       324  -9.4924    100.8530     26.3005   5.2319013694e+01   5.5817246758e+01    0.3556877    0.1593589  57.78  0.001124733    2.012    0.503
       325  -8.9379    222.0090    233.4755   7.6724636666e+01  -3.6154226669e+00    0.1666924   0.09756667  23.77 0.0005362491    1.542    0.352
       326  -9.1400     32.0234    232.5188   1.1708397634e+02   2.0883227105e+01    0.1773327    0.1423344  78.56 0.0004829849    1.177    0.150
       327  -9.1820    160.0058     31.7546   4.2792421868e+01   4.0984557878e+01    0.4388666    0.1456985  56.26   0.00169748    2.720    0.632
       328  -9.0685    160.9212     27.2054   4.1371414270e+01   4.1297459590e+01    0.2916231    0.2032689  -2.18  0.001502859    2.084    0.520
       329  -9.5525    154.3435     31.9021   4.3673048168e+01   4.2322109327e+01    0.3024601     0.201539  62.54  0.001602575    1.393    0.282
       330  -9.4640     42.8698     30.8352   7.5443957697e+01   6.6777189984e+01    0.3690802    0.2046161 -54.62  0.001637153    2.885    0.653
       331 -10.3513    234.2191     30.1996   3.4589125088e+01   2.4981329965e+01    0.3156467    0.2032393  57.84 0.0009956935    1.863    0.463
       332  -9.2121    134.3796     28.4953   4.5924512063e+01   4.7550937671e+01    0.2995742    0.1695208 -20.23  0.001271603    2.175    0.540
       333  -9.3423     93.7953     30.1710   5.5720624882e+01   5.6960248174e+01    0.3203289    0.1490734  48.14 0.0007750455    1.909    0.476
       334  -9.2866    189.6462     28.9204   3.8345445957e+01   3.4441535687e+01    0.2539041    0.1574038  56.47 0.0007942053    1.707    0.414
       335  -9.7356    222.5736     26.5766   3.4739760349e+01   2.7695281761e+01    0.2592518    0.2340975  17.69  0.001466338    1.596    0.373
       336  -8.3016    115.9374     28.1182   4.9445133222e+01   5.2045321183e+01    0.1851831    0.1453073  35.23 -0.0006383859    1.326    0.246
       337  -9.0037    241.5341     25.9508   3.3193610124e+01   2.4084823991e+01    0.1723382    0.1330133 -81.81 0.0007771656    1.209    0.173
       338 -10.2783    187.4070    231.0970   8.2826400029e+01   1.0057239416e+00    0.3159387    0.1962664   6.81  0.001763863    1.622    0.383
       339  -8.8561    162.2310    225.1178   8.7046719525e+01   5.3945062712e+00    0.3097866    0.2277232 -83.49  0.001531334    2.901    0.655
       340  -9.0266    223.8621    225.0987   7.5046286270e+01  -2.6778725706e+00    0.1662428    0.1373326  -1.17 0.0005573358    1.181    0.154
       341  -8.7046    131.9826    225.0684   9.3649207569e+01   9.7059148905e+00    0.1557688    0.1422512  11.72 0.0007330525    1.072    0.067
       342  -8.9527    196.5961    222.2208   7.9613952129e+01   1.1646814029e+00    0.1774679    0.1013254 -26.61 0.0009520215    1.724    0.420
       343  -9.3148     88.9189    220.8832   1.0306601958e+02   1.6546591456e+01    0.2046053    0.1941626 -56.96 0.0007637082    1.189    0.159
       344 -10.5055     62.3414     22.5651   6.2933662317e+01   6.4573098616e+01    0.5677032    0.2996483  34.68   0.00189416    1.830    0.454
       345  -8.5605      2.6349    212.2984   1.2241486455e+02   2.7858024753e+01    0.1316976   0.06466726  56.03 0.0007032934    1.724    0.420
       346 -11.1349      2.1276     25.2209   9.7012475467e+01   7.2278952250e+01     0.232283    0.1619603 -37.78 0.0003774279    1.174    0.148
       347  -8.8492    242.3367    209.8135   6.9343487001e+01  -2.7221966939e+00    0.1686523    0.1275164 -33.41 0.0006591668    1.424    0.298
       348  -8.7777    230.9100    209.4787   7.1199971533e+01  -1.3093757320e+00    0.1637997    0.1044887  22.18 0.0004800196    1.513    0.339
       349  -8.5796    123.9008    206.0988   9.2750403920e+01   1.4585929258e+01    0.1781363    0.1496297  -5.59            0    1.263    0.208
       350  -9.3304     35.0702    200.8063   1.1411835995e+02   2.7458601969e+01    0.2764085    0.1295114  71.63   0.00118232    2.583    0.613
       351 -11.1371    173.4276     23.0720   3.8657880529e+01   3.8814013085e+01    0.5121863    0.3126525  84.93 0.0007031613    1.620    0.383
       352  -9.9543    177.0103     21.4829   3.7832114381e+01   3.8157336472e+01    0.2114064    0.1585073 -79.32 2.983949e-05    1.241    0.194
       353  -7.9860    120.2928    199.6629   9.2629559862e+01   1.6467950773e+01    0.1389357    0.1067022  65.24 0.0004232748    1.645    0.392
       354  -9.7557    232.5453     23.6318   3.3359988139e+01   2.6059921877e+01    0.3472929    0.2358648 -73.93  0.002020195    1.316    0.240
       355  -9.1109    225.7798     15.8851   3.2231840436e+01   2.8241877619e+01    0.2037192    0.1403349 -47.66  0.001347424    1.241    0.194
       356  -9.1802      6.4187    194.8050   1.2066568595e+02   3.1457753831e+01    0.2260201    0.1586506 -54.44  0.001212571    1.623    0.384
       357  -8.8479    241.8324    193.8172   6.6639889093e+01  -3.8567479154e-01    0.1461066    0.1278715 -18.30 0.0003238468    1.288    0.224
       358  -8.5320     55.4136    181.2662   1.0690883148e+02   2.9831606460e+01      0.18377    0.1272968 -87.50 0.0005473372    1.531    0.347
       359 -10.6522    101.0051    176.0022   9.3739258670e+01   2.4740859427e+01    0.2045541    0.1967031  33.90            0    1.003    0.003
       360 -10.5385    153.6575     22.9616   4.1154415733e+01   4.3508300339e+01    0.2347593    0.2127756  73.60  0.000313666    1.071    0.066
       361  -9.8006     18.4683    174.2995   1.1623096793e+02   3.5338940718e+01    0.2544346    0.2077259 -34.06 0.0007896206    1.491    0.329
       362 -10.3446     10.7733    158.2293   1.1705042806e+02   3.9936064586e+01     0.290166    0.1881575  77.34  0.001565862    1.480    0.324
       363  -8.9275     50.2832     23.5195   6.8483804536e+01   6.6667676618e+01    0.2534687    0.1460572 -17.91  0.001240446    2.027    0.507
       364 -10.1214    246.2330     22.8902   3.2274646169e+01   2.3560535732e+01    0.2717621    0.1671616  52.16  0.001681069    2.250    0.555
       365  -8.6396    124.9057     23.4911   4.6013197594e+01   5.0411204938e+01    0.1967852    0.1208005  62.85 0.0003000959    1.456    0.313
       366  -8.8491     80.1607     22.6397   5.6686128310e+01   6.0898643975e+01    0.2135077    0.1780189 -38.82  0.001266177    1.383    0.277
       367  -8.5857    188.6010     22.2816   3.6808853460e+01   3.5429673312e+01     0.158143    0.1204562 -23.44 0.0009476239    1.557    0.358
       368  -9.1301    139.4008     20.6959   4.2588164844e+01   4.7195232493e+01    0.2917323    0.2127738  10.31  0.001562938    1.863    0.463
       369 -10.8004      7.2160    166.3203   1.1866080368e+02   3.8185680092e+01    0.3066983    0.2634471 -41.50 0.0008856102    1.358    0.264
       370 -10.5604     15.0145    165.4780   1.1645448872e+02   3.7801267959e+01      0.31978    0.2095629 -26.95  0.001662411    2.042    0.510
       371 -10.3741     11.8570    163.8461   1.1719902319e+02   3.8453014086e+01    0.2628358    0.2117984  83.11 0.0003727169    1.101    0.092
       372  -9.5684    199.8102     18.5993   3.4864103221e+01   3.3355166759e+01    0.2637341     0.212722 -32.59  0.001678877    1.373    0.272
       373  -9.0397    193.2108     20.0328   3.5807897063e+01   3.4647772724e+01     0.166633    0.1527059  77.77 0.0003601236    1.198    0.165
       374 -10.7318     34.5421    149.9688   1.0914942774e+02   4.0009011268e+01    0.5254961    0.2850804 -26.73  0.002149409    2.772    0.639
       375  -9.4133    144.4605     16.5225   4.0531373971e+01   4.6398803960e+01    0.3453114     0.233496  -4.91  0.001700137    2.024    0.506
       376  -9.6270    151.9957     18.0037   3.9927590541e+01   4.4432020665e+01    0.2400994    0.1686749  74.04 0.0003541484    1.282    0.220
       377  -9.5173    148.2594     17.2009   4.0200838808e+01   4.5413297278e+01    0.2669531     0.195283 -74.94 0.0006491772    1.399    0.285
       378 -11.8573     37.4507    159.3516   1.0940658606e+02   3.7311786275e+01    0.7963017    0.3922961  53.18  0.003408721    2.225    0.551
       379  -8.8170    111.8921     15.2141   4.5637487976e+01   5.4402600377e+01    0.1916127    0.1674343  86.47 0.0005564329    1.180    0.152
       380 -12.0021     30.1985    154.2218   1.1097261478e+02   3.9332991858e+01    0.7233248    0.5024152  75.08  0.003350425    1.488    0.328
       381 -10.2718     23.6269    162.7196   1.1378351992e+02   3.7770599412e+01    0.4013989    0.1990351  35.13  0.001898997    1.956    0.489
       382 -10.7120      1.9573    156.0254   1.1937891890e+02   4.1092717312e+01    0.6034141    0.1668759 -77.59  0.002235571    3.107    0.678
       383  -9.3570    249.1610    153.8290   5.8112407101e+01   4.6389530463e+00    0.1727232    0.1239772 -15.39 0.0006523004    1.328    0.247
       384  -8.7202     85.2269     14.4057   5.1640639926e+01   6.0689060338e+01    0.1790999    0.1186531  68.61 0.0004837288    1.623    0.384
       385  -9.0575     45.9273    151.4916   1.0584721769e+02   3.8420882912e+01    0.2081657    0.1768669 -70.58 0.0003192247    1.115    0.103
       386  -9.1594      9.2156    147.5971   1.1660079287e+02   4.2728754408e+01    0.2110069     0.127214  -5.81 0.0007638311    2.243    0.554
       387 -10.6449     22.3362    140.0090   1.1177278791e+02   4.3684321051e+01    0.4377796    0.2836019 -31.63  0.001882692    1.842    0.457
       388 -10.4829     19.3862    151.7508   1.1394906147e+02   4.0909323499e+01    0.4003091    0.2242977 -48.12  0.001435543    1.870    0.465
       389 -11.4307     13.7537    150.5487   1.1551351813e+02   4.1653814605e+01    0.5223059    0.3199923  -1.04  0.001428408    2.168    0.539
       390 -10.0157     13.2481    145.0121   1.1514240088e+02   4.3101566181e+01    0.3233339    0.1987413 -72.20 0.0008665053    1.427    0.299
       391 -10.2924     16.1316    142.6278   1.1401440970e+02   4.3498715384e+01    0.3526118    0.1992381 -53.52  0.001056899    1.687    0.407
       392  -9.9595      4.0161    146.3291   1.1804432412e+02   4.3392171677e+01    0.2813026    0.1954712  65.30  0.001139459    1.412    0.292
       393  -8.7843     79.9994    145.0269   9.4259952216e+01   3.5578123725e+01    0.2195963     0.210123 -44.92 0.0004268387    1.048    0.046
       394 -10.5946      9.0655    131.8834   1.1515216424e+02   4.6750521105e+01    0.4849276    0.2059308 -51.30  0.002126175    2.199    0.545
       395  -9.5022    101.7955     70.3247   6.7889520534e+01   4.8822330965e+01     0.294859    0.2547444  44.77  0.001562745    1.137    0.120
       396  -9.2262     12.8203    126.7981   1.1335731112e+02   4.7809994322e+01    0.1939948    0.1563252 -76.04 0.0004970529    1.097    0.089
       397  -9.7038      1.8601    139.7417   1.1815324552e+02   4.5188487192e+01    0.3746169    0.1702044  76.25  0.001603941    2.469    0.595
       398 -10.8314      2.0648    132.4583   1.1745978929e+02   4.7025331397e+01    0.5580994     0.254061 -78.23   0.00191138    1.911    0.477
       399 -10.3692     41.3194    138.7647   1.0548407157e+02   4.2220036152e+01    0.3204676    0.2389712  47.94  0.001054748    1.398    0.285
       400  -9.1844    230.9350    137.0108   5.7495412203e+01   1.0021033307e+01    0.2001141    0.1671877 -25.45 0.0006877934    1.044    0.042
       401 -10.0811     34.3414    136.4028   1.0742458070e+02   4.3544185067e+01    0.4349075    0.2236659 -39.98  0.001844145    2.238    0.553
       402  -9.7650     14.9603    136.2725   1.1371179298e+02   4.5219203131e+01     0.257824    0.2070719 -87.37 0.0008270882    1.143    0.125
       403  -8.6862    248.6652    134.1846   5.4371156300e+01   7.7213030079e+00    0.1776069   0.09448485 -30.69 0.0003909971    1.650    0.394
       404 -10.3893     44.0896    130.7195   1.0331065593e+02   4.4013181025e+01    0.3668502    0.2867705   4.21   0.00134711    1.479    0.324
       405 -10.0254     28.7383    132.1550   1.0869150697e+02   4.5171720093e+01    0.2137734    0.2136127  22.60 0.0003285996    1.105    0.095
       406 -10.0592     20.8955    131.1713   1.1117871161e+02   4.6087525925e+01    0.3026038     0.228595 -88.56  0.000519764    1.280    0.219
       407  -9.5031     17.6525    128.1579   1.1189238982e+02   4.7115941066e+01    0.4563494    0.1449658 -52.53  0.001713975    2.749    0.636
       408 -10.1722     61.6310    130.8489   9.7441981627e+01   4.1834102986e+01    0.2842103    0.2667442 -52.06 0.0004546995    1.033    0.032
       409 -11.6856     88.5817    128.0768   8.8103822787e+01   3.8446751373e+01    0.2898259    0.2719479  45.15 0.0002849852    1.092    0.084
       410 -10.7907     34.5137    126.3259   1.0588010942e+02   4.6149567090e+01     0.505503    0.2447777 -52.01  0.001867452    1.892    0.472
       411  -8.9582     59.4982    124.9676   9.7026153327e+01   4.3630736266e+01    0.2267723     0.141456 -62.41 0.0009266249    1.554    0.357
       412  -9.4960     55.9529    125.4666   9.8336109105e+01   4.3963829478e+01    0.2729248    0.2201507  -3.50 0.0009159935    1.427    0.299
       413 -10.9036      7.6371    123.3208   1.1471856602e+02   4.9035522782e+01    0.3395376     0.247819 -48.64  0.001479007    1.324    0.245
       414  -8.3949    131.0132    122.9972   7.4555796942e+01   3.1669690968e+01    0.1784469    0.1739432 -16.50            0    1.003    0.003
       415  -9.5936    236.6328    121.7163   5.3525064782e+01   1.1554972615e+01    0.2135824    0.1572301  31.22  0.001085006    1.668    0.400
       416  -7.9982     77.7188    122.2596   9.0313957430e+01   4.1666174554e+01    0.1449125    0.1167568  68.38 0.0006865436    1.477    0.323
       417  -9.6039     12.8881    107.9669   1.1092925855e+02   5.2641806444e+01     0.636692    0.2610973  88.71  0.002185293    3.725    0.732
       418  -9.8063     28.0017    115.9497   1.0655259999e+02   4.9441531346e+01    0.2636068    0.1799604 -58.75  0.001363352    1.301    0.231
       419  -9.7792    233.5157     18.5020   3.2242103220e+01   2.6442100563e+01    0.2260318    0.1592927 -69.10 0.0008377794    1.188    0.159
       420 -11.9451     21.1401    119.5048   1.0955048115e+02   4.9089149491e+01    0.9992086    0.4415766  43.72  0.004190502    2.528    0.604
