#   1 NUMBER                 Running object number                                     
#   2 MAG_AUTO               Kron-like elliptical aperture magnitude                    [mag]
#   3 X_IMAGE                Object position along x                                    [pixel]
#   4 Y_IMAGE                Object position along y                                    [pixel]
#   5 X_WORLD                Barycenter position along world x axis                     [deg]
#   6 Y_WORLD                Barycenter position along world y axis                     [deg]
#   7 A_WORLD                Profile RMS along major axis (world units)                 [deg]
#   8 B_WORLD                Profile RMS along minor axis (world units)                 [deg]
#   9 THETA_WORLD            Position angle (CCW/world-x)                               [deg]
#  10 FWHM_WORLD             FWHM assuming a gaussian core                              [deg]
#  11 ELONGATION             A_IMAGE/B_IMAGE                                           
#  12 ELLIPTICITY            1 - B_IMAGE/A_IMAGE                                       
         1 -14.3939     68.4571    144.1258   1.1131591161e+02   3.7412418853e+01     4.554392     2.047268  70.26  0.003382255    4.493    0.777
         2 -14.3460    200.8842     31.5781   5.0298622958e+01   3.0820731560e+01     2.358548     1.572445  23.65  0.009657104    2.027    0.507
         3 -12.4377    209.4153     23.0783   4.6803968859e+01   2.9653634686e+01    0.5038588    0.4149791  42.32  0.001043456    1.372    0.271
         4 -14.1820    215.6955     15.6149   4.4047606727e+01   2.8905973870e+01     1.426732     1.055824  33.50   0.00302824    1.676    0.403
         5 -12.6472      2.0700     22.9086   1.0921273526e+02   7.1722499547e+01     0.834766    0.3177455 -64.56  0.003881517    2.340    0.573
         6 -13.4650      3.7454      6.4750   1.0142984256e+02   7.4807330774e+01     1.270453    0.8468603 -25.41  0.008696607    1.301    0.231
         7 -10.9478    189.4981     15.3521   4.6718360243e+01   3.5662636433e+01    0.2556427    0.2357167 -47.00  0.000802134    1.065    0.061
         8 -10.0673    174.2618    250.1003   1.0374383122e+02   1.9927111424e+00    0.2061635    0.1191995  55.27  0.001222427    2.083    0.520
         9 -12.5721     92.4062    234.9520   1.1642943717e+02   1.6017749309e+01    0.6081945    0.3084246 -75.51 0.0007975018    2.460    0.594
        10 -14.8583     64.3355    242.8362   1.2188572342e+02   1.8393541801e+01     3.244365    0.9716519  35.37   0.01468272    3.542    0.718
        11 -16.4431     50.2068    200.3202   1.2142811332e+02   2.7659177914e+01     11.18462     3.032976  53.79   0.04608627    3.399    0.706
        12  -9.2272    167.3019    188.6090   9.6238240501e+01   1.1813018790e+01    0.1295237     0.101767  79.99 0.0007011634    1.803    0.445
        13  -9.1489    226.7103    205.6935   8.8270440296e+01  -6.7322663844e-01    0.1221987   0.07818323  10.82 0.0002301982    1.574    0.365
        14 -12.0714     67.5211    181.1670   1.1614581434e+02   2.9356525448e+01     0.366264    0.2545361 -44.62  0.001905103    2.025    0.506
        15 -11.9106     72.2010    175.6335   1.1451791579e+02   2.9891650921e+01     0.290008    0.2369594 -50.21 0.0006402513    1.539    0.350
        16  -9.5133     99.7708    180.7333   1.0911952807e+02   2.4796985754e+01    0.1789589    0.1645652  58.66 0.0006183318    1.131    0.116
        17 -10.3808    211.1730    179.3425   8.6228821219e+01   5.3976501129e+00     0.254932    0.1642279  -5.51   0.00110904    1.881    0.468
        18  -8.7257    237.7446    207.6512   8.6766412163e+01  -2.5973576540e+00    0.1196674   0.07501107   6.02 0.0006959499    1.596    0.373
        19  -9.4525    166.4341    174.0510   9.3851801053e+01   1.4446225795e+01    0.2939366    0.1894558 -88.02  0.001082955    4.001    0.750
        20 -13.4429     68.6440    161.9485   1.1368305883e+02   3.3341150788e+01    0.5958415    0.4693939 -27.57   0.00113735    1.965    0.491
        21 -16.6158      7.4200    203.7309   1.2962662809e+02   3.1459986107e+01     6.552008      1.83361 -89.52   0.02976468    3.524    0.716
        22 -11.0709    125.1477    173.0754   1.0244387375e+02   2.2142234294e+01    0.3645403    0.1620573  42.90  0.001567563    2.058    0.514
        23 -11.7036    193.3899    194.0326   9.2167893222e+01   6.3787953359e+00    0.7524426    0.4548535 -57.93  0.003579688    2.863    0.651
        24 -10.1182    137.9629    170.7835   9.9266299869e+01   2.0311836742e+01    0.2340496    0.1503685  66.13  0.001090628    1.991    0.498
        25 -10.5092    195.3432    169.1864   8.7199521831e+01   9.8272998796e+00    0.3101098    0.2812315  45.13 0.0009933916    1.207    0.172
        26  -9.7528    145.5447    168.4795   9.7221008335e+01   1.9363702255e+01    0.1373165    0.1270286  50.59 0.0001102503    1.016    0.016
        27 -10.4945     37.2974    167.6477   1.2142055544e+02   3.5861232842e+01    0.2548501    0.1318047  53.95 0.0009369042    1.734    0.423
        28 -11.4264     32.7843    165.1394   1.2220273242e+02   3.6880039013e+01    0.3125227    0.1821902  43.04  0.001230857    1.667    0.400
        29  -8.8461    153.3116    195.2814   1.0009018368e+02   1.3157511930e+01    0.1245414   0.09572463  14.14 0.0003252017    1.568    0.362
        30 -14.5152      2.6430    247.2228   1.3193683649e+02   2.4332764103e+01    0.7648618    0.3184189 -75.89  0.004265515    2.384    0.580
        31 -10.0444    174.7102    148.9837   8.7146046412e+01   1.7335369659e+01    0.2004345    0.1902107 -29.08 0.0006160605    1.091    0.083
        32 -10.7615    134.2734    146.8820   9.5636390649e+01   2.5826025922e+01     0.821064      0.20018 -52.95   0.00221316    5.039    0.802
        33 -11.4680     54.9151    147.6808   1.1518752647e+02   3.8331118869e+01    0.3565784     0.269563 -78.99   0.00216346    1.156    0.135
        34 -11.0380     38.9391    146.2436   1.1895536961e+02   4.0476224725e+01    0.3073161      0.19783  50.73 0.0008881032    1.510    0.338
        35 -10.2112    100.7263    143.9822   1.0317583198e+02   3.2537004558e+01    0.3053158     0.231384 -54.95 0.0009458493    1.329    0.247
        36  -9.8725    103.3904    140.7763   1.0192133965e+02   3.2808342450e+01    0.3115836     0.217511 -45.08  0.001060153    1.566    0.362
        37 -12.2022     89.2203    142.6704   1.0583008232e+02   3.4707122905e+01    0.2699831    0.2513151 -50.29 0.0004539793    1.227    0.185
        38 -10.1260     84.4975    143.9597   1.0723809817e+02   3.5141820217e+01    0.2957137    0.1942114  70.75 0.0009831982    1.717    0.417
        39  -9.2935     37.0509    140.5500   1.1879791382e+02   4.1988686410e+01    0.1705773    0.1163984  41.31  0.001015166    1.564    0.361
        40  -9.1993     79.4416    139.5053   1.0779231524e+02   3.6930345128e+01    0.1385761    0.1206316  88.71 5.704381e-05    1.033    0.032
        41 -10.1247    111.2697    131.8548   9.8162282310e+01   3.3431614656e+01    0.3009636    0.2480682  14.42 0.0008347689    1.564    0.361
        42 -10.0883    105.9995    130.6536   9.9266925181e+01   3.4653529686e+01    0.3221657    0.2754932 -87.30   0.00133802    1.188    0.158
        43 -10.1702    160.4978    127.9947   8.5446659998e+01   2.4335775770e+01    0.2251305    0.1444785 -50.96 0.0009862162    1.667    0.400
        44 -11.2749    135.3031    122.5987   9.0052989494e+01   3.0794486791e+01     0.666619    0.1379294 -49.41  0.001603342    5.408    0.815
        45 -11.3383     44.5311    129.6919   1.1551438735e+02   4.3748085186e+01    0.3432317    0.2180287  23.50  0.001847978    2.059    0.514
        46 -11.0644     98.2096    128.3018   1.0082262168e+02   3.6552179921e+01    0.3296145    0.2756636  35.14 0.0009215334    1.323    0.244
        47 -10.1002    126.1728    127.6189   9.3479599312e+01   3.1546209998e+01    0.3498763    0.2222521 -78.80  0.001162887    2.504    0.601
        48 -10.6274    117.1012    126.2873   9.5473042827e+01   3.3599864290e+01    0.2922042    0.2168017 -61.72  0.001100202    1.369    0.269
        49 -14.2374      8.0275    250.0908   1.3121554488e+02   2.3370378241e+01    0.5412562    0.3126281  35.18  0.002928911    1.970    0.492
        50  -9.8050    107.7676    120.1735   9.6541163161e+01   3.6734370813e+01    0.2070424    0.1867498 -83.29 0.0003374111    1.098    0.089
        51 -11.4478     23.9836    116.7624   1.1950209832e+02   4.8820037488e+01    0.3147722    0.1374058 -67.83  0.001548553    1.806    0.446
        52 -11.7313     81.0556    165.6212   1.1127977487e+02   3.0798684872e+01    0.3279314    0.2881089  73.47 0.0004057968    1.044    0.042
        53 -10.1597    167.9281    112.7423   7.9991557691e+01   2.5696441746e+01    0.4001155    0.2746665 -66.93  0.001434722    2.046    0.511
        54 -11.3564     66.9748    128.9630   1.0933714917e+02   4.1179542616e+01    0.3331302    0.2088437  89.84  0.001462783    1.811    0.448
        55 -11.1850    118.9358    109.2531   9.0940509751e+01   3.7066370223e+01     0.537829     0.360032  72.04  0.002252802    2.115    0.527
        56  -9.9688    205.4293    110.1494   7.1843078837e+01   1.7647965844e+01    0.3156364      0.21049  39.55 0.0009472802    1.578    0.366
        57 -10.0059     18.1480    110.1934   1.2037432788e+02   5.0851666810e+01    0.1742506     0.123404  76.81 0.0006770308    1.340    0.254
        58 -10.9551     45.4253    105.7332   1.1156345761e+02   4.9412376778e+01    0.2290185    0.1513138  49.29  0.001242129    1.663    0.399
        59  -8.8891     93.6478    104.3148   9.6738000394e+01   4.2941041225e+01    0.1530941    0.1128431  81.93 0.0007046248    1.733    0.423
        60  -9.0831    222.3387    104.3092   6.7438826297e+01   1.4865937624e+01    0.1514574    0.1090282  12.58 0.0006358584    1.685    0.407
        61 -10.3121     21.5066    108.5027   1.1918208992e+02   5.0992012787e+01    0.1266621    0.1001323 -78.49 0.0003243505    1.010    0.010
        62 -10.1301    134.4939    102.5728   8.5131754190e+01   3.5270898370e+01    0.3172721    0.1500005 -44.38 0.0008580623    2.060    0.515
        63  -8.9513    107.9696     92.6996   8.9532747015e+01   4.2949675680e+01    0.2303878     0.116632  63.86 0.0004830714    3.921    0.745
        64  -9.2456     74.9281     84.7246   9.7452131734e+01   5.0591059147e+01    0.1869081      0.17781 -71.99 0.0003511266    1.082    0.076
        65  -9.3789     24.9970     82.3405   1.1400940262e+02   5.6971953101e+01    0.1636001    0.1462847 -69.40 0.0003517754    1.115    0.103
        66  -8.9017    184.3199     77.3336   6.6714343467e+01   2.8288442766e+01    0.1620261    0.1208108  15.28 0.0007049229    1.699    0.411
        67 -12.6967     87.4583    158.7942   1.0882446868e+02   3.1346037316e+01     1.052834    0.7984667 -72.85  0.001327842    1.271    0.213
        68 -10.5129     13.4872     59.8583   1.1383812835e+02   6.3049368830e+01    0.2046435    0.1817804 -64.74 0.0004120563    1.140    0.123
        69 -11.4872    148.1428     52.1850   6.5953179354e+01   4.1683028087e+01    0.5993848     0.377669 -76.36  0.001291853    2.676    0.626
        70 -12.9850    192.4830     38.3729   5.3487423809e+01   3.2128917028e+01    0.8345702    0.6859769  56.11  0.001324091    1.251    0.200
        71 -13.8155     41.8797    209.7301   1.2367966719e+02   2.6824102271e+01    0.7915593    0.5202464 -59.83  0.005321488    1.911    0.477
        72  -8.9322    180.3086    192.6609   9.4396761211e+01   8.8651810841e+00     0.122762    0.1010742  74.46 0.0007043537    1.685    0.407
        73 -10.8798    182.1293    233.4537   1.0026479415e+02   2.8499294541e+00    0.1916089     0.159475 -73.21  0.001095523    1.902    0.474
        74 -11.0668    149.4426     45.4374   6.3298083077e+01   4.2408049385e+01    0.3073163    0.2533132 -70.59 0.0005065473    1.399    0.285
        75 -10.9745     71.6937    229.9561   1.1970448617e+02   1.9594016846e+01    0.2288394    0.1677952  57.28 0.0008036925    1.049    0.047
        76 -11.5811    184.0895    216.1784   9.7450272670e+01   4.8069191156e+00    0.2400005    0.1771179  25.21  0.001535846    1.214    0.176
