#   1 NUMBER                 Running object number                                     
#   2 MAG_AUTO               Kron-like elliptical aperture magnitude                    [mag]
#   3 X_IMAGE                Object position along x                                    [pixel]
#   4 Y_IMAGE                Object position along y                                    [pixel]
#   5 X_WORLD                Barycenter position along world x axis                     [deg]
#   6 Y_WORLD                Barycenter position along world y axis                     [deg]
#   7 A_WORLD                Profile RMS along major axis (world units)                 [deg]
#   8 B_WORLD                Profile RMS along minor axis (world units)                 [deg]
#   9 THETA_WORLD            Position angle (CCW/world-x)                               [deg]
#  10 FWHM_WORLD             FWHM assuming a gaussian core                              [deg]
#  11 ELONGATION             A_IMAGE/B_IMAGE                                           
#  12 ELLIPTICITY            1 - B_IMAGE/A_IMAGE                                       
         1 -15.0088     15.9803     42.5327   1.1552457598e+02   6.5010859232e+01     2.397838    0.8711531 -62.59   0.01175375    2.098    0.523
         2 -15.9396      4.0432     96.7120   1.2805066680e+02   5.4061703706e+01     2.789108    0.5224488 -71.20   0.01127156    3.469    0.712
         3 -14.6738      3.2496     58.5529   1.2351224042e+02   6.2328960447e+01     2.402921    0.3736345 -70.77  0.008152364    4.672    0.786
         4 -15.6232    111.0128     34.8937   7.8737562229e+01   5.2972979880e+01     1.708465     1.086542  29.79  0.007872702    1.810    0.448
         5 -15.2813    126.1267     23.4646   7.0288348300e+01   5.1195767256e+01     1.912664     1.143872  24.52  0.008142035    2.073    0.518
         6 -13.9019    134.6013     20.6965   6.7258587762e+01   4.9492248495e+01     1.329972    0.4313458 -21.02  0.004105933    3.667    0.727
         7 -13.3068    156.4614     11.3956   5.9480689239e+01   4.4946321328e+01    0.5507416    0.3312636  -1.48  0.001777712    1.969    0.492
         8 -11.8630     79.1568     14.3271   7.9676581035e+01   6.2442127626e+01    0.2305043    0.1631697 -17.79  0.000524051    1.323    0.244
         9 -14.9843    207.5422    162.3184   9.1862933125e+01   1.0520019216e+01     1.569236    0.8729671 -15.13  0.007235666    2.512    0.602
        10 -15.0686    200.3402     63.3292   6.9131955278e+01   2.6835201822e+01     2.362866      1.06209  63.96  0.008627992    2.546    0.607
        11 -17.7124    241.8106    127.7964   7.8817524071e+01   8.4234741898e+00     12.72411     1.518739 -30.46   0.03028606    7.539    0.867
        12 -14.5658      8.0181    165.8661   1.3215511738e+02   3.9754628448e+01    0.6792696      0.21768 -78.36  0.003683848    2.551    0.608
        13 -13.3406    174.4294    139.7307   9.3585193744e+01   2.0466397315e+01    0.4359933    0.2912875 -26.60  0.001830715    1.756    0.431
        14 -14.1300     20.6753    164.4439   1.2963461635e+02   3.8939785077e+01    0.5024137     0.168806  50.65  0.002742573    2.457    0.593
        15 -13.3616    185.0258    135.3016   9.0548629720e+01   1.9014706117e+01     0.470318    0.2660226  51.36  0.001536119    1.744    0.427
        16 -13.4674    152.6729    108.2716   9.1071864804e+01   3.0598963762e+01    0.8570215    0.5268168 -74.37  0.003095453    3.336    0.700
        17 -14.7904    160.4529    127.7529   9.3901496937e+01   2.5398892639e+01     0.685856     0.587532  61.54  0.002645739    1.213    0.176
        18 -15.7461    167.1526    114.8771   8.9526979312e+01   2.6274596461e+01     1.157645     1.021253  -2.32  0.001644768    1.228    0.186
        19 -13.9511    134.1651    127.2482   9.9571304308e+01   3.0734916700e+01    0.4735075    0.4365358  83.00  0.002817702    1.102    0.093
        20 -12.4726    135.0720    120.3849   9.7898943009e+01   3.1893103079e+01    0.3630073    0.1981729 -47.44  0.001351622    1.884    0.469
        21 -15.4400    152.6218    119.2955   9.3697873433e+01   2.8559943347e+01     1.004655    0.8241852  50.78  0.005311991    1.184    0.156
        22 -13.2456    134.7184    108.6820   9.5308437715e+01   3.4254904127e+01     1.306144    0.1964902 -46.50  0.002970846    6.954    0.856
        23 -12.1604    112.6605    248.6653   1.1993376908e+02   1.4263132933e+01    0.1975683    0.1550688  25.51  0.001567944    1.755    0.430
        24 -12.8910     61.0152    159.9027   1.2104609761e+02   3.5588335688e+01    0.4150371     0.371989 -33.99 0.0008527231    1.642    0.391
        25 -11.7863     85.4190    219.0446   1.2193177929e+02   2.2074104455e+01    0.1802733    0.1307031 -49.52  0.001302131    2.055    0.513
        26 -11.7069    213.8350    112.6216   7.9952964303e+01   1.6348207447e+01     0.324877    0.2715082  55.34  0.001247095    1.300    0.231
        27 -13.8627    208.7660    113.8807   8.1156735777e+01   1.7272330440e+01    0.7175289    0.4065582  69.62  0.002735792    3.025    0.669
        28 -13.7026    206.6822    109.9070   8.0564131444e+01   1.8332827985e+01    0.8479072    0.4168677  38.80  0.002698759    2.130    0.530
        29 -12.4285    199.0236    102.9984   8.0239025169e+01   2.1125204414e+01    0.4426114    0.2745898  70.39  0.001833153    2.342    0.573
        30 -11.7970    197.8988     98.8874   7.9392944421e+01   2.2028535296e+01    0.2357701    0.1952095  18.10  0.000772884    1.248    0.199
        31 -12.3648    143.1834    102.6998   9.1852603652e+01   3.3670729204e+01    0.2984847    0.2497367  31.88 0.0007408001    1.259    0.206
        32 -13.1748    150.8748     97.8216   8.8826715244e+01   3.2937681260e+01    0.4637977    0.2895011  33.22  0.002020512    1.858    0.462
        33 -11.1725    202.0498     98.5260   7.8536195996e+01   2.1126870584e+01    0.2163297    0.1431474  52.37 0.0004113154    1.521    0.342
        34 -12.4580    168.2578     85.4463   8.1633492214e+01   3.1200304786e+01    0.3201834    0.2642598 -16.14 0.0002789627    1.287    0.223
        35 -14.2248    158.0150     76.5539   8.1279100154e+01   3.5162864239e+01    0.7865657    0.6744009  -1.60  0.003214662    1.271    0.214
        36 -14.6052    163.4106     89.1341   8.3698133777e+01   3.1688862628e+01    0.9132478    0.6054301 -20.22 0.0007891206    1.800    0.445
        37 -12.8022    159.5190     84.5549   8.3265781513e+01   3.3402263251e+01    0.4816158    0.3325701 -49.27  0.001632866    1.564    0.361
        38 -11.2956    206.4070     93.6835   7.6493876901e+01   2.0857858720e+01    0.4844841    0.3356007  48.83  0.002346774    1.429    0.300
        39 -11.6968    134.3717     93.2434   9.1508947460e+01   3.7352953766e+01    0.4145524    0.2418755  41.11  0.001444256    1.784    0.439
        40 -10.4305    212.9599     90.9301   7.4634509024e+01   1.9744512234e+01    0.1700753    0.1577765   1.74 0.0003276753    1.014    0.014
        41 -10.6502    220.3858     89.7119   7.3077270457e+01   1.8203178268e+01    0.2546239    0.1825648 -12.42 0.0008946725    1.448    0.309
        42 -12.4402    147.4391     88.4689   8.7098347112e+01   3.5440162720e+01    0.3278626    0.2754078 -29.59 0.0005047199    1.219    0.180
        43 -11.2869    201.1786     87.2503   7.5714240838e+01   2.3066458736e+01    0.2401364    0.1990557  -2.36 0.0005304259    1.256    0.204
        44  99.0000    206.0936     48.1607   6.3742819855e+01   2.7463856363e+01     9.253688     5.061412  54.70   0.03956899    1.796    0.443
        45 -11.3330    200.3947     73.2270   7.1970102681e+01   2.5374655104e+01     0.322827    0.2532582  88.60  0.001103393    1.640    0.390
        46 -13.6770     23.2285    249.5621   1.3333218739e+02   2.4589291044e+01     0.463546   0.08507729  41.46  0.002537498    3.327    0.699
        47 -12.9543     67.7347    155.1478   1.1909043633e+02   3.5697292849e+01    0.3669358    0.3221812  79.44   0.00173206    1.103    0.093
        48 -14.2087    140.9982    138.8400   1.0038944959e+02   2.7230699306e+01    0.4465689    0.3975738   0.33   0.00242173    1.350    0.259
        49 -12.5616     96.6619    205.2674   1.1874287505e+02   2.2734792884e+01    0.3292138    0.2344044 -21.53  0.001831888    3.395    0.705
        50 -10.5086    190.1913     27.6537   5.9778851176e+01   3.4174714378e+01    0.1481043      0.10127 -44.95 0.0003736431    1.519    0.342
        51 -14.9432    156.4650    143.9996   9.8115838177e+01   2.3317776679e+01    0.9449149    0.5449969  28.71  0.004172954    2.240    0.554
        52 -12.0352    144.4951     19.8870   6.4881946745e+01   4.7105609266e+01     0.355825    0.2249076  13.05  0.001528971    1.968    0.492
        53 -14.1659     72.4513    149.5392   1.1738124367e+02   3.6213613295e+01    0.9339641    0.6160826  85.83  0.003577138    1.539    0.350
        54 -14.5729    134.5358    149.2856   1.0372725597e+02   2.6492554106e+01     1.016007    0.4641895 -42.70   0.00440433    2.580    0.612
        55 -14.2614     37.9650    174.5296   1.2698653147e+02   3.5360136278e+01    0.6716201    0.5483423  62.53  0.004509511    1.191    0.161
