#   1 NUMBER                 Running object number                                     
#   2 MAG_AUTO               Kron-like elliptical aperture magnitude                    [mag]
#   3 X_IMAGE                Object position along x                                    [pixel]
#   4 Y_IMAGE                Object position along y                                    [pixel]
#   5 X_WORLD                Barycenter position along world x axis                     [deg]
#   6 Y_WORLD                Barycenter position along world y axis                     [deg]
#   7 A_WORLD                Profile RMS along major axis (world units)                 [deg]
#   8 B_WORLD                Profile RMS along minor axis (world units)                 [deg]
#   9 THETA_WORLD            Position angle (CCW/world-x)                               [deg]
#  10 FWHM_WORLD             FWHM assuming a gaussian core                              [deg]
#  11 ELONGATION             A_IMAGE/B_IMAGE                                           
#  12 ELLIPTICITY            1 - B_IMAGE/A_IMAGE                                       
         1 -12.8257     68.6198    144.3636   1.0178486692e+02   3.7119220147e+01     2.103097     1.096145  75.97  0.006427419    4.664    0.786
         2 -12.7289    200.9506     40.2169   4.2870232041e+01   3.0130439940e+01     1.279637      1.04259  38.09  0.007091957    1.490    0.329
         3 -12.4583    211.8817     29.3782   3.8949448250e+01   2.8986089780e+01     0.817995    0.7266854   3.12  0.002249915    1.487    0.328
         4 -11.5207    237.1034      4.3872   3.1255030901e+01   2.6321860845e+01    0.7612046    0.4469391  80.92  0.004628724    1.575    0.365
         5  -9.3908     58.8346    229.3746   1.1493690047e+02   1.8821373945e+01     0.299164    0.1752738 -70.72 0.0006958319    1.728    0.421
         6 -13.7992     83.7182    220.2360   1.0883511918e+02   1.7380145698e+01     6.656151      1.74466  41.34  0.007242924    3.118    0.679
         7 -12.5433     42.3799    199.3397   1.1565331825e+02   2.7184040535e+01     1.743473    0.9873657  71.66  0.009098412    1.834    0.455
         8 -14.3107      3.9438    247.2976   1.2623511421e+02   2.1332299603e+01     1.058429    0.7676248  87.78  0.008288267    1.218    0.179
         9  -8.6059     59.4279    220.7050   1.1402367033e+02   2.0521538217e+01    0.2637634    0.1962605 -48.79  0.001610028    1.687    0.407
        10  -8.4424     52.5349    219.0922   1.1530575659e+02   2.1709479595e+01    0.1890911    0.1394936  67.02 0.0005368593    1.182    0.154
        11  -9.5178     48.5026    218.0014   1.1604264118e+02   2.2421794989e+01    0.3106302    0.2417794  22.20  0.001148638    1.642    0.391
        12  -8.4837     44.2792    216.6627   1.1679809216e+02   2.3198213544e+01    0.2200563    0.1416693  62.59  0.001175712    1.385    0.278
        13  -9.3601    164.2303    216.6459   9.0879778165e+01   5.4372517611e+00    0.2577197    0.1656951  25.83  0.001317736    1.509    0.337
        14  -8.4268     33.0776    227.0518   1.1983997506e+02   2.2304331225e+01      0.20415    0.1395265 -81.56  0.001018085    1.352    0.261
        15 -15.6158      7.0538    200.4222   1.2319684419e+02   3.0460991289e+01     15.93396     1.818211 -76.71   0.03916327    8.242    0.879
        16  -8.3218    112.4720    205.5226   1.0054294803e+02   1.6131679820e+01    0.1355944    0.1258563  48.43 7.840179e-05    1.013    0.013
        17  -9.3790    108.2708    203.5267   1.0121077215e+02   1.7222231256e+01    0.3085207     0.224857 -13.42 0.0007899982    2.063    0.515
        18 -12.4939     53.2294    188.9000   1.1211833761e+02   2.8292844077e+01     2.545186     1.456591  89.66     0.012466    1.928    0.481
        19  -8.9197     29.1927    201.5721   1.1869680440e+02   2.8111323135e+01    0.1677274    0.1124697  38.94 0.0004506231    1.524    0.344
        20  -9.1765    195.9880    200.7101   8.1439611890e+01   2.9692987655e+00     0.199838     0.168396  17.18  0.001174905    1.082    0.075
        21  -9.5003     60.5730    198.5467   1.1150588787e+02   2.5179766258e+01     0.286572    0.1993736  58.55 0.0005101726    1.354    0.262
        22  -7.6195    120.3203    194.6668   9.7048520608e+01   1.7162839363e+01    0.1460522    0.1069452  70.51 0.0007049321    1.699    0.411
        23  -8.5963    191.0298    191.5559   8.0705193137e+01   5.4303014710e+00    0.2654699    0.1849332 -80.08  0.001038975    3.591    0.722
        24  -8.2385     99.2469    180.7655   9.9862310659e+01   2.3727491473e+01     0.188026    0.1686313 -16.55 0.0006744844    1.314    0.239
        25  -9.1962     41.1781    179.0591   1.1387573115e+02   3.1983134152e+01    0.2514412    0.1926559 -62.61 0.0004179656    1.279    0.218
        26  -8.9326     44.9575    176.7634   1.1271008878e+02   3.2107247177e+01    0.2116524    0.1860055  12.24 0.0007932051    1.448    0.309
        27 -10.5059     67.5478    174.2605   1.0680067396e+02   2.9926924491e+01    0.4266092    0.2652514 -36.79  0.001823619    2.150    0.535
        28 -10.3975     72.0214    169.4655   1.0496754982e+02   3.0474570330e+01    0.3740304    0.2700728 -40.38  0.000891795    1.602    0.376
        29  -8.5843    115.4780    173.4885   9.4571860496e+01   2.2711529081e+01      0.14476    0.1411843  65.07 -2.817565e-05    1.012    0.012
        30  -8.9611    103.7448    172.1155   9.7278522858e+01   2.5014179276e+01    0.3412098    0.2092284  77.70  0.001312957    2.760    0.638
        31  -7.6914    146.3745    172.1461   8.6770152667e+01   1.7425100710e+01    0.2102935    0.1416136 -59.66 0.0009416703    1.737    0.424
        32  -8.4255     34.0581    171.4908   1.1477363160e+02   3.4531372492e+01    0.1789729    0.1252952  33.62  0.001028757    1.578    0.366
        33  -8.3091    133.8559    164.1962   8.8197651847e+01   2.1524121433e+01    0.3276588    0.1929613 -72.76  0.001168765    2.975    0.664
        34 -11.1388     80.9463    160.4470   1.0119137450e+02   3.1393783163e+01    0.6833538    0.3912978  50.92 0.0003987711    1.906    0.475
        35 -11.9950     68.9005    155.7453   1.0364646816e+02   3.4257824907e+01    0.5951889    0.4959837 -35.48   0.00111505    1.354    0.262
        36  -8.5941     70.9966    248.3167   1.1420431671e+02   1.3617679235e+01    0.2135157    0.1339991  68.64  0.001179803    1.576    0.366
        37  -9.5673    134.0000    145.9511   8.4248040725e+01   2.5649692768e+01    0.6015391    0.1976694 -53.48  0.001745821    3.611    0.723
        38  -9.1945     37.7514    145.9514   1.1069771990e+02   4.0378900201e+01    0.4080062    0.1431389  51.81   0.00138535    4.099    0.756
        39  -9.8250     28.1906    143.7576   1.1303300669e+02   4.1833227908e+01    0.2956982    0.1381126  35.04  0.001403921    2.291    0.564
        40  -7.6789    199.2956    141.6638   6.8374559402e+01   1.3307371363e+01    0.1452595    0.1172584 -69.98 0.0004688433    1.649    0.393
        41 -10.1337    101.7262    139.4966   9.1453558722e+01   3.3177168038e+01    0.5469632    0.3531505 -21.14  0.002192699    2.330    0.571
        42 -10.5950     89.3081    139.0240   9.4859228376e+01   3.5369619187e+01    0.3093822    0.2610669 -28.62 0.0005246475    1.293    0.227
        43 -10.6350     56.3062    145.9185   1.0552557696e+02   3.8321011925e+01    0.4638028    0.2806179  64.19  0.002109214    2.092    0.522
        44 -10.2512     25.7624    137.7639   1.1292778405e+02   4.3521936312e+01    0.3219502    0.2253075  68.54   0.00124082    1.559    0.359
        45  -8.7592     71.3008    134.3505   9.9139009708e+01   3.9239880167e+01    0.1525071    0.1051533 -32.31 0.0007038212    1.694    0.410
        46  -8.9095    105.7137    130.7100   8.8361168841e+01   3.4585426790e+01    0.2979869    0.2704774 -86.62  0.001159186    1.217    0.178
        47  -9.1378    111.1248    130.0451   8.6683741072e+01   3.3750939142e+01    0.2660044    0.2277497  32.82 0.0006847689    1.211    0.174
        48 -10.7851     30.9886    127.2092   1.0991170068e+02   4.5665545017e+01    0.4206974     0.265972 -36.65  0.002185908    1.767    0.434
        49  -9.9124     31.7643    156.0467   1.1359941842e+02   3.8487874330e+01    0.3334675    0.2680324 -39.49  0.002018741    1.451    0.311
        50  -9.2570     98.5581    125.7674   8.9260085579e+01   3.7042029475e+01    0.2987656     0.240431 -11.53 0.0008055308    1.484    0.326
        51  -8.5282    107.8089    119.0395   8.4942275089e+01   3.6960862638e+01    0.2225358     0.205411 -79.82 0.0004075122    1.197    0.165
        52  -9.9082     33.2916    109.9801   1.0629261382e+02   4.9689024667e+01    0.4532271    0.1056662 -64.03  0.001440942    3.682    0.728
        53  -7.9900    205.5970    110.2564   5.9715296751e+01   1.7908623484e+01     0.201337    0.1337288 -28.00 0.0006505297    1.546    0.353
        54  -8.8039    115.8394    109.1543   8.0070506923e+01   3.7671729364e+01    0.2231041    0.1868105  -3.83   0.00108198    1.353    0.261
        55  -9.1959    248.7383    106.4227   5.2035443507e+01   9.9642464210e+00     0.278359    0.1772726  14.49  0.001224797    2.909    0.656
        56 -13.2016     55.7432    240.3101   1.1646670741e+02   1.7052092007e+01     1.098929    0.7864119  23.48  0.001485617    1.789    0.441
        57  -7.5842    139.3588    105.7031   7.2790317911e+01   3.3486719028e+01    0.1588698    0.1267575  89.62 0.0007033786    1.705    0.413
        58 -10.5958     87.6238    153.9838   9.8251165048e+01   3.1962857949e+01    0.5652798    0.3914936 -30.17  0.001254389    1.824    0.452
        59  -9.8191    243.5702    102.7631   5.1945858291e+01   1.1526353583e+01    0.2780148    0.1192231 -33.29  0.001155963    2.182    0.542
        60  -9.0002     32.9298     99.2959   1.0433957238e+02   5.2298565129e+01    0.2404729     0.168688 -71.47  0.001309349    1.412    0.292
        61 -14.1003     22.0164    250.1493   1.2329467614e+02   1.9014058012e+01      3.85064    0.9195485  28.02  0.009757932   10.268    0.903
        62  -7.9449     74.8064     85.3470   8.6170641926e+01   5.0356069339e+01    0.1912197    0.1332279  18.88 0.0003693237    1.611    0.379
        63  -8.6504     54.1905     65.2514   8.7504893644e+01   5.7572604281e+01    0.2250742    0.1830615  47.01 0.0006350366    1.580    0.367
        64 -12.0126    190.9326     47.2883   4.6044807119e+01   3.1533787527e+01    0.8072346    0.5668643  33.02  0.002635324    1.856    0.461
        65 -10.2702     81.3414    246.4140   1.1203016167e+02   1.2600611408e+01    0.4284821    0.2648648  58.45  0.002200363    1.490    0.329
        66  -9.5795    140.7328     46.1140   5.4514185510e+01   4.3800894888e+01    0.3576017    0.2684319 -72.18 0.0007542088    1.716    0.417
        67  -9.5306     95.1360    240.6526   1.0870699915e+02   1.1759900588e+01     0.193479    0.1564177  82.79 0.0005079681    1.306    0.234
