#   1 NUMBER                 Running object number                                     
#   2 MAG_AUTO               Kron-like elliptical aperture magnitude                    [mag]
#   3 X_IMAGE                Object position along x                                    [pixel]
#   4 Y_IMAGE                Object position along y                                    [pixel]
#   5 X_WORLD                Barycenter position along world x axis                     [deg]
#   6 Y_WORLD                Barycenter position along world y axis                     [deg]
#   7 A_WORLD                Profile RMS along major axis (world units)                 [deg]
#   8 B_WORLD                Profile RMS along minor axis (world units)                 [deg]
#   9 THETA_WORLD            Position angle (CCW/world-x)                               [deg]
#  10 FWHM_WORLD             FWHM assuming a gaussian core                              [deg]
#  11 ELONGATION             A_IMAGE/B_IMAGE                                           
#  12 ELLIPTICITY            1 - B_IMAGE/A_IMAGE                                       
         1 -10.7114    216.6578     35.3324   5.7100854385e+01   2.6881875520e+01     0.692062    0.2865508 -34.88  0.003297577    2.044    0.511
         2  -9.8805    212.4797     27.6439   5.5623302819e+01   2.8653212300e+01    0.5672545    0.2303461 -39.87   0.00271876    1.986    0.497
         3  -9.7389    220.6048     11.6470   5.1362500069e+01   2.8640018436e+01    0.6394966    0.3418227 -53.27  0.003660456    1.517    0.341
         4 -11.9590    221.6017      3.7384   4.9532252326e+01   2.9209843243e+01     1.824909    0.6918249  86.43  0.008692974    2.682    0.627
         5 -11.6768    235.4703     27.4225   5.3940147572e+01   2.3977520123e+01     1.185345    0.3258303 -48.50  0.005071562    2.833    0.647
         6 -10.3282    202.4468     20.1413   5.4582262020e+01   3.1677670592e+01    0.4697867    0.4024365  -5.84  0.003015418    1.535    0.349
         7 -10.9022    198.4164     10.8391   5.2565604323e+01   3.3548057666e+01    0.5826489    0.2366257  59.42  0.002659672    2.645    0.622
         8 -10.7033    212.1530     16.0308   5.2897545753e+01   2.9980808837e+01    0.5412337    0.3072057 -61.95  0.002945935    1.554    0.356
         9  -9.4920     93.4931     15.0671   6.7909001252e+01   5.9782924835e+01      0.44042    0.2242609  51.73  0.001962488    1.735    0.424
        10  -9.4054    161.5544      8.9500   5.5032188696e+01   4.2595924143e+01    0.2513733    0.1685115 -30.00  0.001171193    1.582    0.368
        11  -8.3180    131.3185      9.6391   5.8710843044e+01   5.0372453191e+01    0.1514898   0.09128288 -62.92 0.0003191891    1.766    0.434
        12 -10.0604     94.9529      6.7729   6.3775194136e+01   6.0207815130e+01    0.3929102    0.2769589 -23.39  0.001608953    1.608    0.378
        13  -8.6530     12.6834      9.3256   1.0517961271e+02   7.6930491089e+01    0.1125838    0.0980712  56.89 0.0007044367    1.672    0.402
        14  -9.7806    172.3676      6.9794   5.3499771294e+01   4.0085372007e+01    0.3465874    0.1606878 -66.16  0.001535745    2.213    0.548
        15  -8.4182    184.6473      4.6676   5.1934887229e+01   3.7336173408e+01    0.1885531    0.1382379  46.74  0.001093865    1.720    0.419
        16  -8.5901    183.9858      1.4812   5.1137044425e+01   3.7783541398e+01    0.3294088    0.1321085 -70.08  0.001381333    2.626    0.619
        17  -8.6634    198.2989      4.3229   5.0953151651e+01   3.4205554176e+01    0.1131973   0.09214631  44.16 0.0006201517    1.626    0.385
        18  -9.8734    152.0828      4.3309   5.4526478484e+01   4.5428563960e+01    0.3816479     0.149952  87.04  0.001480388    2.643    0.622
        19  -9.4844    145.4097      2.5911   5.4632674199e+01   4.7299670383e+01    0.3269491    0.1969002 -33.12  0.001688347    1.719    0.418
        20  -9.4239    122.5057      3.9531   5.7832436585e+01   5.3199613066e+01    0.2320502      0.16708  75.96  0.001080126    1.205    0.170
        21 -13.0619    246.6405     15.1140   5.0716633817e+01   2.3162496197e+01     1.902113    0.9873154 -21.43   0.01055217    2.290    0.563
        22  -9.4048     47.6992      2.3332   7.6321198596e+01   7.1981985263e+01     0.274978    0.2271665  54.90  0.001682514    1.212    0.175
        23  -9.6577    192.5394      1.6330   5.0631679446e+01   3.5770464115e+01    0.3758198    0.1169379  73.31  0.001565523    2.875    0.652
        24  -9.0863    101.8327      6.8827   6.2419524229e+01   5.8406480214e+01    0.2216729    0.1742706  51.56  0.001235824    1.197    0.165
        25  -8.4044    179.4707    203.9870   9.9386066503e+01   7.8036787321e+00    0.1749018    0.1173754 -34.39 0.0005034117    1.548    0.354
        26  -9.8887    224.4574    248.2219   9.7949683790e+01  -3.5054104792e+00    0.2091653    0.1090085 -27.52  0.001179114    1.830    0.453
        27  -8.5587    217.4684    250.5379   9.9434206881e+01  -3.0244230326e+00    0.1086261   0.07577822   6.07 0.0001507156    1.006    0.006
        28  -8.3788    135.3235    250.3223   1.1487672544e+02   6.7604768170e+00    0.1196466   0.07909434   3.12  0.000704674    1.680    0.405
        29  -7.5884    173.2832    203.6559   1.0057400325e+02   8.7486160662e+00    0.1126224    0.1011827  61.44 0.0007015247    1.640    0.390
        30  -8.0170     17.6819    203.7161   1.3808551739e+02   2.9612789722e+01    0.1095098   0.09357005 -29.52 0.0003117909    1.586    0.370
        31 -10.8503    238.4077    192.9702   8.7127420127e+01   1.4746899742e+00    0.3579606    0.3287561 -66.98  0.002302444    2.091    0.522
        32 -10.8517    232.3102    193.7398   8.8213453482e+01   2.1272014584e+00    0.4060919    0.2508917  10.77  0.002089429    1.588    0.370
        33  -9.0648    244.0460    214.1541   8.9732454647e+01  -1.7520937706e+00    0.2719713    0.1638014  -4.99  0.001170045    1.448    0.309
        34 -10.7008    246.0053    182.8263   8.4239898043e+01   1.8338489417e+00    0.3390216    0.1808034 -15.86  0.001938637    1.874    0.467
        35  -9.8543    221.8216    177.7191   8.7097475208e+01   5.6740849213e+00    0.4479629    0.2448687 -14.24  0.002291604    2.132    0.531
        36 -10.7798    240.7485    174.8261   8.3610440768e+01   3.5293610240e+00    0.6399874    0.3318669  -2.99  0.003003185    3.007    0.667
        37  -8.8035    143.1727    175.9980   1.0242479714e+02   1.8356330470e+01    0.2104167    0.1484462  51.51  0.000881183    1.616    0.381
        38  -8.5057    192.2664    172.9848   9.1443946670e+01   1.0770903507e+01    0.2607442    0.1502388  36.40  0.001111213    1.707    0.414
        39 -10.6405    249.6212    167.9092   8.1085899175e+01   3.2927392382e+00    0.4224273    0.2139929 -32.37  0.002474486    1.637    0.389
        40  -9.9214    205.3979    166.5032   8.7811041424e+01   9.7387314893e+00    0.2742756    0.2125048 -81.32  0.001409933    2.743    0.635
        41  -8.1626    115.4916    165.4996   1.0745262289e+02   2.5272818370e+01    0.1474629     0.135331  30.02 -8.248301e-05    1.011    0.011
        42  -8.5095    230.3493    164.3253   8.3272185451e+01   6.3626680583e+00    0.2039006    0.1058367 -30.66 0.0007016184    1.681    0.405
        43  -9.2024    226.6988    162.3139   8.3463380709e+01   7.1686288628e+00    0.3771364    0.1820876  29.60  0.001825121    2.387    0.581
        44  -8.8239    206.5004    162.4804   8.6843806343e+01   1.0188374714e+01    0.1280322    0.1097821  -8.48 2.678822e-05    1.011    0.011
        45  -9.6649    246.1021    160.1186   8.0165902169e+01   4.7727847137e+00    0.3260255    0.1372444 -37.60  0.001682081    2.075    0.518
        46  -9.9832    236.5240    158.4930   8.1246251421e+01   6.3046512434e+00    0.2969979    0.1844229 -26.56  0.001795319    1.365    0.268
        47  -9.4864     24.8438    158.2540   1.3324380841e+02   3.9610966276e+01    0.3874665   0.07545863  37.46  0.001291941    3.458    0.711
        48  -9.1101    183.9959    155.9653   8.9717901576e+01   1.4964689076e+01    0.2296761    0.1430647 -59.62  0.001013552    2.578    0.612
        49 -11.5841    231.8495    146.8732   7.9712942120e+01   8.6164171894e+00    0.7236627    0.3780712 -41.87  0.003839402    1.855    0.461
        50  -8.5046    118.1507    152.1254   1.0422823041e+02   2.7743260250e+01    0.2240669    0.2014145   3.53 0.0004293653    1.180    0.152
        51 -10.8324    238.6127    125.7116   7.4563646288e+01   1.0586630864e+01     0.761319    0.2608523 -43.15  0.003217294    2.818    0.645
        52  -8.3186    250.3994    140.1619   7.5842963303e+01   6.8497360102e+00     0.187987    0.0952823 -33.34 0.0006833188    1.600    0.375
        53 -10.8995    245.8995    132.0612   7.4865458956e+01   8.5960775071e+00    0.6252324     0.461322 -49.52   0.00405464    1.545    0.353
        54 -10.0093    192.3937    139.2867   8.4652646623e+01   1.6317212317e+01    0.3643024     0.297929  79.97  0.001999598    1.807    0.447
        55  -9.3057    216.5973    138.7970   8.0428385695e+01   1.2210730124e+01    0.1816804    0.1066509 -43.09 0.0005760371    1.676    0.403
        56  -8.5310    113.6844    139.0138   1.0276818543e+02   3.1524367286e+01    0.2127295    0.2089515  -2.06  0.001161288    1.054    0.051
        57  -9.4536    156.3007    149.0262   9.4114131706e+01   2.1247730862e+01    0.2075034    0.1924163 -21.97   0.00118093    1.077    0.072
        58  -9.4584    138.4746    132.3066   9.4671940516e+01   2.8106423074e+01    0.2910963    0.2277783  51.26 0.0006865012    1.316    0.240
        59  -8.0731     52.0220    131.7441   1.2109534451e+02   4.3461503393e+01    0.1885103     0.123318  30.20 0.0005203686    1.507    0.336
        60  -8.2225    212.5060    128.0210   7.8822150076e+01   1.4567476843e+01    0.1974534    0.1153306 -33.87 0.0004557146    1.532    0.347
        61  -9.5199    230.2710    124.9576   7.5545558257e+01   1.2027649201e+01    0.2745262    0.2602138 -81.85  0.001478823    1.349    0.259
        62  -8.6797    216.1184    122.3274   7.7048700366e+01   1.4815108998e+01    0.2474411    0.1099669  41.80  0.001103962    2.578    0.612
        63 -10.8467    230.1417    116.4568   7.3799145247e+01   1.3283449241e+01    0.4603525    0.3354921 -38.66  0.002836891    1.204    0.170
        64  -8.2951    204.4787    118.9747   7.8135297547e+01   1.7442058283e+01    0.1934463    0.1019917 -54.16 0.0008100827    2.544    0.607
        65  -9.9775    220.5308    115.0415   7.4835088911e+01   1.5145182803e+01    0.2067268    0.1752786 -58.98  0.001296064    1.343    0.255
        66 -10.0064    122.6063    109.1978   9.3161919177e+01   3.6375213504e+01    0.5902634    0.4341757 -56.78  0.002723623    1.477    0.323
        67  -8.5912    176.0359    108.5568   8.0682089815e+01   2.4847809831e+01    0.3094684    0.1733114 -66.62  0.001051633    3.690    0.729
        68  -8.7823    161.3272    109.0523   8.3748029481e+01   2.7909239233e+01    0.2158943    0.1947353 -42.06 0.0009764958    1.093    0.085
        69  -9.8917    233.3275    107.0299   7.1401234472e+01   1.4099663848e+01    0.3163562    0.2068233 -14.95  0.001460291    1.768    0.434
        70  -9.8490    236.7142    102.9549   7.0122950993e+01   1.4099872246e+01    0.2290882    0.2141162 -55.03  0.001624098    1.185    0.156
        71  -8.1246    104.8169    107.8421   9.8002620094e+01   4.0456124969e+01    0.2170524    0.1853029  79.43 0.0007596407    1.337    0.252
        72  -9.4003     57.3991    100.9168   1.1311629424e+02   5.0730510022e+01     0.656617    0.2638736 -71.94  0.001926641    4.028    0.752
        73 -10.0754    193.4734    102.5558   7.6152774586e+01   2.2245641920e+01    0.3432532    0.2565021  69.82  0.001826083    1.613    0.380
        74 -10.0878    241.8559     99.7023   6.8833989637e+01   1.3686268729e+01    0.4724244    0.3029112 -50.32  0.002795436    1.549    0.354
        75  -9.8682     69.6417    101.3475   1.0843700831e+02   4.8688081275e+01    0.3277078    0.2426198  48.72  0.001545978    1.377    0.274
        76  -8.9733    247.5447     98.7573   6.7995728056e+01   1.2878015015e+01     0.231909     0.100926 -29.64  0.001123199    2.074    0.518
        77 -10.5381    124.0183     97.4995   8.9594670079e+01   3.8548149577e+01    0.5537127    0.4963979  48.53  0.002849061    1.090    0.082
        78  -9.0112    106.5607     98.1594   9.4829175673e+01   4.2273084492e+01    0.3305028    0.2147862  26.77  0.001346705    1.906    0.475
        79  -8.7885     33.3343     98.3220   1.2262142303e+02   5.4431976131e+01    0.1536254    0.1014519 -34.17 0.0007050203    1.706    0.414
        80 -10.8111    214.5762     95.2865   7.1299558561e+01   1.9204029805e+01    0.4134166    0.2433554 -42.12  0.001934532    1.506    0.336
        81  -9.7588    196.4345     94.0112   7.3635927478e+01   2.3012847294e+01     0.377552    0.2409673 -42.78  0.001918919    1.442    0.306
        82  -9.9660     72.5648     92.9024   1.0510150926e+02   5.0259504643e+01    0.4028741    0.3410665  69.21  0.002017016    1.318    0.241
        83  -9.1957    235.2088     86.8927   6.6885891622e+01   1.6590207255e+01    0.2811675    0.2249124 -15.89  0.001109316    1.351    0.260
        84  -8.2026    227.3265     88.3036   6.8106950937e+01   1.7821284133e+01    0.1205343    0.0948932   5.88 0.0002463906    1.644    0.392
        85 -10.2131    219.1381     80.4282   6.7327723209e+01   2.0486223739e+01    0.8633687    0.2592093 -35.49  0.003340812    2.786    0.641
        86  -8.1965     99.4755     86.5057   9.3648134294e+01   4.6371812857e+01    0.1561298    0.1510124  57.66 0.0008101109    1.015    0.015
        87 -10.5325    247.9500     85.7382   6.5278251275e+01   1.4543517292e+01    0.7397066    0.2934347 -30.67  0.003492761    2.239    0.553
        88  -9.5268    155.3580     82.8412   7.8012239501e+01   3.4041801088e+01    0.4906077    0.2997586 -71.27  0.001891749    2.586    0.613
        89  -9.0341    199.2756     82.2064   7.0354583351e+01   2.4251150039e+01    0.2692517    0.1934785  78.02  0.001432275    1.648    0.393
        90  -7.8754    231.3619     81.2599   6.6094770618e+01   1.8058012771e+01    0.1152417   0.09311423  15.70 0.0002257887    1.631    0.387
        91  -8.2117    180.6710     80.2798   7.2702115541e+01   2.8607164800e+01    0.1436008    0.1049427 -71.29 0.0005780926    1.600    0.375
        92  -9.8788    232.6727     59.5470   6.1187969001e+01   2.0690273898e+01    0.5402235     0.392217 -89.97  0.003385583    1.550    0.355
        93  -8.9319    243.4407     76.3344   6.3769882330e+01   1.6549963306e+01    0.4476852    0.1955106 -34.75  0.001684774    1.857    0.461
        94 -10.5467    242.5501     63.5087   6.1139741915e+01   1.8357572344e+01    0.5519953    0.3088508  69.38  0.003160049    2.125    0.529
        95 -10.4475    248.7450     73.9993   6.2772174509e+01   1.5933132483e+01    0.5371824     0.285435 -28.97   0.00249684    1.712    0.416
        96 -10.9783    248.8161     66.7448   6.1260973887e+01   1.6840975813e+01    0.8172993    0.3950919 -32.57  0.004424477    1.735    0.424
        97  -8.0072    234.3316     73.7743   6.4141932405e+01   1.8522992445e+01    0.2258065    0.1437424 -25.77  0.001278628    1.565    0.361
        98  -9.8045    105.8737     71.3991   8.6783344481e+01   4.8047397870e+01    0.7077888    0.3812618 -57.60  0.002606907    2.495    0.599
        99  -9.8845    213.2279     63.0622   6.3979081270e+01   2.4085339051e+01    0.5513901    0.3287114 -15.20  0.002618353    2.340    0.573
       100  -9.4301    131.2962     62.9372   7.7210956535e+01   4.3375309110e+01    0.3065287     0.190295  56.50     0.001336    1.545    0.353
       101  -9.7960     29.3132     62.6593   1.1632292901e+02   6.3877927039e+01    0.2334252    0.1270895  29.27  0.001064986    1.845    0.458
       102  -7.7277    171.3417     61.7195   6.9190991095e+01   3.3656035371e+01    0.1484179    0.1030765 -71.26 0.0002830934    1.629    0.386
       103  -8.6584     69.8386     60.8426   9.5876602690e+01   5.8045897704e+01    0.2043631    0.1828058  85.92 0.0009564341    1.324    0.245
       104  -8.3428     82.0416     59.0666   9.0381631701e+01   5.5872266355e+01    0.2305424    0.1841803 -77.49 0.0009027225    1.623    0.384
       105  -8.4576    192.0083     57.0000   6.5002724302e+01   2.9512695347e+01    0.2116593   0.07579102  64.98 0.0007986968    2.917    0.657
       106  -8.3731    130.3002     56.3285   7.5259806784e+01   4.4716300978e+01    0.1514328    0.1171151  24.21 0.0002951657    1.642    0.391
       107  -9.2218    244.0837     49.6681   5.8078276099e+01   1.9785298258e+01    0.2791168    0.2043526 -50.89  0.001525177    1.108    0.098
       108  -9.6248    219.8052     51.7859   6.0654252289e+01   2.4216039151e+01    0.4540487    0.1838049 -61.02  0.001733422    3.494    0.714
       109  -8.5767    124.7493     52.9714   7.5389918336e+01   4.6665381464e+01    0.1978643     0.130609 -34.61 0.0004909727    1.604    0.376
       110  -9.9286    228.7552     51.0595   5.9660759271e+01   2.2517472425e+01    0.3713676    0.2995092 -35.44  0.001860951    1.183    0.155
       111 -10.1411    233.2494     44.8720   5.7906770948e+01   2.2398866170e+01    0.5010828    0.3999299  54.74  0.003082071    1.557    0.358
       112  -8.7867    200.7586     50.5508   6.2324376334e+01   2.8423655924e+01     0.246873    0.1182526  61.75  0.001146683    2.156    0.536
       113  -8.8986    208.0436     48.8314   6.1122189829e+01   2.7057894522e+01    0.2479704    0.1687517 -39.37  0.001403381    1.307    0.235
       114 -10.3291    249.9248     44.7678   5.6618497109e+01   1.9309785493e+01     0.548053    0.1643451 -35.05  0.002511378    2.472    0.595
       115  -9.1559    250.3283     39.3180   5.5468019665e+01   1.9865809187e+01    0.2174142    0.1257411 -29.80  0.001303849    1.597    0.374
       116  -8.1275    111.7932     46.5704   7.6268895305e+01   5.0967849562e+01    0.2141212    0.1401422  72.27 0.0009383929    1.679    0.404
       117  -9.7628    200.3261     44.4732   6.0847459315e+01   2.9303436359e+01    0.3194236    0.1722824 -64.45  0.001498467    2.047    0.512
       118  -8.5810     86.0883     42.9194   8.2459182503e+01   5.7861935199e+01     0.230332    0.2055456  85.56    0.0012363    1.257    0.205
       119  -9.0780    131.0246     42.5276   7.0409484744e+01   4.6615009553e+01    0.3997403    0.1913874  80.49  0.001337616    3.180    0.686
       120  -8.2573     57.4818     45.4762   9.5214345793e+01   6.3497598901e+01    0.2586627    0.1295573  50.41  0.001029859    2.282    0.562
       121  -8.4734      6.4962     40.0048   1.2388204644e+02   7.1094411317e+01    0.1995022    0.1178573 -65.55  0.001038947    1.611    0.379
       122  -9.9488    186.5885    246.2031   1.0429268651e+02   9.6622584706e-01    0.3311212    0.1799554 -32.20   0.00204418    1.983    0.496
       123  -8.1458    101.4328    248.5275   1.2184886990e+02   1.1341461698e+01      0.12217   0.09303664  33.53 0.0001279342    1.024    0.023
       124 -10.0833    216.2710     24.2342   5.4536035559e+01   2.8224215199e+01     0.449114    0.2242052 -39.22  0.002103426    1.662    0.398
       125  -8.4693    243.1965    247.1985   9.4815735160e+01  -5.2853644497e+00    0.1276348   0.09983625  -2.81 0.0007920114    1.342    0.255
       126  -8.7405    130.7049    245.8221   1.1532499203e+02   8.0254118351e+00    0.2346049    0.1551673 -86.39  0.001208011    3.344    0.701
       127  -8.7321    164.3467    246.0747   1.0851622577e+02   3.6974514049e+00    0.1775746    0.1251708 -10.15  0.001170285    1.460    0.315
       128  -8.5607     44.5055     30.9790   9.5110380126e+01   6.8523140548e+01    0.2029765    0.1123856 -20.39 0.0008102169    2.701    0.630
       129  -8.3574    184.5065     25.9808   5.7646135699e+01   3.5178367379e+01    0.1962453    0.1221161 -33.71 0.0007453458    1.568    0.362
       130  -9.5166    146.9906     25.4904   6.1931099750e+01   4.4619875071e+01    0.2077275    0.1077805 -79.24 0.0008098772    2.485    0.598
       131  -8.7587     32.3822     24.6303   9.9111320497e+01   7.1620821039e+01    0.3342727    0.1617191 -38.60  0.001521804    2.099    0.523
       132  -9.9517    235.4783    241.4031   9.5196584734e+01  -3.9044244530e+00    0.3441751    0.1796126 -24.43  0.002311493    1.712    0.416
       133  -8.1237      9.4763    240.5768   1.4135235858e+02   2.2935018337e+01    0.1128687    0.0846884  47.79 0.0001318032    1.043    0.041
       134 -10.5488    231.2844    234.9566   9.4927447413e+01  -2.7549168223e+00    0.2671929    0.2006665  41.23  0.001887904    2.208    0.547
       135  -9.6328    152.5170     20.0386   5.9442448516e+01   4.3791251836e+01    0.2244288    0.1722734  80.93 0.0009481984    1.179    0.152
       136 -10.3175    146.7953     15.7384   5.8774344633e+01   4.5721396608e+01    0.3105993    0.2181206  57.06  0.001645878    1.420    0.296
       137  -7.9288    149.2921    234.6439   1.1007124537e+02   7.2847850774e+00    0.1144141     0.087807  51.33 0.0005486966    1.687    0.407
       138  -8.5224    173.3123     15.3012   5.5770401472e+01   3.9039201152e+01    0.1274735   0.09674218  44.97            0    1.609    0.378
       139  -7.9409     70.4807    234.4846   1.2748546294e+02   1.7632241462e+01    0.1247878   0.09941362  37.23 0.0003083724    1.041    0.039
       140 -10.1603    235.0800    228.5824   9.3366429246e+01  -2.4398849223e+00    0.3413415    0.2035124 -13.38  0.002337419    1.421    0.296
       141 -11.2280    223.2370    221.1715   9.4161732195e+01  -2.4124763490e-01    0.7391263    0.2363176 -38.79  0.003496912    3.263    0.694
       142  -9.4904    242.4391    221.3300   9.1102172058e+01  -2.4040634571e+00    0.3047787    0.1595288 -27.85  0.001224358    1.673    0.402
       143 -10.9791    243.4390    205.9702   8.8513456772e+01  -7.1906501011e-01    0.5995336    0.3996336  40.46  0.004026282    2.078    0.519
       144 -11.0523    248.7339    219.3385   8.9833035547e+01  -2.8469378916e+00    0.7691251    0.2897225 -31.08  0.004318593    2.324    0.570
       145  -8.2780    211.5047    227.5440   9.7135515180e+01   3.4735408923e-01     0.113981   0.08593615   5.22 0.0001131136    1.032    0.031
       146  -8.3474    156.7785    225.4213   1.0726708449e+02   7.6816575821e+00    0.1773032   0.09941201  21.70 0.0009402311    1.604    0.377
       147  -7.8582    182.3294    216.7154   1.0084364024e+02   5.5021155543e+00    0.1099174   0.09085231  44.25 0.0002227916    1.611    0.379
       148 -10.0692    192.5679    208.6971   9.7619606650e+01   5.2753742152e+00    0.2714525    0.1052489 -33.78  0.001234752    2.718    0.632
       149  -8.7541    188.4514    208.5366   9.8374653066e+01   5.8605784809e+00    0.1241345   0.09924465   6.57 4.020379e-05    1.008    0.008
       150  -8.1678    164.8015    208.2043   1.0304268334e+02   9.2571031278e+00    0.1710752    0.1288671  -0.47 0.0003660196    1.290    0.225
       151  -8.5330    124.0359    205.9942   1.1175142610e+02   1.5689732511e+01     0.187946     0.158794  26.89 -0.003769674    1.001    0.001
       152  -8.7611    198.4771    205.0506   9.5924571316e+01   4.9970844518e+00     0.169105    0.1083509 -30.65 0.0008555166    1.528    0.346
