#   1 NUMBER                 Running object number                                     
#   2 MAG_AUTO               Kron-like elliptical aperture magnitude                    [mag]
#   3 X_IMAGE                Object position along x                                    [pixel]
#   4 Y_IMAGE                Object position along y                                    [pixel]
#   5 X_WORLD                Barycenter position along world x axis                     [deg]
#   6 Y_WORLD                Barycenter position along world y axis                     [deg]
#   7 A_WORLD                Profile RMS along major axis (world units)                 [deg]
#   8 B_WORLD                Profile RMS along minor axis (world units)                 [deg]
#   9 THETA_WORLD            Position angle (CCW/world-x)                               [deg]
#  10 FWHM_WORLD             FWHM assuming a gaussian core                              [deg]
#  11 ELONGATION             A_IMAGE/B_IMAGE                                           
#  12 ELLIPTICITY            1 - B_IMAGE/A_IMAGE                                       
         1 -13.3885    248.7424     56.2476   3.9615242947e+01   1.7665478891e+01    0.7692279    0.2631903 -39.26  0.003349745    2.392    0.582
         2 -13.2553     19.2136     19.6495   8.3819878486e+01   7.0262868107e+01    0.3696831    0.3105353  18.25  0.002661422    1.407    0.289
         3 -15.5975    171.1686      5.8608   3.5942540496e+01   4.1009329729e+01     3.294679    0.9591794  72.33   0.01235698    3.109    0.678
         4 -11.5478     49.8607     14.3828   6.6686869137e+01   6.6883594546e+01    0.2865281    0.1906263  36.95  0.001249292    1.399    0.285
         5 -11.2409     45.4966     10.9212   6.6835090523e+01   6.7980545417e+01    0.2939537    0.1784638 -33.70   0.00136778    1.815    0.449
         6 -12.6780      4.3225      9.4114   8.7447209209e+01   7.3171905343e+01    0.3380772    0.2321332 -38.56  0.001524629    1.424    0.298
         7 -13.9720    143.6353     10.8565   4.0965498267e+01   4.7183816333e+01    0.7209241    0.4632062 -45.52  0.003017865    1.722    0.419
         8 -11.2348     98.8498      8.4280   4.8567815074e+01   5.7874790797e+01    0.1923064    0.1745445 -32.44 0.0007250629    1.300    0.231
         9 -13.2810    123.3398      5.9448   4.2690776638e+01   5.2455580667e+01    0.4965183    0.3403539 -62.21  0.001988435    1.829    0.453
        10 -11.1225     85.5464      7.6392   5.1581924127e+01   6.0824170829e+01    0.2129111    0.1846851  30.09 0.0001275801    1.055    0.052
        11 -11.7682    113.5355      1.9115   4.3061981363e+01   5.5060913004e+01    0.2476466    0.1626762  62.34 0.0004899556    1.298    0.230
        12 -13.4856    140.6505      2.1703   3.8731090084e+01   4.8639027867e+01     1.077123    0.2637552  66.60  0.003885687    3.199    0.687
        13 -10.6899     88.9954      1.4510   4.8129828475e+01   6.0590104042e+01    0.1882256    0.1058475  57.26 0.0003648297    1.528    0.346
        14 -10.1336     24.6760      1.7189   7.1842562314e+01   7.2023983438e+01     0.118034   0.07023526   6.45 0.0003131885    1.593    0.372
        15 -11.8003    243.5275    180.0228   6.6436502761e+01  -1.2361820612e+00    0.2017278    0.1109355 -34.88  0.001030132    1.586    0.370
        16 -17.3493     20.6507    141.0222   1.1333697970e+02   4.3709182166e+01     6.810916     4.683802  32.96   0.03847321    1.646    0.392
        17 -14.1889    245.9204    138.3117   5.7501955892e+01   5.2424199789e+00    0.7484871    0.2851234 -39.06   0.00311497    2.219    0.549
        18  -9.8740    130.6608    151.2779   8.4199365152e+01   2.5227261327e+01    0.1557858    0.1222729  74.38 0.0005062156    1.618    0.382
        19 -16.8942     95.0673    230.8886   1.0589015899e+02   1.3635276004e+01     2.786449     1.773041  87.96    0.0144136    2.051    0.513
        20 -17.6668    113.6924    224.6226   1.0106672090e+02   1.2055391983e+01     5.977373     4.153682 -66.50   0.03285885    1.663    0.399
        21 -12.4136    106.9069    132.8037   8.6449804647e+01   3.4148698806e+01    0.3322717    0.2638865 -44.15  0.001068578    1.238    0.192
        22 -16.0733     67.9445    179.1822   1.0567071796e+02   2.9005959049e+01      2.50348     1.356973 -61.48   0.01168719    1.754    0.430
        23 -11.6409     98.5774    133.7970   8.9066119434e+01   3.5418356331e+01    0.2392226    0.1824649  44.94 0.0004341396    1.361    0.265
        24  -9.8179    170.4189    122.5906   6.7769628165e+01   2.3203718843e+01    0.1517112    0.1464215 -23.92 6.929762e-05    1.017    0.016
        25 -15.1129     52.6514    181.1097   1.0976093069e+02   3.0525730379e+01     1.538448    0.5482689 -61.37  0.006212211    2.502    0.600
        26 -10.7592     96.7816    109.2188   8.3597179647e+01   4.1606909503e+01    0.2150904    0.1781397 -17.02  0.000662233    1.338    0.252
        27 -14.4830    248.3739    127.3698   5.4819268003e+01   6.6432731486e+00     1.031404     0.424748 -45.61  0.004372454    2.262    0.558
        28 -12.4331     90.1232     94.4543   8.1623869043e+01   4.6163844133e+01    0.2904685     0.280728   7.21 0.0004946648    1.056    0.053
        29 -14.1206    248.4783    114.9512   5.2159324908e+01   8.6768300081e+00    0.9917091    0.4171527 -47.77  0.004203234    2.304    0.566
        30 -16.3475     74.1569    225.4287   1.0977405103e+02   1.7719559710e+01      1.89742     0.842099 -78.52  0.008012816    3.027    0.670
        31 -16.5126     86.1311    185.0116   1.0192804073e+02   2.4984621141e+01     2.274002     1.898701  78.73    0.0126924    1.207    0.171
        32 -14.0926    248.1926     87.8324   4.6381148479e+01   1.3088312724e+01    0.9483453    0.3490819 -30.86  0.003544475    3.159    0.683
        33 -14.4003    248.3972    101.3082   4.9247211008e+01   1.0912170602e+01    0.9883105    0.4787973 -44.68  0.004694926    1.766    0.434
        34 -10.3627    132.8074     92.8093   6.8721476336e+01   3.7749721256e+01    0.2000693    0.1789699 -74.12 0.0002524695    1.262    0.208
        35 -12.4246     40.5024     70.0087   9.2428466617e+01   5.8786446336e+01     0.340175    0.1947401 -50.18  0.001716749    1.556    0.358
        36 -11.2017      7.8897     68.1492   1.0550804883e+02   6.1927063654e+01     0.284694    0.1557493 -63.89 0.0008236431    1.620    0.383
        37 -17.7045     59.4652    227.2239   1.1306521610e+02   1.9294232544e+01     3.607718     2.537905  86.80   0.02197691    1.387    0.279
        38 -11.2613     99.5874     62.2609   6.8427127856e+01   5.0726098768e+01    0.3996448    0.2380458 -52.89  0.001271916    2.165    0.538
        39 -11.7557     43.2126     62.6138   8.9025751874e+01   6.0003431390e+01    0.2356382    0.1919806 -28.73 0.0002726958    1.052    0.049
        40 -11.3200      4.0076     59.0460   1.0502287818e+02   6.4096632891e+01    0.1943718    0.1513669 -44.31  0.001011003    1.014    0.014
        41 -10.3456     77.8738     55.8959   7.3289399875e+01   5.6045143240e+01    0.1739427    0.1708771  83.21 0.0003944581    1.296    0.228
        42  -9.9119    204.5064     65.5662   4.7024540103e+01   2.5730838805e+01    0.1389916    0.1251983 -68.92  0.000115005    1.020    0.019
        43 -10.3147     55.8881     43.6839   7.6976288714e+01   6.1779704470e+01    0.1776843    0.1504476  10.44 0.0003858202    1.093    0.085
        44 -10.2904    124.5303     43.4366   5.5231204890e+01   4.8100110488e+01    0.1409387     0.130298  45.36  9.04969e-05    1.008    0.008
        45 -10.5037     24.4268     42.4886   9.0494477266e+01   6.5898291226e+01     0.125681    0.0985465 -24.20 0.0001006292    1.019    0.019
        46 -10.1211     96.0237     38.0606   6.0761877551e+01   5.5226311936e+01    0.1617469    0.1464586   9.30 0.0004538715    1.061    0.057
        47 -12.9172     17.7589     34.8586   9.0939621710e+01   6.7887547992e+01    0.5082793    0.2733173 -30.47   0.00284691    1.613    0.380
        48 -12.4015     16.0502     30.0379   8.9939229446e+01   6.8878271471e+01    0.3259238    0.2683727  -5.98  0.001781901    1.158    0.137
        49 -12.3430      2.9909    173.9799   1.2104279886e+02   3.7151127815e+01    0.2468804     0.207556  46.98  0.001070277    1.321    0.243
        50  -9.7027     51.3412     33.3211   7.4625841112e+01   6.4111457214e+01      0.13634   0.08767732   0.87 0.0007050258    1.721    0.419
        51 -10.6677    153.9870     32.0467   4.5738508747e+01   4.2446223999e+01    0.2041589    0.1842395  76.27  0.001219261    1.028    0.027
        52 -11.2799    160.5051     27.1636   4.3264017909e+01   4.1421021945e+01    0.2371988    0.1732438  69.17  0.000303244    1.245    0.197
        53 -10.5308    239.1670     24.7943   3.3928233477e+01   2.3679730167e+01    0.1433176      0.13395  87.64 0.0002956709    1.282    0.220
        54 -16.1043     38.0283    184.6695   1.1372445697e+02   3.1373538735e+01     3.534202     1.342502 -65.99   0.01541243    2.305    0.566
        55 -13.1168    154.0882    215.7877   9.0875613228e+01   7.1950226160e+00    0.5294716    0.3491238  -6.99  0.002454387    2.238    0.553
        56 -12.1704    165.9406    211.9483   8.7667771770e+01   5.9226234295e+00     0.360845    0.2585889 -55.31  0.001903062    1.706    0.414
        57  99.0000     18.4771    192.0791   1.1890902212e+02   3.1639126034e+01    0.2041143    0.1259106 -48.94  0.001133231    1.992    0.498
        58 -12.5597     26.2031    188.7204   1.1688334292e+02   3.1662212739e+01    0.5332736     0.297116  63.91  0.002817354    1.756    0.430
        59 -10.6339     22.9193    190.5383   1.1778775416e+02   3.1566147157e+01     0.198918     0.167406 -40.52  0.001291892    1.558    0.358
        60 -10.3905     32.3103     10.7181   7.2757753801e+01   6.9941049640e+01   0.09759935   0.09266489  13.30 0.0002494388    1.567    0.362
        61 -12.9601    248.8115    185.0811   6.6538342852e+01  -2.8134739188e+00    0.4657937    0.1594697 -43.43  0.001840526    3.085    0.676
        62 -10.3291     16.1718    188.0578   1.1910927255e+02   3.2776574456e+01    0.1747584    0.1334289 -59.51  0.001112929    1.418    0.295
        63  -9.5073     11.4598    188.0129   1.2016006992e+02   3.3209394553e+01    0.1722433    0.1000323 -84.29 0.0009750348    1.455    0.313
        64  99.0000      7.9387    187.1890   1.2088119054e+02   3.3701590491e+01    0.1865053    0.1058067  20.51 0.0004333993    2.302    0.566
        65 -10.8306     18.7555    184.0546   1.1819633117e+02   3.3466338435e+01    0.1776756    0.1428465  85.29 0.0004964203    1.016    0.016
        66 -10.7397     12.5335    181.1036   1.1938787099e+02   3.4712090347e+01    0.3332272    0.1144476  35.07  0.001529728    2.749    0.636
