#   1 NUMBER                 Running object number                                     
#   2 MAG_AUTO               Kron-like elliptical aperture magnitude                    [mag]
#   3 X_IMAGE                Object position along x                                    [pixel]
#   4 Y_IMAGE                Object position along y                                    [pixel]
#   5 X_WORLD                Barycenter position along world x axis                     [deg]
#   6 Y_WORLD                Barycenter position along world y axis                     [deg]
#   7 A_WORLD                Profile RMS along major axis (world units)                 [deg]
#   8 B_WORLD                Profile RMS along minor axis (world units)                 [deg]
#   9 THETA_WORLD            Position angle (CCW/world-x)                               [deg]
#  10 FWHM_WORLD             FWHM assuming a gaussian core                              [deg]
#  11 ELONGATION             A_IMAGE/B_IMAGE                                           
#  12 ELLIPTICITY            1 - B_IMAGE/A_IMAGE                                       
         1 -12.3388    196.8153     34.2157   5.3170487654e+01   3.1322822766e+01     1.067619    0.8497673  32.46  0.004050923    1.369    0.269
         2 -12.3017    208.2046     21.3568   4.8102558631e+01   2.9906548223e+01    0.9645065    0.7157896  11.91  0.005125979    1.555    0.357
         3 -10.1078    163.9272     17.7801   5.2032830656e+01   4.1487652860e+01     1.159333    0.1394375 -22.72  0.002635702    6.601    0.848
         4 -10.9268     32.6812     10.2037   8.7372975058e+01   7.2174455286e+01    0.7455236     0.140692 -42.82  0.002280361    4.590    0.782
         5 -10.8291    168.4261    224.7546   1.0071315751e+02   9.8041494146e+00    0.3441037    0.2354064 -20.51  0.002374585    1.802    0.445
         6 -14.6293     75.4874    246.4998   1.1923641370e+02   1.8846555928e+01     7.648823     1.221585  35.74   0.03102578    4.246    0.765
         7 -13.6009     47.0543    207.5539   1.2196027299e+02   2.8045891738e+01     1.988898     1.496631 -12.74   0.01334526    2.387    0.581
         8 -13.9192     56.4186    197.3836   1.1937207352e+02   2.8810321498e+01     2.783473     1.579233  63.67   0.01725865    1.665    0.399
         9  -8.8199     71.8918    230.1384   1.1877379459e+02   2.1636263540e+01    0.1609373    0.1065246  55.36 0.0004410973    1.234    0.190
        10 -16.0673      5.0153    239.2360   1.3088379140e+02   2.6868960231e+01     15.79643    0.8762496 -80.81  0.009279465   14.116    0.929
        11  -8.6921    125.4980    222.4936   1.0818390491e+02   1.6022614081e+01    0.1117959   0.08696225  38.80 0.0008106576    1.004    0.004
        12  -9.7352     73.1071    205.7183   1.1666247137e+02   2.5413146597e+01    0.2589678    0.2171575  53.81  0.001027062    1.063    0.059
        13  -8.7575    163.9276    204.9332   9.8863439611e+01   1.2961950134e+01    0.2437223    0.1464917 -42.74  0.001481365    2.030    0.507
        14  -9.0372    194.0105    192.9237   9.1608673860e+01   9.9629346379e+00    0.2475483     0.155192 -18.79  0.001483371    1.766    0.434
        15  -8.7818    164.0000    189.9970   9.6642089981e+01   1.5012059080e+01    0.2928724   0.06932293 -43.29  0.001050583    4.927    0.797
        16 -10.5170    222.9157    183.2203   8.5069685499e+01   6.7197846327e+00    0.5042382     0.293527 -34.68  0.002476805    1.947    0.486
        17 -10.6184    164.0000    233.4731   1.0255406111e+02   9.3774953861e+00    0.2631201    0.1928442 -43.41  0.001929157    1.826    0.452
        18  -7.8382    208.6602    184.6759   8.7694454233e+01   8.7200837711e+00    0.1272086   0.07746488  11.64 0.0003022213    1.725    0.420
        19 -10.4463     71.0628    179.7195   1.1467830889e+02   3.0334042694e+01    0.3492009    0.2478093 -37.93  0.001546269    2.010    0.502
        20 -10.3030     75.0199    174.5334   1.1324285052e+02   3.0824547464e+01    0.3182794    0.2496348 -39.13   0.00090059    1.681    0.405
        21  -8.2883     99.5071    180.5296   1.0851468706e+02   2.6377835925e+01    0.1222625     0.104193  50.65 0.0001608589    1.021    0.021
        22 -11.2948    163.7506    223.6864   1.0139809439e+02   1.0584384241e+01    0.5471768    0.3392154   2.34  0.003224663    2.323    0.570
        23 -10.2226     99.1980    170.1485   1.0722725460e+02   2.8337179457e+01    0.4450415    0.1545626  45.75   0.00183777    2.660    0.624
        24  -8.8335    195.4688    168.6923   8.7154834396e+01   1.2865543912e+01    0.2160848    0.1738406  28.22 0.0006312845    1.119    0.107
        25  -9.2737    233.9681    169.9892   8.0912666451e+01   6.5323752436e+00    0.1518185    0.1174373  11.68  0.001025127    1.036    0.035
        26 -10.7655     83.6043    164.4198   1.1006058832e+02   3.1657729422e+01    0.4405125    0.3103571  76.93 0.0006058532    1.584    0.369
        27 -11.9272     71.5428    160.5717   1.1244345984e+02   3.4041255675e+01    0.5726524     0.424436 -33.76  0.001249453    1.876    0.467
        28 -12.1503     68.4126    144.1857   1.1112242152e+02   3.7881161752e+01    0.9539207    0.5700927  77.72  0.003851834    2.097    0.523
        29  -8.4670     87.9031    146.5166   1.0649414305e+02   3.4681813396e+01     0.190595    0.1204255  39.16 0.0004063939    1.500    0.333
        30  -8.6824    134.0000    141.9877   9.4550867518e+01   2.7986683093e+01    0.3624258   0.07810811 -47.06  0.001052061    4.941    0.798
        31  -9.0880    103.6756    141.3201   1.0168916777e+02   3.3317928269e+01    0.4508161    0.2824101 -12.70  0.001749375    3.622    0.724
        32 -10.5926     91.0924    141.9970   1.0496985229e+02   3.5149284434e+01     0.254368    0.2399515 -19.79  0.000421529    1.238    0.192
        33 -10.6013     89.6546    157.7585   1.0772752299e+02   3.2131241666e+01    0.4813704     0.329313 -30.14  0.001360297    2.147    0.534
        34 -10.8586     57.9064    127.7883   1.1164493359e+02   4.2834582852e+01     0.417625    0.2643507  88.48  0.002107298    1.764    0.433
        35 -11.2260     32.5986    125.9688   1.1858696698e+02   4.6004252609e+01    0.5289569    0.1734519 -76.40  0.002104742    3.034    0.670
        36  -9.9291    164.2687    130.3768   8.5439489651e+01   2.4356516428e+01    0.4570839    0.1174533 -41.29  0.001430686    4.012    0.751
        37  -8.5286    112.4636    131.3605   9.7619830408e+01   3.3877780231e+01    0.2983179    0.2015619   2.28 0.0009982553    2.557    0.609
        38  -8.5170    105.8969    130.6747   9.9152224095e+01   3.5143827640e+01    0.2624923    0.2067172 -63.91  0.001443993    1.346    0.257
        39  -9.4156     99.5052    128.1368   1.0031859923e+02   3.6743646506e+01    0.3012609    0.2364714 -35.11 0.0007889688    1.463    0.317
        40 -10.5944     45.4252    129.0266   1.1532243625e+02   4.3999504472e+01    0.3363792     0.245702 -85.23  0.002015295    1.273    0.214
        41  -9.5621    164.0988    150.8931   8.9780347203e+01   2.0977581527e+01    0.5915132   0.07854804 -40.96  0.001396065    8.153    0.877
        42 -10.1793    164.2339    111.6695   8.1033702827e+01   2.7558004081e+01    0.5825902    0.1542208 -36.36  0.001750129    3.918    0.745
        43  -8.0378    108.6546    119.9307   9.6229946408e+01   3.6909605912e+01    0.1851937    0.1753742 -57.70  0.001083639    1.070    0.065
        44 -13.8108      9.5264    206.6125   1.2913578139e+02   3.1771528279e+01      1.16012    0.7209696  27.68  0.005609405    1.760    0.432
        45 -10.1971     41.3488    112.8896   1.1435353448e+02   4.8159149552e+01    0.2531874    0.1598346  50.81 0.0009757145    1.605    0.377
        46  -8.4015    168.5412    113.4408   8.0575284536e+01   2.6358825778e+01    0.2734676    0.1992732 -67.50  0.001053251    2.092    0.522
        47  -7.8105    205.6627    110.2779   7.2849504795e+01   1.9199327848e+01    0.1281665    0.1099155 -67.32 0.0007002179    1.614    0.380
        48  -8.5303    114.9741    109.7597   9.2247509110e+01   3.7873482785e+01    0.3039559    0.1795876 -24.58  0.001187664    2.671    0.626
        49  -9.9764     32.7222    108.8024   1.1646418746e+02   4.9979903506e+01    0.2904879    0.1035005 -73.58  0.001148185    2.641    0.621
        50  -7.9699     94.9730    105.0374   9.6648369775e+01   4.2503460471e+01    0.1679116    0.1555942  46.98 0.0003252765    1.094    0.086
        51 -10.1717     32.8495    100.5835   1.1526382123e+02   5.1915248435e+01    0.2844269    0.1495454 -71.70  0.001422064    1.684    0.406
        52 -10.4611    163.7057    228.3616   1.0198726405e+02   1.0023235152e+01    0.3394036    0.1664478  47.56  0.001380391    2.095    0.523
        53  -8.4908    134.7758    102.9953   8.5507398170e+01   3.5301457785e+01    0.1996516    0.1197596 -41.37 0.0006332912    1.671    0.402
        54  -8.3067    115.3270     94.3035   8.8207419540e+01   4.0995198267e+01    0.1489125    0.1167162   0.20 0.0007033458    1.645    0.392
        55  -9.9154    163.4584     90.8994   7.5719604076e+01   3.1269173083e+01    0.4285069    0.2700586 -49.59  0.001895893    1.820    0.451
        56  -9.6904    163.6873     83.3336   7.3524282581e+01   3.2480584495e+01    0.4191134    0.1284831 -35.43  0.001332805    3.098    0.677
        57  -9.6888     91.8038    233.8857   1.1543772388e+02   1.8729252228e+01    0.1880278    0.1508521  65.92 0.0004428806    1.264    0.209
        58  -8.6766     61.4730     71.5137   9.8944041690e+01   5.5424174973e+01    0.1396932    0.1270633 -50.80 0.0008098433    1.018    0.018
        59 -13.0044     20.7374    193.1389   1.2639586103e+02   3.3195924502e+01     1.051227    0.9580048  45.03 0.0003753523    1.329    0.248
        60  -9.9047    163.8691     64.2365   6.7719033843e+01   3.5487272680e+01     0.371637    0.1818248 -26.07  0.001432678    2.113    0.527
        61  -9.3378    153.2992     56.4054   6.7273458795e+01   3.9274129484e+01    0.3518773    0.2690592 -82.21 0.0008779984    1.727    0.421
        62  -9.2610    155.8228     50.4988   6.4788699207e+01   3.9525200813e+01    0.3430857    0.2566576 -83.87 0.0009326759    1.754    0.430
        63  -7.6719     32.6891     51.6649   1.0503702522e+02   6.3558774648e+01    0.1396874   0.08706702 -35.68 0.0006470043    1.681    0.405
        64 -10.2643    178.8992     46.6062   5.9501848013e+01   3.4270892936e+01     0.277321     0.201216 -12.13  0.001341962    1.439    0.305
        65  -9.9102    163.9101     43.1966   6.0842436240e+01   3.8496968321e+01    0.6418803   0.06737644 -27.70  0.001287997    7.696    0.870
        66 -11.1124    187.6913     40.8610   5.6400131190e+01   3.2801899063e+01    0.4307734    0.3831469  13.86   0.00117884    1.172    0.146
        67  -9.6758    164.0050    241.4235   1.0347863379e+02   8.4645659781e+00    0.4064605   0.08104992 -44.67  0.001644017    6.649    0.850
        68  -9.8207     83.9717    232.5645   1.1675271301e+02   1.9862814110e+01    0.2888473    0.1434955  53.63  0.001010362    1.783    0.439
        69 -10.7583     32.8195     30.9063   9.7671935880e+01   6.8136367427e+01    0.5184603    0.1448856 -53.30  0.001870913    3.096    0.677
        70 -10.2327    163.4413    213.1691   1.0008559261e+02   1.1951760422e+01    0.6177709    0.1958112 -48.35  0.002674319    4.515    0.779
