#   1 NUMBER                 Running object number                                     
#   2 MAG_AUTO               Kron-like elliptical aperture magnitude                    [mag]
#   3 X_IMAGE                Object position along x                                    [pixel]
#   4 Y_IMAGE                Object position along y                                    [pixel]
#   5 X_WORLD                Barycenter position along world x axis                     [deg]
#   6 Y_WORLD                Barycenter position along world y axis                     [deg]
#   7 A_WORLD                Profile RMS along major axis (world units)                 [deg]
#   8 B_WORLD                Profile RMS along minor axis (world units)                 [deg]
#   9 THETA_WORLD            Position angle (CCW/world-x)                               [deg]
#  10 FWHM_WORLD             FWHM assuming a gaussian core                              [deg]
#  11 ELONGATION             A_IMAGE/B_IMAGE                                           
#  12 ELLIPTICITY            1 - B_IMAGE/A_IMAGE                                       
         1 -15.3647    245.7281     53.0544   5.3869329537e+01   1.6843330462e+01      6.92596    0.8453285 -29.33   0.01492524    7.456    0.866
         2 -14.8307     59.3362     55.8892   9.7050161285e+01   5.7618661160e+01     1.620066      1.32889  36.59   0.01035234    1.448    0.310
         3 -11.6093      2.0892     19.1299   1.0746236344e+02   6.9561069951e+01    0.3379954    0.1330188 -57.15  0.001900338    1.939    0.484
         4 -13.0313    127.9122     13.5299   6.1020985762e+01   5.1830474804e+01    0.5404052     0.379549 -37.60   0.00279816    1.543    0.352
         5 -12.2646      3.0669      6.3551   1.0247347969e+02   7.1731698343e+01    0.5176068    0.2633141 -62.36  0.002962914    2.470    0.595
         6 -11.9459     59.4273      3.8616   7.6618874111e+01   6.6238903616e+01     0.313668    0.1871957 -41.68  0.001747314    1.983    0.496
         7 -11.4116    114.3850      3.1180   5.9907391030e+01   5.5993079670e+01    0.2711756    0.1559108 -35.56  0.001323481    1.894    0.472
         8 -11.2451     73.8868      2.1225   7.0723035615e+01   6.4121470773e+01    0.2629457    0.1286515  43.39  0.001338217    2.006    0.502
         9 -14.2341     89.0268    201.5167   1.1585218536e+02   2.2996390586e+01     3.527708     1.016269  43.71   0.01527189    2.983    0.665
        10  -9.8625     61.0420    250.5387   1.2441892761e+02   1.8564855009e+01    0.1493719   0.07193004  50.27  0.001017624    1.565    0.361
        11 -10.7249      7.1987    249.5220   1.3186257923e+02   2.4637171482e+01    0.3073631    0.1779097  44.61  0.002547392    1.808    0.447
        12 -13.4188     96.2710    180.1716   1.1200391708e+02   2.5946877895e+01     2.908424    0.8093004  43.83    0.0114295    3.210    0.688
        13 -12.8847     56.4040    178.6460   1.1957162874e+02   3.1718208975e+01     1.778755     1.154212  50.53    0.0116628    1.460    0.315
        14 -12.7892     79.3102    222.0237   1.1948539616e+02   2.0763041208e+01     2.055747     1.255801  53.37   0.01164143    1.318    0.241
        15 -13.8111     25.0357    186.0528   1.2590816021e+02   3.3733069370e+01     1.934901    0.5185246  41.35  0.009827447    3.192    0.687
        16 -13.6996     38.9710    210.4238   1.2522559666e+02   2.7776268179e+01     2.607878     1.233022  61.76   0.01664699    1.711    0.416
        17 -13.6456     61.5891    217.0185   1.2200326366e+02   2.3936846864e+01    0.8609316    0.3843407  66.21  0.004228579    2.133    0.531
        18 -12.5610     21.8445    213.5628   1.2813473921e+02   2.9043827036e+01    0.9560077    0.2400361  61.85  0.004174521    4.168    0.760
        19 -12.4483     15.2627    227.8525   1.2984589525e+02   2.7281397137e+01    0.6034519      0.16304  55.83  0.003426173    2.626    0.619
        20 -12.8520     12.0535    217.5215   1.2982964056e+02   2.9327596486e+01     1.275135    0.6019588  66.97  0.009021778    1.575    0.365
        21 -11.6621    115.3380    193.7324   1.1006487583e+02   2.0371991302e+01    0.5023995    0.3113574 -77.26  0.002625079    1.876    0.467
        22 -11.8889      2.6892    187.6933   1.2979265084e+02   3.5484591514e+01    0.5172805    0.1811625 -82.33  0.002983826    2.255    0.556
        23 -11.9408      5.0712    173.5189   1.2858297916e+02   3.7955886151e+01    0.4547435    0.3083403  81.66  0.002517313    1.047    0.045
        24 -13.4410    100.2843    161.7370   1.0862937226e+02   2.9019502563e+01     1.584604    0.7856527  43.79  0.007248414    1.965    0.491
        25 -11.7883     61.8061    161.4354   1.1665540368e+02   3.4546488653e+01    0.4253943     0.311263  75.13  0.001853384    1.199    0.166
        26 -10.6160     27.2134    157.4848   1.2325720821e+02   3.9168096135e+01    0.2630076     0.152562 -89.17  0.001679013    1.415    0.294
        27 -10.4168     23.2141    154.5431   1.2379279527e+02   4.0144901112e+01    0.2145675    0.1215184  48.34  0.001394998    1.765    0.433
        28 -12.7263     44.7996    149.5907   1.1885395800e+02   3.9020763759e+01    0.9624786    0.5020537  68.63  0.005175809    2.076    0.518
        29 -12.2436     31.6357    147.3333   1.2139120000e+02   4.0848381008e+01    0.7867645    0.3761958  77.94  0.003953508    2.352    0.575
        30 -11.1088      1.8168    149.7754   1.2762522412e+02   4.2887523647e+01    0.3051418    0.1203144 -75.45  0.001778557    1.877    0.467
        31 -10.1515     14.7628    147.4386   1.2487870409e+02   4.2343514676e+01    0.1915094    0.1040016  34.95  0.001226687    2.192    0.544
        32 -12.3108     56.2428    139.1941   1.1506254477e+02   3.9952530194e+01     0.667219    0.3973039  68.05  0.003263395    1.814    0.449
        33 -11.5956      2.2846    138.0232   1.2665283330e+02   4.5241616128e+01    0.3986376     0.196039 -87.72  0.002224612    1.606    0.377
        34 -13.1373      7.3576    130.1009   1.2491218441e+02   4.6518278681e+01    0.8583836    0.5615385  53.20  0.004764284    1.612    0.379
        35 -12.5050     79.7946    132.6125   1.0860410628e+02   3.8334308171e+01    0.5427943    0.4054652  68.32  0.002500124    1.367    0.268
        36 -12.1401     73.0530    129.4473   1.0968361300e+02   3.9963953193e+01    0.4231578    0.3273503 -62.07   0.00231988    1.191    0.161
        37 -12.3411     41.8096    129.9834   1.1715075704e+02   4.3546576226e+01    0.7347769    0.4591691  65.95  0.004395597    1.676    0.403
        38 -12.8275    117.7301    125.0569   9.8089252634e+01   3.3805081346e+01    0.8054365    0.6251366 -32.78  0.004200731    1.549    0.354
        39 -11.8498     28.0874    124.9959   1.1971822208e+02   4.5939275212e+01    0.5352755    0.3005026 -87.04  0.003131432    1.629    0.386
        40 -13.5470      7.4472    112.1149   1.2311690020e+02   5.0304034656e+01     1.570202    0.7419316  78.22  0.008379117    2.433    0.589
        41 -12.1246     14.7656    106.9914   1.2074001007e+02   5.0890844493e+01    0.5322078    0.2880134  47.83  0.002931578    2.110    0.526
        42 -12.6697     25.2502    103.4131   1.1759289164e+02   5.0863902048e+01     0.961542    0.6082363  40.80   0.00618111    1.867    0.464
        43 -13.6169     57.6930    118.0704   1.1157028144e+02   4.4420732413e+01     1.040419    0.8709355 -64.88  0.005319495    1.113    0.101
        44 -12.3985     43.3498    113.5849   1.1446504372e+02   4.6983436737e+01    0.8572889    0.5281173  75.11  0.004781269    1.900    0.474
        45 -11.3912    100.6411    121.2195   1.0143545812e+02   3.7629809199e+01    0.4141764    0.3000134 -89.92  0.002121008    1.636    0.389
        46 -12.3739     77.4955    113.5388   1.0572713845e+02   4.2878120137e+01    0.6754134    0.4864565  19.84  0.003654395    1.952    0.488
        47 -13.0800     66.8095    105.2763   1.0690887849e+02   4.6145874929e+01     1.521714    0.4965831  45.92  0.005839385    3.606    0.723
        48 -14.2416     77.4467     88.6464   1.0033189711e+02   4.8371598721e+01     2.625872     1.070611  53.89  0.009129261    4.237    0.764
        49 -12.9630     45.0101     98.9942   1.1161316419e+02   5.0034175847e+01    0.7097122    0.3834034  26.37  0.003797166    2.427    0.588
        50 -14.3545     59.7792     93.2929   1.0640173639e+02   4.9663637186e+01     1.500435    0.5277132 -55.34  0.006356302    2.310    0.567
        51 -13.5051     42.6705     89.4286   1.1048793974e+02   5.2367947600e+01     1.099727    0.7883799  50.01  0.006904307    1.655    0.396
        52 -10.1440     52.6571    244.8111   1.2529434566e+02   2.0460400564e+01     0.216281    0.1205971  69.82  0.001212295    1.363    0.266
        53 -13.6191    112.9974     96.6886   9.2634875680e+01   4.0771627707e+01     1.089649    0.7156852 -45.71   0.00525741    1.447    0.309
        54 -11.9553     68.6006     93.5544   1.0397349310e+02   4.8505879557e+01    0.6606863    0.4299572  88.74  0.003230999    2.202    0.546
        55 -11.6540    127.9241     92.5235   8.7695621096e+01   3.8714469484e+01     0.487969    0.1920994 -52.03  0.001639614    2.906    0.656
        56 -10.4687      1.9759     90.5090   1.2198222836e+02   5.5224697515e+01    0.2190246    0.1216573 -86.72  0.001337015    1.616    0.381
        57 -12.2260     23.2591     81.7502   1.1469552789e+02   5.5710415153e+01    0.9309203    0.4792817 -24.78  0.004553253    3.325    0.699
        58 -10.8492     12.0073     81.0013   1.1784888198e+02   5.6647111144e+01    0.1843011    0.1346838 -63.99  0.001138714    1.053    0.050
        59 -10.5953      2.5849     78.6898   1.2021602732e+02   5.7685055367e+01    0.2784846    0.0942129 -64.41  0.001452438    1.986    0.496
        60 -13.6801     50.1828     65.1739   1.0269899420e+02   5.6789870300e+01     1.060878    0.5451128  52.79  0.004898528    3.111    0.679
        61 -10.5798     16.4933    245.0168   1.3043434600e+02   2.4410390955e+01    0.2164941   0.08635303  52.53  0.001315338    1.774    0.436
        62 -11.6302     27.8563     58.6393   1.0846651719e+02   6.0233500138e+01    0.3842481    0.2987722  24.92  0.002684727    1.620    0.383
        63 -10.7594      2.6669     40.3043   1.1306051374e+02   6.5533304570e+01    0.2013125     0.136371   9.65  0.001455559    1.920    0.479
        64 -10.7797      4.7037     60.0923   1.1650458079e+02   6.1448129806e+01    0.2035443    0.1753687 -63.79  0.001504678    1.172    0.146
        65 -12.6887     65.5104     29.1241   8.5541511844e+01   6.1684071789e+01    0.5484326    0.4067174  49.19  0.003260682    1.793    0.442
        66 -11.0396     21.4574    241.5798   1.2959650661e+02   2.4440667888e+01    0.3105289    0.1771255  54.89  0.001856386    1.364    0.267
        67 -11.0250      1.3418    242.3158   1.3237814735e+02   2.6302638095e+01    0.1772622   0.06343786 -84.28 0.0009739859    2.306    0.566
        68 -12.2853     16.4290    166.9680   1.2609387563e+02   3.8253735525e+01     2.178437    0.8105155  47.94    0.0124658    2.424    0.587
        69  99.0000     56.5148    236.3462   1.2418632756e+02   2.1334301757e+01    0.8177541    0.4357321  54.86  0.004930177    1.408    0.290
        70  99.0000     35.2040    231.3786   1.2709414005e+02   2.4614999781e+01    0.9772885    0.5388165  57.27  0.007309767    1.355    0.262
