#   1 NUMBER                 Running object number                                     
#   2 MAG_AUTO               Kron-like elliptical aperture magnitude                    [mag]
#   3 X_IMAGE                Object position along x                                    [pixel]
#   4 Y_IMAGE                Object position along y                                    [pixel]
#   5 X_WORLD                Barycenter position along world x axis                     [deg]
#   6 Y_WORLD                Barycenter position along world y axis                     [deg]
#   7 A_WORLD                Profile RMS along major axis (world units)                 [deg]
#   8 B_WORLD                Profile RMS along minor axis (world units)                 [deg]
#   9 THETA_WORLD            Position angle (CCW/world-x)                               [deg]
#  10 FWHM_WORLD             FWHM assuming a gaussian core                              [deg]
#  11 ELONGATION             A_IMAGE/B_IMAGE                                           
#  12 ELLIPTICITY            1 - B_IMAGE/A_IMAGE                                       
         1 -12.6123    119.9916     37.6770   3.2392639726e+01   5.0053540468e+01     1.819072    0.4439571 -34.53  0.001875185    3.893    0.743
         2 -12.6165    160.0235     29.7212   2.2549713371e+01   4.0912571561e+01    0.4195379    0.4027599 -35.41 0.0005186312    1.175    0.149
         3 -12.1762    104.8019     13.1933   2.6331893178e+01   5.6735741220e+01    0.5325603     0.440944 -12.29  0.002332727    1.370    0.270
         4 -11.8179    105.9063     20.8991   2.9212050898e+01   5.5651848445e+01    0.4051102    0.3410961 -52.80 0.0007289505    1.319    0.242
         5 -10.1204     13.1602      2.1308   5.8911216302e+01   7.6256366683e+01    0.2257965     0.164004  -0.00 0.0009969438    1.204    0.169
         6 -11.8815     26.2938     28.4428   6.4631434308e+01   7.0330767661e+01    0.5954079    0.4426341 -21.55  0.003027932    1.238    0.192
         7 -12.0379     20.3646     22.0854   6.5297069108e+01   7.2171585149e+01    0.8117479    0.3947762 -29.97  0.003880431    2.190    0.543
         8 -11.1382      5.9236     10.4985   6.9632236267e+01   7.5654372855e+01    0.4735361    0.3367035  10.21  0.003106168    1.333    0.250
         9 -10.5069     12.3813      8.4329   6.3477917713e+01   7.5372574393e+01     0.480797    0.2919249 -56.39  0.002547926    2.340    0.573
        10 -12.2130     16.5838     13.6084   6.3403701517e+01   7.4059117783e+01    0.7687266    0.3957591 -17.53  0.003322779    2.536    0.606
        11 -11.8413     22.5330     11.2810   5.7998855171e+01   7.3705391490e+01    0.4633208    0.2837594  16.69   0.00227371    1.639    0.390
        12 -10.4401     11.6068     30.2638   7.4699467415e+01   7.1468738546e+01    0.4058408    0.2424004 -39.94  0.001570223    1.435    0.303
        13  -9.7823    120.8787     11.6265   2.2607819118e+01   5.2839211206e+01     0.514753    0.1689346  65.42  0.001844935    2.566    0.610
        14 -11.3062    135.3159     22.5819   2.4048588438e+01   4.8024708237e+01    0.6366804    0.3510204  61.44  0.002978131    1.618    0.382
        15 -11.2613    135.0646     15.1281   2.1536584909e+01   4.8876098999e+01    0.5861299    0.3407425  60.58  0.002420222    1.530    0.346
        16 -11.0813    127.3768     16.2821   2.3187410351e+01   5.0725369668e+01    0.4014622      0.22442  52.57   0.00114825    1.664    0.399
        17 -11.1336    179.2010     20.5997   1.7576501953e+01   3.7208838951e+01     0.501723    0.2560953  42.41  0.002164006    2.750    0.636
        18 -11.7456     35.5433     18.1354   5.3960498067e+01   7.0796593795e+01     0.588621     0.267707 -28.03  0.002110056    2.537    0.606
        19 -13.0938    164.1995     18.5552   1.8679614244e+01   4.1127235767e+01    0.5354804    0.3063822  44.07  0.002226783    2.118    0.528
        20 -10.0972    127.3329     11.6646   2.1542300586e+01   5.1190598253e+01    0.3128707    0.2156218 -84.38  0.001617331    1.538    0.350
        21 -11.4104     68.1025     18.6308   3.9251393502e+01   6.4696000725e+01    0.4081411    0.3750278   7.46     0.001473    1.088    0.081
        22 -11.3564     86.2734     14.1751   3.1293203214e+01   6.1126004800e+01    0.4938468     0.407243 -12.17  0.002027255    1.327    0.246
        23  -9.8459     87.5782      7.5417   2.7907250669e+01   6.1468844916e+01     0.516615     0.243751  63.18  0.001927238    1.912    0.477
        24 -12.1353    227.5320     15.1566   1.2188125049e+01   2.6867984881e+01    0.4902259     0.260998 -80.47  0.002668441    1.878    0.468
        25 -10.4710    148.1441     16.2021   1.9998914166e+01   4.5426669119e+01    0.4276406    0.2050469  46.92  0.001579409    2.314    0.568
        26 -12.0499     47.9135     12.7378   4.4541262781e+01   6.9450535413e+01     0.635807    0.3312008  50.14  0.003118119    1.958    0.489
        27 -11.7063    192.4594      8.7736   1.3225096231e+01   3.5285840274e+01    0.6091711     0.388846   7.88  0.002433927    2.746    0.636
        28 -11.2605    223.9058      2.6110   9.6511634608e+00   2.8917290749e+01    0.2652003    0.1978791 -89.66 0.0004335661    1.247    0.198
        29 -11.5506    212.3633      8.9430   1.1796262969e+01   3.0760520182e+01    0.5542846    0.3472387  -4.52  0.002866196    2.645    0.622
        30 -10.7634    218.5906      4.0551   1.0280552539e+01   2.9901653495e+01    0.2890917    0.2238424  83.41 0.0009565114    1.271    0.213
        31 -11.4721    169.0949      9.3885   1.5488575214e+01   4.0842108762e+01    0.7006101    0.1783472  63.26  0.002557896    3.175    0.685
        32  -9.9719    163.9347      5.7079   1.4946611783e+01   4.2466125681e+01    0.4145295    0.2554676  19.49  0.001967142    2.613    0.617
        33  -9.6953    145.1220      9.8852   1.8369774182e+01   4.6815980861e+01    0.2034997    0.1424161  44.87  0.000481911    1.563    0.360
        34 -11.3898    155.2621      7.3836   1.6364263290e+01   4.4480787700e+01    0.5584811    0.2343718  75.68   0.00238833    2.176    0.540
        35 -10.5830    152.5293      1.4440   1.4841648169e+01   4.5692981256e+01     0.388515    0.1214047  79.46  0.001375599    3.224    0.690
        36 -10.1661      1.0000      7.5268   7.2019388405e+01   7.6574387471e+01     0.311936    0.0941015 -50.83  0.001394254    2.820    0.645
        37 -10.9250      2.2258      2.0572   6.7791731423e+01   7.7402829730e+01    0.3469266     0.200947  -0.80  0.002037264    1.747    0.428
        38 -11.3433    184.5829      5.9638   1.3140401222e+01   3.7416361070e+01    0.4718694     0.250938 -44.96  0.001765396    1.709    0.415
        39  -9.8132     62.1531      7.3206   3.5578445576e+01   6.7239520841e+01    0.2218287    0.1655049   3.53   0.00102926    1.414    0.293
        40 -10.6304    232.7821      7.3791   1.0181354790e+01   2.6604251225e+01    0.2536062    0.1604336  87.33  0.001414128    1.506    0.336
        41 -11.9953    233.4916      2.8242   9.1766104812e+00   2.6919769895e+01    0.4855173    0.2018877 -65.64 0.0007231821    2.250    0.556
        42 -11.0198    122.2166      5.2652   2.0033084538e+01   5.3069897593e+01    0.2329236    0.2196005  -4.12  0.000884303    1.231    0.188
        43  -9.2494     77.3311      7.2761   3.0573089548e+01   6.3890978802e+01    0.3200831    0.1775733  79.97  0.001364801    2.685    0.628
        44 -10.4594     74.3480      3.3547   2.9490573499e+01   6.4930376040e+01    0.4541887    0.2317891  64.68   0.00215021    1.909    0.476
        45 -10.6968    247.1062      5.8755   9.1099772579e+00   2.3927679234e+01    0.2268783    0.1224601 -69.85   0.00126765    1.633    0.387
        46 -10.8986    242.0042      3.4846   8.8791136889e+00   2.5158639030e+01    0.2321459    0.1323315  85.09  0.001436068    1.705    0.414
        47  -9.3428    245.5106      1.4667   8.3010205851e+00   2.4678607964e+01    0.1502395   0.09501739  70.10 -1.038497e-05    1.756    0.431
        48 -10.6857    176.8034      5.8670   1.3779785518e+01   3.9293380231e+01    0.3709694     0.160097  85.76  0.001016947    2.328    0.570
        49  -8.9471     18.6791      6.2900   5.7575109893e+01   7.4959159055e+01    0.1030675   0.09636805  48.80 0.0007009538    1.604    0.376
        50 -11.2646    206.1666      2.9154   1.0794888832e+01   3.2729622414e+01    0.3807308    0.2788278  86.59  0.002429047    1.248    0.199
        51 -11.5818    133.8836      2.6463   1.7426250349e+01   5.0317527599e+01    0.4212794    0.2872759  76.73  0.002009251    1.289    0.224
        52  -9.3259    128.6814      1.2969   1.7654976239e+01   5.1751425067e+01     0.222869    0.1217578  78.76 0.0005752161    1.681    0.405
        53 -10.1618     41.4195      3.9045   4.2458134005e+01   7.1702816825e+01    0.3032662    0.2016804  -3.41  0.001729799    1.603    0.376
        54 -10.6758    141.5273      3.5117   1.6746769099e+01   4.8300167047e+01    0.3133726    0.2195859 -82.90  0.001535795    1.374    0.272
        55 -10.6274    105.3668      2.2368   2.1730451988e+01   5.7568920801e+01    0.3273432    0.2439887 -73.48  0.001330617    1.514    0.340
        56 -11.1706     22.2263      3.2221   5.3147649308e+01   7.4914802548e+01    0.2195111    0.1705362  -2.09 0.0004185512    1.103    0.093
        57 -10.6903    114.0026      2.3970   2.0277065967e+01   5.5387994774e+01    0.3816561     0.231778  78.41  0.001324155    1.558    0.358
        58 -10.0003     30.4415    152.0405   9.1097797779e+01   4.0304564653e+01    0.2429454    0.1944155 -10.17  0.001362968    1.619    0.382
        59 -11.2705     49.9425    248.8645   9.4154282979e+01   1.6866842311e+01    0.3750015    0.1975858  60.79  0.002172953    1.767    0.434
        60  -9.5760     93.1361    129.8311   6.8026926481e+01   3.7249550396e+01    0.2431856    0.2097739  71.65  0.001231136    1.248    0.199
        61 -11.1275     10.7419    127.2798   9.4741140616e+01   4.8269950388e+01    0.6365533    0.2484149 -60.26  0.002189786    2.212    0.548
        62  -9.2846     26.7633    127.2662   8.9372438662e+01   4.6983110192e+01    0.1847783    0.1449363 -49.37 0.0003711662    1.312    0.238
        63  -9.5824     22.7486    127.0161   9.0697061873e+01   4.7403062564e+01     0.186727    0.1555644 -80.42 0.0003546854    1.078    0.072
        64  -9.8299     33.0116    125.9625   8.7071448504e+01   4.6722208288e+01    0.2441084    0.1499854  65.74  0.001138841    1.841    0.457
        65 -10.1466      2.1256    125.8908   9.7451907517e+01   4.9177173068e+01    0.2500068    0.1794372  74.59  0.001299315    1.304    0.233
        66 -12.0500    103.7645    122.3932   6.3127850206e+01   3.7067924795e+01    0.3591691    0.3396587  44.81  0.001904772    1.047    0.045
        67 -10.9985     44.3148    117.7862   8.1826242066e+01   4.7612429364e+01     0.548604     0.326489 -78.01  0.002474881    1.793    0.442
        68 -10.3652      6.9648    115.5394   9.4836127802e+01   5.1509506972e+01    0.4468472    0.1807312 -59.76  0.001893062    2.091    0.522
        69 -12.0274      2.4086    112.0027   9.6089708430e+01   5.2672793431e+01    0.4734021    0.2748055 -86.05 0.0008261422    1.562    0.360
        70 -11.4716      5.2079    106.0983   9.4446083137e+01   5.4012755506e+01     0.497095    0.3739733 -87.48   0.00293218    1.213    0.176
        71  -9.9622     79.0079    114.7129   6.9136098989e+01   4.3422963095e+01     0.287216    0.2206335 -47.86 0.0008146029    1.301    0.232
        72  -9.3615     67.9646    115.0159   7.2957604782e+01   4.5125201735e+01    0.2472395     0.176778  68.98  0.001127276    1.721    0.419
        73 -10.7211     30.1946     97.9301   8.3531903078e+01   5.4208022643e+01    0.7003313    0.4426433 -43.21  0.003480637    1.578    0.366
        74 -10.5917     35.2126     92.5120   8.0416114059e+01   5.5072527964e+01    0.3949026    0.2684472 -68.69  0.001432935    1.421    0.296
        75 -11.5845     27.0223     85.1226   8.2300085215e+01   5.7721428855e+01    0.7405884    0.5224444  11.16  0.003955489    1.593    0.372
        76 -12.0900     42.6330     85.1794   7.5640357144e+01   5.6051959210e+01    0.9684627    0.4083263  18.20  0.002883398    3.174    0.685
        77 -11.3914     25.7689    106.9869   8.6823034780e+01   5.2299994739e+01     1.539009    0.7240995  -7.67  0.005444515    3.961    0.748
        78 -13.2214     17.5220    100.4401   8.8985328420e+01   5.4645697333e+01    0.3749284    0.3404869  71.61 0.0005119271    1.151    0.131
        79 -11.7038      9.5400     97.3463   9.1689549661e+01   5.5974020453e+01     0.526613    0.5004969  -5.04  0.001546984    1.194    0.163
        80 -11.9124     21.2639     93.1219   8.6279987203e+01   5.6212399570e+01      1.16445    0.4852804  50.94  0.004403519    3.263    0.694
        81 -11.1607     21.5455    114.5077   8.9500351605e+01   5.0725376450e+01     0.537868     0.282193   0.41  0.002312959    2.718    0.632
        82 -11.2850     28.1860    113.1333   8.6883198662e+01   5.0500373434e+01    0.3524754    0.2972701   4.82 0.0008240177    1.366    0.268
        83  -9.0944     57.6687    114.3059   7.6411991637e+01   4.6804457144e+01    0.1531323     0.109298  66.67 0.0006636024    1.660    0.398
        84  -9.9476     49.0194    112.2052   7.9097589696e+01   4.8478940792e+01    0.2660576    0.2307622  34.49 0.0008661136    1.206    0.171
        85  -8.9071     93.9684    112.4919   6.3726152267e+01   4.1289847489e+01    0.2214781    0.1269873  60.06 0.0008085959    2.428    0.588
        86 -11.0385     79.7493    108.3780   6.7371725057e+01   4.4853291651e+01    0.5289864    0.3376384  29.59  0.001300025    1.685    0.406
        87  -9.4599     67.2383    110.5941   7.2225765324e+01   4.6347274635e+01    0.2921479     0.138166  36.77  0.001143817    2.106    0.525
        88  -9.1350    120.8563    108.7493   5.4759077962e+01   3.6712971143e+01    0.2706429     0.178988   0.83 0.0009597739    2.898    0.655
        89 -10.1221     49.7371    123.2612   8.0892422182e+01   4.5546378511e+01    0.2842463    0.2254586 -12.90  0.001463063    1.557    0.358
        90 -10.1483     15.7460    108.9401   9.0874196235e+01   5.2605041831e+01    0.2380749    0.1936545  36.26 0.0007607859    1.335    0.251
        91  -9.0945    143.4770    105.9997   4.8171637670e+01   3.2324495816e+01    0.2186899    0.1317466 -64.73 0.0008085563    2.447    0.591
        92  -8.6306    118.4387    105.4996   5.4564044880e+01   3.7946325280e+01    0.1540544    0.1518676  89.17 0.0001372632    1.022    0.022
        93  -8.9465    182.4915    104.4631   3.9501225371e+01   2.3949153577e+01     0.144829    0.1362847 -51.54   0.00018063    1.043    0.041
        94  -9.6536     85.9098    103.7973   6.4131428926e+01   4.4862871318e+01    0.2316713    0.2089566 -11.52 0.0006510663    1.221    0.181
        95  -9.5847     50.6976    102.3337   7.6426678861e+01   5.0776511222e+01    0.2848136    0.1813679 -83.56 0.0008691977    1.981    0.495
        96 -10.4886     52.5306     98.4985   7.4858893174e+01   5.1497260677e+01    0.5305763     0.214289 -51.53  0.001303418    2.274    0.560
        97  -8.8573    120.4580    101.4754   5.2899993001e+01   3.8386515357e+01    0.1541546    0.1519814  10.43 5.582494e-05    1.036    0.035
        98  -8.9606     64.7063    101.6987   7.1044500441e+01   4.8950570563e+01    0.2516148    0.1063684 -48.33 0.0002007432    2.305    0.566
        99 -11.7415     68.5387     95.7954   6.8140895989e+01   4.9790488712e+01    0.4052776    0.3247318   7.42 0.0006080733    1.457    0.314
       100 -10.0426     77.6359     96.7324   6.5102404802e+01   4.8030505939e+01    0.2402984    0.1923794  23.38 0.0005009983    1.347    0.258
       101 -10.9471     80.1934     92.8892   6.3139519809e+01   4.8480163812e+01    0.8219026    0.4530008  42.09   0.00342027    1.830    0.454
       102 -10.7392     42.9392     94.3840   7.7689110879e+01   5.3738942418e+01     0.402812    0.3390752 -58.96  0.002240245    1.111    0.100
       103 -11.7022    126.0073     94.6943   4.9481772887e+01   3.8589180334e+01    0.2722239    0.2658451  51.57 0.0002000417    1.017    0.017
       104 -10.4205    121.6429     93.7923   5.0403027305e+01   3.9758436953e+01       0.5134    0.2741304 -53.99  0.001886711    2.154    0.536
       105 -10.6051     98.6995     91.0936   5.6406036216e+01   4.5294599532e+01    0.3177024    0.2409524  47.55 0.0004648501    1.324    0.245
       106 -11.4214     89.9444     88.5587   5.8522641070e+01   4.7624568439e+01    0.6924483    0.3482041 -41.61  0.001793617    2.077    0.519
       107 -10.2862     49.3346     91.4730   7.4440324831e+01   5.3664396981e+01    0.3820476    0.2606997  28.79  0.001881336    1.537    0.350
       108 -11.6824      7.1056     88.8942   9.1484979078e+01   5.8243237885e+01    0.5661392    0.3735793   7.42  0.001990936    1.759    0.431
       109 -10.0473     66.1773     88.7744   6.7130293297e+01   5.1853843084e+01    0.3403686    0.2245759  -9.18  0.001399711    2.333    0.571
       110  -9.1129    199.5090     88.4594   3.2650991339e+01   2.3003900047e+01    0.1392993    0.1275255 -49.23 0.0003286755    1.006    0.006
       111 -10.0768    104.1508     87.4940   5.3626781074e+01   4.4932244778e+01    0.2517626    0.2144898 -13.58    0.0012411    1.349    0.259
       112 -10.5122     79.9785     84.2140   6.0685279968e+01   5.0510125800e+01    0.4406107    0.4039818  14.65  0.002370666    1.126    0.112
       113 -11.1278     76.3885     79.8792   6.0663265555e+01   5.2142872720e+01    0.6737084    0.3148084 -52.81  0.001610681    2.239    0.553
       114 -10.2642     72.9883     78.0046   6.1348873634e+01   5.3174808279e+01    0.3377413    0.2821702 -73.61  0.001381851    1.411    0.291
       115 -10.3174    143.2733     84.5939   4.2268535200e+01   3.6580607187e+01    0.2507488    0.2443143  13.76 0.0003078087    1.089    0.082
       116 -10.0703    113.2753     82.7764   4.9468661574e+01   4.3913020321e+01    0.3207033    0.2471365 -50.75 0.0006698432    1.344    0.256
       117  -9.9067     66.9880     81.7751   6.4804043463e+01   5.3356910624e+01    0.3783274    0.2871006   7.74  0.001837639    1.581    0.367
       118 -11.1891     59.1049     77.8601   6.6770194114e+01   5.5524446464e+01    0.5141883    0.4091374 -14.32  0.002652395    1.417    0.294
       119  -9.9027      1.3396     80.8659   9.2790247665e+01   6.0529980400e+01    0.2175013    0.1059257 -74.61 0.0004586146    1.804    0.446
       120  -9.1635     91.3375     72.2955   5.2919170833e+01   5.0827659952e+01    0.5550399    0.3563655  12.75  0.002136597    2.596    0.615
       121 -10.1575     88.8006     77.8244   5.5592961625e+01   5.0197140106e+01    0.4886272    0.3133351  60.42  0.002060392    1.983    0.496
       122 -10.0576     94.1889     76.3861   5.3319463892e+01   4.9388941127e+01    0.5308313    0.3053962  45.35  0.001954587    1.721    0.419
       123 -11.6531     13.0178     73.9058   8.6288045254e+01   6.1582841910e+01    0.5962332    0.4270012 -74.85  0.003374835    1.355    0.262
       124  -9.7194     14.0255     67.4950   8.4447245020e+01   6.3057348231e+01    0.4173434     0.203313  11.35  0.001942811    2.349    0.574
       125  -9.6771    233.4680     77.5522   2.5571238828e+01   1.7744118462e+01    0.1280456      0.10865 -46.30  7.59153e-05    1.006    0.006
       126  -9.0059     19.3499     76.2650   8.3837377000e+01   6.0550603381e+01    0.1390579   0.08857626 -32.84 0.0006983231    1.615    0.381
       127  -9.0277    112.4805     75.4817   4.7400017720e+01   4.5548719466e+01    0.1519932     0.148685  66.01 6.754875e-05    1.023    0.022
       128  -9.7521    103.8132     74.8939   4.9776151421e+01   4.7616053530e+01    0.2894397    0.2269083  60.79  0.001357634    1.372    0.271
       129 -11.0291      2.0217     71.7928   9.1068707651e+01   6.2713809501e+01    0.3894228    0.1753197 -63.19  0.001594237    1.777    0.437
       130 -10.5707    187.0076     71.5329   3.0296293261e+01   2.8491334660e+01    0.4431701    0.2924985 -33.96   0.00183428    1.490    0.329
       131 -11.4057     53.2719     76.3160   6.8730898524e+01   5.6754239904e+01    0.6305684    0.4029039 -63.88  0.002935337    1.732    0.423
       132  -9.8291     24.9811     73.5672   8.0616524811e+01   6.0730547192e+01    0.4516281    0.2206308 -28.21  0.001855329    2.642    0.621
       133 -11.3217     35.1149     71.8914   7.5485440174e+01   6.0112958736e+01    0.7172672    0.2344007  27.90  0.002643837    3.108    0.678
       134 -10.4441     40.7313     73.3375   7.3332156526e+01   5.9119915775e+01    0.2334877    0.1999976 -75.82 0.0005376782    1.296    0.229
       135 -11.6238     40.5891     69.1419   7.2184508953e+01   6.0113194987e+01    0.3302596    0.2989762  30.81 0.0008273945    1.184    0.156
       136  -9.5712    153.4626     72.8280   3.6621648952e+01   3.6249321785e+01    0.3007213    0.1793602  41.04 0.0008943258    1.919    0.479
       137  -9.0049     19.3166     72.2614   8.2971752369e+01   6.1523021558e+01    0.1357147   0.08832067 -33.39 0.0002778757    1.543    0.352
       138 -11.2448    123.0961     68.7316   4.2327746127e+01   4.4333210639e+01     0.538556    0.2729966  49.25  0.002141733    1.912    0.477
       139 -10.7212     78.6781     67.6573   5.5801184075e+01   5.4331599116e+01      1.02732    0.5013471 -61.88  0.003283869    3.827    0.739
       140 -10.6834     82.5949     47.5316   4.6880649702e+01   5.7335092531e+01    0.5758991    0.3733241 -10.31  0.002347205    2.224    0.550
       141 -10.9390     75.9981     54.7631   5.2113410871e+01   5.7396369458e+01    0.4080569    0.2306173  35.88 0.0009966703    1.819    0.450
       142 -11.5955     73.6881     49.8469   5.1076159831e+01   5.8760944463e+01    0.8733233    0.3993555 -53.07  0.001567209    3.104    0.678
       143 -10.3994    219.9310     66.9147   2.4714700933e+01   2.1968917167e+01    0.3898945    0.1933061  69.72  0.001809565    2.368    0.578
       144  -9.5298     25.9722     65.7150   7.8145209813e+01   6.2500840017e+01    0.1754778    0.1609255   6.87 0.0004213518    1.154    0.134
       145 -12.7328      6.0634     61.8131   8.7198102405e+01   6.4895984134e+01    0.7282814    0.5021321 -30.09  0.002626111    1.411    0.291
       146  -9.8006     13.8771     56.1846   8.1769131689e+01   6.5712058254e+01    0.1998843    0.1590808 -40.96 0.0003463475    1.092    0.085
       147 -11.1214     91.6871     62.4950   4.9414691189e+01   5.2684477687e+01     0.415558    0.2756543  59.05  0.001260985    1.719    0.418
       148  -9.2554     52.1754     65.6612   6.5868634143e+01   5.9322626216e+01    0.1963779     0.130154  19.63 0.0007539058    1.674    0.403
       149 -10.1890     58.6741     63.3501   6.2262446475e+01   5.8811541551e+01    0.3814737    0.2830143  66.49  0.001441349    1.920    0.479
       150  -9.7168     64.3732     61.5359   5.9228977214e+01   5.8231463466e+01    0.4196686    0.2161908  37.28  0.001789992    1.947    0.486
       151 -10.7897     40.5588     56.8742   6.8276342604e+01   6.2857312130e+01    0.3708569    0.2298715  29.26  0.000912444    1.655    0.396
       152 -10.3490     50.5467     61.5013   6.5192580161e+01   6.0469674752e+01    0.3417758    0.2294693  42.35  0.001338513    1.614    0.381
       153 -11.1677     43.1658     62.3429   6.8870322809e+01   6.1320279020e+01    0.3073001    0.2399049 -36.55 0.0005785337    1.208    0.172
       154 -10.7741     46.1546     59.1500   6.6397645331e+01   6.1609422161e+01    0.2968384    0.2787026 -87.01 0.0008735672    1.284    0.221
       155 -10.2088    158.0257     63.2303   3.2913439243e+01   3.6722740401e+01    0.4396481    0.1942583  51.56  0.001443047    2.248    0.555
       156  -9.6026    154.7889     60.9392   3.2841975645e+01   3.7883841150e+01    0.1998724    0.1894676  70.08            0    1.054    0.051
       157 -10.9872    234.5264     61.1160   2.1808631315e+01   1.9829664888e+01    0.3235492    0.2487208  80.00  0.002029998    1.430    0.301
       158  -9.6696     85.1282     61.8554   5.1425230126e+01   5.4193250905e+01    0.2266267    0.2064696  71.45 0.0006866377    1.240    0.194
       159  -9.7866    109.9878     40.8251   3.5972196018e+01   5.2084629582e+01    0.5735193    0.4970037  55.22  0.002051596    1.082    0.076
       160 -10.3871    112.3892     50.7931   3.9007507185e+01   4.9978802313e+01    0.3012192    0.2640002 -24.26 0.0007881078    1.224    0.183
       161 -11.7679    116.0178     49.0163   3.7430643284e+01   4.9378343784e+01    0.8830742     0.283761 -38.94  0.001517583    3.117    0.679
       162 -11.1409    118.1371     44.6361   3.5337682185e+01   4.9523704094e+01    0.5109352    0.3658997 -72.58  0.001485101    1.801    0.445
       163  -9.0562    113.3133    249.3217   8.1042587127e+01   8.7865489219e+00    0.1162792   0.08630313   2.83  0.000502909    1.655    0.396
       164  -9.9570    106.6996     58.8794   4.3468275831e+01   4.9971004465e+01    0.3524249    0.2316047 -76.13   0.00138001    2.604    0.616
       165 -11.4123     32.3252     52.9812   7.1059521166e+01   6.4706432052e+01     1.515508    0.4818007  18.32  0.004325552    5.736    0.826
       166  -9.5025     29.5137     60.4942   7.4902961181e+01   6.3350514324e+01    0.3465776    0.2604062 -72.59  0.001900857    1.527    0.345
       167 -10.5071     24.9805     59.4896   7.6894162249e+01   6.4030130013e+01    0.5295872     0.234032  41.24  0.002192325    2.753    0.637
       168 -10.8796     25.1979     56.1945   7.5797799155e+01   6.4753392155e+01    0.5269998    0.2677646 -18.20  0.002164292    2.842    0.648
       169  -9.0777    135.6786     58.6387   3.6040055240e+01   4.2993574791e+01    0.1557794    0.1160432  20.97 0.0007042398    1.775    0.437
       170 -10.0028     91.7137     57.2008   4.7485385772e+01   5.3661775601e+01    0.2756153     0.200225  51.18 0.0008595986    1.367    0.269
       171 -10.1900     87.8817     56.0483   4.8339874583e+01   5.4701362549e+01    0.4441986    0.2097762 -32.01   0.00157121    2.496    0.599
       172  -9.5802     79.6968     58.6659   5.2206692768e+01   5.5916577131e+01    0.1504482     0.113694   0.86 0.0003457249    1.661    0.398
       173 -10.4892    157.8739     55.1695   3.0551617309e+01   3.8009799058e+01    0.4605875    0.3333794 -74.19  0.002239772    1.571    0.363
       174  -9.4397    125.1566     56.8221   3.7874753008e+01   4.5888796641e+01    0.2304635    0.2028783 -80.63 0.0008812122    1.223    0.182
       175  -9.8113     51.4415     56.5180   6.3022279402e+01   6.1390041354e+01    0.2719685    0.2149157  21.03  0.000747024    1.279    0.218
       176  -9.5046     47.6404     54.2022   6.3933565520e+01   6.2440907192e+01    0.2073854    0.1317252 -48.80 0.0002702721    1.546    0.353
       177 -10.2216     51.8162     48.1567   5.9658340822e+01   6.3014549654e+01     0.308328    0.2182766  42.76 0.0005784362    1.511    0.338
       178 -11.1961     45.2400     49.4758   6.3298381541e+01   6.3758192212e+01    0.5317929    0.3479198 -39.04  0.002131008    1.463    0.316
       179 -11.0902     44.0382     43.9608   6.1696777121e+01   6.5025003929e+01    0.2856537    0.2331207  15.20  0.001658135    1.195    0.163
       180 -11.2478     39.6222     44.0839   6.3979679456e+01   6.5629902138e+01    0.5678747    0.3187369  13.49  0.001815959    2.290    0.563
       181  -8.8643     33.9324     57.0000   7.1589798509e+01   6.3645050319e+01    0.2169301   0.07579397  27.00 0.0008097551    2.993    0.666
       182  -9.2133     66.8379     54.8993   5.5760693250e+01   5.9120564330e+01    0.1873919     0.173423 -82.06  0.001000425    1.319    0.242
       183  -9.7500    247.0000     53.9936   1.9095898594e+01   1.8376114434e+01     0.200431   0.05816732 -33.51 0.0007970339    2.905    0.656
       184 -11.2144     60.7699     48.0299   5.5602650891e+01   6.1526333385e+01    0.7814701    0.3595224 -37.97  0.003100439    2.247    0.555
       185  -9.2766     55.5836     50.5277   5.8879367070e+01   6.1938430832e+01     0.138458    0.1277342  -9.57 8.905451e-05    1.014    0.013
       186 -10.2393    240.0478     50.6896   1.8998958176e+01   2.0126671778e+01    0.1992973    0.1660074 -11.37 0.0007688274    1.542    0.351
       187  -9.8501      1.9500     49.0596   8.6532942934e+01   6.8052160533e+01    0.1891307    0.1626352 -46.43 0.0006378372    1.036    0.035
       188  -9.2849    174.0345     48.6178   2.6036263723e+01   3.4978661713e+01    0.3835191    0.1368199  77.79 0.0009521495    6.331    0.842
       189  -9.8777    146.3736     47.2828   3.0221867203e+01   4.2050878528e+01    0.2417583    0.2199557   4.14 0.0007621837    1.293    0.227
       190 -11.0208     20.8551     45.7750   7.4783432745e+01   6.7448646289e+01    0.4337277    0.2194771 -36.50 0.0009408707    1.910    0.476
       191 -11.2472     26.0004     42.7915   7.0812247115e+01   6.7561056607e+01    0.3570641    0.2755148  54.85   0.00153411    1.781    0.439
       192 -10.3076     22.3903     37.1458   7.0717276814e+01   6.9091391863e+01    0.3712243    0.1848411  38.16  0.001528192    2.328    0.570
       193  -9.7638     13.7364     46.1551   7.8969493038e+01   6.7968491941e+01     0.251346    0.1363666 -42.65  0.001297517    1.596    0.373
       194 -10.5564    137.7617     44.6728   3.1038680404e+01   4.4599455048e+01    0.6815917    0.2542946  46.23  0.001844596    2.988    0.665
       195 -10.0357    200.1943     45.0808   2.1698747892e+01   2.9279041505e+01    0.3719337    0.1791281  85.84  0.001517981    2.778    0.640
       196 -10.3950    155.8125     42.3495   2.7029766392e+01   4.0360948458e+01    0.2967343    0.2450331  41.85  0.001109001    1.352    0.260
       197 -11.4242      4.6542     36.1777   8.1314186419e+01   7.0737300832e+01    0.4337195    0.3030744  -9.29  0.002078557    1.421    0.296
       198  -9.7260     91.7549     41.9746   4.1609273864e+01   5.6222184422e+01    0.3405013    0.2055492  71.39  0.001394262    2.396    0.583
       199  -9.8026     17.1320     41.6524   7.5506725097e+01   6.8660417396e+01    0.2797208    0.1274231 -41.87  0.001315583    1.947    0.486
       200 -10.1251     79.1165     38.7987   4.4518207433e+01   5.9510597237e+01    0.5161335    0.3064057  68.51   0.00210031    2.636    0.621
       201 -11.3707     79.8292     33.3092   4.1905137124e+01   6.0189299290e+01    0.6383196    0.3599493  33.35   0.00282781    1.968    0.492
       202  -9.7911    231.5759     38.2155   1.6992515878e+01   2.3378845443e+01    0.2522337   0.09461849 -37.07  0.001158428    2.163    0.538
       203  -9.2008    194.1316     38.7739   2.0776808284e+01   3.1492574756e+01    0.1695084    0.1536838  36.48  0.000475176    1.372    0.271
       204  -9.6044    153.7225     37.6434   2.5921912306e+01   4.1513484817e+01    0.2524839    0.1796781 -13.72 0.0007805648    1.779    0.438
       205 -11.1965     61.0921     35.9943   5.0319817585e+01   6.3590005871e+01     0.445272    0.3061556  -6.04  0.002197275    1.812    0.448
       206  -9.4580     70.5503     34.4801   4.5801827422e+01   6.1975995747e+01    0.2069914     0.158539  11.72 0.0006036098    1.434    0.303
       207  -9.8781     67.6390     31.9976   4.5812469752e+01   6.2947715015e+01     0.390261    0.2598915  33.41  0.001255362    1.470    0.320
       208  -9.0184    206.4938     37.4808   1.9128332436e+01   2.8831394633e+01    0.1321378    0.1116706 -64.22 0.0001134252    1.017    0.016
       209 -11.3724    175.9106     34.2854   2.1753644960e+01   3.6410645190e+01    0.6231548    0.3226451 -51.14  0.002533987    1.917    0.478
       210  -9.4961    132.3810     36.8868   2.9488967222e+01   4.7033359141e+01    0.3196748    0.1683902 -76.46  0.001050351    3.743    0.733
       211  -9.5679     12.9493     36.4252   7.6177498709e+01   7.0104328537e+01    0.2490113    0.1193628 -47.08  0.001093493    1.752    0.429
       212  -9.5866     94.0699     35.8292   3.8414351890e+01   5.6606658997e+01    0.2096245    0.1865355 -86.87 0.0005454348    1.304    0.233
       213  -9.6984    213.5164    248.5272   6.1517402738e+01  -4.2004245996e+00    0.1139241   0.08231301   7.53 0.0008095903    1.034    0.033
       214 -11.9199    164.3318     27.7587   2.1376965780e+01   4.0064300350e+01    0.2995609    0.2658996  80.41 0.0004591384    1.066    0.062
       215  -9.9116    174.7359    246.3752   6.8327500160e+01   9.3198838137e-01    0.2242489     0.126409  23.27  0.001299465    1.501    0.334
       216 -11.8792    126.3981    241.6962   7.7463877409e+01   8.2426645826e+00    0.3857068    0.2337476  41.22  0.001359438    1.410    0.291
       217 -11.6173    106.7366     32.2635   3.3520359290e+01   5.4064106028e+01    0.7012166    0.4150024  17.45  0.002567996    2.768    0.639
       218 -12.0542    113.5059     24.9532   2.9095808216e+01   5.3294554130e+01    0.6670419    0.2936129  59.22  0.001802724    1.996    0.499
       219 -10.0650    240.3994     32.6109   1.5076008421e+01   2.2289587998e+01    0.2601478    0.1749441  49.66  0.001561556    1.999    0.500
       220  -9.4979    148.5368     32.0020   2.4985194971e+01   4.3543739027e+01    0.1927385    0.1392768 -31.41 0.0003107467    1.476    0.322
       221  -9.9405     59.7572     23.7277   4.5078710468e+01   6.5724340216e+01    0.2909247    0.1617734 -32.25 0.0007700786    1.868    0.465
       222 -10.9659     57.1051     30.9264   4.9717850364e+01   6.5151265346e+01    0.3892818    0.2806674  -5.58 0.0005886452    1.575    0.365
       223 -11.5718     48.7552     30.4577   5.3367368692e+01   6.6705665317e+01    0.6788523    0.2666213  36.02  0.002228643    2.568    0.611
       224  -9.8756     43.1241     27.9288   5.4956501815e+01   6.8049878866e+01     0.196654    0.1664857  -0.15  0.001202809    1.069    0.064
       225 -12.1750     67.5299    240.9721   8.9923292044e+01   1.6213622149e+01    0.8717077    0.2852203  27.68  0.003494211    3.188    0.686
       226 -10.9549     32.4504     31.1577   6.2287074428e+01   6.9054087975e+01    0.2228184    0.1931621  -0.94 0.0002444108    1.045    0.043
       227 -11.1977    147.2201    238.0383   7.2682709813e+01   5.9146334067e+00    0.3785522    0.2736074  43.34  0.001628358    1.381    0.276
       228 -10.7599    167.1199    237.8764   6.8642601814e+01   3.1684800961e+00    0.1930857    0.1685958 -14.55    0.0010103    1.249    0.200
       229  -9.1648     15.4087    233.7675   1.0043096652e+02   2.3365072504e+01    0.1443478   0.09583493 -72.80 0.0009491396    1.674    0.403
       230  -9.5142    205.5261    233.5383   6.0716757000e+01  -1.3408429694e+00    0.1182041   0.09052662   7.81 0.0001536937    1.004    0.004
       231  -9.7986    246.9897    231.2347   5.3326852301e+01  -5.9931342106e+00    0.1343525   0.07542653  25.62 0.0005976362    1.609    0.378
       232  -9.5014     75.5046    224.4835   8.6735372317e+01   1.8340355139e+01    0.1280901    0.1053681  47.19 0.0002496749    1.001    0.001
       233  -9.3416    234.0045    223.4885   5.4202926314e+01  -3.5786422886e+00    0.1594475   0.09443819  26.00 0.0005010238    1.527    0.345
       234  -9.0494    230.0075     30.9594   1.5507568273e+01   2.4572952443e+01    0.1473854     0.119639 -60.77 0.0003747369    1.013    0.012
       235 -10.9707    189.0591     28.1252   1.8553463530e+01   3.3988089905e+01    0.3840438    0.2960424  -6.89  0.001826971    1.742    0.426
       236 -10.3950    198.0725     28.8659   1.7822627285e+01   3.1793407112e+01    0.2980429    0.2878799  88.98  0.001979075    1.201    0.168
       237 -12.1165    126.2608     28.6086   2.7801850710e+01   4.9637699341e+01    0.5268394    0.3936478  78.59  0.002750599    1.336    0.251
       238 -10.1815     88.6385     29.3897   3.7350922230e+01   5.8757780862e+01    0.4346484     0.218453  49.63  0.001907031    1.795    0.443
       239 -10.8696    183.3591     25.5679   1.8482064506e+01   3.5645852456e+01    0.3923043    0.2834353  38.25  0.001873042    1.807    0.447
       240  -9.1556    187.4507     23.4237   1.7480183033e+01   3.4911731113e+01    0.2058511    0.1257528 -30.16 0.0006950554    1.698    0.411
       241  -9.5007    230.4640     26.5085   1.4486919124e+01   2.4998274849e+01    0.1241221   0.09777043 -59.58 3.598358e-05    1.024    0.023
       242 -11.0565    143.6594     25.0079   2.3504170642e+01   4.5617978276e+01    0.4473622    0.2790008  84.04  0.002134626    1.671    0.402
       243 -10.5969    148.2636     22.5711   2.2016907128e+01   4.4717265337e+01    0.3551137     0.116393  65.47  0.001303735    2.652    0.623
       244  -9.8658     49.6407    222.6881   9.2420015126e+01   2.1919579334e+01    0.1141507    0.0944796 -17.78 0.0007042501    1.744    0.427
       245  -9.3508    164.4839    211.9842   6.5334238833e+01   7.6095838758e+00    0.1716493    0.1268234 -40.82 0.0005046865    1.508    0.337
       246  -9.8800    152.7229    207.1343   6.7064555744e+01   1.0254542469e+01    0.2751978     0.218868 -83.24  0.001517915    1.986    0.497
       247  -9.2093     61.5229    206.5198   8.8280228965e+01   2.3851789687e+01    0.1310804    0.1110923  54.22 9.072095e-05    1.002    0.002
       248 -11.0087    155.2007     24.3642   2.1590327645e+01   4.2754127321e+01    0.3846167    0.2330961 -89.40  0.001595532    1.776    0.437
       249  -9.9349      4.5239    204.7602   1.0152228181e+02   3.0291851004e+01    0.2169833   0.09703282 -75.67  0.001135604    2.131    0.531
       250  -9.3034    168.6524     23.6886   1.9641350192e+01   3.9455554514e+01    0.1377487   0.09776968  41.26 0.0007045765    1.713    0.416
       251 -10.2935     90.9072     22.4715   3.3695765483e+01   5.9103440076e+01    0.2696039    0.2408908  10.41     0.001442    1.173    0.148
       252 -11.3403     38.9211     22.2426   5.4294813266e+01   6.9633933388e+01    0.2328742    0.2065331   5.35 0.0003975749    1.066    0.062
       253  -9.5293     78.5733    203.8058   8.3866197948e+01   2.2172066437e+01    0.1717474    0.1233292  88.24 0.0005507162    1.584    0.369
       254 -10.3168      7.3391     30.2989   7.7529761660e+01   7.1786300953e+01    0.2951809    0.1616016 -15.25  0.001293645    1.974    0.494
       255  -9.3621    223.2512     22.3760   1.4100606858e+01   2.6971440757e+01    0.1663852    0.1018499 -84.78 0.0008227128    1.607    0.378
       256  -9.6565      5.7700     22.0328   7.5308719491e+01   7.3540687504e+01    0.1958948    0.1547295  -3.32 0.0006596624    1.194    0.163
       257  -9.9134    139.0264    198.9946   6.8811816524e+01   1.3925326311e+01    0.2134142    0.1632663  64.50  0.001133073    1.705    0.413
       258  -9.6096    233.7982    196.8503   4.9765939009e+01  -7.6521564270e-02    0.1515689     0.129227 -25.32  0.000806284    1.335    0.251
       259 -11.7738      5.0258    185.7728   1.0052301785e+02   3.4450484546e+01    0.4848646    0.3689148 -81.18  0.002467226    1.262    0.208
       260  -9.2809    216.5367     20.4961   1.4178741725e+01   2.8618784506e+01    0.1243038    0.1036085 -64.62 7.759792e-05    1.027    0.026
       261  -9.9095     74.7241     19.5168   3.7345187613e+01   6.3156066494e+01     0.254577    0.1880515  30.37 0.0006258329    1.319    0.242
       262  -9.7939     47.0189     19.4414   4.8646531684e+01   6.8704644590e+01    0.2532091    0.1718895 -10.95  0.001366089    1.617    0.381
       263  -8.9440      1.4797     20.4932   7.7789871591e+01   7.4132337304e+01    0.1239657   0.09363104 -29.71 0.0008090782    1.079    0.073
       264  -9.9647    246.4770     19.5173   1.1920759430e+01   2.2601744259e+01    0.1191776   0.08895393 -57.77 9.186265e-05    1.036    0.035
       265 -10.7848      2.7674    181.7477   1.0087524706e+02   3.5550804403e+01    0.2519825    0.1836317  82.30  0.001088331    1.165    0.141
       266  -8.9017     86.4850    185.4946   7.9596301080e+01   2.5060089363e+01    0.1404713    0.1265154  51.30 0.0008104763    1.005    0.005
       267  -9.0529    250.4899    176.4976   4.3492064274e+01   5.0139990557e-01    0.1190351   0.09300355 -14.14 0.0002763537    1.003    0.003
       268  -9.4514     28.1957    175.8342   9.3958756580e+01   3.4682703486e+01    0.1696811    0.1473555 -58.07 0.0005657624    1.312    0.238
       269  -9.8597    119.6573     16.2681   2.4558120564e+01   5.2693021940e+01    0.3286357    0.1837784  47.76 0.0009472015    1.733    0.423
       270 -10.2316    186.7696     15.1506   1.5364306553e+01   3.5974910635e+01    0.2248823     0.192213  85.55 0.0004542254    1.114    0.102
       271  -9.4245     51.5939    173.7912   8.7434241644e+01   3.2574608856e+01    0.1867446    0.1227443  89.97 0.0005365018    1.589    0.371
       272  -9.3177     39.5032    173.5209   9.0706856718e+01   3.4048645800e+01    0.1346364    0.1174384  69.25 0.0001863463    1.004    0.004
       273  -9.4811     74.7661     13.5998   3.4467293635e+01   6.3828503656e+01    0.1874127    0.1229336  66.90 0.0009469673    1.678    0.404
       274  -8.7537    170.3181    172.2803   5.7121231087e+01   1.3670569578e+01    0.1410005    0.1032694   2.29 0.0003807914    1.579    0.367
       275 -12.2436      9.6229    165.9023   9.8196710216e+01   3.8738146082e+01    0.5861005    0.3824185 -61.95  0.002740664    1.564    0.361
       276 -10.5604     18.9151    164.9973   9.5596524002e+01   3.8173902026e+01    0.2750041    0.1986838   9.48  0.001446789    1.746    0.427
       277  -9.7249    204.9469    163.2307   4.8473042228e+01   9.3038881712e+00    0.2244854    0.1744535 -27.76 0.0005747228    1.181    0.153
       278 -10.4991     28.1519    161.8046   9.2736708085e+01   3.8095095871e+01    0.3129511    0.2405127 -59.82  0.001812499    1.358    0.263
       279  -9.4836     38.2685    160.5743   8.9716847088e+01   3.7355199903e+01    0.1758653    0.1333914  11.76 0.0009474766    1.606    0.377
       280  -9.4968     66.3410     10.4399   3.5723094749e+01   6.6018209893e+01    0.2637963     0.106092  50.30  0.001133682    2.118    0.528
       281 -11.1739      9.3596    155.4977   9.7551619711e+01   4.1290502561e+01    0.2576505    0.2069446  87.29  0.001085961    1.075    0.069
       282  -9.9171    104.4615    154.8878   6.9816085842e+01   2.9232906768e+01    0.2805435    0.2579769   2.33  0.001517425    1.195    0.163
       283 -12.4450     22.1705    149.6619   9.3328588251e+01   4.1681884412e+01     0.731554    0.3776369 -44.06  0.002001988    2.372    0.578
       284 -10.6351     16.4714    147.9184   9.4871535569e+01   4.2608378302e+01    0.2792147    0.2087985  86.57 0.0004424695    1.196    0.164
       285 -10.3521      4.1587    153.6280   9.8896472961e+01   4.2132323628e+01    0.2708858    0.1202283  36.42  0.001027921    2.105    0.525
       286 -11.2380     47.2659    146.8978   8.5362937724e+01   3.9775119732e+01    0.6353222    0.4105258 -41.29  0.003046406    1.835    0.455
       287  -9.5304     62.1998    151.6007   8.1490322310e+01   3.6677738988e+01    0.1967507    0.1397573  15.24 0.0005337255    1.700    0.412
       288 -11.5298      5.7481    142.2814   9.7625914965e+01   4.4828939844e+01    0.5699242    0.2454354  73.13 0.0002672441    2.526    0.604
       289 -10.9773      2.1618    140.7709   9.8595038149e+01   4.5443613574e+01    0.4161377    0.1707431 -78.03  0.001560362    2.090    0.521
       290 -10.4296      3.0788    147.7261   9.8810213348e+01   4.3658623749e+01    0.2236213    0.1619015 -83.21  0.001210031    1.198    0.165
       291  -9.3122     73.8773    146.1915   7.7093329624e+01   3.6359702268e+01     0.196737    0.1727618 -26.14 0.0005175386    1.323    0.244
       292 -11.0627     33.2055    144.1879   8.9375362414e+01   4.2017149298e+01    0.3027441    0.2620733  78.07 0.0008005351    1.064    0.060
       293  -9.1634    217.5612    138.7855   4.1243352293e+01   1.1175438488e+01    0.1762922    0.1144457 -43.74 0.0003409411    1.501    0.334
       294 -10.1373     80.0363    138.2888   7.3777012078e+01   3.7377492597e+01     0.337656    0.2352653  36.09  0.001083104    1.422    0.297
       295 -10.4311     40.2027    138.1204   8.6386465181e+01   4.2830369952e+01    0.3381989     0.206469  48.53  0.001161344    1.648    0.393
       296 -11.5067     22.7246    136.5100   9.1805028083e+01   4.4969348687e+01    0.6123634    0.3517123  44.45  0.002838633    1.727    0.421
       297  -9.7345     31.8337    137.4659   8.8992674811e+01   4.3874707799e+01    0.3344834     0.195063  40.22  0.001162836    1.694    0.410
       298 -10.9684     30.0225    133.0502   8.9026261456e+01   4.5186895912e+01    0.4271995    0.2729944 -40.15 0.0007586739    1.813    0.448
       299 -11.3158     12.2015    136.4059   9.5141049082e+01   4.5846075850e+01    0.5664099    0.3198563 -53.89  0.002865989    1.767    0.434
       300  -9.2924     47.4420    134.9936   8.3587106382e+01   4.2802181807e+01    0.2174312    0.1326255 -68.26 0.0008064939    1.559    0.359
       301 -10.2516     72.5107    133.9949   7.5314543810e+01   3.9633856969e+01    0.3076728    0.1816656 -16.20  0.001044297    3.522    0.716
       302  -9.6897     39.4097    133.4484   8.5991488567e+01   4.4119994444e+01    0.2253723    0.1422268  17.92 0.0006435354    1.845    0.458
       303 -10.3076    104.1306    131.0073   6.5004415630e+01   3.4953047584e+01    0.2431124    0.2163272  38.73 0.0004040235    1.112    0.101
