#   1 NUMBER                 Running object number                                     
#   2 MAG_AUTO               Kron-like elliptical aperture magnitude                    [mag]
#   3 X_IMAGE                Object position along x                                    [pixel]
#   4 Y_IMAGE                Object position along y                                    [pixel]
#   5 X_WORLD                Barycenter position along world x axis                     [deg]
#   6 Y_WORLD                Barycenter position along world y axis                     [deg]
#   7 A_WORLD                Profile RMS along major axis (world units)                 [deg]
#   8 B_WORLD                Profile RMS along minor axis (world units)                 [deg]
#   9 THETA_WORLD            Position angle (CCW/world-x)                               [deg]
#  10 FWHM_WORLD             FWHM assuming a gaussian core                              [deg]
#  11 ELONGATION             A_IMAGE/B_IMAGE                                           
#  12 ELLIPTICITY            1 - B_IMAGE/A_IMAGE                                       
         1 -15.1776    242.9093     57.3704   1.4519712138e+01   1.7817778613e+01     3.685103     2.552228  78.75   0.01439172    1.688    0.407
         2 -16.1094    247.1040     93.5201   2.2427683978e+01   1.2055896263e+01      7.29617     3.585303 -21.15   0.01579035    2.294    0.564
         3 -11.2745    196.2460     39.2131   1.5102253087e+01   3.0765438771e+01     0.527059    0.1917911  43.97  0.001654513    4.249    0.765
         4  -9.2788    244.5060     20.5292   5.7642667042e+00   2.1946152954e+01    0.1251155    0.1034829 -53.28 2.665689e-05    1.016    0.016
         5 -16.2689    248.1284     75.6364   1.8216328777e+01   1.4336103950e+01     8.947633     2.522168  50.04   0.01741724    4.129    0.758
         6  -9.3980    229.2826    206.5959   4.8038250754e+01  -6.1921416287e-01    0.2137963   0.09952009  39.88  0.001127386    2.127    0.530
         7 -10.2259    230.2944    197.7727   4.6358756118e+01   3.3559277492e-01    0.2641575    0.1511873  48.06  0.001413091    2.388    0.581
         8  -9.6995    221.7428    195.4176   4.7404772584e+01   1.8860294341e+00    0.2243233    0.1064012  41.86  0.001129344    2.154    0.536
         9  -9.5205    226.4225    184.6924   4.4677339175e+01   2.6131534583e+00    0.2107354    0.1013679  37.56  0.001067153    1.989    0.497
        10 -10.3144    218.7289    180.0598   4.5150204866e+01   4.4446357907e+00    0.2824934    0.2178298 -86.37  0.001376519    3.312    0.698
        11  -9.8332    225.8412    170.9639   4.2194168386e+01   4.5962568666e+00    0.2219052    0.1705142  27.16   0.00130603    1.246    0.197
        12 -10.1872    237.4366    163.9476   3.8908959578e+01   3.7352077082e+00    0.2155505    0.1795449  49.98  0.001373008    1.615    0.381
        13 -10.9339    227.7366    162.4878   4.0213812313e+01   5.4944516407e+00    0.2970852    0.2683642 -59.34  0.001898816    1.612    0.380
        14 -10.2382    240.2755    244.3004   5.2134373992e+01  -6.1983359478e+00    0.2804024    0.1392684  41.49  0.001669629    2.413    0.586
        15 -11.2643    198.4050    144.2115   4.1636770072e+01   1.3531562602e+01    0.3150195    0.2463736 -58.06  0.001665924    1.664    0.399
        16 -10.8596    176.9806    144.2048   4.5889776364e+01   1.7704148278e+01    0.3714505    0.1751112 -30.83    0.0014231    2.531    0.605
        17 -11.8317    217.5523    141.8918   3.7682325428e+01   1.0333781272e+01    0.5089102    0.3268052 -66.80  0.002050499    3.563    0.719
        18 -10.6006    187.5779    140.2261   4.2857885569e+01   1.6318993614e+01    0.2722569    0.1328221 -42.32  0.001133553    2.078    0.519
        19 -11.8895    209.6906    137.2665   3.8047022951e+01   1.2527658557e+01    0.3514969     0.258074 -49.86  0.001855957    1.593    0.372
        20 -12.8472    195.2885    133.3249   3.9809474980e+01   1.5987026450e+01     0.819583    0.3128632 -41.69  0.003068328    2.603    0.616
        21 -11.3640    190.9865    150.1846   4.4347219975e+01   1.3931973877e+01    0.3956629    0.2571876 -56.59  0.001831168    2.157    0.536
        22  -9.4184    146.3040    137.3245   5.1214878733e+01   2.5223816166e+01    0.1512619    0.1177683  -0.94 0.0007032285    1.641    0.391
        23 -11.7826    211.2595    159.6055   4.2496783987e+01   8.7082660302e+00    0.5524166    0.2096987  49.73  0.002095636    3.317    0.699
        24 -10.6225    154.7295    147.9908   5.1561501943e+01   2.1390170397e+01    0.3370621    0.1773997 -58.07  0.001291456    2.662    0.624
        25 -12.0981    176.0775    130.9761   4.3097554850e+01   2.0322682917e+01    0.6729535    0.2125727 -41.51  0.002207051    3.145    0.682
        26 -11.3125    160.6201    130.2259   4.6274024412e+01   2.3695693915e+01    0.3372238    0.2914066 -81.11  0.001739438    1.428    0.300
        27 -11.5595    181.4188    120.7507   3.9573768523e+01   2.1078436451e+01    0.3773459     0.246101  -6.39  0.001556967    2.303    0.566
        28 -11.9094    188.3968    120.7010   3.8182515817e+01   1.9606377457e+01    0.2996063    0.2678844 -38.01  0.001658288    1.116    0.104
        29 -11.6164    153.1979    117.6855   4.4946297223e+01   2.7785145379e+01    0.4595824    0.2649939 -52.90  0.001714016    1.966    0.491
        30 -10.6084    166.4776    117.9394   4.2014285646e+01   2.4833961635e+01    0.2372841    0.1467749 -39.84  0.001037212    1.606    0.377
        31 -12.0371    178.2640    111.6927   3.7972848322e+01   2.3418489383e+01    0.5175089     0.214203 -33.14  0.001822629    2.615    0.618
        32 -10.6354    148.4408    111.7172   4.4556025922e+01   3.0042102233e+01    0.2980402    0.1473725 -47.20  0.001128965    2.087    0.521
        33 -12.1821    168.2313    104.2188   3.8126616098e+01   2.7057156894e+01    0.5314252    0.3245263 -65.11  0.001968895    2.597    0.615
        34 -12.3760    158.7028    107.7685   4.1144656813e+01   2.8536460588e+01     0.803506    0.2621202 -34.23  0.002271933    3.938    0.746
        35 -13.7859    163.0415     95.3735   3.6855172164e+01   2.9920287124e+01     1.292936    0.4136837 -39.38  0.004067004    3.036    0.671
        36 -10.2446    234.9822    156.9952   3.7923287155e+01   5.0940710108e+00    0.1800099    0.1584707 -60.34 0.0009895213    1.682    0.405
        37 -13.0486    152.6109     93.1105   3.8545523315e+01   3.2799075922e+01    0.8509852    0.3355327 -39.74  0.002920987    2.507    0.601
        38 -11.5966    222.0330    153.5062   3.9361265800e+01   7.7670812410e+00    0.3913567    0.2504825 -53.56  0.001913127    2.323    0.570
        39 -12.1721    154.3974     76.8879   3.3406457733e+01   3.5410811290e+01    0.6759868    0.2081998 -39.39  0.002082625    3.105    0.678
        40 -10.3165    138.4694     83.9529   3.9254236131e+01   3.7923680006e+01    0.2473276    0.1530553 -40.07  0.001038118    1.611    0.379
        41  -9.4452    119.6548     84.6948   4.4456330750e+01   4.2115654964e+01    0.1598391    0.1246168   7.49 0.0007041746    1.692    0.409
        42 -12.8608    172.6964     77.8225   2.9935759765e+01   3.0770765250e+01     1.006833    0.2921617 -36.20  0.003083477    3.258    0.693
        43 -10.9296    141.1398    109.1112   4.5659120757e+01   3.2194928406e+01    0.2408029    0.2180148  -2.54 0.0007803089    1.215    0.177
        44 -11.9953    211.7696    145.8846   3.9548886791e+01   1.0762278800e+01    0.4768742    0.2464654 -33.50  0.002216171    1.843    0.457
        45 -11.0646    179.1462     75.8598   2.8172179246e+01   2.9537054336e+01    0.3316699    0.1975132 -46.72  0.001430577    1.691    0.409
        46 -10.3351    137.4573     75.0198   3.6757046224e+01   3.9885846078e+01    0.2418251    0.1527432 -37.91 0.0009001484    1.587    0.370
        47 -11.8232    165.2344     71.7132   2.9600166421e+01   3.3645768699e+01    0.4440971    0.2326423 -53.67  0.001663107    2.332    0.571
        48 -12.2500    162.9628     65.9076   2.8294556931e+01   3.5187944173e+01    0.4481313    0.3304233  -8.95  0.002044641    1.717    0.418
        49  -9.5240    129.6453     71.6851   3.7661494779e+01   4.2395945840e+01    0.1627125    0.1226035  15.63 0.0007045438    1.740    0.425
        50 -10.0818    142.0000     66.9699   3.3104936172e+01   4.0248471258e+01    0.2583437   0.08786977 -36.01 0.0008033487    2.949    0.661
        51 -11.8366    172.4539     62.3546   2.5443310510e+01   3.3383279238e+01    0.4936879    0.2644691 -22.61  0.001923024    2.259    0.557
        52  -9.3965    124.3210     60.6607   3.5355985325e+01   4.5715853402e+01    0.1601722    0.1210245 -74.16 0.0007050259    1.716    0.417
        53 -10.3401    149.5015     58.9527   2.8842692374e+01   3.9737596630e+01    0.2416729    0.1491747 -35.75  0.001038923    1.614    0.380
        54 -10.2705    179.1256     57.6786   2.2908599418e+01   3.2436347369e+01    0.2711825    0.1927674 -43.41   0.00089369    1.355    0.262
        55 -11.5723    142.9758     55.3279   2.9050604574e+01   4.1988457020e+01    0.6105222    0.1780303 -41.14  0.001845399    3.359    0.702
        56 -11.8162    187.9285     51.2951   1.9674558340e+01   3.1179729952e+01    0.5160875    0.3369185   1.25  0.002191464    2.360    0.576
        57 -10.2686    160.9842     54.4765   2.5118170626e+01   3.7523477087e+01    0.2344406    0.1474443  61.52  0.001031451    1.589    0.371
        58 -11.6073    193.8772     54.3319   1.9675606282e+01   2.9282343346e+01    0.5177426    0.2696023 -13.57  0.001898004    2.992    0.666
        59 -11.1674    199.3119     49.3722   1.7543564380e+01   2.8659476027e+01    0.4549848    0.1997995 -26.79  0.001779219    2.377    0.579
        60 -11.1022    150.0891     47.7239   2.5017645751e+01   4.1357024514e+01    0.3473102    0.2741802 -75.52  0.001697511    1.432    0.302
        61 -10.3458    174.3077     42.6882   1.9165108362e+01   3.5824301268e+01    0.3520452     0.175898 -29.25  0.001441761    2.023    0.506
        62  -9.2275    220.3761    241.6779   5.5002832476e+01  -3.4822335894e+00   0.09817008   0.08037435  43.84  0.000210603    1.819    0.450
        63 -11.5276    202.8687     41.8366   1.5018947709e+01   2.8811349524e+01    0.3352878    0.2658037   6.72  0.001609875    1.634    0.388
        64  -9.3505    225.3258    219.6492   5.0839028154e+01  -1.6439419788e+00    0.0973975   0.09132403  45.33   0.00070484    1.758    0.431
        65 -11.4095    217.9461     29.1708   1.0035579622e+01   2.6819280036e+01    0.4330797     0.192664 -26.39  0.001874358    2.245    0.555
        66 -10.4018    228.0863     25.3872   8.1798286907e+00   2.4953871053e+01    0.3400191    0.1548869 -33.15  0.001594104    1.903    0.474
        67  -9.8722    178.4667     35.9191   1.6487969394e+01   3.5659635761e+01    0.3770924      0.14045 -27.96  0.001357723    2.720    0.632
        68  -9.6324    232.8478     20.8249   6.6865076450e+00   2.4414442453e+01    0.1823745    0.1725634 -22.78 0.0007967844    1.250    0.200
        69 -10.2823    213.3313    217.4330   5.2550002948e+01   2.7761286731e-01    0.2530696    0.1926724  63.16  0.001466053    2.684    0.627
