#   1 NUMBER                 Running object number                                     
#   2 MAG_AUTO               Kron-like elliptical aperture magnitude                    [mag]
#   3 X_IMAGE                Object position along x                                    [pixel]
#   4 Y_IMAGE                Object position along y                                    [pixel]
#   5 X_WORLD                Barycenter position along world x axis                     [deg]
#   6 Y_WORLD                Barycenter position along world y axis                     [deg]
#   7 A_WORLD                Profile RMS along major axis (world units)                 [deg]
#   8 B_WORLD                Profile RMS along minor axis (world units)                 [deg]
#   9 THETA_WORLD            Position angle (CCW/world-x)                               [deg]
#  10 FWHM_WORLD             FWHM assuming a gaussian core                              [deg]
#  11 ELONGATION             A_IMAGE/B_IMAGE                                           
#  12 ELLIPTICITY            1 - B_IMAGE/A_IMAGE                                       
         1 -15.3763     68.7533    144.7732   8.6142902460e+01   3.7410073747e+01     4.193699     2.027937  83.75  0.002633477    4.045    0.753
         2 -13.9258    211.7437     44.1771   2.8083885898e+01   2.6102044693e+01      1.65868     1.176608  35.27  0.007099818    1.656    0.396
         3 -13.7400    227.9051     30.6350   2.2269764156e+01   2.3708113073e+01    0.9976507    0.8785916  46.98  0.002669534    1.244    0.196
         4 -11.5832    249.6197     11.7918   1.5327167787e+01   2.0585582925e+01    0.3752553    0.2828105 -46.81  0.001353028    1.221    0.181
         5 -12.1422    249.0094      7.0085   1.4250222737e+01   2.1258663818e+01     0.504114    0.3848841 -13.72  0.002866653    1.619    0.382
         6 -10.3064     19.0000      4.9980   6.7317690978e+01   7.1149856815e+01    0.1832152   0.05006649 -45.04 0.0008091412    2.989    0.665
         7 -13.5429     60.9867    153.1628   8.9077841400e+01   3.6584180607e+01    0.4361907    0.3697259 -68.08  0.001348836    1.225    0.184
         8 -11.7168    139.0655    249.6748   8.5267791418e+01   7.0347511908e+00    0.3981299    0.1494081  46.29  0.002031348    1.969    0.492
         9 -13.4564     29.2092    195.5890   9.9518430802e+01   3.1559173942e+01    0.5396926    0.3720347 -52.89   0.00135083    2.099    0.524
        10 -15.4059     40.0401    187.3013   9.6920391508e+01   3.1989477856e+01     2.457841     1.189003 -84.04   0.01405795    1.883    0.469
        11 -17.0853     10.9074    241.9650   1.0492729834e+02   2.5286355732e+01     6.839386     2.360307  33.25   0.03370082    4.928    0.797
        12 -12.6354     81.8711    151.6555   8.4110839945e+01   3.4056689173e+01    0.9759814    0.5106127 -53.19  0.004763693    1.959    0.490
        13 -12.5113     74.1477    157.4765   8.6699615042e+01   3.3902317902e+01    0.4674806    0.4158509  86.36 0.0005010747    1.096    0.087
        14 -13.1381    106.5314    212.6029   8.6944111474e+01   1.8102376392e+01    0.6537826    0.3582802  42.93  0.003636433    1.642    0.391
        15  -9.8704     99.3420    181.0607   8.4474134723e+01   2.5193774645e+01    0.2051701    0.1660874  45.78 0.0005708096    1.276    0.217
        16 -10.7463    134.1714    146.8029   7.1123795412e+01   2.6026360513e+01    0.7027454    0.1997584 -56.06  0.001895516    5.166    0.806
        17 -10.0900     35.8125    150.1980   9.4321494512e+01   4.0091367904e+01    0.1477336     0.119628 -66.21 0.0002476704    1.291    0.226
        18 -10.2208    174.6833    149.1478   6.2638277501e+01   1.7078297980e+01     0.266622    0.1982918  57.43 0.0008598405    1.374    0.272
        19 -12.4752    232.9087    170.6790   5.5801591242e+01   1.3650332149e+00    0.7060019    0.5397893  68.64  0.003735368    1.945    0.486
        20  -8.7044    120.6924    142.3641   7.3387807063e+01   2.9565360662e+01     0.151012    0.1078197  83.96 0.0007038476    1.745    0.427
        21 -10.7883     97.7171    138.1242   7.8099015724e+01   3.4554749167e+01    0.4966887    0.3529913 -13.35  0.002239737    2.681    0.627
        22 -12.4255     84.4568    137.2289   8.1176929184e+01   3.6850683637e+01    0.2800024    0.2363105 -63.18 0.0005245205    1.155    0.134
        23  -9.4047    117.2807    137.8207   7.3302815964e+01   3.1181723539e+01    0.2240354     0.170068 -77.66 0.0007702501    1.446    0.308
        24 -12.3334    240.3140    169.4627   5.4242745202e+01   1.1665807512e-01    0.3866719    0.2348554  35.32  0.001458476    1.520    0.342
        25 -11.1487    106.9117    130.1773   7.4302676590e+01   3.4736149711e+01    0.4130058    0.3496709  16.32  0.002039314    1.516    0.340
        26 -12.0928     58.5117    171.0589   9.1733405070e+01   3.3091727658e+01    0.3893523    0.2885531 -36.45  0.001646108    2.194    0.544
        27  -9.8505    136.0000    128.9861   6.6926850839e+01   2.9400919828e+01    0.2463984   0.08467976 -47.61 0.0008062692    2.969    0.663
        28 -13.7550     54.8452    233.0278   9.7764223915e+01   2.1851371866e+01    0.5248391    0.3398464  84.73 0.0006918538    1.313    0.238
        29 -11.9398     63.7683    166.2995   9.0088370407e+01   3.3417612337e+01    0.2491333    0.2243346 -62.96  0.001698891    1.357    0.263
        30  -9.4569     96.2301    124.2034   7.5791743321e+01   3.7894856112e+01    0.1915618    0.1840937 -42.15 0.0009006223    1.174    0.148
        31  -9.4756    115.6356    123.6672   7.0744930563e+01   3.4573964286e+01    0.1475364    0.1171911  -7.69 4.792632e-05    1.817    0.450
        32  -9.9751    105.8843    118.0854   7.2006137120e+01   3.7592335011e+01    0.2042265    0.1923711 -79.53   0.00029546    1.002    0.002
        33 -10.2924     36.3291    117.9971   9.0249457919e+01   4.7085840112e+01    0.1745338    0.1306531 -73.15 0.0007897762    1.086    0.079
        34 -10.4076    231.3061    113.8136   4.3304357307e+01   1.0470340490e+01    0.2724841    0.2549725  22.92 0.0009473312    1.054    0.051
        35  -9.8274    205.5053    110.2610   4.7110983276e+01   1.7094303244e+01    0.2799585    0.2081741  49.32 0.0006547673    1.327    0.247
        36  -9.7966     72.3147    108.1954   7.8902535654e+01   4.5124648328e+01    0.2353636    0.1565801  68.16 0.0006854323    1.906    0.475
        37 -10.2785     65.2280    102.2362   7.9665488403e+01   4.7403455696e+01    0.1780702    0.1430258 -89.42 0.0004217153    1.329    0.248
        38 -11.0378     46.1814     91.3604   8.2999184267e+01   5.2029883096e+01    0.2386355    0.2019703  66.49  0.001560228    1.347    0.258
        39 -11.0173     53.2762     90.9749   8.0796949849e+01   5.1348478290e+01     0.188881    0.1503891 -59.18 0.0007048852    1.068    0.063
        40  -9.0480     75.3085     89.6720   7.3899262647e+01   4.8819642240e+01    0.1347935    0.1032723  87.69 0.0007039182    1.659    0.397
        41 -10.4602     58.5230     77.9653   7.6178444067e+01   5.3570453693e+01    0.1818739    0.1749951 -25.98  0.000421335    1.138    0.122
        42  -9.3714     44.4798     68.4291   7.8386872978e+01   5.7153873298e+01    0.1244135    0.1037384 -48.61 8.301767e-05    1.010    0.010
        43 -10.4832    110.8226    167.6072   8.0073842845e+01   2.6020944886e+01    0.2549935     0.193028 -87.62 0.0007101483    1.379    0.275
        44 -10.0998     30.4943     60.7214   8.1278994863e+01   6.0046037192e+01    0.3283955    0.1628861  47.41  0.001632135    2.989    0.665
        45 -11.4195     13.4885     60.1348   8.7100751976e+01   6.1384946021e+01    0.2483689    0.1661333 -59.39 0.0004286883    1.142    0.125
        46 -13.0647    202.4122     50.2070   3.1222744376e+01   2.7702751801e+01    0.9299461    0.6581563  47.75  0.002367114    1.433    0.302
        47 -12.1651    124.6702    204.0985   8.2470111530e+01   1.6622824380e+01    0.4455042    0.2672113 -81.33  0.002245099    2.323    0.570
        48 -12.3590    221.1761     36.3337   2.4626848352e+01   2.4702375944e+01    0.5068263     0.363125  45.04  0.001066481    1.524    0.344
        49 -10.7577     72.4595    204.0506   9.2372915593e+01   2.4710982859e+01    0.2690048    0.1609835  82.44  0.001134408    1.632    0.387
        50 -10.5292     15.4969     54.0261   8.5037614042e+01   6.2509504022e+01     0.262659    0.1088647  43.12  0.001258271    3.621    0.724
        51 -10.6898      2.5615     49.0210   8.8657774518e+01   6.4232880609e+01    0.1703557    0.1467303  52.41  0.000808948    1.558    0.358
        52  -9.6352    198.3657     23.7378   2.4153105250e+01   3.2264862573e+01    0.1933255    0.1421246 -10.29 0.0006589789    1.625    0.384
        53 -16.5115      8.0150    210.4334   1.0394704560e+02   3.0924041560e+01     8.084728     1.023686 -76.28   0.02974279    6.144    0.837
        54 -12.0437    192.0334    192.9088   6.7663560692e+01   6.0189064214e+00    0.6436675    0.3665578 -66.86  0.002307662    4.692    0.787
