#   1 NUMBER                 Running object number                                     
#   2 MAG_AUTO               Kron-like elliptical aperture magnitude                    [mag]
#   3 X_IMAGE                Object position along x                                    [pixel]
#   4 Y_IMAGE                Object position along y                                    [pixel]
#   5 X_WORLD                Barycenter position along world x axis                     [deg]
#   6 Y_WORLD                Barycenter position along world y axis                     [deg]
#   7 A_WORLD                Profile RMS along major axis (world units)                 [deg]
#   8 B_WORLD                Profile RMS along minor axis (world units)                 [deg]
#   9 THETA_WORLD            Position angle (CCW/world-x)                               [deg]
#  10 FWHM_WORLD             FWHM assuming a gaussian core                              [deg]
#  11 ELONGATION             A_IMAGE/B_IMAGE                                           
#  12 ELLIPTICITY            1 - B_IMAGE/A_IMAGE                                       
         1 -14.1092     64.4395     53.5156   3.8117281259e+01   6.0192073404e+01     2.509928     1.075861 -30.42  0.007414454    4.265    0.766
         2 -14.9813      6.4925     71.3037   7.2126609079e+01   6.2973129743e+01     1.205114    0.8317449 -71.32  0.004688096    1.258    0.205
         3 -14.2126     41.4162      5.2523   2.3157241072e+01   7.2785597141e+01     1.112698    0.6889951   8.05   0.00467062    2.072    0.517
         4 -13.0607      7.8925      2.4948   4.5227561138e+01   7.8545999331e+01    0.5528606    0.4918572 -32.68  0.002999188    1.224    0.183
         5 -16.0019     11.8253     22.5754   5.4260634369e+01   7.4303037781e+01     2.143294     1.143452 -33.25   0.01065219    1.861    0.463
         6 -14.2621     26.4230     13.1138   3.7741104283e+01   7.4285275990e+01    0.8420246    0.5514255   7.63  0.004267631    1.837    0.456
         7 -15.0248    217.8330     16.6722   3.5568648320e+02   2.9421829911e+01      1.85626    0.8470403 -32.37  0.009480327    1.831    0.454
         8 -12.6978    230.5782      2.4988   3.5167519273e+02   2.8273403898e+01    0.7147776    0.2205982  72.93  0.003274316    3.334    0.700
         9 -14.3698    189.8317     21.4811   3.5901894380e+02   3.5027527374e+01     1.688612    0.7288873 -41.17  0.007796453    1.911    0.477
        10 -14.1726    122.2506     36.8324   1.3370961392e+01   4.9809107353e+01     1.044759    0.5636919  40.18  0.002673935    2.273    0.560
        11 -13.4305    242.9500     35.1627   3.5832725347e+02   2.2422928911e+01    0.5718897    0.5080233 -89.70  0.002860903    1.315    0.240
        12 -12.8581    140.3106     21.2352   4.4788779787e+00   4.7167766486e+01    0.6062263    0.3494799  71.63  0.001339854    1.678    0.404
        13 -14.3340    166.8582     29.6157   3.7530305908e+00   3.9534144816e+01    0.9918985    0.7766628  80.96  0.003560606    1.267    0.211
        14 -14.5178    147.6779     29.5758   6.2931345082e+00   4.4308750082e+01      1.36747    0.6919778  71.03  0.005039964    1.986    0.497
        15 -15.3825     99.6196     12.0882   7.8453262529e+00   5.8587359773e+01     1.558899    0.8991897  60.80  0.003195505    1.582    0.368
        16 -11.9414     71.0873     16.4507   1.7719838524e+01   6.5048925855e+01    0.3830734    0.2392356 -16.73  0.001717504    1.807    0.447
        17 -12.1706     74.5074     10.4643   1.3358590518e+01   6.4942847227e+01     0.306015    0.2381619  13.62  0.001093718    1.405    0.288
        18 -12.0253     61.1358     14.7996   2.0432040346e+01   6.7489840313e+01     0.626629    0.2638849  38.71  0.002410942    2.687    0.628
        19 -12.0229     46.8836     13.0420   2.5640671288e+01   7.0694370891e+01     0.346353    0.2591593  57.39  0.001330719    1.505    0.336
        20 -11.8843    152.5286      8.5338   3.5863678490e+02   4.5380826691e+01    0.2885789    0.2237506  46.82  0.001625692    1.468    0.319
        21 -12.4794     85.3936     13.7024   1.1978860040e+01   6.1966623137e+01    0.4115331    0.3800017 -20.60   0.00175903    1.139    0.122
        22 -12.1612    119.9428      2.9607   4.5242126113e-01   5.4209667484e+01    0.4981672    0.2372526 -77.49  0.001966254    2.702    0.630
        23 -11.1706     67.6787      2.7243   1.1023008798e+01   6.7327025616e+01    0.3073245    0.1860557  33.72  0.001525502    1.720    0.419
        24 -10.5946    192.5101      2.5400   3.5366832453e+02   3.6348289439e+01    0.1266222    0.1052504 -61.46 9.056107e-05    1.015    0.015
        25 -12.1265     80.2769      1.7394   7.0653038065e+00   6.4382827184e+01    0.7059068    0.1234107  62.60  0.002171473    4.005    0.750
        26 -11.7683     61.6655      1.5497   1.2218866710e+01   6.8831890688e+01    0.4072131    0.1467381  63.79  0.001579502    2.754    0.637
        27 -11.4458    212.8601    199.8755   3.6615041254e+01   4.0483131826e+00    0.1931054    0.1327522  -4.37  0.001244137    1.298    0.229
        28 -11.9404    209.4944    249.6335   4.4667775861e+01  -1.7685572174e+00    0.1901085    0.1201927   4.40  0.001366811    1.281    0.220
        29 -14.8165     95.1996    234.3925   6.4712982537e+01   1.3995351955e+01     1.384225    0.7497492  57.09  0.007276997    2.236    0.553
        30 -12.4854    109.4194    243.0405   6.2593732323e+01   1.0816919907e+01    0.2717249    0.2198928  36.20  0.001303366    1.082    0.075
        31 -13.0594     57.1654    246.8288   7.3696847262e+01   1.6226134620e+01    0.4870268    0.2395715  30.32  0.002802865    1.660    0.398
        32 -12.1990     41.5860    249.8121   7.7038839760e+01   1.7336547952e+01    0.2542369     0.159413  53.42  0.001720526    1.296    0.228
        33 -13.7000     28.1969    246.4864   7.9582301522e+01   1.9241077035e+01    0.5315221    0.4042355  34.11  0.002967479    1.220    0.180
        34 -12.1834      2.8490    249.6180   8.4674755241e+01   2.0975285023e+01    0.3266881    0.1952491  45.06  0.001719925    1.191    0.160
        35 -14.1308      9.3248    245.4889   8.3307870627e+01   2.1150385478e+01    0.8991523    0.3379202  46.57  0.003855864    1.800    0.444
        36 -13.8817    164.8097    194.7259   4.4672528225e+01   1.1384051099e+01    0.6433299    0.4502271 -70.42  0.003230979    2.698    0.629
        37 -11.0861     81.0571    192.5531   6.3503218933e+01   2.3927330204e+01    0.2120092    0.1181704  33.03  0.001033966    1.613    0.380
        38 -12.4785    201.0643    191.1591   3.7173599877e+01   6.8281645547e+00    0.3068036    0.2141475  -5.01  0.001224926    1.360    0.265
        39 -12.9060     98.5543    186.5527   5.8385064009e+01   2.2778022137e+01    0.4896434    0.3115242 -24.26   0.00225297    2.355    0.575
        40 -13.2074    179.8956    196.5669   4.2002110197e+01   8.9311907375e+00    0.3342883    0.3041097  40.81   0.00226053    1.417    0.295
        41 -12.4897     48.4996    181.5718   7.0703587178e+01   3.0460042790e+01    0.4770493    0.3139137 -47.59  0.002506742    1.829    0.453
        42 -13.7949    197.0061    178.9862   3.5736736510e+01   9.2389720733e+00    0.6768804    0.4821729 -67.99   0.00333112    3.049    0.672
        43 -12.5467    110.4623    182.7783   5.4907942198e+01   2.1813957768e+01    0.5255831    0.2810786   9.48  0.001853503    3.734    0.732
        44 -11.4819    122.5390    181.2976   5.1767086812e+01   2.0270896842e+01    0.4273595     0.252264  70.25   0.00158434    3.710    0.730
        45 -13.8049     86.8190    180.3859   6.0505256474e+01   2.5801768768e+01     0.853325    0.3170324  46.59  0.003186166    2.762    0.638
        46 -13.5881    124.3717    166.4307   4.8801406546e+01   2.3058204992e+01     0.694585    0.4629654 -68.38   0.00327821    1.957    0.489
        47 -12.0376     89.7139    169.5980   5.8209041881e+01   2.7824656181e+01    0.2756133    0.1351179  27.91  0.001135724    2.136    0.532
        48 -11.1742    101.9827    160.5460   5.3481022844e+01   2.8008722902e+01    0.2281127    0.1362924  35.09  0.001035509    1.611    0.379
        49 -12.9816    238.0314    159.3668   2.5361806975e+01   6.3554900665e+00     0.630074    0.1234567  38.17  0.002059888    6.430    0.844
        50 -14.1640     22.2329    180.9444   7.7575865970e+01   3.3322599910e+01    0.9111397     0.525888 -51.19  0.004695531    2.107    0.525
        51 -12.2925     85.4963    152.9742   5.6733758491e+01   3.2387002959e+01      0.60576    0.4895407 -36.01  0.003164495    1.408    0.290
        52 -12.5092     77.3097    156.9329   5.9706850041e+01   3.2647610928e+01    0.5342081     0.372507  20.94  0.001402175    1.614    0.380
        53 -13.7312     74.0032    153.3084   6.0102123524e+01   3.4014395575e+01    0.7237852    0.5618272  33.70  0.001892541    1.282    0.220
        54 -12.7256    111.8955    155.7426   5.0006277885e+01   2.7471481482e+01    0.5358749    0.3513867  69.54  0.002292045    2.265    0.559
        55 -12.0902     55.1403    155.7857   6.6005095367e+01   3.5928897359e+01    0.4798738    0.3165427 -17.10  0.002144329    2.366    0.577
        56 -13.0072    208.6107    153.8858   2.8895731833e+01   1.1429854109e+01    0.5972335     0.449809  25.04  0.003637713    1.385    0.278
        57 -12.7935      8.6494    149.7554   7.9389606084e+01   4.2102352089e+01    0.6858402    0.3574989  65.61  0.003325528    1.793    0.442
        58 -11.9914    103.6757    149.5535   5.1044421016e+01   3.0273099983e+01      0.40405    0.2964092 -27.96  0.001513171    1.670    0.401
        59 -12.2103     59.6644    148.9877   6.3728077603e+01   3.7070313505e+01    0.2065542    0.1843686 -82.81  0.001160729    1.081    0.075
        60 -10.8432     38.2141    145.7792   6.9940207242e+01   4.0456180104e+01    0.1876834    0.1587163 -44.29 0.0005223224    1.349    0.259
        61 -12.6691    122.3683    154.5879   4.7097350415e+01   2.5942429963e+01    0.6204112    0.3632076 -36.12  0.002699857    1.977    0.494
        62 -12.5507     42.2272    138.7049   6.7792462719e+01   4.1861989633e+01     0.416581     0.244162  38.37   0.00196118    1.654    0.395
        63 -12.8273    246.6407    133.3396   1.9095947078e+01   8.7710102912e+00     0.426296    0.2984871 -39.93  0.002742369    1.340    0.254
        64 -14.4372    232.3864    127.4791   1.9813430928e+01   1.1741088325e+01     1.234966    0.6044509 -41.19  0.006275233    1.807    0.447
        65 -11.6484     47.3847    133.0051   6.5306502387e+01   4.2763656902e+01    0.3667896    0.1991352 -82.72  0.001534101    2.025    0.506
        66 -10.3528     10.9550    134.0067   7.7544989135e+01   4.6002138169e+01     0.155663    0.1396883  66.44 0.0003515829    1.090    0.083
        67 -12.6295    136.3694    131.8758   3.8808079111e+01   2.8315044339e+01     0.710983    0.3080486  40.31  0.002668017    2.370    0.578
        68 -10.9058     34.2961    129.6823   6.9255867826e+01   4.5105420943e+01    0.1503773   0.09696347  64.72 0.0001950472    1.609    0.379
        69 -14.6499    105.5738    122.6208   4.4843540333e+01   3.6305090080e+01     1.818388     1.191913  33.49  0.008087591    1.621    0.383
        70 -14.8950    106.0894    105.1444   4.0318176744e+01   4.0319673041e+01     1.477087      1.46147  69.69  0.008027294    1.031    0.030
        71 -12.2187    176.8272    121.1812   2.7481176835e+01   2.2543259335e+01    0.2778099    0.2165124  34.16  0.001283487    1.392    0.282
        72 -12.4913    181.0061    120.3096   2.6486211721e+01   2.1894570430e+01    0.2732721    0.2471317  47.61  0.001177609    1.234    0.190
        73 -12.4429      4.5922    119.3775   7.8545547887e+01   5.0291810793e+01    0.5379061    0.2855213  10.03  0.002544198    2.299    0.565
        74 -11.9300     79.2301    119.0030   5.2132671674e+01   4.1871834051e+01    0.2441034    0.2363538 -87.70 0.0007952615    1.011    0.011
        75 -13.2444     84.9355    114.9942   4.9369029470e+01   4.1914616233e+01     1.121691     0.569878  45.24  0.003994639    2.038    0.509
        76 -11.9935     88.5108    109.5550   4.6902803294e+01   4.2630784741e+01     0.548673    0.3202431 -65.36  0.001940598    1.968    0.492
        77 -11.4049    186.2019    116.1782   2.4561422901e+01   2.1627145387e+01     0.187735    0.1638023 -65.74 0.0005205484    1.337    0.252
        78 -11.7575     42.8293     90.1592   5.9103022079e+01   5.4726232923e+01    0.3957238    0.2492195 -64.90  0.001005945    1.485    0.327
        79 -13.1796     21.3151     86.2048   6.7676897372e+01   5.8008633607e+01    0.7880893    0.5960734   5.28  0.002597179    1.543    0.352
        80 -14.3854     18.1808    111.0417   7.2701673162e+01   5.1582113815e+01    0.9905943    0.7816612 -40.15  0.004419435    1.394    0.283
        81 -14.2124     10.6916    102.8546   7.4641925170e+01   5.4328419498e+01    0.8608996    0.7560191  38.82  0.004714207    1.244    0.196
        82 -13.7172      2.4146     97.0229   7.7364349408e+01   5.6375980619e+01      0.90345    0.4121419 -77.18  0.003339523    1.863    0.463
        83 -12.5282     36.8402     92.8241   6.2211263892e+01   5.4726145603e+01    0.5310805    0.3889781  -4.96  0.001717798    1.715    0.417
        84 -14.3245     23.2498     95.2656   6.8409250648e+01   5.5418891171e+01     1.446921    0.6542284  17.04  0.005869223    2.589    0.614
        85 -12.7084     29.8508     89.5084   6.4528032904e+01   5.6346605492e+01     0.544574    0.3429474  78.10  0.002018302    1.936    0.484
        86 -11.1759    195.3044    113.3170   2.2313841188e+01   2.0380702560e+01    0.1376963    0.1031367  -2.27 0.0004787279    1.625    0.385
        87 -12.9058    121.4959    111.9066   3.7758834129e+01   3.5650644610e+01    0.3933991    0.3197278  66.31  0.001213383    1.403    0.287
        88 -11.4207     45.9356    110.1776   6.2025691006e+01   4.9023784253e+01    0.3064311    0.1996041 -55.27  0.001352117    1.453    0.312
        89 -11.7069     62.8353    110.2259   5.5830020316e+01   4.6716940064e+01     1.072918    0.4529072 -72.93  0.003335848    3.477    0.712
        90 -11.1632     64.5289    101.5320   5.3228654708e+01   4.8719983164e+01    0.3137852    0.2737896  35.05  0.001009667    1.204    0.169
        91 -12.1386     62.3314     98.6738   5.3355816350e+01   4.9796582716e+01    0.5950575    0.3247026  55.66  0.002300926    2.351    0.575
        92 -11.3566    176.9743    110.5010   2.4873946724e+01   2.4454709895e+01    0.2125172    0.1435542  48.02  0.001041176    1.615    0.381
        93 -12.8311    223.1863    127.8609   2.1205587977e+01   1.3147868832e+01    0.5843363    0.3804343 -54.06  0.003130309    1.945    0.486
        94 -12.8138    135.0625    102.7193   3.1834595116e+01   3.4785493952e+01     0.927597     0.361521  48.80  0.002830019    2.703    0.630
        95 -13.4957    120.3619    102.3260   3.5512846756e+01   3.8011335247e+01    0.7190729    0.3639457  42.09  0.002785997    2.066    0.516
        96 -11.6094     48.6710    100.6921   5.9076114675e+01   5.1204877652e+01    0.3861215    0.2521099  36.56   0.00143406    1.586    0.369
        97 -12.2992     52.0283     98.1687   5.7201942341e+01   5.1422805313e+01    0.5514672    0.3557329  -2.63  0.002290972    2.361    0.576
        98 -12.8779    249.2956     98.0722   1.1509352229e+01   1.3247302833e+01    0.4082952    0.1545973 -37.21  0.001945899    1.993    0.498
        99 -12.5813    163.7552     97.5267   2.4093733151e+01   2.9588822635e+01    0.3733969    0.3116216  42.20 0.0008475638    1.297    0.229
       100 -13.0308    137.3725     95.2496   2.9205295146e+01   3.5819637247e+01    0.4932607    0.4209983  85.34   0.00125502    1.353    0.261
       101 -12.9033     28.7186    121.8179   7.0182215315e+01   4.7762767415e+01    0.5369334    0.3246475 -57.27  0.002579965    1.576    0.366
       102 -12.1544     48.9795     93.0666   5.7236809775e+01   5.3172744446e+01    0.9531681    0.4306722 -47.93  0.002940703    2.181    0.542
       103 -10.5786     74.4528     95.5148   4.8068250654e+01   4.8618226656e+01    0.2665586    0.1542567  22.33  0.000717761    2.315    0.568
       104 -13.4022     32.2238    112.2193   6.7537378220e+01   5.0005621281e+01    0.7521324    0.3611896 -54.65  0.003184719    1.945    0.486
       105 -10.9587     35.0094     86.4692   6.1630985468e+01   5.6611558391e+01    0.2316349    0.1842652 -62.72  0.001225512    1.145    0.127
       106 -13.7862    214.4549     77.2991   1.0872063432e+01   2.2370670094e+01    0.9892337     0.786438 -76.44  0.005900844    1.455    0.313
       107 -13.4489    188.6918     83.9835   1.6125206482e+01   2.6594367564e+01    0.6684491    0.5084546  43.34  0.002263073    1.513    0.339
       108 -14.0982    198.6303     70.2014   1.1122487803e+01   2.6642335836e+01     2.494391    0.7310154  45.59   0.00742019    5.523    0.819
       109 -13.9718    164.9589     70.9752   1.6475671105e+01   3.4003728579e+01     1.301801    0.9008211  71.89  0.006287988    1.649    0.394
       110 -14.0360    160.5058     80.8817   2.0139784827e+01   3.3328525424e+01      1.43055    0.6393597  38.09  0.002727862    3.418    0.707
       111 -14.0831    169.3637     76.9233   1.7401705149e+01   3.1999510803e+01    0.8237085    0.5705888  42.77  0.002880866    1.658    0.397
       112 -11.6517    132.4966     85.9842   2.7689227826e+01   3.8779140305e+01    0.2423424    0.1478502 -41.03 0.0007511046    1.583    0.368
       113 -11.5174     98.1785     84.1988   3.6686016974e+01   4.6735527245e+01    0.2853127    0.2155812 -28.67   0.00104308    1.506    0.336
       114 -13.2058    242.2927     83.5725   9.1417575262e+00   1.6383254544e+01    0.4046233     0.243907  67.09  0.002305829    2.206    0.547
       115 -13.5032    237.7204     79.8183   8.7945839639e+00   1.7689554738e+01    0.4030077    0.3021064  76.26  0.002175775    1.712    0.416
       116 -14.6811    170.3057    241.7753   5.0496010063e+01   3.5844716888e+00     1.058561    0.6419852  20.69  0.006822035    1.360    0.265
       117 -12.8776     51.6767     68.7128   4.9304526112e+01   5.8939053214e+01    0.8432481    0.5404908 -80.92  0.003501912    2.321    0.569
       118 -13.4984     92.8375     56.8808   2.8920645496e+01   5.3603266799e+01    0.6664692     0.494307  67.32  0.002020624    1.564    0.361
       119 -13.8475     74.6307     73.7169   4.1451465105e+01   5.3829025495e+01     1.554233    0.8286345  19.74  0.005001406    3.676    0.728
       120 -13.5903     87.3859     65.2530   3.3867591880e+01   5.3121116154e+01     0.822617    0.5842798 -11.23  0.002227522    2.047    0.512
       121 -13.1208     55.0816     81.1183   5.1604339779e+01   5.5373407514e+01    0.6740952    0.4527955 -34.20  0.002513855    1.686    0.407
       122 -13.9571     61.1455     75.9132   4.7518343685e+01   5.5699308841e+01    0.9456141    0.5667812 -41.94  0.001700277    1.700    0.412
       123 -11.9118    114.0972     80.1111   3.0664346209e+01   4.4146534566e+01    0.5005857    0.3276956 -49.72  0.002200374    1.525    0.344
       124 -12.8527    135.2856     79.1670   2.4960141984e+01   3.9470480869e+01    0.8223361    0.3738835  54.83  0.003060168    2.335    0.572
       125 -11.3148     42.5035     79.4771   5.6605646278e+01   5.7541073979e+01    0.2868816    0.2300228 -40.40 0.0008907979    1.244    0.196
       126 -11.3977     41.5440     75.9814   5.6098061172e+01   5.8554934843e+01    0.3551538    0.2092355 -59.70  0.001608942    1.568    0.362
       127 -14.4660     26.7227    225.9743   7.8973993969e+01   2.3206461113e+01     1.246548    0.4066865 -61.46  0.005692275    3.521    0.716
       128 -14.2204      6.3034     63.3419   7.0794557853e+01   6.5043266448e+01    0.8163862    0.5514163  17.94  0.004454376    1.664    0.399
       129 -11.4759     27.5735     76.1928   6.2700265905e+01   6.0077956161e+01    0.3281103    0.2239055  77.07  0.001455771    1.797    0.444
       130 -12.1434    241.8952     71.1707   6.4429019307e+00   1.8122871963e+01    0.3322748    0.1843763 -61.13  0.001723826    2.176    0.541
       131 -11.5173     43.5246     64.5267   5.1734772837e+01   6.1132435180e+01    0.2558489     0.172377 -48.12 0.0007614926    1.379    0.275
       132 -12.5156     39.3188     67.8883   5.4818892072e+01   6.0868420804e+01    0.8198437    0.2631885  31.42   0.00285641    3.153    0.683
       133 -12.8200    134.7671     65.7508   2.0831996826e+01   4.2068671653e+01    0.6325917    0.5638778  47.91   0.00258244    1.181    0.153
       134 -12.0708    100.4283     64.3391   2.9313864949e+01   5.0437447522e+01    0.4524713    0.3381691 -24.35  0.002110968    1.537    0.349
       135 -12.9778     79.1099     60.4457   3.5030237975e+01   5.5853380234e+01    0.7635329    0.5137302 -52.29  0.003504488    1.540    0.351
       136 -12.3904     83.1042     54.7648   3.1378943188e+01   5.6157439701e+01     0.492531    0.3063115 -14.62  0.001870814    2.684    0.627
       137 -11.0622    199.5029     62.3700   8.9816783518e+00   2.7606281157e+01    0.2990601     0.119618 -32.92   0.00122129    2.201    0.546
       138 -13.7903    177.9053     57.1106   1.0430389596e+01   3.3179775551e+01    0.8411238    0.5323314 -47.76  0.002451933    1.453    0.312
       139 -12.0354     38.7848     59.7933   5.2507409237e+01   6.2908194106e+01    0.4509028    0.2822529  62.64  0.001930902    2.419    0.587
       140 -12.2016     34.3871     60.7742   5.5078585119e+01   6.3225603504e+01    0.3808338     0.236947 -50.02  0.001841187    1.457    0.313
       141 -12.3657     35.4324     54.7934   5.2525260966e+01   6.4526785829e+01    0.3719619    0.2847626 -23.07 0.0009973614    1.399    0.285
       142 -12.1233     24.7545     59.5193   5.9796371246e+01   6.4592232387e+01    0.4469827    0.2546069 -49.38  0.001673933    1.564    0.361
       143 -11.7668    109.9935     53.7357   2.2680823751e+01   5.0174625231e+01    0.3738855    0.3061787 -14.33  0.001863927    1.415    0.293
       144 -14.6064    119.7055     54.5884   2.0516107824e+01   4.7671591374e+01     1.009089    0.6644136  42.56   0.00185927    1.656    0.396
       145 -12.6827    135.9748     50.7425   1.5558015365e+01   4.4283501075e+01    0.6457065    0.5348681 -29.30  0.002019789    1.250    0.200
       146 -12.6746    247.9363     53.8553   2.0854122032e+00   1.9279718411e+01     0.513374    0.2703747 -40.26  0.002808048    1.424    0.298
       147 -11.7572    249.1938     48.6043   8.4015671088e-01   1.9700686988e+01    0.2317217    0.2114297  88.02  0.001728166    1.332    0.249
       148 -13.7005    103.2302     50.3153   2.3237468292e+01   5.2390186459e+01    0.8742588    0.4982978 -43.41 0.0008796044    1.755    0.430
       149 -13.5083     97.9922     50.1689   2.4701694903e+01   5.3654215163e+01    0.7342782    0.4294405 -44.08  0.002240478    1.721    0.419
       150 -10.8268     47.3193     56.3426   4.7034958551e+01   6.2502584612e+01    0.2796528    0.1627207  54.90  0.001158141    2.380    0.580
       151 -11.4984     17.4039     55.0474   6.2621286955e+01   6.6369179270e+01    0.3335716    0.2075542 -66.18  0.001682535    1.490    0.329
       152 -11.8801    231.0206     54.9255   3.7757133598e+00   2.2245621338e+01    0.3096673    0.1942206  83.11  0.001748363    1.969    0.492
       153 -10.4978     23.5339     49.9942   5.7504153822e+01   6.7026657117e+01    0.2020955    0.1238319 -58.47 0.0004493243    1.488    0.328
       154 -12.3659    154.5388     46.5045   1.0792887075e+01   4.0319489511e+01    0.4676196    0.2657499  60.74  0.002112245    1.777    0.437
       155 -12.9861    158.3263     43.1251   9.1258398443e+00   3.9867220539e+01    0.5442691    0.4734949  59.83  0.001990377    1.218    0.179
       156 -10.9412     29.8882     46.1308   5.2407755174e+01   6.7219160341e+01    0.2640505    0.1708347 -45.38   0.00133677    1.408    0.290
       157 -10.6176     38.5101     46.4824   4.7710875596e+01   6.6008872836e+01    0.1411169     0.127597 -27.38 0.0008101214    1.033    0.032
       158 -14.0067     57.5688    202.2601   7.0287280734e+01   2.4786016641e+01     1.207384    0.5219929 -71.85   0.00556398    2.523    0.604
       159 -13.4562      6.2289     43.2110   6.6142167848e+01   7.0062634641e+01    0.8903399    0.5341025  12.47  0.003961765    1.836    0.455
       160 -13.0513     64.1670    224.0051   7.0573287997e+01   1.9610262694e+01    0.7185918    0.3534267  44.47  0.003838522    1.667    0.400
       161 -14.2001     64.1944    214.4838   6.9778722586e+01   2.1476069752e+01    0.5271465    0.4344306  44.81  0.002843842    1.020    0.020
       162 -13.3496     59.4168    212.7130   7.0739226462e+01   2.2392386048e+01    0.4317005    0.2946046  -9.51  0.001164162    2.298    0.565
       163 -14.0290     20.9579    224.5497   8.0159794736e+01   2.4032505298e+01    0.5002669    0.4478425  75.43  0.002150685    1.220    0.180
       164 -13.5137    237.5008    229.8392   3.7376397030e+01  -2.4563765912e+00    0.4802116    0.3586656 -13.71  0.003832851    1.228    0.186
       165 -14.6263    212.5589     40.8307   2.0651176390e+00   2.7732143252e+01     2.024699    0.6817247  77.30  0.007414251    4.171    0.760
       166 -13.5291     94.9865    218.3678   6.3123247854e+01   1.6904125501e+01    0.5334975    0.2431871  29.39  0.002562682    1.942    0.485
       167 -12.8697     68.5961    220.9742   6.9327827125e+01   1.9676702412e+01    0.5104848    0.3393354  89.97  0.003021399    1.771    0.435
       168 -13.0314    131.3172     33.3370   1.0297342953e+01   4.7983690396e+01    0.5306854    0.4518809  32.59  0.001629714    1.344    0.256
       169 -12.8147    110.1419     41.9379   1.8116189334e+01   5.2086739881e+01    0.5491859    0.2389361  56.13 0.0009587059    2.218    0.549
       170 -13.2513    113.5218     37.9660   1.5736425484e+01   5.1844710240e+01    0.4386493    0.3827789  78.90  0.001455616    1.158    0.136
       171 -10.3423    169.6470     42.7179   7.3758305758e+00   3.7171694293e+01    0.1381442    0.1065108  33.08 0.0005309093    1.657    0.396
       172 -12.2298     36.4916     34.2882   4.3403400803e+01   6.8874130007e+01    0.4238007    0.2274489  19.46  0.001796997    2.472    0.596
       173 -12.3089     40.4771     40.3014   4.3980116664e+01   6.7044873238e+01    0.5793531    0.2975391  36.39  0.002595073    2.012    0.503
       174 -12.7022     32.7048     40.1193   4.8301485096e+01   6.8194232165e+01     0.368111    0.3221762 -20.93 0.0006630096    1.082    0.076
       175 -13.2015     74.5906     36.9358   2.6801408728e+01   6.1255752559e+01    0.7363188    0.3594413  54.31  0.002172828    2.151    0.535
       176 -10.4162      5.5085    219.4950   8.3315923839e+01   2.6407879089e+01    0.1159357   0.08869848  56.28  0.000810585    1.012    0.012
       177 -11.3564    104.5021     36.9936   1.7553388129e+01   5.4231233923e+01    0.2271323    0.1442321 -32.55   0.00103746    1.603    0.376
       178 -12.8094     46.1770     33.3666   3.7610360438e+01   6.7494055227e+01    0.5810289    0.4272086 -16.61   0.00302825    1.519    0.342
       179 -13.5203     57.3484     26.9003   2.8810324642e+01   6.6533007943e+01     1.058864    0.3823388  44.04    0.0028845    2.734    0.634
       180 -12.3769    181.2920    215.9814   4.4822771742e+01   5.8175668362e+00    0.1699948    0.1384518  -5.08   0.00103081    1.088    0.081
       181 -12.2641     85.6335    215.4915   6.4938063328e+01   1.8647670300e+01    0.2636802    0.1809988  47.52  0.001482683    1.310    0.237
       182 -13.0618     24.7278    216.9567   7.8978605095e+01   2.5196145109e+01     0.748606    0.3054568  47.34  0.003864355    1.883    0.469
       183 -12.5066    120.4337     26.5033   9.7535329662e+00   5.1642562379e+01    0.5503563    0.3578638  63.13  0.002363001    1.470    0.320
       184 -12.2053     30.7438     25.2591   4.2226431136e+01   7.1481832210e+01    0.4226117    0.2560615  18.38  0.001667733    1.932    0.482
       185 -11.4477     36.1213     22.9251   3.7591656444e+01   7.1080912711e+01    0.3362284    0.2250667 -25.43  0.001236189    1.549    0.355
       186 -11.9787      5.1384    209.8499   8.3084717057e+01   2.8410307407e+01    0.2138463    0.1488984 -25.45  0.001276249    2.299    0.565
       187 -11.9295     50.2703     20.2513   2.8387077338e+01   6.8981323031e+01    0.5040064    0.2652972  60.38  0.002088071    2.710    0.631
       188 -11.3334     46.0036     20.2666   3.0529604630e+01   6.9795650996e+01    0.2819045    0.1918304  40.41 0.0009513551    1.440    0.306
       189 -11.7012    136.6004    210.8040   5.3022847381e+01   1.2662060125e+01    0.1992691    0.1638907 -58.08  0.001102944    1.505    0.336
       190 -11.3011     40.5232    210.9766   7.5018316038e+01   2.4842153322e+01    0.1608823   0.08797368 -48.12 0.0008093554    2.472    0.595
       191 -10.3722     60.3194     18.3256   2.2791132091e+01   6.7198573582e+01    0.2001789    0.1395452  -6.51 0.0006353251    1.688    0.408
       192 -13.4490    147.8130    238.8689   5.4412282914e+01   6.7215123903e+00    0.4827599    0.3332447  63.80  0.002561863    2.647    0.622
       193 -11.6641     80.6695    208.4432   6.5358576974e+01   2.0668912397e+01    0.2463969    0.1550576  48.78  0.001112452    1.456    0.313
       194 -10.7085    124.0267     11.4753   3.2411376249e+00   5.2383861332e+01    0.2154457     0.129047  73.13  0.001027021    1.577    0.366
       195 -11.2613    151.5219    206.1296   4.9200213262e+01   1.1373059302e+01    0.2650404    0.1518705  15.94  0.001159831    1.975    0.494
       196 -13.4892     16.2080    197.1815   7.9991905449e+01   3.0176377751e+01    0.7040356    0.2541431 -59.98  0.002695631    3.111    0.679
       197 -11.9839    134.9505     39.5993   1.1877750924e+01   4.6203386662e+01    0.5535508    0.3186431  84.22  0.001813352    2.222    0.550
       198 -14.0032     40.6411    196.1228   7.3942158258e+01   2.8018871894e+01    0.8541268    0.4103194  54.30  0.004161695    1.910    0.476
       199 -14.8268     30.2102    168.9781   7.4561746490e+01   3.5425612105e+01     1.731617     1.145526 -36.85  0.005225363    2.042    0.510
       200 -15.2460      8.4939    183.0428   8.1230140298e+01   3.4025421096e+01     1.226771     1.008971  72.10  0.008156066    1.052    0.049
       201 -15.3603     15.6127    175.0523   7.8963643894e+01   3.5305527240e+01     2.367927    0.8174188  54.98  0.009762457    2.647    0.622
