#   1 NUMBER                 Running object number                                     
#   2 MAG_AUTO               Kron-like elliptical aperture magnitude                    [mag]
#   3 X_IMAGE                Object position along x                                    [pixel]
#   4 Y_IMAGE                Object position along y                                    [pixel]
#   5 X_WORLD                Barycenter position along world x axis                     [deg]
#   6 Y_WORLD                Barycenter position along world y axis                     [deg]
#   7 A_WORLD                Profile RMS along major axis (world units)                 [deg]
#   8 B_WORLD                Profile RMS along minor axis (world units)                 [deg]
#   9 THETA_WORLD            Position angle (CCW/world-x)                               [deg]
#  10 FWHM_WORLD             FWHM assuming a gaussian core                              [deg]
#  11 ELONGATION             A_IMAGE/B_IMAGE                                           
#  12 ELLIPTICITY            1 - B_IMAGE/A_IMAGE                                       
         1 -11.0884     78.4680     21.9576   8.2719110975e+01   6.1252165359e+01    0.3867063    0.2506262 -21.61  0.001306207    1.492    0.330
         2 -11.3260     74.8201     21.8188   8.3936313217e+01   6.1924827143e+01     0.412121    0.2161597 -39.27  0.001759601    1.959    0.490
         3 -11.2216     40.9187     19.9608   9.6768441034e+01   6.7252444791e+01     0.377169    0.2465102  -5.53  0.001897629    1.655    0.396
         4 -10.9426     13.8638     16.0550   1.0818462000e+02   7.0541488149e+01    0.3067439     0.188654  22.58  0.001750487    1.868    0.465
         5 -10.8435    100.0644     19.0645   7.4675187889e+01   5.7356577003e+01    0.3687309    0.2812229 -65.58  0.001724859    1.976    0.494
         6 -11.7804     89.1257     14.2393   7.5824927239e+01   6.0216408987e+01    0.5447213    0.3689305 -43.41  0.001915603    1.794    0.443
         7 -11.1244     93.0369      9.0235   7.2333997430e+01   6.0011653968e+01     0.318552    0.2270757  -0.11 0.0005794744    1.416    0.294
         8 -10.0820     89.9206      2.6584   7.0337482508e+01   6.1322306528e+01    0.3343281    0.2062163  72.97  0.001080986    2.441    0.590
         9  -9.9334     26.6836     16.1941   1.0180916916e+02   6.9422246953e+01    0.2575234    0.1786771 -38.37  0.001013113    1.212    0.175
        10 -11.0601    190.7557     14.2973   5.5429204789e+01   3.5396544582e+01    0.3352429    0.2256209 -53.99   0.00140851    1.564    0.361
        11 -10.4221    157.2783     12.3426   5.9609793993e+01   4.4312669212e+01    0.2572343     0.202685 -18.02 0.0006878062    1.377    0.274
        12 -10.7608     22.2909      9.3039   1.0093145963e+02   7.0975181109e+01    0.3140018    0.1944544  -5.63  0.001940439    1.699    0.412
        13 -11.7365     40.2062      8.6978   9.1848648794e+01   6.9079248033e+01    0.4331389    0.2474941 -20.72  0.001578526    1.674    0.403
        14 -11.5432     34.9975     12.8699   9.6298499542e+01   6.9081579925e+01    0.3803113    0.2607089 -39.27  0.001717789    1.372    0.271
        15 -11.8235     30.2427      7.2455   9.5912818978e+01   7.0481729360e+01    0.3182701     0.268464 -10.85  0.001249623    1.154    0.133
        16 -10.3638    119.0543     12.0868   6.6928510748e+01   5.3873388690e+01    0.2077475    0.1846565  33.76 0.0003367432    1.010    0.010
        17 -10.7070     56.7827     10.8266   8.5701407912e+01   6.6438511004e+01    0.3507334    0.1924079 -19.08 0.0006370958    1.860    0.462
        18 -10.3593     55.3156      7.3070   8.4563727159e+01   6.7132311958e+01    0.3766727    0.1697162  27.66  0.001703415    2.634    0.620
        19 -11.4437     57.1832      2.9370   8.1589656604e+01   6.7381810632e+01    0.4870645    0.2754531  17.18  0.001458018    1.994    0.499
        20 -11.2562      4.5740      9.8772   1.1063778164e+02   7.2252058177e+01    0.2572366    0.1797349   0.95 0.0007868204    1.511    0.338
        21 -11.3426      2.4833      6.2535   1.1031832900e+02   7.3005147614e+01    0.2301011    0.1816783 -34.57   0.00101772    1.113    0.101
        22 -10.4515      2.8242      2.6844   1.0858527359e+02   7.3587875176e+01     0.174019    0.1331347  14.18 0.0005533971    1.524    0.344
        23 -10.5183    210.1731      7.4118   5.1300011449e+01   3.1139073409e+01    0.2174301    0.1586616 -40.23  0.001190528    1.353    0.261
        24 -11.4690    151.2654      7.1110   5.8799333132e+01   4.6372438758e+01    0.3287103    0.2951311  17.03  0.001690146    1.173    0.147
        25 -11.0087     71.4043      6.4481   7.8026097411e+01   6.4530463064e+01    0.4634483     0.233031  35.79  0.002291723    1.917    0.478
        26 -11.7678     80.1586      1.8565   7.2885512264e+01   6.3378084771e+01    0.4380661    0.2271647  39.62  0.001116563    1.749    0.428
        27 -10.4293     64.9352      6.9242   8.0606241675e+01   6.5612323978e+01    0.1974251     0.160933   1.83 0.0005819866    1.029    0.028
        28 -10.4884    145.2035      5.7831   5.9344962424e+01   4.8045651212e+01    0.1957944    0.1498874  32.96 0.0004409637    1.316    0.240
        29 -10.9027    194.4931      4.4830   5.2143504689e+01   3.5410848216e+01    0.2715671    0.1349049 -23.83  0.001207325    2.153    0.536
        30 -11.2855    129.8362      4.0898   6.1514155079e+01   5.2049478805e+01    0.3539057    0.2545527  47.68  0.001904348    1.238    0.193
        31 -10.7312    120.2194      4.3447   6.3570320679e+01   5.4358962752e+01    0.4266263    0.1603704  48.98  0.001271392    2.255    0.556
        32  -9.8166    235.5835      4.2417   4.8191453901e+01   2.5265569235e+01    0.1703496    0.1249842 -10.95 0.0009527206    1.676    0.403
        33  -9.9957     37.5969      2.8437   9.0091271083e+01   7.0236107005e+01     0.289985   0.09762391 -35.74  0.001090509    2.634    0.620
        34  -9.9792    230.6149      3.2227   4.8349858547e+01   2.6544835433e+01    0.1695566    0.1250377 -12.43  0.000621119    1.637    0.389
        35 -10.1690    172.7964      2.8546   5.4252423762e+01   4.1181804026e+01    0.2207133    0.1967965  87.96 0.0005984872    1.084    0.078
        36  -9.6201    176.4828      2.4863   5.3668212791e+01   4.0256220136e+01    0.2324172    0.2147481  36.36  0.001259188    1.155    0.134
        37 -10.6150    160.8849      2.4454   5.5743835429e+01   4.4312541337e+01    0.2812757    0.1816363  14.82  0.001345599    1.936    0.483
        38 -10.3728     19.9981      2.5100   9.8854577974e+01   7.2255685377e+01    0.2125424    0.1316185 -33.60 0.0006268848    1.293    0.226
        39 -11.5394     11.3903      6.2155   1.0532888977e+02   7.2407149393e+01    0.4914079    0.4772812  57.04   0.00395191    1.648    0.393
        40  -9.5440    204.4685      1.4661   5.0259604856e+01   3.3151675501e+01    0.1349906    0.1206394 -83.95  3.46605e-05    1.018    0.017
        41  -9.9270    112.7738      3.0548   6.4682256749e+01   5.6232734102e+01    0.1949864    0.1831472 -76.61 0.0005117606    1.288    0.224
        42  -9.4072     67.2173      1.4319   7.7023897254e+01   6.5847978111e+01    0.1482007    0.1167845  47.38 0.0003877784    1.434    0.303
        43 -10.0309    100.0825      1.7564   6.7183029461e+01   5.9228811627e+01    0.1852261    0.1833369 -70.36 0.0004587058    1.250    0.200
        44  -9.9267     29.0976    129.3275   1.2716265967e+02   4.5293454482e+01    0.2625801    0.1347171  89.42  0.001327005    2.057    0.514
        45 -12.5296     17.7727    248.9041   1.3773171698e+02   2.3171644482e+01    0.5749441    0.3078716  23.49  0.003303747    3.959    0.747
        46 -10.8074      1.6898    248.6690   1.4010636538e+02   2.4753586208e+01    0.2940026    0.1097604 -83.50   0.00194565    2.386    0.581
        47 -12.7532      8.6642    246.1213   1.3899041458e+02   2.4503312406e+01    0.4397341    0.3288557  24.50  0.003575683    2.233    0.552
        48 -10.4026    248.0112    129.5096   7.7019139436e+01   5.7773543191e+00     0.174071    0.1250952  82.67 0.0008104943    2.562    0.610
        49 -11.3844     23.5415    121.3145   1.2766021410e+02   4.7564849472e+01    0.4386881     0.207981  82.72 0.0006368647    2.618    0.618
        50 -10.7969     65.6171    111.1058   1.1440007820e+02   4.5470145876e+01    0.4012052    0.1449792 -58.55   0.00144337    2.446    0.591
        51  -9.4628     20.1968    112.3962   1.2747745706e+02   4.9830819008e+01    0.1431923    0.1017483  50.08 0.0001193948    1.538    0.350
        52  -9.8444    249.0075    111.7441   7.2818064095e+01   8.1634464969e+00    0.1690836    0.1179937  49.73 0.0008840073    1.548    0.354
        53 -10.6775      3.7980    109.2544   1.3158999509e+02   5.1645743634e+01    0.2377844    0.1188697  34.21  0.001403468    2.275    0.560
        54 -10.5331     57.6912    107.7324   1.1605363483e+02   4.7233573160e+01    0.2183318    0.1657383  13.42  0.001238692    1.706    0.414
        55 -10.4115     12.5709    108.3202   1.2908824552e+02   5.1293560764e+01    0.1747846    0.1099256  22.23    0.0010867    2.016    0.504
        56  -9.7347     93.1636    105.0030   1.0517656312e+02   4.2763475728e+01     0.244874    0.1584302 -29.13  0.001092475    2.049    0.512
        57  -9.5851     70.5470    102.4382   1.1119301242e+02   4.6785892858e+01    0.2491345    0.1050509 -47.80 0.0008720661    2.269    0.559
        58  -8.9621     33.2581    103.2840   1.2246791971e+02   5.0806942224e+01    0.1188572   0.08035676 -46.85  0.000255756    1.479    0.324
        59  -9.8366    113.4876    102.4902   9.8880331086e+01   3.9658033402e+01    0.1454504    0.1424406 -49.35 9.515989e-05    1.009    0.008
        60 -11.1628     57.1847    101.8063   1.1505972120e+02   4.8647529052e+01     0.296427    0.2190603  41.25  0.001662286    1.491    0.330
        61 -10.3574     24.8876    101.8491   1.2471511075e+02   5.1839516413e+01    0.1789262    0.1386675 -57.07 0.0003418815    1.181    0.154
        62 -10.0213     62.1251     98.3036   1.1284501334e+02   4.8836032789e+01    0.2393871    0.1616068 -52.42  0.001292068    1.331    0.249
        63 -10.4235     21.1784     99.2813   1.2543657700e+02   5.2704595175e+01     0.191586    0.1366142 -57.48  0.000727005    1.228    0.186
        64 -11.0304     18.1217     94.3964   1.2564192020e+02   5.4023145959e+01    0.2711239    0.1917194  82.18 0.0008815763    1.472    0.321
        65  -9.4048    129.3223     97.7007   9.3391524136e+01   3.7467144917e+01    0.1513575    0.1209966  89.85 0.0002649175    1.626    0.385
        66 -10.0110    101.0477     96.2005   1.0074430449e+02   4.3334645520e+01    0.3498898    0.1970678 -64.96  0.001393488    2.390    0.582
        67 -10.7193     78.8438     94.9614   1.0699587868e+02   4.7276075429e+01    0.2037115    0.1993723  12.89 0.0002937487    1.112    0.101
        68 -11.0810     27.3830     91.0218   1.2224390163e+02   5.4079971616e+01     0.467876    0.2258797  49.72  0.002307657    2.618    0.618
        69 -10.9351     58.3693     91.4102   1.1251529506e+02   5.0860921143e+01    0.2934036    0.2235331 -31.33 0.0009624829    1.457    0.314
        70 -10.9902     17.9646     88.4623   1.2478890102e+02   5.5360644560e+01    0.3572165    0.2129886 -25.19  0.001961636    2.250    0.555
        71 -11.4161     10.9896     85.8050   1.2658472735e+02   5.6405111913e+01    0.4153616    0.2092117 -83.57  0.001894268    2.000    0.500
        72 -12.1034      1.8782     90.0240   1.2997061138e+02   5.5987976452e+01    0.2475754    0.1267348 -70.99 0.0003654206    1.482    0.325
        73 -10.6451      3.7874     83.3920   1.2851707709e+02   5.7344938144e+01    0.2814254    0.1823706 -81.71  0.001322595    1.342    0.255
        74 -10.7632     76.3895     89.2388   1.0634466135e+02   4.8912774859e+01    0.2429722    0.2266579 -51.04 0.0005351919    1.016    0.016
        75  -9.9067     44.1580     89.6747   1.1666618998e+02   5.2847452057e+01    0.2612826    0.1425467  43.10  0.001334655    2.113    0.527
        76 -11.1515     98.9099     89.2195   9.9513745801e+01   4.5223779266e+01    0.2723897    0.2100301  15.98  0.001365238    1.585    0.369
        77  -9.6447     33.1207     88.1200   1.1990367331e+02   5.4248184189e+01    0.1813474    0.1321746 -52.68 0.0003873591    1.200    0.166
        78  -9.7228    124.2397     86.9977   9.1751642131e+01   4.0725104032e+01    0.2142644    0.1989635 -34.67 0.0007019289    1.063    0.059
        79 -11.4904     54.8922     85.1554   1.1221767634e+02   5.2679618614e+01    0.3114517    0.2282475 -76.11 0.0008070301    1.480    0.324
        80  -9.6340     72.0985     84.5994   1.0652203777e+02   5.0559435950e+01    0.3152583    0.1473657 -35.02  0.001195937    2.903    0.656
        81 -10.0692     10.6165     90.8476   1.2742358910e+02   5.5309887075e+01    0.2330908    0.1576501 -86.86  0.001172522    1.372    0.271
        82  -8.8970     37.6560     84.6787   1.1776254625e+02   5.4608192739e+01    0.1319694   0.08221884 -36.99 0.0004782978    1.728    0.421
        83 -11.5175     63.9516     79.9563   1.0797636234e+02   5.2697563194e+01    0.4358861    0.3075664 -55.27  0.002392519    1.285    0.222
        84  -9.4268    250.4907     80.5680   6.5235272697e+01   1.2353934234e+01    0.1355598    0.1245474 -29.37 8.803757e-05    1.010    0.010
        85  -9.3047    124.4852     78.9960   8.9329120387e+01   4.2263608796e+01    0.2229927    0.1454215 -44.79 0.0005202699    1.536    0.349
        86 -10.4964    177.0707     77.1525   7.6416573629e+01   3.0209262002e+01    0.3768319    0.2498016  46.14  0.001198976    1.504    0.335
        87  -9.3555      3.2492     78.6179   1.2801715204e+02   5.8418331505e+01     0.113878   0.07379274  82.71 0.0006951388    1.654    0.395
        88 -11.4618     56.4101     75.2780   1.0930385932e+02   5.4674698487e+01    0.4450796    0.3063619  14.97   0.00141892    1.805    0.446
        89 -10.6186     16.4367     75.7386   1.2315678353e+02   5.8283620010e+01    0.3167019    0.1962907   6.00  0.001894457    2.144    0.534
        90 -10.2952     89.8793     79.3882   9.9496724758e+01   4.8893782819e+01    0.4695537    0.2375372 -34.10   0.00187485    2.366    0.577
        91 -10.4952     32.1890     73.1449   1.1719199112e+02   5.7657933921e+01    0.2515578    0.1830371  68.21  0.001005231    1.795    0.443
        92 -10.9734     35.6227     72.2004   1.1577436629e+02   5.7559281102e+01    0.4385672    0.2921212 -74.62  0.001883107    1.589    0.371
        93 -11.2695      4.0816     74.0119   1.2705278892e+02   5.9380604651e+01    0.3806846    0.2117259  23.79   0.00229975    2.232    0.552
        94  -9.4121    136.5119     74.4688   8.4805370115e+01   4.0454756059e+01    0.1510916    0.1475219   8.30 0.0001406001    1.002    0.002
        95 -11.7453    105.8239     71.7405   9.2363335014e+01   4.7531502693e+01    0.2680234    0.2456277   5.75 0.0003546237    1.115    0.104
        96  -9.4614     92.4546     72.4887   9.6655781275e+01   4.9876024992e+01    0.1414032    0.1332916 -37.32 0.0001246311    1.039    0.037
        97  -8.8273     90.6926     69.3204   9.6233694734e+01   5.0828559721e+01    0.1380711    0.1136244 -84.78  0.000212774    1.639    0.390
        98 -10.9255     34.4175     65.0473   1.1451404767e+02   5.9219138459e+01    0.2705466    0.1945273 -45.06 0.0005808601    1.191    0.160
        99 -11.0598     38.8703     62.8922   1.1232443515e+02   5.9261429674e+01    0.2785304    0.2027246 -26.77  0.000354324    1.436    0.304
       100 -10.7753     40.6932     59.3388   1.1068808660e+02   5.9830627344e+01    0.3659832    0.2216775 -37.87  0.001684473    1.539    0.350
       101 -10.6647    131.7157     64.3591   8.2831365154e+01   4.3391562493e+01    0.3660798    0.2943318  58.21  0.001396562    1.321    0.243
       102 -10.2906     14.1862     63.8782   1.2169811884e+02   6.1008754735e+01    0.2519595    0.1417587 -77.79  0.001396361    1.840    0.457
       103  -9.1852    109.6882     64.3474   8.8860067587e+01   4.8181334917e+01    0.1470276    0.1177378 -76.88 0.0007045981    1.713    0.416
       104  -9.7496     72.5339     63.2833   1.0033727868e+02   5.5013235793e+01    0.2408614    0.1253388 -51.43  0.000576325    1.862    0.463
       105 -11.2406      4.4953     62.2460   1.2493620143e+02   6.1900405417e+01    0.4096349    0.2182342  71.63  0.001419503    2.998    0.666
       106 -11.3113      9.7339     60.3403   1.2263647098e+02   6.2030478548e+01    0.3676196    0.1798307 -48.49 0.0001624787    1.642    0.391
       107 -10.7566     62.4776     62.5889   1.0363857080e+02   5.6588626034e+01    0.3136421    0.2144541 -24.20  0.001345501    1.631    0.387
       108 -10.5817     60.0661     58.2111   1.0315907220e+02   5.7804447796e+01    0.3991911    0.2837641 -28.52  0.001557584    1.404    0.288
       109 -10.6373     56.0070     60.7425   1.0541050973e+02   5.7809044699e+01    0.2289368    0.2131234 -23.12  0.000698627    1.092    0.084
       110 -10.4735     54.1856     56.3238   1.0473601015e+02   5.8939293872e+01    0.4121156     0.218752 -50.02   0.00139402    1.659    0.397
       111 -13.0655     20.8485     57.4976   1.1779524503e+02   6.1927039881e+01    0.5099586    0.2947091 -68.27  0.002903328    1.632    0.387
       112 -12.5397      5.0198     51.7260   1.2267986115e+02   6.4101288895e+01    0.4316795    0.1888513 -36.56 0.0007506584    2.254    0.556
       113 -10.3577    118.6858     58.1565   8.4240258741e+01   4.7405314531e+01    0.3347168    0.1626597 -42.46  0.001330541    2.090    0.522
       114 -11.9573    114.3768     54.0287   8.4022651192e+01   4.9058250551e+01    0.3334261    0.3094484  24.54 0.0006436813    1.055    0.052
       115  -9.8154    106.9382     59.0756   8.7905584410e+01   4.9717630986e+01    0.2246085    0.1704613   6.01 0.0004532667    1.581    0.367
       116 -10.4578     83.5904     56.8172   9.4477713521e+01   5.4512744481e+01    0.3871498    0.2016782 -54.47  0.001429451    2.361    0.576
       117 -12.0466     88.3505     53.4651   9.1748704580e+01   5.4308658181e+01    0.4701906    0.3369492  41.03 -5.357426e-05    1.464    0.317
       118  -9.3879     71.5777     57.4545   9.8801871224e+01   5.6322835552e+01    0.1349428    0.1201095 -30.47 0.0001435841    1.014    0.013
       119 -10.4867    225.1692     54.6920   6.2136155169e+01   2.1744319470e+01     0.440473    0.2872914  -3.23  0.001966498    2.133    0.531
       120 -10.0929     95.7024     56.4125   9.0416306201e+01   5.2410630713e+01    0.1956489    0.1320316  30.77 0.0009443297    1.596    0.373
       121 -11.7236     15.5746     46.1235   1.1708236213e+02   6.4656537138e+01    0.6752945    0.4361523 -10.38   0.00422882    1.824    0.452
       122 -10.1924     34.0358     53.9235   1.1174115213e+02   6.1600486158e+01    0.2916745     0.111636 -40.63  0.001274017    2.496    0.599
       123 -10.1504    106.4244     53.1161   8.5997510825e+01   5.0888765788e+01    0.2599476    0.2067266  53.42 0.0004734616    1.378    0.274
       124 -11.9089     66.5779     52.5333   9.8942665282e+01   5.8025631916e+01    0.4660423    0.2279163  30.67  0.001896018    2.334    0.572
       125  -9.2191    176.0046     52.2269   6.9205090788e+01   3.4447350681e+01    0.1939233    0.1223466  59.13 0.0003259128    1.553    0.356
       126  -8.7171    169.6988     52.6784   7.0536815647e+01   3.5995221969e+01    0.1564974    0.1149418  23.26 0.0001962207    1.628    0.386
       127  -8.9196    232.2795     51.6877   6.0432419346e+01   2.0460567197e+01    0.1440926   0.09857959 -58.81 0.0002233151    1.566    0.361
       128  -9.9623     75.4598     50.0221   9.4903333211e+01   5.7142128278e+01     0.248014    0.1869331 -14.35 0.0005829535    1.406    0.289
       129 -10.5378     78.5930     46.0066   9.2361120713e+01   5.7360770628e+01    0.2879741     0.217383   0.50 0.0006624327    1.475    0.322
       130  -8.9463     45.6173     50.6809   1.0623962418e+02   6.1083963833e+01    0.1365664   0.08490794 -23.24  0.000702018    1.830    0.454
       131 -10.9232    102.8401     47.5443   8.5070711956e+01   5.2580205546e+01    0.3796282    0.2271799  31.93 0.0006743948    1.853    0.460
       132  -9.5077    100.9934     61.7239   9.0579876688e+01   5.0406680733e+01    0.1936441    0.1866702  29.92 0.0005109417    1.098    0.089
       133  -9.4234     65.0059     46.2795   9.7342911364e+01   5.9443830789e+01     0.173355    0.1566359   1.13 0.0002782288    1.112    0.100
       134  -9.5732     30.5175     45.9587   1.1084456981e+02   6.3542510669e+01    0.2794759    0.1482654 -29.39  0.001442226    2.054    0.513
       135 -11.1526     26.1165     43.4551   1.1192546747e+02   6.4420573317e+01    0.2386217    0.2239186 -10.41 0.0005496238    1.224    0.183
       136  -9.4964     91.1660     44.7697   8.7687059763e+01   5.5337247969e+01    0.1883024    0.1517972  -2.60 0.0004361418    1.280    0.219
       137 -10.3644     95.0278     42.2338   8.5502367765e+01   5.5023753542e+01     0.225415    0.1882253 -24.63 0.0006576539    1.139    0.122
       138 -10.0397     69.7483     42.0221   9.4033559423e+01   5.9506149483e+01    0.2291216    0.1895643  24.42 0.0006090733    1.250    0.200
       139 -10.4302     36.4949     41.4187   1.0692707962e+02   6.3876946069e+01     0.210577    0.1727415 -35.87 0.0005506508    1.009    0.009
       140  -9.7806      2.3679     42.2022   1.2165335377e+02   6.6197005229e+01    0.1677728    0.1057007  10.63  0.001103698    1.953    0.488
       141  -9.6604      5.5776     39.4497   1.1960920957e+02   6.6597453671e+01    0.1811018   0.09569812 -42.74 -5.086071e-05    1.521    0.343
       142 -10.0793    181.1918     40.7648   6.4787564958e+01   3.4724382911e+01    0.2477348    0.1966231  80.13 0.0006154044    1.332    0.249
       143 -10.7323    139.5798     40.5246   7.2848520587e+01   4.5363990519e+01    0.2803987    0.2488736 -74.55 0.0007249326    1.316    0.240
       144  -8.9879     51.0000     39.9304   1.0045636705e+02   6.2525435273e+01    0.2086383   0.06398554 -47.33 0.0007941421    2.885    0.653
       145  -9.3529     42.7607     40.6362   1.0406048378e+02   6.3366424163e+01    0.1432709    0.1152879  30.76 0.0004337218    1.448    0.309
       146 -10.3075     12.7114     38.3220   1.1619465385e+02   6.6416617301e+01    0.4282705   0.09708285 -56.61  0.001775496    2.953    0.661
       147  -9.7011     15.9983     33.4992   1.1329856897e+02   6.7149923950e+01    0.2522379    0.1240786 -47.74  0.001436935    1.538    0.350
       148 -10.7173     19.8102     31.8903   1.1104718942e+02   6.7183176420e+01    0.2702804    0.1764372  -9.38 0.0008984062    1.693    0.409
       149 -10.0936    132.5600     38.7489   7.3855308340e+01   4.7322941949e+01    0.3597175    0.2605889 -80.97  0.001623995    2.058    0.514
       150 -12.2880    121.7286     36.6740   7.5776942694e+01   5.0173394540e+01    0.5534984    0.4909418  62.87   0.00204704    1.231    0.188
       151 -10.5623     22.7531     38.5853   1.1188117395e+02   6.5657013717e+01    0.2045805    0.1929453 -87.05 0.0007325997    1.386    0.278
       152 -11.2241     26.5208     35.2691   1.0916016092e+02   6.5992140727e+01    0.3583694    0.1847677 -36.30  0.001310766    1.714    0.417
       153 -11.1182      1.4932     35.9972   1.2052668877e+02   6.7490776800e+01    0.3200897    0.1080801 -57.15  0.001643175    2.018    0.505
       154 -11.1618    134.3332     34.0894   7.1765684325e+01   4.7545883926e+01    0.2433409    0.1974574  37.15   0.00032999    1.188    0.159
       155 -10.0971     91.1490     33.9549   8.3515213236e+01   5.7100227439e+01    0.3057486    0.1731376 -17.82  0.001344341    2.124    0.529
       156  -9.3143     38.5517     35.5139   1.0401131598e+02   6.4789893246e+01    0.1671392    0.1416234  86.13 0.0007723543    1.855    0.461
       157 -11.6543     44.1454     28.9842   9.9126066885e+01   6.5339037495e+01    0.5387101    0.3396524 -18.01  0.003007864    1.682    0.405
       158  -9.2787      8.7190     35.6785   1.1722207492e+02   6.7181217354e+01    0.1205762   0.06312029 -39.47 0.0002809292    1.587    0.370
       159 -11.2070     38.6071     30.9097   1.0227737891e+02   6.5629729589e+01    0.2348762    0.1711827 -13.60 0.0002523238    1.346    0.257
       160 -10.2220    166.1581     31.2135   6.4359367324e+01   3.9869757623e+01    0.2342063    0.2051962 -23.18 0.0004140282    1.199    0.166
       161 -10.5406    127.0678     30.8643   7.2290685907e+01   4.9728588725e+01    0.3717539    0.2028189  43.29  0.001475353    1.773    0.436
       162  -9.8886    204.8073     30.5701   5.8298374476e+01   2.9937872464e+01    0.2030758    0.1328749  85.51 0.0009470444    1.686    0.407
       163  -9.5568    187.4891     29.6739   6.0441605354e+01   3.4506304201e+01    0.2775948    0.1519342  46.45  0.001187418    1.894    0.472
       164 -11.1416      8.0612     28.6474   1.1546289011e+02   6.8593371210e+01    0.2654887    0.2139876  62.48  0.001635677    1.864    0.464
       165 -10.3131     69.8525     28.1892   8.8486117747e+01   6.1814394308e+01    0.2978814    0.1714294 -38.10 0.0008917959    1.659    0.397
       166  -9.2205    162.3119     28.3552   6.4104335709e+01   4.1220653998e+01    0.1572097    0.1056664  28.95 0.0007044227    1.733    0.423
       167  -9.8173    140.3029     27.0003   6.7898478235e+01   4.6996617174e+01    0.2628077    0.1423594  59.01 0.0007090713    1.756    0.431
       168 -10.3223     77.1172     25.8601   8.4876255581e+01   6.0929680357e+01    0.3063923    0.2452915  -1.77  0.001177082    1.170    0.146
       169  -9.6645    229.5395    248.0243   1.0212492606e+02  -6.0454264947e+00    0.1391423    0.1016652 -18.40   0.00101482    1.548    0.354
       170  -9.6283    224.6828    246.6634   1.0272910256e+02  -5.2021925475e+00    0.1165549   0.06855099  16.00 0.0007048456    1.700    0.412
       171 -10.8544    113.9000     24.2576   7.3037466108e+01   5.3654686689e+01    0.3320975    0.2512621 -11.05  0.001761933    1.363    0.267
       172 -10.5233    100.6502     25.5467   7.7198618467e+01   5.6392015795e+01    0.2402976    0.2219144 -32.07 0.0007584256    1.207    0.172
       173  -9.3785     18.3365     26.3249   1.0982699395e+02   6.8345129275e+01    0.1253941   0.06819147 -29.79 0.0007051306    1.719    0.418
       174 -10.3500    171.1566     23.9757   6.1189436351e+01   3.9440548719e+01    0.2887031    0.1860845 -24.71  0.001363154    1.648    0.393
       175  -9.7553    153.8867     25.4967   6.4678524064e+01   4.3738925909e+01    0.2210707    0.1387903  64.08 0.0008362503    1.543    0.352
       176 -10.1423     59.3733     24.1268   9.0772623796e+01   6.4096270898e+01    0.2288594    0.1642695 -13.94   0.00133731    1.322    0.244
       177  -9.6940     38.4525     24.4759   9.9793654369e+01   6.6781838900e+01    0.2315115    0.1371231 -26.78 0.0009937888    1.582    0.368
       178  -9.2053    136.3542    245.6971   1.1782649277e+02   8.4327976933e+00    0.1178901   0.07179765  60.37 0.0007039495    1.708    0.414
       179  -9.5740     89.4036     22.7720   7.9453481198e+01   5.9065525513e+01     0.187081    0.1210032 -14.47   0.00093059    1.619    0.382
       180 -11.4003     13.3063     20.7269   1.1024984239e+02   6.9743794668e+01    0.2670405     0.182936 -55.32  0.000772618    1.408    0.290
       181  -8.9880     45.2949    244.3097   1.3321423117e+02   2.0961687444e+01   0.08124255   0.07767602  79.69 0.0002585685    1.591    0.371
       182 -10.6975      1.8392     21.3137   1.1617902011e+02   7.0326870411e+01     0.256209    0.1367497 -62.04  0.001553615    1.705    0.413
       183 -10.3130     21.6636     22.1683   1.0669703194e+02   6.8838212169e+01    0.1745308    0.1469156  -3.52 0.0004204271    1.238    0.192
       184  -9.9530     85.1308     20.9825   8.0056543672e+01   6.0140495901e+01    0.2607367    0.1483271  24.86 0.0009052904    2.045    0.511
       185  -9.8656     31.0428     20.5067   1.0155000995e+02   6.8257397012e+01    0.2218375    0.1243758 -33.09 0.0004848352    1.515    0.340
       186  -9.7431    230.2413     19.9777   5.2568344566e+01   2.4864482563e+01    0.1688587    0.1080275 -30.94 0.0002639281    1.534    0.348
       187  -9.5497    132.0396     20.4895   6.7279546008e+01   4.9819748129e+01    0.2147062    0.1318376  56.42 0.0005964289    1.517    0.341
       188 -11.9656      4.4908    240.7343   1.3942191230e+02   2.5761611095e+01    0.3949642    0.1263155  47.96  0.002517803    2.099    0.524
       189 -10.0471    148.5430     18.5434   6.3265829851e+01   4.5905073901e+01    0.2187263    0.1203042  53.18 0.0001304192    1.638    0.390
       190  -9.5953    202.4434    240.2874   1.0557635322e+02  -1.1523410897e+00    0.1744761    0.1102469 -27.11 0.0009150687    1.942    0.485
       191 -12.1208     26.1921    236.0417   1.3585066327e+02   2.4402479107e+01    0.2849278    0.2100986  78.57  0.001650066    1.159    0.137
       192  -9.6173     60.8730    241.0109   1.3045009162e+02   1.9653862007e+01    0.2001885   0.09137519  37.61  0.001172419    2.096    0.523
       193  -9.9660     58.3801     18.6526   8.8736986219e+01   6.5082626910e+01     0.232531    0.1004934 -47.19 0.0009526617    3.129    0.680
       194 -10.2804    199.8481     17.1609   5.5135862821e+01   3.2746971233e+01    0.2141053    0.1781596 -69.07 0.0005060095    1.194    0.163
       195 -10.7650     49.2548     16.2119   9.1409310566e+01   6.6767797533e+01    0.2123365    0.1985712   1.63 0.0004735152    1.299    0.230
       196 -13.2268      9.8632    229.5488   1.3816256992e+02   2.7112615385e+01    0.6096416    0.3206986  78.43  0.004003736    1.485    0.327
       197 -10.2246     20.2494     16.7794   1.0524291859e+02   6.9907751412e+01    0.1695503    0.1349806 -12.82 0.0003167822    1.165    0.142
       198 -12.1289      3.9348    232.3711   1.3920249057e+02   2.7188891132e+01    0.4213767     0.161166  74.99 0.0003720938    2.212    0.548
       199 -10.3872    154.6752     15.0177   6.0954009810e+01   4.4710020090e+01    0.3088786       0.1956  66.64 0.0007425228    1.503    0.335
       200  -8.9386    210.6895    235.6880   1.0349596216e+02  -1.8976505269e+00    0.1185751    0.0743654  16.85 0.0003400582    1.628    0.386
       201  -9.9460    249.1224    234.0215   9.6824023375e+01  -7.4516180398e+00    0.1710973    0.1238599  18.65 0.0004691423    1.009    0.009
       202  -9.0901    209.5017    229.5163   1.0278315120e+02  -9.8772845403e-01    0.1200931   0.09257268  27.45 -4.102357e-05    1.006    0.006
       203  -9.4946    140.1910    227.1701   1.1500513782e+02   1.0560119817e+01    0.1701413    0.1204942  58.38  0.001014854    1.359    0.264
       204 -10.3010     32.7851    225.2664   1.3419972306e+02   2.5542157608e+01    0.2403156    0.1076424  46.80  0.001521887    1.744    0.427
       205 -10.0569    174.0032     13.8155   5.7533655145e+01   3.9809269201e+01    0.2161634     0.143814 -48.48  0.001048983    1.615    0.381
       206 -10.1370    162.0421     13.2847   5.9161414760e+01   4.2981578740e+01    0.2077074    0.1690295  61.52 0.0004925813    1.131    0.116
       207  -9.6799     68.9028     13.3363   8.2220174084e+01   6.4119919794e+01    0.1800822    0.1498739  15.00 0.0009521155    1.084    0.078
       208 -11.8998      7.9481    217.4880   1.3796044138e+02   2.9375294819e+01    0.2854246    0.1949679  70.47  0.002310493    1.019    0.019
       209 -10.3542     15.8775    212.4276   1.3638952711e+02   2.9535274268e+01    0.1849158    0.1416316 -54.75  0.001210754    1.931    0.482
       210  -9.4034    209.4953    211.4894   9.9944755831e+01   1.2617230751e+00    0.1255895    0.1007174  25.06  0.000179871    1.003    0.003
       211 -10.3387     20.5285    209.7113   1.3544233701e+02   2.9577756588e+01    0.1989818    0.1180045  69.22 0.0005345361    1.297    0.229
       212  -9.3305    247.0000    207.0271   9.2696819619e+01  -4.2495926630e+00    0.1773316   0.06314733 -31.25 0.0008023969    2.942    0.660
       213  -9.2662    123.9886    206.0041   1.1544491681e+02   1.6643555282e+01    0.1455798    0.1190481  51.55 0.0009314159    1.023    0.022
       214 -10.4303      3.2291    205.4434   1.3822335286e+02   3.1957922097e+01    0.1671439    0.0944085  31.17  0.001149125    2.158    0.537
       215  -9.7376    196.8519    203.8496   1.0098768797e+02   4.4542084658e+00    0.1648514    0.1463865  54.71 0.0007648301    1.353    0.261
       216 -11.1703      9.4560    203.5630   1.3705918688e+02   3.1751690207e+01    0.1896781    0.1469471  78.11 0.0008028105    1.132    0.116
       217  -9.5799     23.0418    197.4754   1.3428297845e+02   3.1615100705e+01    0.1469181   0.09286312  42.66 0.0004631241    1.553    0.356
       218  -9.0432     13.7110    192.7234   1.3572380829e+02   3.3406467418e+01   0.08971956    0.0741677 -66.80 0.0002298599    1.517    0.341
       219  -9.2908      6.3724    191.7136   1.3701351196e+02   3.4249071300e+01    0.1139243   0.05405948  63.06 0.0007018904    1.713    0.416
       220  -9.3091     15.3386    185.1564   1.3497371852e+02   3.4727189299e+01    0.1557854   0.07736545  87.53 0.0009352631    1.724    0.420
       221  -9.6071      1.2967    183.1203   1.3750869699e+02   3.6326631351e+01    0.1448818   0.07098565  87.80 0.0004011936    1.637    0.389
       222  -9.9562    100.9815    175.9984   1.1619244747e+02   2.6019564340e+01    0.1801407    0.1591671  66.28            0    1.015    0.015
       223 -10.9018      5.2814    167.7126   1.3587824855e+02   3.9068124740e+01    0.2235314    0.1521502  66.10  0.001123628    1.228    0.186
       224  -9.8371     14.4977    163.9930   1.3374069537e+02   3.9073749310e+01    0.1558192   0.06590276 -56.89 0.0008104577    2.555    0.609
       225  -9.2217     41.4841    157.5558   1.2728671371e+02   3.7858626587e+01    0.1203138   0.09767754  83.10 0.0008077478    1.017    0.017
       226  -8.9125    247.4787    155.5323   8.2737261551e+01   2.1946251800e+00    0.1328721    0.1124649   3.07 9.015814e-05    1.011    0.011
       227  -9.9643      2.4906    153.5066   1.3555449178e+02   4.2202543039e+01    0.1824053   0.07419106  43.79   0.00103666    2.298    0.565
       228 -10.1622     22.0147    143.3192   1.3036944763e+02   4.2825902468e+01    0.2055647    0.1046458 -75.36  0.001157791    1.622    0.384
       229 -10.8308      5.5164    141.9690   1.3406729833e+02   4.4417496331e+01      0.19059    0.1237863  57.46 0.0004511725    1.475    0.322
       230 -11.1332      3.2013    138.5571   1.3433584242e+02   4.5309129822e+01    0.2852123    0.1400579  40.27  0.001732928    2.101    0.524
       231 -11.0657      8.9025    135.3793   1.3274761226e+02   4.5590902341e+01    0.1928632    0.1230481 -89.63 0.0004431945    1.276    0.216
       232  -9.3888    212.3213    133.7021   8.4115958737e+01   1.2364730562e+01    0.1369315    0.1164235 -78.65 0.0002996095    1.621    0.383
       233  -9.5809     35.3994    130.7316   1.2572095553e+02   4.4392916965e+01    0.1673426   0.09401853 -61.72 0.0005029932    1.558    0.358
       234 -11.0180     11.8517    129.5932   1.3151607494e+02   4.6636862150e+01    0.3392727    0.1620904  65.89  0.001689297    2.284    0.562
