#   1 NUMBER                 Running object number                                     
#   2 MAG_AUTO               Kron-like elliptical aperture magnitude                    [mag]
#   3 X_IMAGE                Object position along x                                    [pixel]
#   4 Y_IMAGE                Object position along y                                    [pixel]
#   5 X_WORLD                Barycenter position along world x axis                     [deg]
#   6 Y_WORLD                Barycenter position along world y axis                     [deg]
#   7 A_WORLD                Profile RMS along major axis (world units)                 [deg]
#   8 B_WORLD                Profile RMS along minor axis (world units)                 [deg]
#   9 THETA_WORLD            Position angle (CCW/world-x)                               [deg]
#  10 FWHM_WORLD             FWHM assuming a gaussian core                              [deg]
#  11 ELONGATION             A_IMAGE/B_IMAGE                                           
#  12 ELLIPTICITY            1 - B_IMAGE/A_IMAGE                                       
         1 -17.7119     68.7158    193.8447   1.0510090064e+02   2.5096957022e+01     4.130894     3.322627 -87.77   0.02324826    1.235    0.190
         2 -15.7391     93.7956    190.4228   9.8232060829e+01   2.2284261360e+01     2.181883     1.227479 -88.84  0.008037226    3.119    0.679
         3 -16.6883    147.8719    106.5119   6.5717815310e+01   3.1680998379e+01     2.731422     2.225776 -26.76   0.01336539    1.306    0.234
         4 -13.4724     10.4986     15.5126   8.5179584319e+01   7.1770935607e+01    0.3544454    0.2432815  11.15  0.002415334    1.323    0.244
         5 -14.8853     17.9994      6.2379   7.6262950552e+01   7.2318822726e+01     1.158028    0.5549234  23.80  0.006349802    1.897    0.473
         6 -10.0184     73.2413    246.2975   1.0977768967e+02   1.3010772579e+01    0.1051859   0.09474483 -24.91 0.0002330558    1.478    0.324
         7 -12.1620    186.5361    249.2534   8.6200726272e+01  -3.7519196132e+00    0.3388122    0.1975733  38.78  0.001855439    1.696    0.410
         8 -11.9429     43.7504    244.5139   1.1570292842e+02   1.7021130989e+01    0.2706062    0.2149031 -58.68 0.0009880505    1.534    0.348
         9 -15.1622     55.5564    219.5015   1.1108997762e+02   2.0877950983e+01     2.100247    0.9896255  69.41  0.008749218    2.851    0.649
        10 -14.7292     68.8146    220.5159   1.0818357356e+02   1.8957525946e+01     1.008237    0.5627834 -58.69  0.005027478    1.886    0.470
        11 -10.8320    173.2083    249.4314   8.8939947469e+01  -1.8996409799e+00    0.2546559    0.1067963  28.57  0.001136826    2.180    0.541
        12 -12.6389     27.9917    224.5448   1.1751227216e+02   2.2923722593e+01    0.4087611    0.2283591  58.27 0.0004895796    1.578    0.366
        13 -10.8577    219.6722    225.3142   7.5743387998e+01  -4.6471441323e+00    0.1078569    0.1029932  53.45 0.0005355027    1.671    0.402
        14 -11.2114    125.1917    221.0346   9.5197610214e+01   1.0555376286e+01    0.3216213    0.1944383 -55.00  0.001447633    1.843    0.457
        15 -10.3416     46.7078    249.7047   1.1548787362e+02   1.5647334431e+01    0.1005898   0.09204552 -28.02 0.0003157452    1.557    0.358
        16 -11.4484     12.0724    220.6945   1.2056241320e+02   2.5333499063e+01    0.2064504    0.1486594  65.46 0.0008013301    1.139    0.122
        17 -10.6778      2.7546    221.4214   1.2248334052e+02   2.6020848880e+01    0.1408379    0.1110971  15.47 0.0009582832    1.741    0.426
        18 -11.1599    223.4924    219.9942   7.4086820897e+01  -4.3455324202e+00    0.1551767    0.1109857 -58.12 0.0008097924    2.475    0.596
        19 -11.5731     41.4894    232.4978   1.1526829830e+02   1.9748313810e+01    0.4800856    0.2938576  10.65  0.002425344    2.688    0.628
        20 -10.3524    138.9961    217.9412   9.1548814406e+01   8.9746685643e+00    0.1568463    0.1503204  -6.02 0.0003678364    1.096    0.088
        21 -10.6523     21.2944    218.4144   1.1849903400e+02   2.4939482722e+01    0.1649696   0.09496042  45.48 0.0009445932    1.539    0.350
        22 -10.8684     29.8746    215.9120   1.1647779937e+02   2.4614032322e+01    0.1954574    0.1432986 -73.34  0.001216049    1.329    0.248
        23 -10.7638     28.2014    211.7793   1.1652769880e+02   2.5711729382e+01     0.252807     0.147286  77.73  0.001367025    1.658    0.397
        24 -12.3248     34.3338    221.7462   1.1595968876e+02   2.2852170099e+01    0.3964102    0.2755347 -15.27  0.002122161    2.563    0.610
        25 -11.1784     20.5744    213.9484   1.1834615193e+02   2.5994843851e+01    0.2405101    0.1228284 -59.04  0.001264063    2.068    0.517
        26 -10.6973    117.9307    213.6180   9.5795494939e+01   1.3248791310e+01    0.1945926    0.1658741  41.61  0.001101118    1.086    0.079
        27 -11.5317     14.0028    237.5377   1.2113549938e+02   2.1618829854e+01    0.3421473    0.1581768 -70.53   0.00190893    2.083    0.520
        28 -13.0719    147.4899    202.9041   8.7083869598e+01   1.0628711769e+01    0.5383952     0.382823  51.58  0.001684388    1.589    0.371
        29 -12.9527    152.5679    210.5917   8.7237333711e+01   8.2209435317e+00    0.4421637    0.3224447   0.57  0.002181777    1.610    0.379
        30 -11.8391     19.4938    233.2887   1.1981662654e+02   2.1947615271e+01    0.2468785    0.1842549  70.05 0.0009722225    1.073    0.068
        31 -10.7748     38.9293    209.8990   1.1397131319e+02   2.4987539330e+01    0.1798591    0.1624712 -63.56  0.000529675    1.268    0.211
        32 -10.9409     14.4266    211.1588   1.1947519856e+02   2.7202251501e+01    0.2482375    0.1135395  46.58  0.001297465    1.914    0.478
        33 -12.3427    167.9785    206.8158   8.3107882377e+01   6.4068057953e+00    0.5081426     0.265278  12.74  0.001795883    3.374    0.704
        34 -13.0318      9.4279    228.2037   1.2152117268e+02   2.3984676761e+01    0.4748566    0.2321416  71.18  0.001472394    1.859    0.462
        35 -10.4727     24.5023    208.0885   1.1706374148e+02   2.6920664709e+01    0.1729718    0.1079352 -78.83 0.0003578132    1.453    0.312
        36 -11.9903     16.3014    227.1655   1.2008911992e+02   2.3547432522e+01    0.4747088    0.2305705  67.71  0.002539545    1.917    0.478
        37 -10.9332     87.9874    241.7793   1.0618486105e+02   1.1908654738e+01    0.2222107    0.1643995  22.48  0.001133966    1.475    0.322
        38 -10.5927     26.5065    201.2613   1.1607506430e+02   2.8285035224e+01    0.1824231    0.1026919  84.36  0.000934482    1.743    0.426
        39 -11.3034     14.1322    201.2363   1.1886699723e+02   2.9469034834e+01     0.168751    0.1502687 -85.59 0.0004344931    1.168    0.144
        40 -10.9243    212.6346    200.3073   7.2564622232e+01   4.3914111576e-01    0.1210216    0.1099742  78.34 0.0007037597    1.748    0.428
        41 -10.8766    138.4454    199.2474   8.8583151978e+01   1.2935116541e+01    0.1931672    0.1434006 -67.25  0.000757688    1.676    0.403
        42 -10.4026     20.4842    239.9659   1.2001560616e+02   2.0477923197e+01    0.1588198   0.09928024 -83.06 0.0005293607    1.493    0.330
        43 -12.2412    125.0797    195.4556   9.1172662553e+01   1.6033764804e+01    0.4507258    0.2851022  45.46  0.001571594    1.572    0.364
        44 -12.9312     35.4046    192.9891   1.1324957491e+02   2.9313270370e+01    0.4712459    0.3255024   8.16 0.0005513167    2.018    0.505
        45 -12.3267    191.8708    191.0584   7.4986668559e+01   5.4254235994e+00    0.3490082    0.2517124 -60.75  0.001714325    1.963    0.491
        46 -10.2347     12.6489    194.7036   1.1873581394e+02   3.1107607633e+01      0.11837   0.08698133 -45.71 0.0003724729    1.685    0.406
        47 -11.4223      9.7086    191.9052   1.1920587724e+02   3.2011468077e+01    0.2892494    0.1388664 -83.48  0.001459718    1.846    0.458
        48 -11.2727      7.3729    187.8095   1.1945205419e+02   3.3162421993e+01    0.2886468    0.1675776  42.55  0.001065987    1.681    0.405
        49 -11.9686     16.0484    242.1472   1.2099281933e+02   2.0485865505e+01    0.2035504    0.1620802 -78.88 0.0006640366    1.328    0.247
        50 -12.3257    189.6242    194.1100   7.6048975439e+01   5.2265092101e+00    0.2906046    0.1900324  32.25 0.0009264609    1.499    0.333
        51 -11.3125    128.4981    184.1657   8.8326324303e+01   1.7988229099e+01    0.2633518    0.2035821  35.33 0.0003051671    1.248    0.199
        52 -10.5589    103.8508    233.1249   1.0169596037e+02   1.1365047600e+01    0.1730335      0.15075   3.01 0.0006010573    1.338    0.252
        53 -11.6506     32.2122    232.0354   1.1716100241e+02   2.0879865318e+01     0.284133     0.177251 -54.15  0.001650997    1.954    0.488
        54 -10.5054     25.4226    231.1896   1.1849291788e+02   2.1779225087e+01    0.2087543    0.1302993  86.69  0.001261321    1.464    0.317
        55 -11.3552     46.8964    236.2059   1.1442703875e+02   1.8346090295e+01    0.4909397      0.18161 -80.04  0.001884084    3.285    0.696
        56 -12.3345     87.4204    229.6077   1.0496759671e+02   1.4459580333e+01    0.3764841    0.2169184  46.29  0.001922986    1.550    0.355
        57 -12.9629    106.6384    170.4066   9.1470814855e+01   2.5021714039e+01    0.4681913    0.4289316 -30.75  0.002068359    1.148    0.129
        58 -12.6557    132.8555    168.4094   8.4182852435e+01   2.0826830508e+01    0.4461339    0.2461695  40.46 0.0008778557    1.786    0.440
        59 -10.8503    149.3024    166.3463   7.9634136375e+01   1.8208345370e+01    0.1599118    0.1183485 -11.15 0.0007039471    1.687    0.407
        60 -11.8818     37.7241    229.1367   1.1580236995e+02   2.0885176291e+01    0.2832822    0.1761502  89.41 0.0009558967    1.554    0.356
        61 -11.3886    113.2984    228.3428   9.8948662114e+01   1.0915386444e+01    0.2674166     0.215547  49.01  0.001120358    1.172    0.147
        62 -11.7521    201.1453    236.9051   8.1313235298e+01  -3.8858769503e+00    0.3336502     0.137601 -30.46  0.001434567    2.794    0.642
        63 -12.5280     86.9176    236.3291   1.0583064868e+02   1.3148344143e+01    0.5993179    0.3192149  22.86  0.002770904    2.274    0.560
        64 -11.8946    206.4084    229.6707   7.9060824916e+01  -3.4922497388e+00    0.2615183    0.1466502  27.52  0.001380132    1.634    0.388
        65 -10.7248     21.4718    224.5087   1.1886699804e+02   2.3601326353e+01    0.1735715    0.1474924  42.40 0.0005954791    1.280    0.219
        66 -10.4046     42.7994    235.4367   1.1522046470e+02   1.8983531094e+01    0.2414223    0.1987357   0.32  0.001087505    1.773    0.436
        67 -13.5897     21.9491    152.9805   1.1258401264e+02   4.0467239984e+01    0.7752395    0.6272804  35.20   0.00470959    1.376    0.273
        68 -11.9703     35.5927    216.3262   1.1525855982e+02   2.3908987628e+01     0.334668    0.1688808 -82.25   0.00168053    1.966    0.491
        69 -11.1023    180.4680    150.4973   6.8950085609e+01   1.5565052986e+01    0.1500256    0.1415851 -23.96 1.925119e-05    1.025    0.025
        70 -12.9622    143.9756    149.4956   7.7296273424e+01   2.3050562529e+01    0.4969056    0.2456585  50.96   0.00179308    2.406    0.584
        71 -12.3323    113.5175    155.1407   8.6597936736e+01   2.7532928865e+01    0.2493505    0.2151711  -3.38  0.000579959    1.306    0.234
        72 -13.3862    108.2730    147.2245   8.6390291644e+01   3.0414910211e+01    0.4288484    0.3700164 -26.85  0.001572202    1.233    0.189
        73 -14.4053    106.9270    141.9039   8.5614886233e+01   3.1963363167e+01     1.006929    0.6152244  38.21  0.004288459    1.652    0.395
        74 -10.0743      9.2885    149.3056   1.1572318597e+02   4.2361807627e+01    0.1297637   0.08268007 -49.22 0.0006987395    1.570    0.363
        75 -12.0182    155.0827    144.1436   7.3322805927e+01   2.2016944544e+01    0.2450151    0.2145877  -1.01  0.001218412    1.227    0.185
        76 -15.6359    135.1337    130.8638   7.5208770004e+01   2.9100718139e+01     1.479524     1.130263 -11.59  0.005996255    1.646    0.392
        77 -15.2878    137.2236     93.9954   6.4941543577e+01   3.6604373410e+01     1.459646     1.122929  63.99  0.006928536    1.471    0.320
        78 -11.7384     46.4423    117.4182   9.9505158759e+01   4.7141944149e+01    0.4173758    0.2087528 -39.78   0.00174774    2.106    0.525
        79 -12.9533     45.7297    110.9315   9.8432132762e+01   4.8835619064e+01    0.5629107    0.3637047  86.65  0.002488217    2.298    0.565
        80 -12.5200    189.7590    114.3741   5.8605930181e+01   2.0900017138e+01    0.4569589    0.2526767  29.12  0.001704967    2.854    0.650
        81 -12.7100     34.2677    113.1117   1.0286999808e+02   4.9460924181e+01    0.4518833    0.3607754  50.95  0.002552672    1.460    0.315
        82 -11.0086     54.6920    109.0660   9.4875555784e+01   4.8243553145e+01    0.3093512     0.185873 -31.84  0.000570552    1.861    0.463
        83 -15.5218    153.6684    130.2057   7.0351717836e+01   2.5373552823e+01     1.330472     1.156306  12.24  0.005522532    1.257    0.204
        84 -13.4959     51.8476    100.7937   9.3974603672e+01   5.0596281328e+01    0.6630205    0.2498072 -60.54  0.002394062    2.724    0.633
        85 -12.3410     57.6344     99.6881   9.1600765468e+01   5.0129444905e+01     0.412246    0.3196704 -77.73  0.001827026    1.594    0.373
        86 -10.4763    212.8099    104.1393   5.2111420828e+01   1.7968312405e+01    0.1777913    0.1599813  -7.75 0.0002898872    1.278    0.218
        87 -10.9508     32.7330    249.2395   1.1819942608e+02   1.7328447145e+01    0.1327957    0.1213851  83.21 0.0003693324    1.258    0.205
        88 -14.2211     47.9832     82.3885   9.0723962923e+01   5.5323287668e+01     1.641256     1.114741  86.04  0.007097836    2.869    0.651
        89 -13.2164     28.1833     64.2317   9.3862331377e+01   6.1345608471e+01     1.122419    0.4567369  35.32  0.004886487    2.865    0.651
        90 -13.0283     20.3588     66.4281   9.7944271320e+01   6.1537820329e+01    0.8573032    0.4435161 -31.43  0.004286767    1.838    0.456
        91 -11.1160    115.5332    130.4921   8.0508001333e+01   3.3110702820e+01    0.1565348    0.1526144 -24.07 0.0001503209    1.003    0.003
        92  -9.8854    105.2918     79.3195   6.9476489764e+01   4.6428966603e+01    0.1521727    0.1155729   1.08 0.0003710091    1.604    0.377
        93 -10.2987     75.4778     75.5520   7.8211955630e+01   5.2802710651e+01    0.1447179    0.1317382  -6.42 0.0001241263    1.004    0.004
        94 -10.4450     48.5084    122.5573   9.9811233774e+01   4.5616876376e+01    0.1424518    0.1294801 -53.30 6.659546e-05    1.006    0.006
        95 -11.4621    125.1729     73.1537   6.1926330633e+01   4.3266770656e+01    0.2275879    0.2029437  16.12 0.0008868559    1.173    0.148
        96 -11.4818     99.5065     69.5196   6.8135062013e+01   4.9466629694e+01    0.2668027    0.1354877 -50.58  0.001038439    2.432    0.589
        97 -10.6637     59.9760    120.9881   9.5665926912e+01   4.4614074300e+01    0.2153732    0.1952291 -48.77 0.0003511947    1.016    0.016
        98 -10.5626     65.2648     52.3636   7.4130874725e+01   5.8864496669e+01    0.1844881    0.1215279  41.92 0.0009401283    1.610    0.379
        99 -12.9397     81.7911     46.3127   6.5825650273e+01   5.6895182714e+01    0.4828549     0.227337  56.61  0.001810645    3.175    0.685
       100 -11.5309      9.3992     46.2136   9.7344115316e+01   6.6464268989e+01     0.164773    0.1076114 -62.29 0.0009597163    1.701    0.412
       101 -12.4236     53.2485     43.3671   7.5611081254e+01   6.2270512253e+01    0.4175221     0.150933  32.45  0.001662916    2.794    0.642
       102 -11.8462     72.0078     34.5084   6.4695207669e+01   6.0463899968e+01    0.2104992    0.1188173  42.26   0.00104689    1.632    0.387
       103 -13.4125    142.4876    133.0995   7.3841619701e+01   2.7074254547e+01    0.6908492    0.4593612 -11.45  0.002488919    2.366    0.577
       104 -11.5896     52.9243    245.7285   1.1393523880e+02   1.5690734970e+01    0.3149962      0.20718 -56.91  0.001888083    1.804    0.446
