#   1 NUMBER                 Running object number                                     
#   2 MAG_AUTO               Kron-like elliptical aperture magnitude                    [mag]
#   3 X_IMAGE                Object position along x                                    [pixel]
#   4 Y_IMAGE                Object position along y                                    [pixel]
#   5 X_WORLD                Barycenter position along world x axis                     [deg]
#   6 Y_WORLD                Barycenter position along world y axis                     [deg]
#   7 A_WORLD                Profile RMS along major axis (world units)                 [deg]
#   8 B_WORLD                Profile RMS along minor axis (world units)                 [deg]
#   9 THETA_WORLD            Position angle (CCW/world-x)                               [deg]
#  10 FWHM_WORLD             FWHM assuming a gaussian core                              [deg]
#  11 ELONGATION             A_IMAGE/B_IMAGE                                           
#  12 ELLIPTICITY            1 - B_IMAGE/A_IMAGE                                       
         1 -10.6125     83.4353     47.9958   6.9340198612e+01   5.5835297407e+01     1.675133    0.4659939 -42.57  0.005383154    4.044    0.753
         2 -10.1591     38.5437      8.7120   6.9902504749e+01   6.8680802351e+01     0.748611     0.369113  -8.56  0.003535842    2.664    0.625
         3 -10.4101     50.7608     37.2023   7.7336893751e+01   6.2954716935e+01    0.8998738    0.6855063 -64.02   0.00485643    2.353    0.575
         4 -10.5747     39.6457     29.4813   7.8950633400e+01   6.5681440379e+01    0.5295021    0.3249205 -34.29   0.00226067    1.491    0.329
         5 -12.0647     44.8813     22.5385   7.3612924139e+01   6.5992957147e+01    0.9773258    0.8866089 -42.65  0.006132146    1.619    0.382
         6 -12.1277    137.3331     18.7894   4.5285377145e+01   4.7844415951e+01     2.399907      1.60579  17.38   0.01242579    1.900    0.474
         7 -12.1103    120.5446      4.0711   4.3442876057e+01   5.3083778945e+01     2.378021    0.4902106  64.21  0.007622334    4.182    0.761
         8 -11.3580    131.0113      3.7573   4.1522182646e+01   5.0690270449e+01     1.361653    0.3708553  60.93  0.005285332    2.777    0.640
         9 -11.6942    155.4133     20.8898   4.2925570234e+01   4.3342383795e+01    0.8549184    0.5184904  58.52  0.003087821    1.474    0.322
        10 -13.4937    168.9373     12.2680   3.8583454771e+01   4.1010025931e+01     1.956269     1.643239  48.72   0.01037969    1.245    0.197
        11  -9.9134     95.1903      2.8272   4.8261066236e+01   5.8828842935e+01    0.4030983    0.3357622  69.62  0.002592153    1.331    0.249
        12 -11.4587     78.1720     15.3436   5.8046031880e+01   6.1181463647e+01      1.11043    0.5877392 -13.50  0.005471286    2.153    0.536
        13 -10.3712    116.0096     16.3412   4.8630829553e+01   5.3029311719e+01    0.8801566    0.3374858 -40.17  0.003570444    3.101    0.677
        14 -11.3586     84.1292      3.7976   5.1444970794e+01   6.1074896623e+01    0.9653857    0.3887972  55.36  0.004472509    2.164    0.538
        15 -12.2323    156.4167      7.5463   3.8898437105e+01   4.4401130972e+01     1.388797    0.9440832  -9.66  0.007802438    1.856    0.461
        16  -9.2692     93.9637     17.1813   5.4235456908e+01   5.7783118061e+01    0.4737931    0.2993998  81.82  0.002128144    2.903    0.656
        17  -9.8965    248.3152     15.9606   3.1834350658e+01   2.3262877734e+01     0.291377    0.2556823  -5.71  0.002085309    1.666    0.400
        18  -9.7942    249.9215      9.1065   3.0386447718e+01   2.3704316973e+01    0.3513059    0.1521635 -49.00   0.00194194    1.870    0.465
        19  -9.1927    250.0644      3.6113   2.9323952033e+01   2.4259015755e+01    0.3359796    0.1328774 -38.71  0.001815856    2.134    0.531
        20  -9.8507     64.2559     16.1766   6.3062805719e+01   6.3683428085e+01    0.3721796    0.2620815  69.23  0.001922114    2.609    0.617
        21 -10.3864     71.4073      5.4120   5.5842938818e+01   6.3463035323e+01    0.4962912    0.3433066  41.09  0.001976322    1.234    0.190
        22  -9.2768     20.8036     13.8482   8.1066126161e+01   7.0235171663e+01    0.4416712    0.1593962 -30.52   0.00201754    2.710    0.631
        23 -10.7991     60.6272      2.5709   5.8096893030e+01   6.5726121099e+01    0.7243078    0.4358765 -14.20  0.004006593    1.678    0.404
        24  -8.2688     52.7051      2.0241   6.0707604758e+01   6.7165096399e+01    0.3034732    0.1361109  38.66  0.001570249    1.889    0.471
        25  -8.7520    230.3255      8.4259   3.1639047682e+01   2.7699149806e+01    0.2892419    0.1132289 -58.28  0.001339401    2.584    0.613
        26  -9.0664    212.4715      6.0045   3.2538846730e+01   3.1729145138e+01    0.2435418    0.1965189 -69.94  0.001216174    1.068    0.064
        27  -9.2291    208.4581      4.4731   3.2534850112e+01   3.2754424314e+01    0.2286249    0.1709827  59.95 0.0009883381    1.420    0.296
        28 -10.0416    204.2188      3.9671   3.2784556318e+01   3.3734945984e+01    0.3786577    0.2653618 -72.77  0.002367297    1.302    0.232
        29  -8.2606     48.9372      6.8899   6.4564626138e+01   6.7300144987e+01    0.1963581    0.1351082  13.29   0.00122707    1.256    0.204
        30  -9.9656    192.5237      5.1794   3.4143855964e+01   3.6234294154e+01    0.2877212     0.172961 -52.98  0.001624273    1.626    0.385
        31  -8.5640     17.5366      2.4505   7.7103909274e+01   7.2130289088e+01    0.2415859     0.172573 -48.73  0.001501108    2.444    0.591
        32  -9.2501    217.8727      1.9174   3.1212297350e+01   3.0972141163e+01    0.2250319    0.1497157 -78.66  0.001409304    1.339    0.253
        33  -8.5330     40.2086      1.9648   6.5755038942e+01   6.9184693026e+01    0.2086845    0.1428248  26.37  0.001002483    1.228    0.186
        34  -9.5103    104.6968     12.6507   4.9809558034e+01   5.5912786866e+01    0.3758103    0.3047696 -19.23  0.001885938    1.348    0.258
        35  -7.4319      1.3326      1.3156   8.5898975226e+01   7.3842808468e+01    0.1181554   0.06245475 -15.35 0.0005094491    1.686    0.407
        36  -9.6626    171.4897    243.0148   9.2056528661e+01  -3.9347299778e-02    0.1733906    0.1221459 -39.25  0.001033721    1.593    0.372
        37  -9.7804     91.7628     43.6693   6.5057554924e+01   5.4900026036e+01    0.3833641    0.2418324 -42.58  0.001890646    1.786    0.440
        38 -10.3375      3.2731     40.7833   1.0052139278e+02   6.7020659368e+01    0.4281067    0.3813798 -30.94  0.002785845    1.231    0.188
        39  -8.9948      5.9601     35.1672   9.7406905684e+01   6.7931778980e+01    0.2385446    0.2283017  37.60  0.001652154    1.538    0.350
        40  -8.9292    197.6606    226.3089   8.4178453796e+01  -1.2882091996e+00    0.1165378    0.1016167  56.99 0.0007043821    1.686    0.407
        41  -9.5894    200.7948    221.6176   8.2757225208e+01  -1.0136942905e+00    0.1765017    0.1110453  38.92 0.0008941951    1.630    0.386
        42 -11.3079      9.9337    141.8481   1.1646385047e+02   4.3545748900e+01    0.5518385    0.3756496  84.56  0.003244063    1.407    0.289
        43  -8.6316     53.3970    143.2075   1.0452735958e+02   3.9185024934e+01    0.2042146    0.1249179 -76.04  0.000953697    1.689    0.408
        44  -8.9398     41.9296     38.5028   8.1615507601e+01   6.3927888981e+01    0.4855349    0.1066558  36.16  0.001626903    4.708    0.788
        45  -9.0266     96.8936     36.1667   6.0720920903e+01   5.4919260155e+01    0.1988979    0.1968139  68.57  0.001248138    1.238    0.192
        46  -9.0572     11.9614     34.1991   9.4070759658e+01   6.7697718689e+01    0.3838914     0.154402 -44.56  0.001956044    1.918    0.479
        47  -8.6149     66.0419     35.2804   7.0541156799e+01   6.0873019972e+01    0.3074815    0.1566398  47.02  0.001428971    2.228    0.551
        48  -7.9627     34.0923     35.1349   8.3791043019e+01   6.5440251278e+01     0.155603    0.1420339 -14.43 0.0009091474    1.298    0.229
        49  -7.6796     28.6602     35.3078   8.6379794424e+01   6.6005967965e+01    0.1051442    0.1002217  61.32 0.0005416255    1.685    0.406
        50 -10.0875     86.5635     31.2320   6.1920893525e+01   5.7663764927e+01    0.3136351    0.2296419 -27.08  0.001315434    1.404    0.288
        51  -9.9317     90.4281     28.0177   5.9490784542e+01   5.7293674679e+01     0.394075    0.2681805  20.79  0.001602981    1.513    0.339
        52  -8.9459     97.1610     28.3719   5.7698622049e+01   5.5857270276e+01    0.4931195    0.2485164  -8.07  0.001952316    3.092    0.677
        53  -8.9733     66.6374     29.4673   6.7932057594e+01   6.1598545170e+01    0.3318965    0.1940511 -14.68  0.001614968    1.893    0.472
        54  -9.9328    225.3642     28.8079   3.6430113826e+01   2.6446648143e+01    0.4401794    0.2690955  66.77  0.002296188    1.634    0.388
        55  -9.0654     41.0432    141.3751   1.0776813763e+02   4.0997845225e+01    0.3536489    0.2820577  89.02  0.002031824    1.259    0.206
        56  -7.3308     24.6838    141.3504   1.1237433483e+02   4.2532412819e+01    0.1370242   0.08885109  71.78 0.0007047249    1.732    0.423
        57 -12.6902    241.7738    131.1793   5.7127422423e+01   7.6431033903e+00     1.274762      1.25682  40.35  0.005786255    1.228    0.185
        58 -10.7994     16.9971    127.1312   1.1271438011e+02   4.6635904880e+01    0.4059749    0.3099679  89.68  0.002454552    1.284    0.221
        59  -9.1649     21.7263    108.9574   1.0852060717e+02   5.0725049688e+01     0.368502    0.2074725  72.39  0.001633117    2.745    0.636
        60  -8.3685      3.6651    116.6443   1.1532471643e+02   5.0042866683e+01    0.1380409   0.07082576 -46.38 0.0007042971    1.798    0.444
        61  -9.7746     75.5213     26.6239   6.3629720054e+01   6.0377453703e+01    0.4628575     0.327423  -7.78   0.00262624    1.422    0.297
        62  -8.9554     16.5168    104.6409   1.0951430800e+02   5.2141156653e+01    0.3118885     0.235148  83.23  0.001838252    1.517    0.341
        63  -8.7065    103.0338     25.9264   5.5197012303e+01   5.4892892929e+01    0.2824568    0.1944404  41.09   0.00153725    1.300    0.231
        64  -8.6836     20.3540     23.0498   8.5443607236e+01   6.8884423068e+01    0.2515575    0.1798582  40.86  0.001556467    2.095    0.523
        65  -9.1804     30.2543    101.9426   1.0439439457e+02   5.1730831301e+01    0.4013813    0.1657077 -44.08  0.001713733    2.210    0.547
        66  -9.2833    111.6836     16.6505   4.9688825815e+01   5.3975190879e+01    0.3482984    0.1935055  46.62  0.001709992    1.569    0.363
        67  -9.2930     46.6077    100.0979   9.8375048278e+01   5.0572189586e+01    0.4146893    0.1901557 -49.52  0.001809159    1.841    0.457
        68  -9.5818      2.3859     87.5173   1.1151011784e+02   5.7006185328e+01    0.7733513    0.1851409 -68.67  0.002790175    3.449    0.710
        69 -10.1232     25.4310     65.6216   9.7783094694e+01   6.0418340486e+01    0.6556301    0.2378275 -51.41   0.00248795    2.147    0.534
        70 -11.3396     14.9340     72.7710   1.0385047302e+02   5.9645857462e+01    0.8735238     0.689487  36.59  0.005565322    1.603    0.376
        71 -11.8773     42.3930     81.2869   9.5303759681e+01   5.5377375575e+01     1.107275    0.7468786  -2.25  0.005368044    1.726    0.420
        72  -8.5167     12.9377     89.9694   1.0817067597e+02   5.5852359164e+01    0.1924866    0.1449652  77.05  0.001131813    1.680    0.405
        73  -8.0702    101.3025     83.6697   7.5617786649e+01   4.5922582376e+01    0.1453091    0.1218112 -83.79 0.0006369983    1.650    0.394
        74  -8.9744    227.9545     15.4111   3.3295218162e+01   2.7441833651e+01    0.2178998    0.1656163  80.89  0.001116553    1.245    0.197
        75  -8.9522    227.4940     79.1246   4.7582688770e+01   1.8989067868e+01    0.3718201    0.2446731 -14.73  0.001780294    2.137    0.532
        76  -7.7976     83.4781     89.5018   8.3027526615e+01   4.7899817099e+01    0.1485567    0.1353849 -23.24 0.0008102775    1.006    0.006
        77  -7.9706    138.5133     79.9738   6.4246192845e+01   3.8790151236e+01    0.2041093    0.1330777  -9.23 0.0007789276    2.291    0.564
        78  -9.3595     83.5383     68.9083   7.6634250743e+01   5.2126392704e+01    0.3682011    0.2870107  50.72  0.001902808    1.536    0.349
        79  -9.9532     74.6021     69.2392   7.9823379503e+01   5.3577049689e+01    0.3703284    0.3310729  41.39  0.002135499    1.300    0.231
        80  -9.1521     45.3914     63.4304   8.8970869238e+01   5.8858426334e+01    0.5036517    0.2152401 -40.30    0.0021928    2.088    0.521
        81  -9.7607     42.6157     89.4915   9.7298152893e+01   5.3488366119e+01    0.7163424     0.291585  20.32  0.002861592    3.029    0.670
        82  -9.1510     76.1896     59.5133   7.5976450055e+01   5.5156354772e+01    0.3370723    0.1801125 -35.04  0.001523139    1.816    0.449
        83 -10.5015    197.0012     56.8398   4.6489301521e+01   2.9004424628e+01    0.4107269    0.2839479  52.87   0.00102232    1.510    0.338
        84  -8.2584     16.2334     58.2378   9.9640063136e+01   6.2686409776e+01    0.1534881     0.142957 -68.14  0.001057407    1.354    0.262
        85  -9.2954     66.4290     54.2295   7.7642229532e+01   5.7710496643e+01    0.4144237    0.1899471 -45.01  0.001781718    2.225    0.551
        86  -8.3094     35.2941     52.9526   8.9755920885e+01   6.2069862363e+01     0.209101    0.1810302  44.72  0.001316629    1.590    0.371
        87 -10.8357      4.8981     76.3765   1.0854812311e+02   5.9425313787e+01    0.6618722    0.4930314  51.93  0.004125644    1.806    0.446
        88  -9.3213     86.8589     48.8379   6.8523126600e+01   5.5056655481e+01    0.3554188    0.2676106  35.54  0.001385419    1.275    0.216
