#   1 NUMBER                 Running object number                                     
#   2 MAG_AUTO               Kron-like elliptical aperture magnitude                    [mag]
#   3 X_IMAGE                Object position along x                                    [pixel]
#   4 Y_IMAGE                Object position along y                                    [pixel]
#   5 X_WORLD                Barycenter position along world x axis                     [deg]
#   6 Y_WORLD                Barycenter position along world y axis                     [deg]
#   7 A_WORLD                Profile RMS along major axis (world units)                 [deg]
#   8 B_WORLD                Profile RMS along minor axis (world units)                 [deg]
#   9 THETA_WORLD            Position angle (CCW/world-x)                               [deg]
#  10 FWHM_WORLD             FWHM assuming a gaussian core                              [deg]
#  11 ELONGATION             A_IMAGE/B_IMAGE                                           
#  12 ELLIPTICITY            1 - B_IMAGE/A_IMAGE                                       
         1 -14.9772      9.0626    148.4733   1.4369961691e+02   4.3040608355e+01     9.475655     3.409919 -89.62   0.03479134    4.205    0.762
         2 -13.3307    196.8461     28.6755   6.8539168313e+01   3.2682785661e+01     1.391673     1.330969  55.81  0.006711932    1.198    0.166
         3 -13.3216    212.1146      9.5264   6.2071257909e+01   3.1192742944e+01     1.124023    0.8927577  46.09  0.006861962    1.526    0.345
         4 -12.0464      2.4742     20.8520   1.2085781013e+02   6.9259058978e+01    0.6028789    0.1560764 -51.78  0.002724899    3.466    0.711
         5 -11.5350      2.0905     10.6652   1.1724712010e+02   7.0808275873e+01    0.9926834    0.1676724 -37.25  0.003825519    4.696    0.787
         6  -9.7143     17.9613      2.0000   1.0610025820e+02   7.0676742250e+01    0.1551205   0.05241605  30.02 0.0008059299    2.967    0.663
         7 -10.6565     23.0438    245.4963   1.4874646809e+02   2.1450353492e+01     0.217913    0.1308303  75.23 0.0008313488    1.237    0.191
         8 -11.7276    243.1093    248.2647   1.0932031819e+02  -1.3075313545e+01    0.5208208    0.2892653  31.42    0.0030557    1.520    0.342
         9 -10.6008    125.6507    249.7840   1.3128969607e+02   6.0992941673e+00    0.3578609    0.1344046  37.80  0.001501066    2.702    0.630
        10 -10.0741    111.5558    250.5393   1.3397071997e+02   8.2735914438e+00    0.2538425    0.1000245  43.86 0.0005994596    2.095    0.523
        11 -12.0499     34.7759    244.7260   1.4681430744e+02   2.0231204028e+01    0.5925621    0.4170929 -80.56  0.004337902    1.355    0.262
        12 -10.4915     28.5309    249.5275   1.4812638974e+02   2.0081766152e+01    0.2114656    0.1518623  76.17 0.0009251306    1.057    0.054
        13 -10.3737     29.5343    246.4950   1.4777652807e+02   2.0522081083e+01    0.2183382    0.1299323  72.34  0.000895107    1.269    0.212
        14 -11.3081     13.0370    233.0626   1.4959827608e+02   2.4874306554e+01    0.3548216    0.1433409  38.87   0.00202877    2.573    0.611
        15 -10.8850      2.5647    247.9980   1.5202098218e+02   2.3178618873e+01    0.3473902    0.1758123 -84.87  0.002398349    1.565    0.361
        16 -11.5154     10.9714    249.4001   1.5083246267e+02   2.2055659363e+01    0.6335979    0.1893459  38.83  0.003263337    3.358    0.702
        17 -11.9927     12.1278    240.7061   1.5018303781e+02   2.3528614750e+01    0.5322432    0.2185735  73.73  0.002992269    2.181    0.541
        18 -10.5322     19.1397    242.6915   1.4919556322e+02   2.2404600141e+01    0.2293076    0.1029945  59.75 0.0009966149    1.748    0.428
        19 -11.2654    138.4147    248.5668   1.2875887041e+02   4.1628589773e+00    0.3517383    0.2794837 -59.86  0.002271689    1.500    0.333
        20 -10.9572      5.6246    240.9736   1.5120459670e+02   2.4151521892e+01    0.1963275    0.1344954  72.97 0.0005462609    1.065    0.061
        21 -14.0742    105.0115    229.4763   1.3278156403e+02   1.3211215704e+01     7.741702          nan  46.09   0.01259459   16.367    0.939
        22  -9.2925    156.6686    249.7091   1.2547740712e+02   8.6043916826e-01    0.1215944   0.09122601  20.02 0.0002803306    1.628    0.386
        23 -13.6928     38.3670    225.6177   1.4481747947e+02   2.3485866473e+01    0.7537162    0.5725634  72.79  0.002481996    1.073    0.068
        24 -11.3328      6.6432    227.5557   1.5030745574e+02   2.6583248855e+01    0.3014448    0.2877752 -83.78  0.002575821    1.675    0.403
        25  -9.5547    173.4876    222.5007   1.1815081645e+02   2.3976420313e+00    0.2978772    0.1187754  42.23  0.001220233    2.198    0.545
        26  -8.2806    152.4948    212.9833   1.2087116067e+02   8.0281777418e+00    0.1778152    0.1383007 -54.09 -3.57335e-05    1.432    0.302
        27 -12.3292      9.8290    207.0153   1.4848399317e+02   3.0351476055e+01    0.6272165    0.4095931  38.87  0.002977197    1.814    0.449
        28 -11.4024     60.0202    198.7709   1.3819022547e+02   2.6351781085e+01    0.2685855     0.221813 -66.35 0.0005061001    1.325    0.245
        29  -9.6937    192.3283    193.8661   1.0922335284e+02   3.9412365530e+00    0.6413335    0.3045487 -62.26  0.001777796    5.978    0.833
        30 -11.8343     14.0588    196.3826   1.4695175976e+02   3.2149279477e+01    0.2937458    0.1753316  61.01 0.0008308296    1.493    0.330
        31 -11.2277      2.7734    183.6373   1.4810932253e+02   3.5869928191e+01    0.3125918    0.1651693 -83.40  0.001927833    1.452    0.311
        32  -9.5420     22.7620    236.4036   1.4822769914e+02   2.3187729363e+01    0.1303829   0.09784549  41.92 0.0009499641    1.673    0.402
        33 -11.7189     66.4323    190.3713   1.3587421471e+02   2.7332245587e+01    0.2862441    0.2323978 -62.83 0.0004984942    1.319    0.242
        34 -11.4234     22.5159    126.7874   1.3778502084e+02   4.6856214144e+01    0.3757164      0.23552  52.76  0.001982811    1.867    0.464
        35 -12.9980     63.4205    175.5908   1.3464412424e+02   3.1094885121e+01    0.5122224    0.2801541 -46.56  0.002190154    2.276    0.561
        36 -10.6023     76.7169    177.5632   1.3191511347e+02   2.8764705289e+01    0.2406298    0.2086248 -80.44 0.0002950618    1.079    0.073
        37  -8.7585     97.4007    173.3854   1.2651038538e+02   2.6473183297e+01    0.2639008    0.1252961 -54.68 0.0006968299    2.056    0.514
        38 -11.5109     84.5982    168.4326   1.2871314521e+02   2.9687207475e+01    0.6235561    0.5814049  14.12  0.003746133    1.386    0.279
        39 -10.2277     54.4716    229.5438   1.4227478963e+02   2.0678266759e+01    0.2684104    0.1494129  65.45  0.001560933    1.560    0.359
        40  -9.7212     97.2918    152.4369   1.2284730004e+02   3.1389157114e+01    0.2801012    0.2618605 -54.20 0.0007995205    1.146    0.127
        41 -11.7183     85.7176    151.5761   1.2558733982e+02   3.3479258733e+01    0.3007914    0.2457243 -46.97 0.0005477162    1.307    0.235
        42  -8.8121    100.1262    148.1839   1.2131671300e+02   3.1908010084e+01    0.2076453      0.19232 -42.22 0.0003298979    1.192    0.161
        43 -12.0049     67.3985    143.6099   1.2882946212e+02   3.8047934528e+01    0.6802171    0.4380469  68.03  0.002786394    1.883    0.469
        44 -12.5822     33.1004    232.7801   1.4626373714e+02   2.2702661380e+01    0.3020618    0.2338815 -77.03 0.0007762422    1.383    0.277
        45  -9.4915    109.1891    137.4272   1.1677498153e+02   3.2819894467e+01    0.4741616    0.2811614 -26.48  0.001542429    2.974    0.664
        46 -10.1709     96.2679    134.6431   1.1955954796e+02   3.5760294771e+01    0.2608114    0.2253612 -32.38 0.0003510923    1.303    0.233
        47 -10.4822     31.3129    131.4535   1.3618471029e+02   4.5016297407e+01    0.3015934    0.1930723  55.63  0.001073532    1.802    0.445
        48  -8.8838     78.7278    131.0750   1.2350855910e+02   3.9397738955e+01     0.275591    0.1567311  64.32  0.001120994    2.616    0.618
        49  -8.9359     87.5288    128.9016   1.2068171098e+02   3.8549423282e+01    0.2192294    0.1815591  80.83  0.000589652    1.336    0.251
        50  -8.6182    106.3408    123.9676   1.1449993904e+02   3.6468075609e+01    0.1960754    0.1744681 -53.47 0.0003224836    1.074    0.069
        51  -9.7655    167.9097    113.0553   9.6378787315e+01   2.5705606656e+01    0.3360829    0.2725557 -75.03 0.0008291105    1.432    0.302
        52  -8.9833    203.1524    111.7975   8.8733946866e+01   1.7611602906e+01    0.2099243    0.1848827   9.69 0.0005728918    1.346    0.257
        53  -9.7904    157.9785     76.9689   8.8785952788e+01   3.5089426034e+01     0.243808    0.1865103 -78.15 0.0006753812    1.652    0.395
        54  -8.0831     45.6993     68.7472   1.1884254688e+02   5.7273286191e+01    0.1222058    0.0832742 -22.59 0.0002246713    1.500    0.333
        55 -11.5361      2.4764     63.1273   1.3263827863e+02   6.1773552332e+01    0.4935732    0.2253015 -75.32  0.002339711    3.114    0.679
        56  -8.7890     31.8111     62.0978   1.2189369551e+02   5.9928445479e+01    0.1656274    0.1492116 -54.53 0.0006209019    1.274    0.215
        57 -11.6015     12.0787     54.1677   1.2700743563e+02   6.2938218694e+01    0.4256826    0.2151305  41.78  0.002125128    3.058    0.673
        58 -11.6643      2.7670     47.8204   1.2889166145e+02   6.4656782436e+01    0.4653133     0.118477 -56.07  0.002134565    2.785    0.641
        59 -10.7087     98.2138    248.3928   1.3616780274e+02   1.0767264300e+01    0.2693546    0.1924936  64.77  0.001262529    1.154    0.133
        60 -10.7435    100.9939    245.9845   1.3540880356e+02   1.0766039870e+01    0.2159765    0.1626257 -76.25 0.0004167421    1.409    0.290
        61 -10.9321     46.3629    248.5354   1.4517978251e+02   1.8096202365e+01    0.3005217    0.1667283  78.21   0.00120948    1.569    0.363
        62 -10.0625     82.1338    249.2468   1.3912531964e+02   1.3051420390e+01    0.2390711    0.1247723  58.96  0.001336221    1.621    0.383
