#   1 NUMBER                 Running object number                                     
#   2 MAG_AUTO               Kron-like elliptical aperture magnitude                    [mag]
#   3 X_IMAGE                Object position along x                                    [pixel]
#   4 Y_IMAGE                Object position along y                                    [pixel]
#   5 X_WORLD                Barycenter position along world x axis                     [deg]
#   6 Y_WORLD                Barycenter position along world y axis                     [deg]
#   7 A_WORLD                Profile RMS along major axis (world units)                 [deg]
#   8 B_WORLD                Profile RMS along minor axis (world units)                 [deg]
#   9 THETA_WORLD            Position angle (CCW/world-x)                               [deg]
#  10 FWHM_WORLD             FWHM assuming a gaussian core                              [deg]
#  11 ELONGATION             A_IMAGE/B_IMAGE                                           
#  12 ELLIPTICITY            1 - B_IMAGE/A_IMAGE                                       
         1 -12.1686     42.5105     80.7315   9.3676445662e+01   5.6294510340e+01     1.165496    0.8100409 -24.42  0.005691228    1.466    0.318
         2 -11.9959     14.2919     73.7876   1.0348142796e+02   6.0298570808e+01     0.900852    0.7379991 -22.58  0.005880458    1.188    0.159
         3 -10.5533     39.1553      8.5312   6.8010436568e+01   6.9387072839e+01    0.5736103    0.3274967  -5.93  0.003171659    1.941    0.485
         4 -11.1824     39.9497     29.4149   7.7320384801e+01   6.6452234613e+01    0.5611151    0.3337043 -36.66  0.002324401    1.621    0.383
         5 -12.3771     45.1248     22.8958   7.2084722157e+01   6.6682330509e+01     1.025535    0.9006643 -52.90  0.006733883    1.754    0.430
         6 -10.1827     71.4569      5.6017   5.4048237204e+01   6.4081536325e+01    0.5025693    0.2248555  50.29  0.001922961    1.879    0.468
         7 -11.4676     77.7685     17.1427   5.7022952014e+01   6.1697836852e+01     1.290128    0.4894349 -17.24  0.004760778    4.057    0.754
         8 -11.7842    143.9798      4.0321   3.7866241436e+01   4.8051797084e+01     1.380437    0.6305715  82.63  0.005992216    2.506    0.601
         9 -13.0001    168.9592     16.8986   3.8115680456e+01   4.0899989755e+01     1.917469    0.9265611  87.68  0.008231432    2.535    0.606
        10 -13.0051    167.5623      4.9189   3.5104382120e+01   4.2400594974e+01     2.087891    0.7635775  74.51  0.008836636    2.520    0.603
        11  -9.7499    128.2760     17.8476   4.4768731650e+01   5.0496461566e+01    0.3592018    0.3155431  41.84  0.001582614    1.130    0.115
        12  -9.8621    129.5088     12.9857   4.2958153705e+01   5.0678655835e+01    0.3848215    0.2197427  51.10  0.001995346    1.542    0.352
        13  -9.3808     20.0247     14.3414   8.0679329874e+01   7.1072274034e+01    0.5844792    0.2802972 -13.21  0.002757071    2.788    0.641
        14 -10.6382    138.9427     12.6466   4.1239439500e+01   4.8476401680e+01    0.3564451    0.1907296 -46.78  0.001749513    2.140    0.533
        15  -9.4213    104.2663     12.0924   4.7789562708e+01   5.6579275308e+01    0.3168621    0.2356805 -15.65   0.00188767    1.526    0.345
        16 -10.8797    130.9968      3.8965   3.9786074669e+01   5.1127945535e+01    0.7877063    0.2485773  57.39  0.003297341    2.406    0.584
        17 -10.9911    121.4615      4.3333   4.1545795512e+01   5.3321429845e+01     0.700506    0.3697864  68.06  0.002643866    1.682    0.405
        18 -10.0667    111.8904      5.1479   4.3633152569e+01   5.5460626907e+01     0.400043    0.3109495 -51.14  0.002455185    1.555    0.357
        19 -11.0781    106.2983      4.8974   4.4691417915e+01   5.6749864771e+01    0.5738791    0.3547007  85.41  0.002911133    2.129    0.530
        20 -10.1872    115.4860     17.5317   4.7245364734e+01   5.3508688016e+01    0.6472859    0.5162491 -67.61  0.003799381    1.547    0.354
        21 -10.6721     60.7968      2.8194   5.6348761571e+01   6.6357602384e+01    0.5156819    0.2930049  31.81   0.00293438    1.540    0.351
        22  -8.1266     49.6437      6.6872   6.2485993424e+01   6.7940566526e+01    0.1302131   0.07551128  18.37 0.0007044134    1.738    0.425
        23 -10.0198    203.6432      4.0047   3.1334580886e+01   3.4237327490e+01    0.2788137    0.1970262 -61.77  0.001601777    1.259    0.206
        24  -9.2001    222.4932      4.5103   2.9964384847e+01   3.0124473500e+01    0.1186585   0.09243923 -75.14  0.000810557    1.008    0.008
        25 -12.0050    155.7170     20.7767   4.1032043842e+01   4.3649310067e+01    0.8043115    0.5044817 -62.66    0.0034243    1.837    0.456
        26  -8.9554     17.7210      2.6008   7.6058609495e+01   7.2908101453e+01    0.2703661    0.1196571 -43.29  0.001387534    2.899    0.655
        27 -11.6447     84.0097      3.8062   4.9596409802e+01   6.1692890576e+01    0.9005263    0.3741471  60.34  0.003373838    2.281    0.562
        28 -10.8616     50.4109     37.1802   7.5836065375e+01   6.3782036794e+01    0.7708208    0.6035619 -89.67  0.003873441    2.984    0.665
        29  -8.8514    108.3354    108.3228   7.8332618371e+01   3.9713304277e+01    0.1615563    0.1221351  -8.08 0.0005252647    1.711    0.415
        30  -9.4508     16.8765    104.3703   1.0837453949e+02   5.2955131076e+01    0.2932953    0.2366206 -65.29  0.001393785    1.075    0.070
        31  -9.6071     30.7268    101.8122   1.0298550909e+02   5.2500780436e+01     0.341325    0.1557578 -45.68    0.0014785    1.958    0.489
        32  -9.4307     46.8493    100.8910   9.6968609062e+01   5.1112446526e+01    0.3730223    0.2127464 -54.18  0.001767997    1.536    0.349
        33  -9.6992    173.1886    237.6217   8.8305804692e+01   9.1711455062e-02    0.1921808    0.1070076  24.28 0.0009517242    1.727    0.421
        34  -9.0266    100.7999     83.9879   7.3714252698e+01   4.6492418004e+01    0.2287254    0.1706827  12.27  0.001040821    1.614    0.380
        35  -8.9628    144.3463     80.8875   6.0869272155e+01   3.7616763702e+01    0.3052223    0.2220766  43.23  0.001204616    1.390    0.281
        36 -10.3633     25.3889     65.2948   9.6618841730e+01   6.1335489025e+01    0.5423487    0.2507109 -47.66  0.002640842    1.761    0.432
        37  -9.3851      3.8162    230.8291   1.2328085714e+02   2.4074694315e+01    0.1707103    0.1001855  63.16  0.001087311    1.357    0.263
        38  -8.7333    226.6840     79.6943   4.5839238505e+01   1.9270688964e+01    0.1239806    0.1058453   7.94 0.0002710501    1.626    0.385
        39 -10.2252     74.7327     69.4470   7.7915275462e+01   5.4203563410e+01    0.3871352    0.3156757  48.00  0.002104187    1.415    0.293
        40  -9.6356     83.3450     69.0084   7.4718343891e+01   5.2784919998e+01    0.2497939    0.2116167  64.59  0.001152323    1.522    0.343
        41 -10.9545      4.4958     76.0714   1.0799368195e+02   6.0336103138e+01    0.4471199    0.4333325  -5.34  0.002338597    1.250    0.200
        42  -8.9171     45.4014     62.2104   8.7071033010e+01   5.9912085533e+01    0.3147444    0.1701836 -56.79  0.001461278    2.100    0.524
        43  -9.8811      2.5087     87.4493   1.1080148286e+02   5.7815302916e+01    0.5625574    0.1813738 -69.71  0.002322419    2.625    0.619
        44  -8.9211     76.4220     59.9000   7.4081198809e+01   5.5724508493e+01    0.2669577    0.2107984 -26.04  0.001464965    1.229    0.187
        45  -8.6592    215.5751     79.7761   4.7387405294e+01   2.1573149830e+01    0.2047056    0.1122601 -48.74  0.000951247    1.685    0.406
        46  -9.1307    198.9481     55.3305   4.3918346249e+01   2.9029728815e+01    0.2409015    0.1725453 -54.32  0.001306287    1.318    0.241
        47  -8.5800    138.3280     56.6663   5.5041603015e+01   4.3149966261e+01    0.1492321    0.1115998 -76.15 0.0005594809    1.719    0.418
        48  -9.4275     66.3352     54.1029   7.5791301044e+01   5.8471904249e+01    0.3540643    0.1592585 -48.51  0.001455892    2.557    0.609
        49  -9.2465     34.2740     52.8217   8.8856351783e+01   6.3035924073e+01     0.370585    0.1594283  27.22  0.001711503    2.395    0.582
        50 -10.3052     85.1790     47.9300   6.6731880006e+01   5.6144488603e+01    0.4933839    0.4455243  59.64  0.002678231    1.335    0.251
        51 -10.5263     82.3954     37.5025   6.3730298735e+01   5.8248513392e+01    0.4040567    0.3212472 -67.18  0.002186929    1.942    0.485
        52  -9.9562     81.5092     42.0026   6.5755020118e+01   5.7763958367e+01    0.3891527      0.23942 -45.46  0.001913936    1.939    0.484
        53 -10.6146      3.3346     40.6926   9.9976865153e+01   6.7872121000e+01    0.3993972    0.3965183  64.23  0.002502837    1.423    0.297
        54  -9.3253      5.7499     35.1241   9.6952282204e+01   6.8792595475e+01    0.2465472    0.2236016 -54.75  0.001652335    1.404    0.288
        55 -12.0751    204.3475    221.9543   7.9419139335e+01  -1.9530208647e+00     0.582953    0.4376507  15.82  0.003517616    1.188    0.158
        56 -10.8283    182.8962    216.8768   8.2898773587e+01   2.1647598472e+00     0.322243    0.2242791  35.20  0.001425105    1.370    0.270
        57  -9.2725    190.3291    219.6607   8.1839954940e+01   5.2809232070e-01    0.1229716     0.106643  67.78 0.0007051757    1.737    0.424
        58  -9.2481     97.4954     37.1313   5.8881161782e+01   5.5220229814e+01    0.2223594    0.1925901  70.40  0.001290652    1.371    0.270
        59  -9.4470     12.2824     34.2339   9.3179893107e+01   6.8511527510e+01    0.3746166    0.1669327 -47.97  0.001601238    1.875    0.467
        60  -8.9147     66.2566     35.5410   6.8719223638e+01   6.1503728971e+01     0.246553    0.1209546  46.00  0.001133871    2.116    0.527
        61 -10.9928     86.0245     31.4955   6.0215762258e+01   5.8342843345e+01    0.3746983    0.3041737 -36.66  0.002064207    1.401    0.286
        62 -10.4995     90.0813     28.2056   5.7687975240e+01   5.7926167953e+01    0.4315001    0.2600528  38.62  0.002219919    1.515    0.340
        63  -9.7895     66.8862     29.3690   6.5945875288e+01   6.2263484433e+01    0.2572771    0.1750939 -15.76  0.001406307    1.513    0.339
        64  -9.1553    226.2630     28.7638   3.4732830103e+01   2.6589667704e+01    0.2909236    0.1156214  61.10  0.001368595    2.516    0.603
        65 -10.6960    148.5225     28.4227   4.4422766710e+01   4.4525673018e+01    0.4408973     0.292544  74.36  0.002299136    1.472    0.321
        66  -8.9004     97.1401     27.9445   5.5551570487e+01   5.6465839774e+01      0.28551    0.1744329  -4.53  0.001357901    2.178    0.541
        67  -8.8340     67.6677    217.3201   1.0891163463e+02   1.9876389219e+01    0.1418188    0.0856196  63.14 0.0007048991    1.696    0.410
        68  -8.8057    248.3262    223.6522   7.1590501691e+01  -8.1397244853e+00    0.1012706   0.09570126 -44.91 0.0004881919    1.751    0.429
        69 -10.0555    242.9242    200.7944   6.8436032582e+01  -4.0602259398e+00    0.3273427     0.165621 -33.02  0.001692245    1.728    0.421
        70  -9.3864    202.9983    196.9987   7.5173645299e+01   2.5015141792e+00    0.2283646    0.1543352  -4.18  0.001143286    1.707    0.414
        71  -9.4900    195.6797    185.8260   7.4504221532e+01   5.7538244719e+00    0.2985535    0.1646736  57.92  0.001108909    3.440    0.709
        72  -8.7525     20.6261     23.1238   8.4327335203e+01   6.9679261781e+01    0.2043421    0.1520008  40.41  0.001297178    1.933    0.483
        73  -8.7568    132.7092     26.8553   4.6833925199e+01   4.8485026571e+01    0.2778566    0.1247808  48.69   0.00120038    2.049    0.512
        74  -9.7384    135.0414     19.0078   4.3894354027e+01   4.8777608031e+01    0.2207205    0.1409242  36.26   0.00113318    1.747    0.428
        75  -8.8430     37.0335    185.5186   1.1286184333e+02   3.0956751692e+01    0.1891654    0.1250782  33.89 0.0006696635    1.587    0.370
        76  -9.9486    220.6349    156.8943   6.3754836909e+01   6.8320430959e+00    0.2609313    0.2169643  48.24  0.001491245    1.420    0.296
        77  -9.4886     94.4482     17.3413   5.2225612869e+01   5.8223680714e+01    0.3561598    0.2336077  76.37  0.001798584    2.094    0.522
        78  -8.5226     20.5234    155.4974   1.1402098065e+02   3.9935859337e+01    0.1319198    0.1112304 -81.93  0.000238351    1.004    0.004
        79 -11.4685     11.0097    142.6544   1.1529308153e+02   4.3871402320e+01    0.5917428    0.2877043 -84.18  0.002789792    1.946    0.486
        80  -9.0087     70.4965     16.4655   5.9142492157e+01   6.3181650220e+01    0.1295289    0.1043417  23.85 0.0001018966    1.048    0.046
        81  -9.5650     64.1615     16.1909   6.1272784451e+01   6.4387118053e+01    0.1566639    0.1462103  40.80 0.0005723135    1.325    0.245
        82  -8.8908     53.8650    143.6545   1.0287324741e+02   3.9561027160e+01    0.2553475    0.1792853 -54.30   0.00104258    1.326    0.246
        83  -9.8368     69.4666     12.8523   5.7914276490e+01   6.3763247376e+01    0.2749905    0.1274106  36.18  0.001317156    1.991    0.498
        84  -9.1874     40.5555    141.7329   1.0655842120e+02   4.1543479954e+01    0.3460903    0.1833146  31.78  0.001609166    2.018    0.505
        85  -7.9870     23.6758    141.3101   1.1149745510e+02   4.3232580542e+01    0.1371354   0.09090997  67.80 0.0007038253    1.654    0.395
        86 -11.4964    249.6911    127.1527   5.2826576417e+01   7.0712699958e+00    0.9507849    0.2913917 -42.13  0.003651396    2.703    0.630
        87 -11.6840    242.1005    133.1253   5.5186407132e+01   7.3443576782e+00    0.8030646    0.5777415  65.30  0.004414659    1.907    0.476
        88  -9.0761    102.9335     26.0993   5.3303653842e+01   5.5421145432e+01    0.3250921    0.1547125  43.87  0.001438627    1.906    0.475
        89 -12.3183    238.0826    125.1238   5.4116113125e+01   9.4277983102e+00    0.9988594    0.7034073  57.39  0.005510316    1.733    0.423
        90  -8.4084     23.3068    126.3121   1.0960547602e+02   4.7041623624e+01    0.1392188   0.08623247 -43.04 0.0003994287    1.620    0.383
        91  -8.8657     58.4984    124.5009   9.7977239958e+01   4.3873249526e+01    0.1447245    0.1333776 -61.33 -8.699524e-05    1.021    0.021
        92 -10.0038     17.8229    127.6435   1.1150113356e+02   4.7129420897e+01    0.3057145    0.1586323 -64.47  0.001511214    1.569    0.362
        93  -9.4356    189.0116    116.9842   6.0762330667e+01   2.0588832512e+01    0.2416262    0.1868604   1.24  0.001142314    1.730    0.422
        94  -8.7077     96.3148    113.3189   8.3295774998e+01   4.0808558541e+01    0.1585512    0.1190551 -15.71 0.0007038723    1.652    0.395
        95 -11.3128    242.2743    107.9234   4.9858497793e+01   1.1603970886e+01    0.3739033      0.32614  89.11  0.002346995    1.323    0.244
        96  -7.9954    148.6588    112.3006   6.8450156703e+01   3.0361694864e+01    0.1587089    0.1251491 -89.40 0.0006191904    1.671    0.402
