#   1 NUMBER                 Running object number                                     
#   2 MAG_AUTO               Kron-like elliptical aperture magnitude                    [mag]
#   3 X_IMAGE                Object position along x                                    [pixel]
#   4 Y_IMAGE                Object position along y                                    [pixel]
#   5 X_WORLD                Barycenter position along world x axis                     [deg]
#   6 Y_WORLD                Barycenter position along world y axis                     [deg]
#   7 A_WORLD                Profile RMS along major axis (world units)                 [deg]
#   8 B_WORLD                Profile RMS along minor axis (world units)                 [deg]
#   9 THETA_WORLD            Position angle (CCW/world-x)                               [deg]
#  10 FWHM_WORLD             FWHM assuming a gaussian core                              [deg]
#  11 ELONGATION             A_IMAGE/B_IMAGE                                           
#  12 ELLIPTICITY            1 - B_IMAGE/A_IMAGE                                       
         1 -10.8420    246.0336     32.5255   2.9433025268e+01  -4.3328298167e+01   0.02895288   0.01322388  69.13  0.002268101    3.136    0.681
         2 -10.3362    237.9904     31.3563   2.9544816932e+01  -4.3394010960e+01   0.02396963    0.0139752 -76.58  0.001862766    3.548    0.718
         3 -10.4209    236.6695      5.8397   2.9332905756e+01  -4.3673923483e+01   0.03033028   0.01642247  68.53   0.00275824    2.306    0.566
         4  -8.7193    231.7902      2.3959   2.9376036038e+01  -4.3742910816e+01  0.009694897  0.008860691 -44.74 0.0007570629    1.101    0.092
         5  -9.3422    241.4940      9.0025   2.9288148395e+01  -4.3608269316e+01   0.01242461  0.008668283 -47.27  0.000852496    1.494    0.331
         6 -10.4185    246.9197     16.8253   2.9276840751e+01  -4.3489149962e+01   0.02710795   0.02007619 -64.47  0.002946357    1.654    0.395
         7  -9.0767    250.0163     11.1637   2.9178046345e+01  -4.3528589969e+01   0.02334677  0.009045146  51.72  0.001930148    2.534    0.605
         8  -9.4249    245.9809     10.0070   2.9228923985e+01  -4.3567745040e+01   0.01682208   0.01124658 -59.73   0.00129921    1.873    0.466
         9  -9.7410    244.1963      4.1064   2.9202183023e+01  -4.3642220651e+01   0.03310569   0.01751469 -50.27  0.002990559    2.233    0.552
        10 -10.0927    237.5949     14.5251   2.9397991115e+01  -4.3575540217e+01   0.01921023  0.009407609  61.17  0.001726951    2.215    0.549
        11  -8.1839    233.0024     10.9870   2.9435885708e+01  -4.3643604641e+01   0.01029832  0.007783376 -66.12 0.0006014867    1.616    0.381
        12  -9.1027    227.7501     10.1202   2.9508302750e+01  -4.3687635213e+01   0.01310656  0.008024385  53.95  0.001337564    1.652    0.395
        13  -8.7326    250.0242      3.4737   2.9107573487e+01  -4.3610058487e+01   0.01968128   0.01129417  68.49  0.001858512    2.122    0.529
        14  -8.3174    169.2331    241.7761   3.2415335287e+01  -4.1572893633e+01   0.01335498  0.009065351 -12.49  0.001007337    1.643    0.391
        15  -7.5228    226.5090    249.9873   3.1623926797e+01  -4.1124365188e+01  0.009271909  0.004911468  36.28 0.0008069094    2.333    0.571
        16  -7.5623    214.2044    250.7737   3.1814317105e+01  -4.1193581681e+01   0.01062032   0.00540292 -15.88 0.0008861746    2.509    0.601
        17  -7.9860    202.1203    249.6653   3.1986022645e+01  -4.1281618905e+01   0.01324536  0.007545305  33.78  0.001216618    2.180    0.541
        18  -7.9723    153.3112    250.4309   3.2727894959e+01  -4.1577691726e+01   0.01263109  0.006405538 -22.97 0.0008752185    2.072    0.517
        19  -8.9485    149.2998    248.8757   3.2775826443e+01  -4.1619430449e+01    0.0164076  0.007896202  48.35  0.001482695    2.110    0.526
        20  -8.8513     24.7644    249.3374   3.4690189032e+01  -4.2368786831e+01   0.01883954  0.007814063 -48.53  0.001437983    3.056    0.673
        21  -7.9754    126.2197    240.8425   3.3060385540e+01  -4.1849245911e+01  0.009157203  0.007462787  15.19 0.0007580969    1.353    0.261
        22  -9.2228    238.8356    240.3971   3.1359487323e+01  -4.1149579114e+01   0.01198921  0.008381148 -47.25  0.001288427    1.499    0.333
        23  -8.0373    220.4409    238.7251   3.1619977921e+01  -4.1284336021e+01   0.01537284  0.004874421  50.37  0.001144286    3.059    0.673
        24  -7.9469    201.4825    240.0298   3.1915026718e+01  -4.1389891246e+01   0.01342281  0.007410447  17.28   0.00103254    3.328    0.700
        25  -7.4168    186.4954    239.9992   3.2140129693e+01  -4.1484324898e+01  0.009515271  0.004834367  37.30 0.0008091385    2.431    0.589
        26  -9.7279      3.8514    237.8572   3.4923750426e+01  -4.2619101434e+01   0.01128325   0.01084682 -83.81 0.0008335304    1.107    0.097
        27  -7.2520    247.6622    238.6905   3.1213697574e+01  -4.1111726865e+01  0.006831657   0.00492119  19.34 0.0007043906    1.684    0.406
        28  -7.9982    244.0364    224.9113   3.1150944619e+01  -4.1283154350e+01   0.01915194   0.00591278  48.47  0.001389856    3.268    0.694
        29  -9.5819    241.9355    220.8529   3.1147805959e+01  -4.1340246613e+01   0.01213759  0.009903274  66.82  0.001420066    1.314    0.239
        30  -9.0142    243.4841    236.4862   3.1257231512e+01  -4.1162098531e+01   0.01842347  0.007874097  54.82  0.001593074    2.303    0.566
        31  -9.1596    245.9948    229.7202   3.1162562819e+01  -4.1218901311e+01   0.01532086   0.01078206  58.48  0.001676423    1.465    0.317
        32  -8.5606    249.5546    229.2313   3.1105423896e+01  -4.1201409881e+01   0.01319661  0.006878965  39.40  0.001181346    2.229    0.551
        33  -7.5676    194.2552    237.6908   3.2004049175e+01  -4.1460646065e+01   0.01032267  0.004600653  47.18 0.0008790935    2.315    0.568
        34  -8.1904    183.3889    236.3287   3.2156285692e+01  -4.1543561653e+01   0.01989327  0.008492081  39.68  0.001549002    2.991    0.666
        35  -7.2727    250.3514    236.2599   3.1153146620e+01  -4.1120714430e+01  0.006623089  0.004934496  12.67 0.0006972354    1.609    0.379
        36  -7.4064    199.2644    236.3345   3.1917384705e+01  -4.1443829012e+01  0.006649929   0.00481976  27.62 0.0006970827    1.583    0.368
        37  -7.0796    190.0000    235.8763   3.2052898410e+01  -4.1507013795e+01   0.01046671  0.003724468  59.82 0.0007959791    2.898    0.655
        38  -8.0314    167.4961    236.5048   3.2397740624e+01  -4.1640949515e+01   0.01015675  0.005721405 -38.62 0.0009840488    1.719    0.418
        39  -7.9510    170.3983    233.8009   3.2331322521e+01  -4.1652197582e+01   0.01480833  0.006447972  40.43 0.0005155096    2.816    0.645
        40  -7.5953    204.1385    234.8615   3.1831817764e+01  -4.1429060098e+01   0.00916011  0.007526417  19.86 0.0008078328    1.332    0.249
        41  -7.9152    209.4757    236.5515   3.1765924501e+01  -4.1377124631e+01   0.01249024  0.005122039  47.41  0.001027095    2.513    0.602
        42  -8.3026    160.4572    235.0261   3.2491981521e+01  -4.1700837661e+01   0.01410275  0.007655526  14.83  0.001040399    3.631    0.725
        43  -7.2901    214.6640    239.6656   3.1714334078e+01  -4.1310712295e+01  0.006959247  0.004880722  21.80 0.0007052052    1.742    0.426
        44  -8.2549    229.9753    232.2147   3.1422596175e+01  -4.1294098473e+01    0.0190715  0.006372216  39.26  0.001115764    5.278    0.811
        45  -8.2855    219.1409    231.6445   3.1579818599e+01  -4.1368999064e+01   0.01287034  0.009642428  14.31  0.001231122    1.584    0.369
        46  -9.1750    241.4112    230.4768   3.1237260812e+01  -4.1240013303e+01   0.01174505   0.01085824  66.26 0.0007750063    1.140    0.123
        47 -10.1541    237.1150    226.0865   3.1264146964e+01  -4.1314679710e+01   0.01752383   0.01161199  75.49  0.001784468    1.865    0.464
        48  -7.8868    202.4790    230.2430   3.1817952138e+01  -4.1489461437e+01   0.01293805  0.005710843  51.80  0.001125935    2.233    0.552
        49  -8.4168    195.2363    229.4074   3.1919859365e+01  -4.1544130217e+01   0.01586561  0.009696594  42.10  0.001595269    1.746    0.427
        50  -7.4630    188.4683    230.4956   3.2030918210e+01  -4.1574900316e+01  0.006600471  0.006091039  13.01 5.364367e-05    1.106    0.096
        51  -7.0082    225.6815    229.6958   3.1465501965e+01  -4.1348535135e+01  0.006727837  0.004921835  20.22 0.0006068307    1.628    0.386
        52  -7.8886     23.6826    228.3265   3.4538021940e+01  -4.2606751939e+01  0.006829327  0.004864204 -60.74 0.0007045364    1.676    0.403
        53  -8.0017    230.2555    226.7920   3.1372572583e+01  -4.1350767039e+01    0.0090895  0.007323767  25.71 0.0005544137    1.355    0.262
        54  -8.3237    211.9207    225.3569   3.1635031674e+01  -4.1482604537e+01    0.0182689  0.007349748  43.26  0.001437182    2.857    0.650
        55  -7.6588    184.4979    226.4716   3.2057062719e+01  -4.1643410186e+01   0.01185594  0.005330184  47.59  0.001022477    2.280    0.561
        56  -9.5018      6.5525    225.5013   3.4782430476e+01  -4.2739525658e+01   0.01296908  0.009560562 -59.99  0.001093225    1.577    0.366
        57  -9.7634      4.0000    222.9784   3.4802030648e+01  -4.2782459124e+01   0.01545272  0.009488346  68.47  0.001548809    1.808    0.447
        58  -8.9847    248.5599    223.5516   3.1071997412e+01  -4.1268854254e+01   0.01973247   0.01306805  33.58    0.0017562    1.731    0.422
        59  -8.6183    237.4050    200.0318   3.1038037126e+01  -4.1593212085e+01    0.0229318   0.01374433  16.30  0.002006413    2.621    0.618
        60  -8.8498    237.6382    192.9201   3.0973667765e+01  -4.1668180024e+01   0.01907653    0.0117185  45.86  0.001734812    1.678    0.404
        61 -11.3113    242.7676    137.9322   3.0420709529e+01  -4.2225081467e+01   0.06623828   0.02278082  64.06  0.004649308    3.744    0.733
        62 -10.6165    247.0569    214.0225   3.1013281120e+01  -4.1380933563e+01    0.0457091   0.03821836 -61.88  0.005422094    1.335    0.251
        63 -11.2863    247.8556    151.0593   3.0458775609e+01  -4.2051461767e+01   0.07373444   0.02634115  58.57  0.005792101    2.872    0.652
        64 -10.6998    248.4103    118.3866   3.0164265725e+01  -4.2397464832e+01   0.04916307   0.02019333  67.39  0.003666942    3.412    0.707
        65  -9.1298    238.3911    185.2248   3.0896340638e+01  -4.1746046000e+01   0.02287543   0.01103908  40.00  0.001894103    2.454    0.592
        66 -10.2766    243.5507    176.5132   3.0743999290e+01  -4.1806380801e+01   0.03806083   0.02066365  40.31  0.003099782    2.074    0.518
        67  -9.3255    244.4115    197.6182   3.0912578421e+01  -4.1574205255e+01   0.02450772    0.0139653  45.63  0.002408549    1.820    0.451
        68  -9.8644    244.4441    188.6470   3.0835108848e+01  -4.1670358828e+01     0.026378    0.0182064  50.72  0.002176075    1.466    0.318
        69  -9.1012    249.6775    183.8882   3.0715877054e+01  -4.1687726847e+01   0.02343402   0.01298178  52.14   0.00229609    1.807    0.447
        70  -7.1605    190.3150    225.3153   3.1959629115e+01  -4.1619380831e+01  0.006778789  0.004902976  21.84 0.0002681583    1.645    0.392
        71  -7.4849    167.4528    225.5333   3.2306880545e+01  -4.1760306147e+01  0.006480038  0.006188094   2.87 8.266698e-05    1.041    0.039
        72  -7.8330    219.0051    223.5053   3.1513157840e+01  -4.1457691544e+01   0.01407141  0.006936895  29.06  0.001042496    3.470    0.712
        73  -8.0066    200.8976    222.8986   3.1779937294e+01  -4.1578843438e+01   0.01220541  0.007498527  42.47  0.001225898    1.729    0.422
        74  -7.7629    208.3767    230.7131   3.1733335665e+01  -4.1447156003e+01  0.009002194  0.005833532  47.97 0.0008759787    1.569    0.363
        75  -7.6294    206.5241    222.4826   3.1691830329e+01  -4.1547792018e+01  0.006534092  0.006160867   7.18 0.0008090662    1.066    0.062
        76  -7.4727    174.6490    221.7074   3.2165936295e+01  -4.1756794200e+01  0.006813482  0.004920878  17.81 0.0005324619    1.676    0.403
        77  -9.4451    239.1105    205.5011   3.1059248948e+01  -4.1523467404e+01   0.03726744   0.02240944  10.75   0.00324368    2.676    0.626
        78  -7.8759    216.8191    219.2491   3.1509943759e+01  -4.1517484591e+01   0.01257186  0.007463499  34.12    0.0010555    2.030    0.507
        79  -8.0160    194.1326    219.5340   3.1853470917e+01  -4.1657899656e+01   0.01299323   0.00774128  39.15 0.0009169406    1.868    0.465
        80  -7.5776    225.4695    219.5132   3.1382535650e+01  -4.1459668761e+01    0.0065127  0.006177434   5.32 0.0006264074    1.055    0.052
        81  -8.3238     85.8652    218.0939   3.3491503864e+01  -4.2344707795e+01  0.009227013   0.00904017  -1.52 0.0003399666    1.019    0.019
        82  -9.4419    249.1553    201.9956   3.0879215126e+01  -4.1496701567e+01   0.04552977   0.01220895  47.24  0.003034513    3.957    0.747
        83  -8.0447    211.4249    216.3161   3.1566107094e+01  -4.1583353609e+01   0.01210414   0.00591295  53.05  0.001104907    2.029    0.507
        84  -7.9695    203.8183    216.9772   3.1686054543e+01  -4.1624381457e+01   0.01135062  0.006832971  31.65  0.001071211    2.064    0.515
        85  -7.5481    227.5132    216.4884   3.1326287227e+01  -4.1479258725e+01  0.006522568  0.006177705   5.00 -3.768258e-05    1.057    0.054
        86  -8.4919    234.9317    213.7623   3.1192130121e+01  -4.1461302695e+01   0.01732386  0.009230494  33.63  0.001507256    2.473    0.596
        87  -7.7883    185.7467    211.6172   3.1913325047e+01  -4.1796390653e+01   0.01045835  0.007381327  17.82 0.0009329278    1.755    0.430
        88  -8.5909      4.7101    211.5775   3.4698979208e+01  -4.2904025549e+01   0.01136253  0.008111869 -85.98  0.001180006    1.824    0.452
        89  -7.6951    225.0407    211.2050   3.1318460289e+01  -4.1551939370e+01   0.01057713  0.007186094   9.13 0.0007164602    1.944    0.486
        90  -8.7575    218.9673    207.2012   3.1375543777e+01  -4.1633767648e+01   0.02301986   0.01014595  48.83  0.002004429    2.289    0.563
        91  -7.6674    213.3825    210.2206   3.1485063559e+01  -4.1636711893e+01  0.008517833  0.006356026  72.32 0.0005058193    1.518    0.341
        92  -6.9296    199.3017    209.3734   3.1689801896e+01  -4.1735104820e+01  0.006994101  0.004806398  25.96 0.0004938864    1.754    0.430
        93  -7.6720    192.5588    208.2719   3.1782201615e+01  -4.1789625366e+01    0.0122645  0.006608836  64.57   0.00114116    2.056    0.514
        94  -7.7418    225.5944    205.7302   3.1263593202e+01  -4.1607391241e+01  0.009037979  0.006412017  74.86 0.0009524545    1.670    0.401
        95  -7.8635    178.4452    206.8115   3.1983265131e+01  -4.1894362282e+01   0.01323319  0.005261991 -16.98 0.0008583125    4.145    0.759
        96  -7.6307    207.0000    204.4717   3.1532296952e+01  -4.1739266070e+01   0.01384764  0.003724181  59.53 0.0009220965    3.833    0.739
        97  -8.0244      5.9800    205.4659   3.4629632554e+01  -4.2963883085e+01  0.009861194  0.004563986 -47.76 0.0005667233    2.521    0.603
        98  -7.8485    229.5130    203.3419   3.1184498397e+01  -4.1608092332e+01   0.01144636  0.005985901 -28.13 0.0007152309    1.879    0.468
        99  -7.8393    196.1364    201.8994   3.1674261370e+01  -4.1835889225e+01   0.01659122  0.008665387  24.00   0.00124522    3.485    0.713
       100  -8.7226    230.4007    198.0487   3.1126010340e+01  -4.1659390472e+01   0.01769543   0.01198587   6.29  0.001766359    1.953    0.488
       101  -8.0632    210.8684    198.8769   3.1426512016e+01  -4.1775055607e+01   0.01027813  0.008815501  20.28  0.001225265    1.243    0.196
       102  -7.5866      1.7124    196.3603   3.4622706106e+01  -4.3089598747e+01  0.006774493  0.004910533 -65.05 0.0007023835    1.686    0.407
       103  -7.9470    202.9789    194.9029   3.1511591263e+01  -4.1868067560e+01   0.01057012  0.007589533  19.43  0.001110213    1.692    0.409
       104  -7.9349     30.0166    195.3221   3.4171011059e+01  -4.2932105729e+01  0.009081955  0.007994795 -21.42 0.0004583626    1.105    0.095
       105  -7.1855    195.4625    194.5041   3.1621683851e+01  -4.1920049484e+01  0.006477936  0.006213884  -0.04 0.0002272462    1.032    0.031
       106  -8.5716    232.0110    191.2625   3.1043803935e+01  -4.1722088722e+01   0.01838966  0.009460542  40.41  0.001654033    2.223    0.550
       107  -7.8996    209.7317    193.0645   3.1394126410e+01  -4.1844971969e+01   0.01089884  0.006768912  32.35 0.0009578115    1.941    0.485
       108  -8.7328    224.6385    190.4846   3.1147812690e+01  -4.1777658402e+01   0.01808244    0.0107742  45.68  0.001814162    1.735    0.424
       109  -7.3942    214.5036    190.4602   3.1300032988e+01  -4.1842644938e+01  0.006558383  0.006128127   7.86  4.82323e-05    1.083    0.077
       110  -7.2741    205.4937    189.4923   3.1427565576e+01  -4.1910463819e+01  0.006563155  0.006143292   8.95 0.0008093233    1.081    0.075
       111  -7.6556    198.5059    189.4792   3.1532955977e+01  -4.1955007937e+01  0.006612038   0.00608829  12.07 0.0008079184    1.111    0.100
       112  -7.5000    210.4510    187.4694   3.1335542328e+01  -4.1900714850e+01  0.006443621  0.006222118  -7.39 0.0001765932    1.014    0.014
       113  -8.8136    231.5061    184.6205   3.0994420087e+01  -4.1796754520e+01    0.0210878   0.01295267   4.71  0.001854362    2.479    0.597
       114  -8.5512    235.9185    178.8131   3.0878268743e+01  -4.1830829524e+01   0.01787745  0.008142385  47.95  0.001571734    2.238    0.553
       115  -7.6166    220.5049    185.4678   3.1167011925e+01  -4.1858098002e+01  0.006471215   0.00622292  -9.13 0.0004862196    1.016    0.016
       116  -7.2515    215.6370    185.6940   3.1242224455e+01  -4.1886764757e+01  0.006916188  0.004919318  17.90 0.0007038376    1.738    0.425
       117  -8.2181    226.3161    177.5795   3.1011909794e+01  -4.1905762423e+01   0.01504583  0.007214182  40.41  0.001284981    2.449    0.592
       118  -8.2038    104.9470    175.8483   3.2846330409e+01  -4.2688958144e+01  0.009991554  0.008332587  17.60 0.0003888055    1.300    0.231
       119  -8.8297    231.3964    172.7392   3.0893860032e+01  -4.1925168115e+01   0.02374729   0.01281362  35.41  0.002129433    2.318    0.569
       120  -8.8531    237.8790    167.4378   3.0750698218e+01  -4.1940361742e+01    0.0185812   0.01290024  30.25  0.001961452    1.668    0.401
       121  -7.2959    227.5129    169.4973   3.0924316459e+01  -4.1984971812e+01  0.006508011  0.006196647   2.47 0.0008100936    1.047    0.045
       122  -8.4571    223.8312    165.7552   3.0947476736e+01  -4.2048852823e+01   0.01308461  0.006490799  45.75  0.001182767    2.110    0.526
       123  -7.3726    229.3963    163.8095   3.0846870337e+01  -4.2033974852e+01  0.009435076  0.005773751  46.68 0.0009473891    1.675    0.403
       124  -7.8222    234.3814    162.7203   3.0762452814e+01  -4.2013555634e+01  0.009299058  0.005804872  47.47 0.0009005229    1.634    0.388
       125  -8.0543    239.6660    161.7971   3.0675036014e+01  -4.1989360834e+01   0.01033402  0.007953291  37.07 0.0009311101    1.375    0.273
       126  -8.9392    238.2937    157.0036   3.0654092673e+01  -4.2049650459e+01   0.01201673  0.009023199   5.94 0.0008573641    1.589    0.371
       127 -10.0385    235.9301    153.7956   3.0661795099e+01  -4.2099337771e+01   0.01928703   0.01096201  26.95  0.001682144    2.555    0.609
       128  -8.5246    226.8857    155.3886   3.0811818745e+01  -4.2140593035e+01   0.00926055  0.006132021 -13.67 0.0008117466    1.717    0.418
       129 -10.1957    247.9947    130.0569   3.0273103434e+01  -4.2275380498e+01   0.03935451    0.0161392  66.32  0.003003491    3.220    0.689
       130  -8.3102    235.4750    136.9738   3.0522176886e+01  -4.2282660468e+01  0.009862518  0.006478862  59.65  0.001029006    1.584    0.369
       131 -10.3219    233.9733    145.5531   3.0619601283e+01  -4.2200401738e+01   0.02349498  0.009337652  46.70  0.001914727    2.633    0.620
       132  -8.8736    230.7091    141.0516   3.0629610519e+01  -4.2269794119e+01  0.009275818   0.00832202  50.30 0.0006422194    1.139    0.122
       133  -7.5925    217.9957    139.0000   3.0803810148e+01  -4.2373900944e+01    0.0111234  0.003612393 -29.87 0.0008087656    2.986    0.665
       134  -9.7426     16.5200    134.6946   3.3882169744e+01  -4.3679242222e+01   0.01186222   0.01089661 -20.16  0.000273275    1.056    0.053
       135  -9.6655    231.2306    130.9722   3.0533771288e+01  -4.2374495641e+01   0.02268141  0.009776294  46.75  0.001930342    2.413    0.586
       136  -7.5657    224.6733    133.6915   3.0656584102e+01  -4.2387778812e+01  0.006774588  0.004938222  19.41 0.0002066668    1.656    0.396
       137  -9.3860    239.7150    124.6378   3.0350263443e+01  -4.2387259694e+01   0.02373462   0.01084047  51.35  0.002118612    2.172    0.540
       138  -8.4982    240.0678    117.6862   3.0283864932e+01  -4.2459356177e+01   0.01354895  0.009801334  69.23  0.001135528    1.551    0.355
       139  -8.7066    224.6747    121.4200   3.0549277215e+01  -4.2519376235e+01   0.01677749   0.01080074  77.06  0.001653715    2.019    0.505
       140  -9.6135    231.4156    115.1418   3.0392195140e+01  -4.2542891573e+01   0.02942855   0.01247466  65.02  0.002354091    2.886    0.653
       141  -9.1500    241.5138    105.4943   3.0154549213e+01  -4.2580302625e+01   0.01483909  0.009264983  40.58  0.001256827    1.733    0.423
       142  -9.1987    249.7689    107.2816   3.0045791559e+01  -4.2507233702e+01      0.01555  0.009197784  57.59  0.001327596    1.735    0.424
       143  -9.9535    245.5143    166.1832   3.0625263868e+01  -4.1904527561e+01   0.03026957   0.01514736  51.08  0.002825997    1.994    0.498
       144  -9.1356    240.6357    109.1960   3.0200495855e+01  -4.2546462074e+01   0.01295832   0.01001996  49.31 0.0009209721    1.315    0.239
       145  -9.2338    242.3998     98.0843   3.0075605624e+01  -4.2653689983e+01   0.01656792   0.00818659  62.24  0.001487102    2.220    0.549
       146  -7.7313    234.4949     95.4949   3.0172257194e+01  -4.2733031519e+01  0.006470274   0.00623477  -9.15 0.0008105977    1.016    0.016
       147  -8.8406    248.9959     96.6849   2.9963582282e+01  -4.2625430887e+01   0.01450584  0.009185412  68.61  0.001460077    1.834    0.455
       148  -8.2943    249.4044     86.7655   2.9869241699e+01  -4.2728580937e+01  0.009648113  0.005723225  45.61 0.0009517414    1.746    0.427
       149  -7.4694    120.0204     82.2308   3.1812962737e+01  -4.3611433448e+01  0.008140481  0.005287813 -27.93 0.0001973082    1.498    0.333
       150  -7.6225    250.3152     76.3270   2.9762358265e+01  -4.2833873016e+01  0.006802599  0.004930331  20.96 0.0007044129    1.672    0.402
       151  -8.2494    241.4979     70.5102   2.9843842813e+01  -4.2953892614e+01   0.00646518  0.006236746 -11.77 -6.992245e-05    1.012    0.012
       152  -8.7469    248.7866     50.1989   2.9550985560e+01  -4.3122151141e+01   0.01117493  0.006466997 -63.80 0.0009425489    2.754    0.637
       153  -8.2508    143.8231    249.0295   3.2860153759e+01  -4.1651588748e+01   0.01141685  0.006890346  33.27  0.001077095    1.994    0.498
       154 -10.6566    244.6485     23.1176   2.9368688211e+01  -4.3437440430e+01   0.01644879    0.0150517 -63.67  0.002049633    1.173    0.148
       155  -8.5873    250.4633     35.0449   2.9388570257e+01  -4.3272141699e+01  0.009878008  0.006416862  57.16  0.001027706    1.583    0.368
       156  -7.6498    126.6428    248.7036   3.3118610982e+01  -4.1760894467e+01  0.006870856  0.004897844  18.75 0.0007033676    1.700    0.412
       157  -9.6957    249.6249     27.7327   2.9334951938e+01  -4.3355373345e+01   0.01937578  0.009792294  45.36  0.001780988    2.080    0.519
       158  -7.9118    225.0000     23.0507   2.9667824436e+01  -4.3568261092e+01   0.01066692  0.003722493  58.22 0.0008041497    2.954    0.662
       159  -7.7309    186.8779    246.0889   3.2185161664e+01  -4.1415932100e+01  0.009394095  0.007352468  34.39  0.000766692    1.360    0.265
       160  -7.6663    170.9963    246.4988   3.2427941761e+01  -4.1510635003e+01  0.009043563  0.005593351   4.98 0.0008076214    2.357    0.576
       161  -8.4046    165.2100    245.9847   3.2511080450e+01  -4.1552223408e+01    0.0122238  0.009452102 -27.27  0.001396956    1.254    0.202
       162  -8.3668    156.7608    245.2796   3.2633058587e+01  -4.1612351011e+01   0.01576465  0.009221802  34.94  0.001494481    2.042    0.510
       163  -7.5677    206.2893    245.3521   3.1887468894e+01  -4.1302063428e+01  0.006845298  0.004830442  26.14 0.0007026109    1.671    0.402
       164  -8.5320    176.7223    243.8949   3.2319895637e+01  -4.1503196805e+01   0.02064159  0.009423901  37.62  0.001648585    2.883    0.653
       165  -9.3143      2.5987    248.8938   3.5031418401e+01  -4.2504582269e+01   0.01411079   0.01028644 -24.02  0.001566513    1.341    0.254
       166  -7.7937    192.9990    248.5020   3.2113229833e+01  -4.1351450081e+01    0.0090709  0.005603428   4.48 0.0008080245    2.373    0.579
       167  -8.7800    233.8587     20.1989   2.9506616173e+01  -4.3540015949e+01   0.01016877  0.008808643 -60.03  0.001218579    1.254    0.203
       168  -7.5259    106.4956     18.0283   3.1460216404e+01  -4.4390876984e+01  0.009329142  0.006426645  57.64 0.0003886532    1.489    0.328
       169  -8.4270    232.8328     15.7497   2.9481836460e+01  -4.3594112895e+01   0.01273212  0.008701356 -82.62  0.001242293    2.159    0.537
       170  -8.1060    194.6517    243.3938   3.2045771154e+01  -4.1396409581e+01   0.01273183  0.008069797  55.87  0.001320619    1.597    0.374
       171  -7.6414    210.4046    241.8886   3.1796785174e+01  -4.1313579019e+01  0.009680834  0.005585354  45.46 0.0009399839    1.799    0.444
