#   1 NUMBER                 Running object number                                     
#   2 MAG_AUTO               Kron-like elliptical aperture magnitude                    [mag]
#   3 X_IMAGE                Object position along x                                    [pixel]
#   4 Y_IMAGE                Object position along y                                    [pixel]
#   5 X_WORLD                Barycenter position along world x axis                     [deg]
#   6 Y_WORLD                Barycenter position along world y axis                     [deg]
#   7 A_WORLD                Profile RMS along major axis (world units)                 [deg]
#   8 B_WORLD                Profile RMS along minor axis (world units)                 [deg]
#   9 THETA_WORLD            Position angle (CCW/world-x)                               [deg]
#  10 FWHM_WORLD             FWHM assuming a gaussian core                              [deg]
#  11 ELONGATION             A_IMAGE/B_IMAGE                                           
#  12 ELLIPTICITY            1 - B_IMAGE/A_IMAGE                                       
         1 -13.3476    247.8480    101.4136   7.6272006838e+01   1.1089181633e+01     2.625341    0.8745478 -22.85  0.008548848    4.334    0.769
         2 -13.0272    195.0307     31.5368   6.5051189153e+01   3.1864691556e+01     1.024985    0.8175447  19.51  0.005464096    1.622    0.384
         3 -13.8517    208.6719     14.7950   5.9105634108e+01   3.0407101394e+01       1.3831    0.9919735  33.93  0.007416005    1.888    0.470
         4 -12.0619      2.1715      8.9312   1.3126067180e+02   7.7585836769e+01     1.286006    0.1787194 -69.14  0.003564356    6.530    0.847
         5 -10.2005    189.9228     15.6745   6.0975400639e+01   3.4964686453e+01    0.2011374    0.1677423 -83.96 0.0009701117    1.110    0.099
         6 -10.8972    184.7747    250.3911   1.1422872221e+02   7.4155405378e-01     0.378384    0.1048388  34.29  0.001729161    2.666    0.625
         7 -11.5998    149.8727    247.8568   1.2057642059e+02   5.5695521343e+00    0.3884993    0.2863423 -53.13  0.002718406    1.990    0.497
         8 -10.8764    121.3274    242.7848   1.2578194048e+02   1.0083771589e+01    0.6626564    0.2533031 -63.91  0.002931722    4.666    0.786
         9 -11.7955    125.6320    240.3874   1.2465090948e+02   9.8623887012e+00    0.3967057    0.3380481  17.30  0.002108409    1.216    0.178
        10 -11.0448    115.3300    250.4128   1.2773306092e+02   9.7522389987e+00    0.4977742    0.2648465  27.19 0.0009251685    1.549    0.354
        11 -11.4340    109.7564    247.6980   1.2861744399e+02   1.0873171308e+01    0.4123448    0.4060277  17.68  0.002988379    1.355    0.262
        12 -11.4428    103.3587    239.6960   1.2922143006e+02   1.2936354032e+01    0.7293114    0.3431973 -39.02  0.003455354    3.759    0.734
        13 -11.2681     98.8059    232.2191   1.2951008897e+02   1.4748076600e+01     0.403089    0.2721817 -85.77  0.002063356    2.065    0.516
        14 -10.5318     84.7030    241.7800   1.3329931797e+02   1.4988616538e+01    0.2840496      0.24307  17.80  0.001799708    1.356    0.263
        15 -11.1860     87.5624    248.2473   1.3319522843e+02   1.3602509127e+01    0.4709162    0.2613518  39.96  0.001434957    1.279    0.218
        16 -10.5041     81.5962    246.7059   1.3430328295e+02   1.4578847407e+01    0.3701257     0.219855  78.05  0.002250868    2.232    0.552
        17 -11.6661     90.9328    240.1224   1.3186570946e+02   1.4473399287e+01    0.7034442    0.3680462  78.53  0.003441714    3.348    0.701
        18 -11.0918     84.8458    234.2923   1.3268648318e+02   1.6211585841e+01    0.3836201      0.26371 -88.34  0.001737466    1.859    0.462
        19  -9.9044     84.8133    229.7965   1.3232856341e+02   1.6983844033e+01    0.1957604    0.1606378  44.75 0.0009098199    1.091    0.084
        20 -10.2637    102.9352    247.3352   1.2997906243e+02   1.1806625636e+01    0.3440929    0.1662828  45.35  0.001865708    1.673    0.402
        21 -10.7723     98.7591    246.8912   1.3079714675e+02   1.2407923090e+01    0.4855055    0.2394121  61.81  0.002450613    2.868    0.651
        22 -10.7579     74.1917    243.2451   1.3558799935e+02   1.6035909494e+01    0.4807174    0.2595623 -49.74  0.002789747    2.717    0.632
        23  -8.8308     69.4359    247.0000   1.3680751160e+02   1.5988329212e+01    0.2625737   0.04885955  31.39 0.0009403265    3.980    0.749
        24 -11.5076     60.0808    245.8411   1.3864138611e+02   1.7259416419e+01    0.4251539    0.3452673  41.90  0.001777458    1.164    0.141
        25 -10.6864     67.6136    243.8443   1.3698365714e+02   1.6718642191e+01    0.3555615    0.1867246  33.92  0.002144749    1.439    0.305
        26 -12.2149     63.2011    221.4515   1.3645443672e+02   2.1165734314e+01     1.356937    0.5222008 -79.20  0.006204418    3.431    0.709
        27 -12.9363     14.8907    138.3527   1.4350124139e+02   4.4526223566e+01     1.134498    0.3031295  26.88  0.004413091    3.205    0.688
        28 -13.5420     40.4506    244.1430   1.4251753696e+02   1.9689398985e+01     1.140627    0.7318698  34.00  0.007913137    1.300    0.231
        29 -13.2886     36.4975    228.3427   1.4264641960e+02   2.2875704511e+01     1.034637    0.3201638  38.80  0.001822005    2.087    0.521
        30 -14.4547     43.1914    218.6885   1.4072978176e+02   2.3966280088e+01     1.489781     1.247074   5.13   0.01033321    1.623    0.384
        31 -10.1440    164.7273    242.0365   1.1698239318e+02   4.3564961766e+00    0.1601712    0.1235089  20.29 0.0004637902    1.077    0.071
        32 -11.4481    135.1376    236.8796   1.2231030533e+02   9.0865092831e+00    0.4074982    0.2215375  19.53  0.001835163    1.911    0.477
        33 -10.9626    116.5741    238.4649   1.2633638667e+02   1.1373305832e+01    0.3604278    0.2374676 -28.12  0.002000151    2.252    0.556
        34 -12.4073    133.7132    248.7280   1.2387513597e+02   7.5868522716e+00     1.317397    0.2236798  34.69  0.004633736    3.957    0.747
        35  -9.6486     61.5842    238.6978   1.3791744627e+02   1.8285711598e+01      0.25147    0.1558771  25.07  0.001561881    1.585    0.369
        36  -9.6506    172.9790    235.8040   1.1458477903e+02   4.0538681771e+00    0.1621079    0.1198183  22.15 0.0002232482    1.021    0.021
        37 -11.2328    122.4455    233.5070   1.2459091069e+02   1.1341557819e+01    0.3456134    0.2889116  15.94  0.001726062    1.230    0.187
        38 -11.4933    244.9823    241.1615   1.0259964993e+02  -5.3943701537e+00    0.2314253    0.1264191  -1.54  0.001566822    1.583    0.368
        39 -10.6129    127.3989    234.0002   1.2360139580e+02   1.0583171198e+01    0.2909992    0.1416677  24.51   0.00113929    1.952    0.488
        40  -9.3472     71.6085    236.3295   1.3565757154e+02   1.7504791810e+01    0.1892611   0.09954557  53.75  0.001090919    1.659    0.397
        41  -9.9303     55.1748    235.6426   1.3908060289e+02   1.9546137443e+01    0.3239533    0.1568363  57.47   0.00184908    1.825    0.452
        42  -9.7820    110.4984    233.9670   1.2717232005e+02   1.2898100933e+01    0.1903712    0.1210348 -80.13 0.0009377041    2.449    0.592
        43 -10.5588    113.0189    230.3212   1.2626612589e+02   1.3142321573e+01    0.3158053    0.1684801  38.46 0.0007646008    1.414    0.293
        44 -11.5424    105.8101    228.8035   1.2767077009e+02   1.4375828267e+01    0.5052222    0.2461482  37.98  0.002107496    1.531    0.347
        45 -10.6862     62.9688    233.0212   1.3727442529e+02   1.9106401012e+01    0.1808458    0.1371594  44.25  0.001259248    1.040    0.038
        46 -10.8724    156.7633    231.6375   1.1725927002e+02   6.8417940924e+00    0.2177262    0.1780201  13.17 0.0003588343    1.147    0.128
        47  -8.9951     78.1461    233.0045   1.3402330065e+02   1.7272908819e+01     0.190715    0.1541416  78.03  0.001346269    1.395    0.283
        48 -10.9476     96.9147    239.7747   1.3058077850e+02   1.3762439759e+01     0.276019     0.259389 -52.30  0.001765797    1.433    0.302
        49 -10.8009    142.2489    229.6881   1.1999692065e+02   9.1606323250e+00    0.3368729    0.2133517 -25.33  0.001938407    2.136    0.532
        50  -8.7056     57.4748    230.9369   1.3831896811e+02   2.0113108904e+01    0.1422468    0.1090071  89.14 0.0007728508    1.474    0.322
        51  -8.7682    180.5381    229.4725   1.1226663853e+02   3.8459253636e+00    0.1207635   0.08993635  20.37 1.910268e-05    1.023    0.023
        52  -9.9907     77.1782    220.8529   1.3328189226e+02   1.9550065310e+01    0.2643705    0.1541048  52.50 0.0004446588    1.494    0.331
        53 -10.1754     79.7831    227.7378   1.3325958863e+02   1.7983781406e+01    0.3244334    0.2355617 -15.26  0.001268728    2.222    0.550
        54  -9.7224     78.9700    224.5534   1.3318299805e+02   1.8652432719e+01    0.2345208    0.1954361  11.27 0.0007582182    1.456    0.313
        55  -9.3327    196.8188    226.1800   1.0870959936e+02   2.0612196613e+00    0.1771983    0.1329544  62.19 -9.889938e-05    3.111    0.679
        56 -11.0969     99.3614    223.5274   1.2856746543e+02   1.6148358595e+01    0.3876174    0.2373368  44.32  0.001039645    1.319    0.242
        57 -10.2135     92.4747    225.9519   1.3031807567e+02   1.6651715738e+01    0.2694927     0.134293  40.78  0.000930718    1.512    0.339
        58  -8.7166    147.2559    225.3397   1.1841189420e+02   9.0979975912e+00    0.1177742   0.08382903   2.63 0.0003159292    1.578    0.366
        59  -9.8755    132.3132    224.3477   1.2145364041e+02   1.1392140865e+01    0.2029556    0.1455154  22.58 0.0009026786    1.228    0.185
        60 -10.3988    129.5776    221.7830   1.2173645854e+02   1.2194516074e+01    0.2464659    0.1873012  79.91  0.001478236    1.997    0.499
        61 -10.0297    117.2253    224.3075   1.2471547846e+02   1.3542038083e+01     0.204162    0.1716633  41.69  0.000328324    1.134    0.118
        62 -11.3231    142.4409    221.5764   1.1894719277e+02   1.0365393133e+01    0.3871865    0.2006467  33.61  0.001062899    1.499    0.333
        63  -9.9882    110.8915    221.0552   1.2575533620e+02   1.4979376267e+01    0.2862191    0.1591983 -53.43  0.001569304    2.258    0.557
        64 -11.0097     72.9641    209.8705   1.3333364566e+02   2.2156241146e+01    0.4539655    0.2561899  17.78  0.001762232    2.198    0.545
        65 -10.2194     70.6700    218.5379   1.3456403499e+02   2.0796593543e+01     0.405822     0.278122  89.57  0.002294564    1.692    0.409
        66  -9.2553     68.0009    214.7063   1.3487489867e+02   2.1850270130e+01    0.1771072    0.1395899  51.40 0.0007200898    1.059    0.055
        67 -10.7843    245.8849    220.0812   9.9282514578e+01  -3.4022237096e+00    0.2897999    0.1123681 -20.13  0.001466907    2.807    0.644
        68  -9.0638    173.0085    218.9982   1.1226818639e+02   6.3119686643e+00    0.1483859    0.1159742  18.39 0.0003408471    1.030    0.029
        69  -9.8287    104.9848    218.7278   1.2682581462e+02   1.6210092621e+01    0.1855632    0.1813377  -9.96  0.000244937    1.282    0.220
        70  -9.7340     99.5135    217.5152   1.2793367847e+02   1.7185253589e+01    0.2028871    0.1584653  -4.27 0.0008185653    1.704    0.413
        71  -8.5331     89.4576    218.4853   1.3030515918e+02   1.8378728825e+01     0.129099   0.09719031  44.80 0.0002158121    1.070    0.065
        72 -10.4383    161.0724    223.2350   1.1527855126e+02   7.4252055472e+00    0.3746522    0.2102927   8.50  0.001839244    2.381    0.580
        73  -8.8954     94.3010    217.6437   1.2912730440e+02   1.7877365779e+01    0.1319251   0.07863577  56.40 0.0003470812    1.709    0.415
        74 -10.5788    138.2958    214.0102   1.1886071040e+02   1.2177959791e+01    0.4421813    0.2462517  25.50  0.001363772    1.625    0.385
        75  -9.7939     88.1251    212.8471   1.3007629110e+02   1.9595614333e+01    0.2159662    0.1783313  86.76 0.0005691526    1.402    0.287
        76  -8.2085     78.6868    214.7071   1.3242205710e+02   2.0496096070e+01    0.1136884   0.09314976   1.77 0.0007005672    1.594    0.373
        77  -9.7440    102.2655    212.2346   1.2675132586e+02   1.7752546366e+01    0.3678786    0.1377675  51.64  0.001411828    3.213    0.689
        78 -10.1539    107.2420    209.2929   1.2527603846e+02   1.7577167867e+01    0.2824229     0.196986 -23.01  0.001416016    2.109    0.526
        79 -10.5412    112.5238    208.3528   1.2394564161e+02   1.6978375048e+01    0.2440306    0.1897522  40.68 0.0003166025    1.074    0.068
        80  -8.9372    134.5018    208.0142   1.1890248031e+02   1.3746821950e+01    0.1700564    0.1039506 -21.60 0.0007425737    2.496    0.599
        81 -10.6230     92.1614    204.7834   1.2831751090e+02   2.0571185074e+01    0.4988109    0.1800011  33.35  0.001640052    2.242    0.554
        82 -10.4310     93.5234    201.4928   1.2763822354e+02   2.1017420531e+01    0.8220274    0.4496641  75.58   0.00356799    3.012    0.668
        83 -11.9157    134.1075    232.8184   1.2206439329e+02   9.8326666503e+00    0.4703107    0.3179654 -28.57  0.002240662    1.965    0.491
        84  -9.2728     32.8313    206.9251   1.4245925922e+02   2.7352925219e+01    0.1549052    0.1438908  62.15 0.0003774893    1.258    0.205
        85 -10.6151    250.2090    200.8521   9.5472896630e+01  -1.8572870911e+00     0.334085     0.121754 -19.02  0.001437148    3.529    0.717
        86  -9.2350    125.9257    205.3560   1.2048922147e+02   1.5511003348e+01    0.1938216    0.1418385  31.48 0.0005422124    1.120    0.107
        87  -9.1288     74.8243    203.5849   1.3234138647e+02   2.3151499669e+01    0.3088726    0.1803678   9.59 0.0007312222    2.711    0.631
        88  -8.9414    132.9974    202.6935   1.1851660365e+02   1.4894709367e+01    0.1858073    0.1454016  33.25 0.0003819795    1.046    0.044
        89  -9.7219    103.0124    202.8692   1.2552653080e+02   1.9387688660e+01    0.3486403    0.1736818  40.51  0.001572096    1.615    0.381
        90  -9.5333     36.9104    202.1082   1.4126536193e+02   2.7911054948e+01    0.2799662    0.2028942 -75.94  0.001279231    1.531    0.347
        91 -11.2355     32.7694    201.7420   1.4221634778e+02   2.8410915969e+01      0.20664    0.1633837  54.63 0.0002735145    1.032    0.031
        92 -10.1639     84.2369    201.7158   1.2989814218e+02   2.2266418329e+01    0.3747438     0.228641 -35.82  0.001458861    2.545    0.607
        93  -9.1317     85.7276    195.6890   1.2890748350e+02   2.3269939190e+01    0.2000272    0.1485355  39.28 0.0002037461    1.116    0.104
        94  -8.7681    127.8253    199.8093   1.1930640358e+02   1.6208836020e+01    0.1690638    0.1380764  49.84  0.000406016    1.251    0.200
        95  -9.5430    115.1129    200.2032   1.2233370375e+02   1.8089802879e+01    0.1883023    0.1561107  25.29  0.000271743    1.133    0.117
        96  -9.1778     43.2356    199.1463   1.3959163520e+02   2.7848545958e+01    0.2396381    0.1212413 -49.81   0.00115986    2.821    0.646
        97  -9.2936    119.9645    199.4742   1.2109560899e+02   1.7484684794e+01    0.1842995   0.09118793  50.85 -2.621131e-06    2.216    0.549
        98 -11.4671     62.7360    194.8584   1.3451915713e+02   2.6474985453e+01    0.3114664    0.2527472 -41.34  0.001846602    1.639    0.390
        99 -10.3597     55.9731    198.5014   1.3647154386e+02   2.6534841745e+01    0.6733491   0.09527638  38.04  0.002315178    3.580    0.721
       100 -10.1172     57.6876    193.8340   1.3568596656e+02   2.7306942775e+01    0.3622517     0.295847 -48.23  0.002264023    1.579    0.367
       101  -9.2039    133.8793    197.8233   1.1762889807e+02   1.5617169512e+01    0.1762883    0.1425024  51.06 0.0004181771    1.313    0.238
       102  -9.5160     97.9690    196.3961   1.2598278989e+02   2.1379176037e+01    0.4343329    0.1955791  45.71  0.001398118    1.949    0.487
       103  -9.4420    102.7138    195.9594   1.2477447076e+02   2.0765953618e+01    0.1976508    0.1599516  55.39  0.000640402    1.205    0.170
       104 -12.7985     12.0575    212.9936   1.4730271485e+02   2.8113408008e+01      1.04879    0.4115179  39.42  0.005071573    1.789    0.441
       105  -9.9280     38.5709    193.8287   1.4039309390e+02   2.9464158869e+01    0.4726897    0.1845006 -75.88  0.002201912    2.663    0.624
       106  -9.8158     40.7766    188.4153   1.3950788775e+02   3.0391761576e+01    0.2874395     0.176429 -71.55  0.001175238    1.743    0.426
       107  -9.2157    168.9365    196.3287   1.0964364868e+02   1.0300427576e+01     0.183307    0.1371908  25.23 0.0002522448    1.102    0.092
       108 -11.2099    249.3103    194.0872   9.4462221965e+01  -9.8895846894e-01    0.2997791    0.1866362   4.50  0.001945646    1.373    0.272
       109  -9.8179    112.9098    193.3118   1.2196070421e+02   1.9736962421e+01      0.39666    0.2012874 -55.64  0.001326825    2.325    0.570
       110 -13.8361      6.0531    245.2935   1.4923846130e+02   2.2797343505e+01     1.229505    0.7755954  66.58  0.005864232    1.300    0.231
       111  -8.8396    159.5667    194.4591   1.1135237372e+02   1.2094837252e+01    0.1344215    0.1103179  20.70 7.696544e-05    1.022    0.022
       112  -9.9402    119.6161    193.6892   1.2039683177e+02   1.8621835119e+01    0.2572132    0.2250869 -11.03  0.001304322    1.331    0.249
       113  -8.9947     25.6898    192.3510   1.4343609141e+02   3.1066860378e+01    0.2275918    0.1417291  54.36  0.000852665    1.268    0.211
       114  -9.7747    191.4788    191.4969   1.0422697796e+02   7.5007404346e+00    0.2230987    0.1821992  10.87 0.0006797176    1.028    0.027
       115  -8.9319     84.7581    192.2438   1.2877543822e+02   2.4111039621e+01    0.1643494    0.1460518  15.54 0.0003274977    1.278    0.218
       116  -9.4983     20.2618    191.5853   1.4470479893e+02   3.1732380617e+01    0.2454478    0.1269341  56.64  0.001372578    1.545    0.353
       117  -9.9902     32.8981    189.5780   1.4153641782e+02   3.0956974906e+01    0.3530228    0.2649804  36.41  0.002250032    1.240    0.194
       118  -9.2997    135.1442    189.9708   1.1617566871e+02   1.6835930836e+01    0.1974103    0.1627792  46.93 0.0003525519    1.223    0.182
       119  -9.3214     72.7817    192.9668   1.3184623028e+02   2.5587713587e+01    0.1751145    0.1634688  24.14 0.0003572169    1.236    0.191
       120  -9.5000     15.1743    190.1098   1.4586175997e+02   3.2495215156e+01    0.1607714    0.1500506  85.39 0.0007207427    1.290    0.225
       121  -9.8729     76.9059    188.7738   1.3038466342e+02   2.5920002955e+01    0.2271118    0.1761948  38.93  0.000683235    1.114    0.102
       122 -11.6794     68.4347    187.3428   1.3240185490e+02   2.7349858109e+01     0.281554    0.2547574 -23.35 0.0007126643    1.434    0.303
       123  -9.3074    111.4318    187.6404   1.2155550294e+02   2.1080357301e+01    0.2116594    0.1396324 -65.89 0.0006291816    1.878    0.467
       124  -9.8530     30.1059    184.0861   1.4192439421e+02   3.2429518805e+01    0.2612748    0.1969233 -73.03  0.001397896    1.448    0.310
       125  -9.6312    140.1492    183.1821   1.1393347897e+02   1.7263122292e+01    0.2001913    0.1676345  16.71  0.000277063    1.139    0.122
       126  -8.9821     37.5521    183.8875   1.4002764203e+02   3.1722784663e+01    0.2253443    0.1213734  36.21  0.001192407    1.564    0.360
       127  -9.9118     24.4162    184.2325   1.4335681889e+02   3.2938708183e+01    0.2233795    0.1490841  35.64 0.0006562186    1.349    0.259
       128 -13.0850    248.3627    173.5421   9.0942810546e+01   1.5556136183e+00     1.134877    0.4209863 -32.96  0.005511985    2.429    0.588
       129 -11.5951    245.0276    161.9904   8.9281562735e+01   3.4646170107e+00     0.340636    0.2591694 -10.34  0.001418085    1.051    0.048
       130 -12.4074    246.9282    157.9991   8.8218639963e+01   3.7001070489e+00     1.043582    0.8437405 -75.21  0.005928275    2.884    0.653
       131  -8.4664     65.6783    182.2539   1.3261977542e+02   2.8814148979e+01    0.1398674   0.08226873  53.79 0.0001993847    1.540    0.351
       132 -10.0384     19.9627    179.1637   1.4423300491e+02   3.4460408161e+01    0.1975922    0.1607094  61.62 0.0002805957    1.032    0.031
       133  -9.4691    115.3136    177.3247   1.1909206585e+02   2.2544932828e+01    0.3345316    0.2183653 -66.82  0.001640618    1.929    0.481
       134  -8.9433     47.9238    179.7865   1.3705337583e+02   3.1509939385e+01    0.1696006   0.09550879  29.66 0.0008560327    1.660    0.398
       135 -10.6350     19.3889    172.8338   1.4408164042e+02   3.5933605848e+01    0.4718612    0.2012112  51.78  0.001933886    1.907    0.476
       136 -10.2077     12.2527    167.0935   1.4569358960e+02   3.7832197917e+01    0.2827212    0.1945374  80.95  0.001010124    1.266    0.210
       137 -10.8105     15.6107    165.7856   1.4474452195e+02   3.7866751984e+01    0.3271834    0.1877874  74.35  0.001363965    1.534    0.348
       138 -10.9655     12.9804    161.9967   1.4527969476e+02   3.8956279701e+01    0.3286326    0.1840301  62.27   0.00180053    1.511    0.338
       139 -10.3580     12.2180    178.9357   1.4616818804e+02   3.5166330179e+01    0.2319284    0.2231377 -89.49   0.00110753    1.302    0.232
       140 -11.6130     12.1088    173.3720   1.4598374223e+02   3.6415785855e+01    0.8253393    0.2474148 -55.13  0.003003807    4.756    0.790
       141  -9.2398     92.8132    178.1341   1.2502232990e+02   2.5923160236e+01    0.2000349    0.1626158  52.15 0.0002473123    1.119    0.107
       142  -8.9495    182.2808    176.4610   1.0340401338e+02   1.1293239578e+01    0.1784928    0.1182858  42.81 0.0009318423    1.552    0.356
       143 -11.5836     77.7707    175.1685   1.2864875701e+02   2.8765163439e+01    0.2882473    0.2581896  28.16 0.0006602834    1.181    0.153
       144  -9.1728     68.6380    175.7990   1.3117465311e+02   2.9867380493e+01    0.2300057    0.1354084 -82.57 0.0003842235    1.939    0.484
       145 -11.4081     64.6860    173.4803   1.3199737972e+02   3.0909421791e+01    0.4599227    0.2689804 -46.38  0.001135957    2.199    0.545
       146  -9.9700     68.8441    166.8854   1.3012575228e+02   3.1881943727e+01    0.2534526     0.197705  56.12 0.0005578286    1.151    0.131
       147 -10.8424    107.8064    172.8724   1.2035256668e+02   2.4702887214e+01     0.242778    0.2194525  45.30 0.0002533952    1.044    0.042
       148 -10.6850     28.6999    170.8366   1.4151635841e+02   3.5549599396e+01    0.4406096    0.2985259  56.91  0.001852759    1.234    0.190
       149  -8.5713     95.2886    172.6714   1.2363075606e+02   2.6733909844e+01    0.1456324   0.09868184  62.23 0.0007014351    1.617    0.382
       150  -9.0210     45.9889    172.3368   1.3696792446e+02   3.3422216374e+01    0.1837079    0.1437905  44.61 0.0003543544    1.127    0.112
       151  -8.8262     52.5589    170.9896   1.3506140939e+02   3.2980393543e+01    0.1746092     0.125094 -79.17 0.0001322414    1.431    0.301
       152  -8.4898    150.7389    170.2884   1.0922618564e+02   1.7839674916e+01    0.1288546    0.1090123  64.24  0.000186977    1.491    0.329
       153 -11.1585     44.7582    166.5366   1.3682067422e+02   3.4909990981e+01    0.5619349    0.3642451 -64.52 0.0008066287    1.638    0.390
       154 -12.0465     85.7214    166.6252   1.2539714138e+02   2.9543614429e+01    0.6294138    0.4700476  34.19  0.003356252    1.234    0.190
       155  -9.1905    126.5834    167.7690   1.1468320483e+02   2.2601224544e+01    0.1832603    0.1428858 -71.47 0.0009393944    1.626    0.385
       156  -8.6263     58.4969    167.4979   1.3308209760e+02   3.3075211160e+01    0.1391358    0.1169484  57.28 -0.0001414524    1.027    0.026
       157  -8.6954    171.6535    166.7235   1.0382620082e+02   1.4758716569e+01    0.1444671   0.09970222   9.04 0.0007004797    1.631    0.387
       158  -9.3525     32.9664    164.5569   1.3994251504e+02   3.6603835500e+01    0.2152358    0.1183887 -69.46 0.0005412213    1.825    0.452
       159 -11.6732     24.2058    162.1659   1.4221367929e+02   3.7985606774e+01    0.2432595    0.2314486  56.98 0.0004509263    1.199    0.166
       160 -10.2397     89.8579    160.2166   1.2333106972e+02   3.0383580256e+01    0.2369152     0.210195  49.36 0.0003345567    1.009    0.009
       161  -8.7666     40.6345    161.7487   1.3757584689e+02   3.6490378327e+01    0.1226003    0.1012883 -23.01  0.000695612    1.623    0.384
       162  -8.9618     73.5410    159.5221   1.2788865273e+02   3.2967721647e+01    0.1438917    0.1253577  56.21 4.512105e-05    1.025    0.025
       163  -8.8626     52.4774    158.4550   1.3386755701e+02   3.5955508963e+01    0.1372079    0.1207504  60.72 0.0001531974    1.019    0.019
       164 -11.0669     31.9501    155.7614   1.3958906788e+02   3.8805937645e+01    0.4039279    0.2519106 -51.01  0.001379468    1.904    0.475
       165 -12.3999     23.9125    154.4142   1.4181522010e+02   3.9864105095e+01    0.6381943    0.4286087  47.48  0.003656314    1.305    0.234
       166  -9.2548    228.4333    155.4689   9.0665534859e+01   6.8440239893e+00    0.2053575     0.106407 -40.46 0.0006352917    2.090    0.521
       167  -9.4847     72.1138    156.3447   1.2788669191e+02   3.3926368276e+01    0.3121083    0.1799898  17.54  0.001336211    2.189    0.543
       168  -9.9622     84.2008    155.3593   1.2422787000e+02   3.2392912345e+01    0.3970424    0.1995619  25.48 0.0009808254    2.197    0.545
       169 -10.7960    169.9219    248.2561   1.1674417762e+02   2.8909427667e+00    0.3243795    0.1753223   8.28  0.001262235    2.314    0.568
       170 -10.6889    249.5349    117.9142   7.9643584634e+01   8.5804507723e+00     0.471288    0.2416221 -23.12  0.001680726    1.802    0.445
       171 -11.8013    248.2388    113.0758   7.8775663209e+01   9.4472547468e+00    0.6257039    0.4279388  11.24  0.003547794    1.732    0.423
       172 -13.1612    248.4540    134.2737   8.3234795539e+01   6.5687633164e+00     1.447198    0.8232137 -18.58  0.007818308    1.647    0.393
       173  -9.7686    113.9497    150.6468   1.1498253507e+02   2.8524183007e+01     0.285497    0.2176717 -62.70 0.0004875382    1.475    0.322
       174 -10.5667     98.4577    150.9835   1.1941154152e+02   3.1139389943e+01    0.3729352    0.3209748  -4.03  0.001968215    1.395    0.283
       175  -9.3956    101.6538    146.3696   1.1768115174e+02   3.1674000681e+01    0.3388255    0.1906223 -31.07  0.001133119    2.871    0.652
       176  -9.4992     86.5143    150.1852   1.2275921149e+02   3.3267349494e+01    0.2437872    0.1474784 -68.80 0.0003978014    1.832    0.454
       177 -10.3463     56.1731    149.7418   1.3181142772e+02   3.7639357998e+01    0.3114946    0.2816801  89.10  0.001820983    1.099    0.090
       178  -9.3566     31.0820    150.5276   1.3944221922e+02   4.0165490356e+01    0.1992265    0.1247718  27.03   0.00104065    1.620    0.383
       179 -12.3581     68.2716    144.3928   1.2740593398e+02   3.7384794065e+01     0.734134    0.4934001  67.59  0.002248571    1.598    0.374
       180 -11.1556     73.3516    139.1983   1.2504140138e+02   3.7959075391e+01    0.4362128    0.3881096   0.30  0.001629933    1.333    0.250
       181  -9.7118     76.9893    147.0246   1.2512006685e+02   3.5485462478e+01    0.2125239     0.193554  56.06            0    1.006    0.006
       182  -9.6520     39.9569    146.7296   1.3643605884e+02   4.0230214026e+01    0.1972405    0.1607506  47.58 0.0005380564    1.136    0.120
       183 -10.5862    236.2072    145.9795   8.7483709049e+01   6.9217592818e+00    0.2605308    0.1762818  33.92 0.0008430071    1.524    0.344
       184 -10.3295    133.1286    140.3518   1.0773042054e+02   2.7178944973e+01     0.385482    0.2782715 -47.89   0.00101735    1.485    0.326
       185 -11.3738     32.7258    140.5389   1.3810502522e+02   4.2499478547e+01    0.3542698    0.2039842  66.21  0.001191579    1.698    0.411
       186 -10.4789     56.1841    138.9001   1.3046208571e+02   4.0357360025e+01    0.2474539    0.2297648  49.99 0.0003561265    1.084    0.077
       187 -11.2281     60.7617    136.9767   1.2872846486e+02   4.0263288271e+01     0.394786    0.2863997  71.38            0    1.418    0.295
       188 -14.6924      3.4689    179.4154   1.4833953386e+02   3.5740395246e+01     6.669929    0.8762929 -85.26   0.01871816    7.342    0.864
       189  -9.9450    110.0510    136.3005   1.1330366992e+02   3.2524877099e+01      0.38175    0.2765422  -6.36  0.001131561    2.022    0.505
       190  -8.4140    122.2393    148.3128   1.1227092048e+02   2.7528253694e+01    0.1423316    0.1151825 -13.11 0.0001628075    1.503    0.335
       191 -11.4806     45.0013    131.2534   1.3314905874e+02   4.3626813239e+01    0.4257099    0.3313005  77.23  0.002317673    1.227    0.185
       192 -12.9581     11.6088    205.7495   1.4719421511e+02   2.9577645138e+01     1.302674    0.6389877   5.61  0.005926811    3.877    0.742
       193 -11.2100     33.0252    131.4422   1.3715079343e+02   4.4789871794e+01    0.3566216    0.2059782 -65.52 0.0009341764    1.650    0.394
       194 -11.3337     30.0052    126.7312   1.3769473050e+02   4.6279250548e+01    0.4018489    0.2208415  12.17  0.001544002    2.239    0.553
       195 -11.4814     66.9569    128.7601   1.2544076524e+02   4.1526156700e+01    0.4038313    0.3336388  79.25  0.001770896    1.219    0.180
       196  -9.7095    115.7666    129.2218   1.1013573611e+02   3.3082469473e+01    0.2552556    0.1826798  -6.98  0.001057254    2.089    0.521
       197  -9.9413     59.0420    128.5083   1.2805824614e+02   4.2660427723e+01    0.2203879     0.139352  31.30  0.001025566    1.569    0.362
       198 -10.9549     23.9598    127.5088   1.3980115704e+02   4.6586163941e+01    0.2715916    0.2013471 -65.57 0.0009082688    1.325    0.246
       199 -13.1579     13.6765    238.7298   1.4763903909e+02   2.3240687691e+01    0.7655575    0.5015938  43.83  0.005660756    1.128    0.113
       200 -12.9220     19.8037    122.1985   1.4076049856e+02   4.8272815022e+01    0.6777496     0.401408  -4.89  0.003248466    2.337    0.572
       201 -13.5493     28.1991    247.0663   1.4504467897e+02   2.0442589027e+01     1.206567    0.7430074  50.26  0.008706861    1.128    0.113
       202  -9.9166     54.7113    120.7947   1.2836510031e+02   4.5218873255e+01    0.2920722    0.2138196   2.72 0.0009942591    1.753    0.430
       203 -11.7383     30.5313    119.6653   1.3678154007e+02   4.8072984742e+01     0.494352      0.27834  39.22  0.002391944    1.710    0.415
       204 -10.4302    209.9276    125.7383   8.7482559110e+01   1.4494524103e+01    0.2741248    0.1988846 -28.71 0.0005389622    1.272    0.214
       205 -11.9837     14.9971    115.8077   1.4191865721e+02   5.0255712602e+01    0.3743011     0.194937 -71.05  0.001807666    1.700    0.412
       206  -9.6497    231.7617    116.5798   8.1871584687e+01   1.1827662462e+01    0.1558793    0.1309081  59.89 0.0005585478    1.527    0.345
       207 -10.4120     68.2555    115.2094   1.2258799458e+02   4.4846901632e+01    0.3942988    0.2222931  15.45  0.001530256    2.422    0.587
       208 -10.8464    168.0670    113.1824   9.2717368429e+01   2.5347623871e+01    0.3494079    0.3081862 -89.93 0.0008149004    1.407    0.289
       209 -11.6831    248.5326    142.4545   8.4896362369e+01   5.4768350650e+00    0.5919896    0.3265666 -19.28  0.002320289    1.679    0.404
       210  -8.9723     44.7586    105.3978   1.2957438836e+02   5.0452520845e+01    0.1821498     0.141499   7.87 0.0003366649    1.511    0.338
       211  -9.4690    203.7574    111.4169   8.5208439758e+01   1.8007172726e+01    0.1988316    0.1282007  35.89 0.0009484414    1.668    0.401
       212  -9.4455     60.0016    104.7288   1.2358066709e+02   4.8758157869e+01    0.1856187    0.1303691  30.83 0.0008735736    1.457    0.314
       213 -10.7915     17.3370     99.2195   1.3954590259e+02   5.4445461934e+01    0.2652214    0.1906979  57.27 0.0001747441    1.392    0.282
       214  -9.2373     21.6731     92.2960   1.3697833188e+02   5.5991852942e+01    0.1430627   0.09235379  59.62 0.0007024004    1.629    0.386
       215 -11.0158    249.5313    151.0185   8.6460898514e+01   4.2154503813e+00    0.4458261    0.2546574 -27.92  0.002566339    1.487    0.328
       216  -8.4470     45.6796     74.7213   1.2294783974e+02   5.8436880400e+01    0.1484351    0.1051885 -29.60 0.0002591069    1.581    0.367
       217 -11.7831    199.4765    246.2716   1.1102364898e+02  -6.2527957176e-01    0.4958261    0.1615867  36.76  0.002432982    2.560    0.609
       218 -10.3402    193.8840    245.1348   1.1188368028e+02   1.9778276550e-01    0.1599568    0.1337023   7.72 0.0003048608    1.300    0.231
       219 -12.9613    135.3804    241.1259   1.2273044748e+02   8.4368008705e+00    0.9396607    0.3886852  38.31  0.004859508    1.814    0.449
