#   1 NUMBER                 Running object number                                     
#   2 MAG_AUTO               Kron-like elliptical aperture magnitude                    [mag]
#   3 X_IMAGE                Object position along x                                    [pixel]
#   4 Y_IMAGE                Object position along y                                    [pixel]
#   5 X_WORLD                Barycenter position along world x axis                     [deg]
#   6 Y_WORLD                Barycenter position along world y axis                     [deg]
#   7 A_WORLD                Profile RMS along major axis (world units)                 [deg]
#   8 B_WORLD                Profile RMS along minor axis (world units)                 [deg]
#   9 THETA_WORLD            Position angle (CCW/world-x)                               [deg]
#  10 FWHM_WORLD             FWHM assuming a gaussian core                              [deg]
#  11 ELONGATION             A_IMAGE/B_IMAGE                                           
#  12 ELLIPTICITY            1 - B_IMAGE/A_IMAGE                                       
         1 -13.6079    207.9755     30.3837   8.6117351243e+00   3.0067733733e+01    0.8652605    0.7186345 -72.16   0.00401614    1.047    0.045
         2 -11.2822    227.2679      9.5713   2.4469151618e+00   2.8328400479e+01     0.222638    0.1776141 -75.34 0.0007598296    1.043    0.041
         3 -12.0655     89.2022    210.9815   7.4089766739e+01   1.8407954178e+01    0.4559445    0.2541678 -74.19  0.001025105    2.097    0.523
         4 -14.0641    246.2558    240.0401   4.5961109178e+01  -1.0842127391e+01     1.682862    0.6637009 -32.95  0.008483867    2.360    0.576
         5 -11.1128    160.8183    200.9838   5.5981306792e+01   8.5638162863e+00    0.4381075    0.2033698 -51.90  0.001770413    2.402    0.584
         6 -11.2362    151.7147    201.9971   5.8201399890e+01   9.9565201111e+00    0.1970413    0.1861372 -37.25 0.0006081141    1.114    0.102
         7  -9.9452    210.9323    198.6890   4.5110801166e+01   4.9193704889e-01    0.1807661     0.159905  10.97 0.0004418076    1.088    0.081
         8  -9.8157     69.5919    197.5306   7.6993814980e+01   2.4349285578e+01    0.2315469    0.1780928 -70.45 0.0006895553    1.268    0.211
         9 -10.0578     69.1007    194.1571   7.6683530573e+01   2.5213589320e+01    0.1866988    0.1419811  67.30 0.0004347477    1.279    0.218
        10 -10.0341    237.5406    188.4909   3.8283328328e+01  -1.9013750620e+00    0.1301798    0.1093327 -17.37 0.0001211131    1.004    0.004
        11 -10.2658     71.0823    186.9362   7.5237675366e+01   2.6661501647e+01    0.1959363    0.1793024  76.95 0.0002943115    1.020    0.020
        12 -11.7632     74.6580    182.1161   7.3657064911e+01   2.7316618077e+01    0.5564196    0.4242478  75.88  0.001701509    1.362    0.266
        13 -15.8432     67.8270    143.7814   6.9278039917e+01   3.7832932777e+01      2.50425     1.766375  64.97   0.01210341    1.673    0.402
        14 -10.5349    175.0061    179.4925   4.8765414224e+01   1.0369959355e+01    0.2901918    0.2126354  37.35  0.001165469    1.357    0.263
        15 -12.7354    172.7797    173.6231   4.8068537309e+01   1.1997115389e+01    0.7286127    0.5219764   2.46  0.001417827    1.873    0.466
        16 -11.5914    180.4591    168.3200   4.5303244107e+01   1.1632805643e+01    0.6844199    0.3684703 -58.84   0.00262427    2.587    0.613
        17 -11.7374    155.5004    178.1645   5.2890755488e+01   1.4301906630e+01    0.2882928    0.2151062  37.70  0.001416529    1.318    0.241
        18  -9.6848      4.5651    175.5630   9.0277509667e+01   3.6744729247e+01     0.122103   0.09853133 -74.67 0.0007995481    1.149    0.130
        19 -12.2617    128.5238    170.3331   5.7851977649e+01   2.1136853340e+01    0.4306621    0.2811867 -52.52  0.001945326    1.551    0.355
        20 -10.4130      9.0518    166.4663   8.8427008255e+01   3.8550079206e+01    0.1960381    0.1381209 -65.10   0.00045335    1.284    0.221
        21 -12.0220    133.7223    146.1636   5.1470730317e+01   2.5766346462e+01     1.077755    0.2945709 -53.70  0.002778503    4.537    0.780
        22 -11.5716    111.5106    150.0173   5.8159801008e+01   2.9127301585e+01    0.3514913    0.2769255  71.74 0.0007450816    1.497    0.332
        23 -11.8887    108.7771    145.2968   5.7902901897e+01   3.0772226205e+01    0.3525457    0.3292983 -46.03 0.0006555619    1.072    0.067
        24 -12.3116     93.8952    147.6317   6.2529693115e+01   3.2826323580e+01    0.4046751    0.3750322 -13.34 0.0008289643    1.202    0.168
        25 -13.3557     97.9426    143.6139   6.0562776866e+01   3.3121506820e+01    0.7836975    0.6169497 -20.93  0.002414917    1.568    0.362
        26  -9.7423    171.2797    141.6768   4.1485664932e+01   1.9040146745e+01    0.1507649    0.1208624 -80.24 0.0003271971    1.588    0.370
        27 -11.2060    107.0903    139.4115   5.7088864482e+01   3.2506318142e+01    0.2947235    0.2269112 -64.39 0.0007174512    1.359    0.264
        28 -12.4982    106.6663    130.8492   5.5268828864e+01   3.4642341126e+01    0.6127564    0.4478781  49.96  0.002867209    1.442    0.307
        29 -12.0544     98.2317    130.1701   5.7535332928e+01   3.6345639036e+01    0.3005452    0.2877423 -32.81 0.0002957277    1.060    0.057
        30 -11.4119    133.4777    127.9163   4.7279924025e+01   3.0009420265e+01    0.4862048    0.3717394  64.03  0.001830744    1.517    0.341
        31 -10.4961    115.8838    124.9351   5.1273179946e+01   3.4266289586e+01    0.2405591    0.2106211 -13.51 0.0006781313    1.286    0.222
        32 -10.4792    103.8419    119.9615   5.3480372408e+01   3.7745675356e+01    0.2517053    0.2205911  23.53 0.0007083757    1.213    0.175
        33 -10.0659    156.7591    118.1090   3.9140434991e+01   2.7153535928e+01    0.3166173    0.1765365 -63.01  0.001122885    2.652    0.623
        34 -10.5152     86.2286    119.0125   5.8525162868e+01   4.1104371857e+01    0.2250697     0.198647  85.41 0.0006398432    1.287    0.223
        35  -9.9933    111.0745    115.3001   5.0228291759e+01   3.7432496454e+01    0.2360786    0.2066223  74.48  0.000397384    1.300    0.231
        36 -10.0066    107.6796    111.9342   5.0341369151e+01   3.8861290380e+01    0.2938946    0.2028788  78.70  0.001176749    2.349    0.574
        37 -12.3808    116.9439    108.0456   4.6685737252e+01   3.7879843546e+01    0.7421388     0.466569 -71.38  0.002820527    2.537    0.606
        38 -11.4143    118.9953    104.7630   4.5239525933e+01   3.8172525815e+01    0.3468256    0.2221012  53.98  0.001437715    1.717    0.418
        39  -9.1289    163.6713    237.2836   6.1378586147e+01   1.2741703971e+00    0.1262112   0.09684492  57.35 0.0003172464    1.607    0.378
        40 -11.2727     83.5961    106.1368   5.6173887029e+01   4.4563706171e+01    0.2655574      0.24176  43.56 0.0003428255    1.163    0.140
        41  -9.7926    165.5958    105.8448   3.4073806485e+01   2.7693372448e+01    0.2267277    0.1364271 -53.71 0.0009425581    1.789    0.441
        42 -11.8655    112.7549    100.0252   4.5704137783e+01   4.0475500034e+01    0.5823914    0.3499605  70.93  0.001856564    3.250    0.692
        43 -10.9335    107.0723     95.7953   4.6172548865e+01   4.2522029465e+01    0.3186973    0.2449368  71.52 0.0009438789    1.703    0.413
        44 -11.4262     71.4449    228.4320   8.0110125900e+01   1.7172694648e+01    0.1765621    0.1400311 -58.19 0.0005870207    1.435    0.303
        45  -9.5199    153.6654     87.2728   3.1801953706e+01   3.4006789636e+01    0.1510711    0.1168467 -86.55  0.000340544    1.598    0.374
        46 -10.2665     94.7031     86.3329   4.7199709266e+01   4.6899222122e+01    0.3900242    0.2172304  60.75  0.001110477    2.961    0.662
        47 -12.1008     55.5087    226.9725   8.3378816636e+01   1.9603454486e+01    0.2753628    0.1757786 -70.15  0.001570103    1.568    0.362
        48 -13.0073    169.0596     68.6709   2.3662907291e+01   3.3643193984e+01    0.5262823    0.4454024  64.64 0.0007771196    1.143    0.125
        49  -9.5803     81.6375     68.2569   4.5868189718e+01   5.2836272766e+01    0.1333226    0.1112591  70.22 0.0006969245    1.627    0.385
        50 -13.7127    185.4570     55.0642   1.7383672125e+01   3.1889260788e+01     1.176847    0.8940451  31.48  0.004333117    1.777    0.437
        51 -12.0492    190.9552     49.7885   1.5269946017e+01   3.1370416366e+01    0.3519501    0.3430209 -80.08 0.0008716967    1.174    0.149
        52  -9.8715     57.9777    220.9893   8.2275176268e+01   2.0580918976e+01    0.1408882    0.1075335 -82.07  0.000360338    1.258    0.205
        53 -11.3996     61.3369    246.1491   8.3893255679e+01   1.4890924467e+01    0.1603565    0.1225582 -33.82 0.0009544173    2.053    0.513
        54  -9.7499     77.6092    218.6245   7.7676823509e+01   1.8422213781e+01    0.1351491       0.1013 -23.11 0.0006907557    2.069    0.517
        55 -18.8297     31.1305    133.1699   7.8421672156e+01   4.4813886249e+01     17.99903     7.100941 -74.83   0.06866186    2.777    0.640
