#   1 NUMBER                 Running object number                                     
#   2 MAG_AUTO               Kron-like elliptical aperture magnitude                    [mag]
#   3 X_IMAGE                Object position along x                                    [pixel]
#   4 Y_IMAGE                Object position along y                                    [pixel]
#   5 X_WORLD                Barycenter position along world x axis                     [deg]
#   6 Y_WORLD                Barycenter position along world y axis                     [deg]
#   7 A_WORLD                Profile RMS along major axis (world units)                 [deg]
#   8 B_WORLD                Profile RMS along minor axis (world units)                 [deg]
#   9 THETA_WORLD            Position angle (CCW/world-x)                               [deg]
#  10 FWHM_WORLD             FWHM assuming a gaussian core                              [deg]
#  11 ELONGATION             A_IMAGE/B_IMAGE                                           
#  12 ELLIPTICITY            1 - B_IMAGE/A_IMAGE                                       
         1 -11.9984    119.6248     37.8411   2.5613960249e+01   5.0020968456e+01      0.82473    0.3527074 -45.86  0.003293593    2.909    0.656
         2 -10.8316     78.2150     34.2584   3.6226186113e+01   5.9126125589e+01    0.6418871    0.4420449  -5.23  0.003490115    1.689    0.408
         3 -13.0753    105.5499     20.1596   2.3091465172e+01   5.5273244063e+01    0.3334675    0.3143571  78.13 0.0004882556    1.200    0.167
         4 -12.3522    104.2890     14.0894   2.1263167612e+01   5.6174400765e+01    0.4877787     0.354974   6.12  0.002853644    1.638    0.389
         5 -12.1351    163.2740     28.1595   1.4243887886e+01   4.0926896467e+01    0.5404067    0.3359249  45.12 0.0007158302    1.766    0.434
         6 -11.5946     20.3584     22.0206   5.5839122412e+01   6.9190706906e+01    0.6637337    0.3138526 -30.99  0.003287346    1.953    0.488
         7 -11.4592      6.2484     11.3859   5.9067380338e+01   7.2022107061e+01    0.5637289    0.4390411 -42.95  0.004221526    1.517    0.341
         8 -12.1480     16.1432     14.0488   5.4729483815e+01   7.0779147015e+01    0.6295806    0.2708495 -24.02  0.003109447    2.652    0.623
         9 -12.0844     22.6522     10.6393   4.9781229002e+01   7.0585484611e+01    0.4871831     0.296093  16.15  0.002466133    1.470    0.320
        10 -11.5389    135.8086     22.3369   1.7269637828e+01   4.8133379724e+01    0.5151239     0.337186  58.48  0.002652968    1.309    0.236
        11 -12.0559     48.7687     13.0140   3.8639934676e+01   6.6828156159e+01    0.6656501    0.2558384  41.69  0.003194564    2.374    0.579
        12 -11.7080     35.2287     19.1592   4.7333683826e+01   6.7944215703e+01    0.4640684    0.2327593 -32.59  0.001477794    1.915    0.478
        13 -11.1347     67.6277     19.3597   3.4078635525e+01   6.2951548052e+01    0.3925599    0.3529132  78.79  0.001847721    1.641    0.391
        14 -12.2945    164.8530     18.1629   1.1342393511e+01   4.1683209119e+01    0.5292682    0.2812991  45.46  0.002545048    2.135    0.532
        15 -11.4836     85.8802     13.9976   2.6077991441e+01   6.0061152016e+01    0.5490444     0.316532   2.37  0.002705041    2.429    0.588
        16 -10.4145     89.5626      8.7681   2.3045853033e+01   5.9817557459e+01    0.2773485    0.1977313 -17.24 0.0009022917    1.588    0.370
        17 -10.7311    147.9094     16.1565   1.3339157565e+01   4.5925549104e+01    0.4018795    0.1724733  45.54  0.001718373    2.518    0.603
        18 -11.9661    127.3146     16.4998   1.7088928094e+01   5.0734354950e+01     0.635889    0.3613939 -23.88  0.002111191    2.111    0.526
        19 -12.0795    135.2963     14.9133   1.5108725812e+01   4.9031034421e+01    0.6975273    0.2457104  57.51  0.002941567    2.249    0.555
        20 -10.6116    225.6960     13.6980   3.6704223733e+00   2.8328012341e+01    0.2058986    0.1617814 -62.68 0.0003563757    1.142    0.124
        21 -10.5468     12.8270      8.7297   5.4198695244e+01   7.1842374449e+01    0.2362526     0.177911 -43.53  0.001008933    1.682    0.405
        22 -11.1927    187.9177      2.2904   4.6576630303e+00   3.7905678273e+01    0.3849553    0.1906801 -74.26  0.001859647    2.256    0.557
        23 -11.5159    191.9822      9.7416   5.9655370186e+00   3.6224169453e+01    0.3200367    0.2480801   8.55  0.001623061    2.077    0.519
        24 -11.9408    212.3044      9.3250   3.9214668730e+00   3.1706141174e+01    0.4889673    0.3535125  -8.31  0.002875918    2.334    0.572
        25 -10.8411    218.6823      3.7296   2.2245712701e+00   3.0917981858e+01    0.2855059    0.1838132  71.70 0.0009388084    1.424    0.298
        26 -10.5953    223.9535      2.9349   1.6536885114e+00   2.9877575187e+01    0.2498463    0.1683467 -76.32 0.0004024077    1.207    0.171
        27 -10.7413    120.7798     11.7769   1.6864435129e+01   5.2703381352e+01    0.3327303    0.1540239  67.18  0.000987044    2.056    0.514
        28  -9.8072     98.4963     12.0332   2.1945114265e+01   5.7627834793e+01    0.1730309    0.1252096 -19.47   0.00103021    1.582    0.368
        29 -11.1022    168.8713      9.6124   8.5800448951e+00   4.1617517045e+01    0.4816844    0.1646759  57.99  0.002057323    2.453    0.592
        30 -11.4193    163.7125      7.2594   8.6271843167e+00   4.3063280705e+01    0.5017022     0.284301 -12.81  0.002497485    2.695    0.629
        31 -10.7403    145.0578      9.7011   1.1939510714e+01   4.7238925330e+01    0.2336048    0.1667871  14.79  0.001027788    1.956    0.489
        32 -10.1594      1.2658      7.1708   6.0164584175e+01   7.3012927716e+01    0.2782484   0.07143085 -44.81  0.001311038    3.113    0.679
        33 -10.5353      2.0958      2.0892   5.7392634575e+01   7.3673005065e+01    0.2246541    0.1313284 -17.08  0.001283861    1.420    0.296
        34 -10.7170    157.4654      3.5030   8.4437363319e+00   4.4884888674e+01    0.2037984    0.1692283  79.55 0.0007931971    1.018    0.017
        35 -11.6812    152.4083      7.3939   1.0193854057e+01   4.5719843076e+01    0.4092324    0.2519701  72.76 0.0008814604    1.390    0.280
        36 -11.6474    184.4835      6.1547   5.9171711684e+00   3.8315845776e+01    0.4008904    0.2154677 -73.97  0.002022946    2.018    0.504
        37 -11.8378    177.4001      5.9944   6.6564090745e+00   3.9975172713e+01    0.2715169    0.1971382  84.02 0.0002591842    1.157    0.135
        38 -11.1361    122.0263      5.6491   1.4638421794e+01   5.2974352663e+01    0.2587806    0.1844915 -25.73 0.0009308165    1.662    0.398
        39  -9.6358     78.0201      7.5242   2.5841635216e+01   6.2257453124e+01    0.1836965    0.1044718  51.60  0.000518941    1.532    0.347
        40 -10.0745     63.0112      6.7579   3.0415854802e+01   6.5137137274e+01    0.1949625     0.155933   3.53 0.0008818352    1.199    0.166
        41 -11.2201    233.1467      2.5677   9.0554715090e-01   2.7996608244e+01    0.2629749    0.1703727 -60.96  0.000297867    1.277    0.217
        42 -11.2607    141.7999      3.7312   1.0716257504e+01   4.8548919640e+01    0.3717384    0.2000144  65.00  0.001695808    1.514    0.340
        43 -12.0778    133.9131      2.6021   1.1617979917e+01   5.0488646079e+01    0.4768226    0.2814291  71.88  0.002601853    1.486    0.327
        44  -9.8978    242.7728      4.1863   5.4290428108e-01   2.5867037240e+01    0.2070924   0.07641293 -64.26 0.0009470372    2.778    0.640
        45  -9.0674    200.3146      4.2971   3.9213703286e+00   3.4895832611e+01    0.1142606     0.084437  52.60  0.000262472    1.605    0.377
        46 -10.9940    113.8838      2.8559   1.5288828964e+01   5.5059352889e+01    0.3446731    0.2476194  84.75  0.001777585    1.554    0.357
        47 -10.7594    105.8377      2.2428   1.6737943239e+01   5.6901068371e+01    0.4394963    0.2259508  72.41  0.001969438    2.139    0.532
        48 -10.6262     73.4029      3.5139   2.5605598257e+01   6.3518630588e+01    0.4373815    0.1730022  48.03  0.001867246    2.015    0.504
        49 -10.7914    207.8360      2.8474   2.9386981841e+00   3.3370539160e+01    0.2205329    0.1488935  84.69 0.0008461601    1.225    0.183
        50 -10.1476    204.2077      1.6185   2.9895201436e+00   3.4297413685e+01    0.2237925    0.1383458 -89.69 0.0006211842    1.379    0.275
        51  -9.6271     22.0359      3.0318   4.6528989921e+01   7.1623695769e+01    0.1643472    0.1269446  -0.61 0.0005721184    1.061    0.058
        52  -9.9410     13.5326      2.4898   5.0892510368e+01   7.2606577359e+01    0.1851604    0.1306918  22.14 0.0006641416    1.398    0.285
        53  -9.2718     64.4457      2.0866   2.7891640992e+01   6.5320632271e+01    0.1499036     0.109646 -12.80 0.0003668968    1.448    0.310
        54  -9.5234    245.7735      1.3078   3.5981682896e+02   2.5582541505e+01    0.1411597   0.08393271  74.77 0.0002819129    1.565    0.361
        55  -9.8449    152.4106      1.4545   8.5595335689e+00   4.6255248392e+01    0.2506418    0.1042033  69.62 0.0007721985    1.995    0.499
        56 -10.3208     41.6455      3.6733   3.7412314741e+01   6.8951673540e+01    0.2828647    0.1763593  11.24  0.001332475    1.555    0.357
        57 -10.6931    155.8058     24.6066   1.4450493035e+01   4.3127081001e+01    0.3596776    0.2132166  89.67  0.001200018    2.018    0.505
        58  -9.6412    249.4985    250.4386   4.6771700525e+01  -1.2567540365e+01    0.1144683   0.08487148   0.31 0.0002267872    1.026    0.026
        59 -11.4651    244.4276    117.9180   2.3059405918e+01   9.0758759192e+00     0.349238    0.2058758 -60.65  0.001678074    2.033    0.508
        60 -11.2028     15.2683    109.4869   8.0387209012e+01   5.1801982682e+01     0.574871    0.2981523 -51.65  0.002136651    1.633    0.388
        61 -11.0683      7.8815    114.8875   8.3542775788e+01   5.1002412649e+01    0.4008677    0.2856819 -34.53  0.001801934    1.492    0.330
        62 -12.1000      2.4855    111.9042   8.4865067314e+01   5.2017212289e+01     0.425896    0.2846433 -72.52 0.0008528958    1.250    0.200
        63 -11.3839      4.0713    105.6350   8.3524262894e+01   5.3396957092e+01    0.3867148     0.336981 -14.31  0.002675593    1.320    0.242
        64  -9.8781     37.3170    116.4262   7.4264540468e+01   4.8290470740e+01     0.256551    0.1387482 -53.31 0.0008329994    1.611    0.379
        65 -10.3812     36.0024    102.9027   7.2172957628e+01   5.1650156429e+01    0.6257443    0.3019113   2.58  0.002441078    3.457    0.711
        66 -11.4631     25.1210    107.5214   7.6770835696e+01   5.1527166139e+01    0.7028057    0.3513344 -33.72  0.003214183    2.338    0.572
        67 -11.7018     22.6110    114.2452   7.8712874848e+01   5.0124708351e+01    0.5292435    0.2829532  -2.77  0.002437413    2.727    0.633
        68 -11.5518     28.5265    113.0243   7.6569809523e+01   4.9927212792e+01    0.3866788    0.2989121  -4.03  0.001794187    1.527    0.345
        69 -10.2496     44.5393    120.0373   7.2562449669e+01   4.6660919724e+01    0.2562728    0.1677082 -71.44  0.000734549    1.510    0.338
        70  -9.8188     50.0329    122.7790   7.1299779518e+01   4.5369923590e+01    0.2302129    0.1502664 -21.87  0.001074942    2.034    0.508
        71  -9.8723     49.0262    112.0852   6.9561697844e+01   4.8084353734e+01    0.2652473    0.1903302  27.85  0.001376078    1.513    0.339
        72 -12.3427     80.0924    107.9875   5.8364288115e+01   4.4762208991e+01    0.3431068    0.2977818  14.77 0.0004328998    1.230    0.187
        73 -11.2493     52.2287     99.3850   6.5733331471e+01   5.0704461241e+01    0.5209817    0.2588534 -40.01  0.002250684    2.081    0.520
        74  -8.7081    182.5716    104.4727   3.0506257778e+01   2.4210179222e+01    0.1474173    0.1407341 -67.01 4.908763e-05    1.011    0.011
        75  -9.8634     85.8502    103.5962   5.5415570776e+01   4.4820754432e+01    0.2506968    0.1920803 -37.50 0.0006168648    1.317    0.241
        76 -11.7296     17.3730    100.7746   7.8274258012e+01   5.3702632377e+01    0.2586302    0.2179808 -69.05 0.0004316109    1.110    0.099
        77  -9.8481     64.6593     98.6969   6.1245019483e+01   4.9234929368e+01    0.3865632    0.1560439 -49.89  0.001478018    2.263    0.558
        78 -11.4261     68.7986     95.4719   5.9011980760e+01   4.9369887132e+01    0.4673215    0.3559203  24.41  0.002468405    1.379    0.275
        79 -11.7754      9.2811     97.1012   8.0486516713e+01   5.5078099236e+01    0.4733567    0.3589936 -87.15   0.00167639    1.399    0.285
        80 -11.9968    247.8782     95.6992   1.8060198709e+01   1.2160837468e+01    0.5624605    0.3879222  -6.26  0.002690428    2.758    0.637
        81 -10.3516     80.3466     84.1048   5.1977356152e+01   5.0015553359e+01    0.4086201    0.3033181 -23.61  0.002021843    1.477    0.323
        82 -11.5204     74.8801     78.8203   5.2331855325e+01   5.2011888422e+01    0.5603858    0.5026991  46.85  0.002029073    1.240    0.194
        83 -10.4350     79.0228     97.3673   5.6041902544e+01   4.7360569526e+01    0.4708331    0.2344482  52.41  0.001192872    2.798    0.643
        84 -11.0525     79.7718     92.5855   5.4524365688e+01   4.8296238839e+01    0.6183326    0.5554397  65.14  0.003448696    1.294    0.227
        85 -10.0835     30.2302     95.9335   7.2824589461e+01   5.3808197076e+01    0.1919528    0.1639582 -74.99 0.0004179359    1.225    0.184
        86 -12.1351     21.2542     92.8663   7.5470274948e+01   5.5247044213e+01    0.8091127    0.5008147  84.15  0.001380271    2.341    0.573
        87 -10.3164     25.5863     87.7652   7.2850591424e+01   5.6065260544e+01    0.4332931    0.2934273  60.26  0.001920811    2.066    0.516
        88 -10.3669     28.0774     84.5298   7.1214071648e+01   5.6580865492e+01    0.3943515    0.2765072  43.05  0.001569435    1.730    0.422
        89 -11.6949    125.8370     94.8143   4.1165557123e+01   3.8920539067e+01    0.2471453    0.2450732  32.64 0.0002283177    1.015    0.014
        90 -10.2577     43.3427     94.3021   6.7740091011e+01   5.2894830488e+01     0.271862    0.2278043 -28.23  0.001149546    1.160    0.138
        91 -11.3157     42.9609     90.9954   6.7120337988e+01   5.3687863905e+01    0.4383868    0.2005581  37.79  0.001372812    2.416    0.586
        92 -10.4114     35.3081     92.1980   7.0197001093e+01   5.4196693365e+01    0.3191828    0.2244916 -77.30    0.0015757    1.653    0.395
        93 -10.1448    240.6499     91.9738   1.8234170193e+01   1.4146488612e+01    0.2322518   0.07622546 -54.29 0.0007048686    4.461    0.776
        94 -11.7914     98.3752     91.0370   4.8085827704e+01   4.5320710881e+01     0.275587    0.2384238  40.07 0.0001285763    1.154    0.133
        95  -9.7205     88.7688     89.9469   5.0832228953e+01   4.7322684509e+01    0.2750327    0.2275357 -25.41  0.001171142    1.255    0.203
        96  -9.3692     91.1040     85.4386   4.8800924912e+01   4.7847653467e+01      0.45995    0.2447745  46.22  0.001942608    1.975    0.494
        97 -11.5664      6.9228     88.1803   7.9852068666e+01   5.7243561680e+01    0.4915573    0.3281829 -14.44  0.002662627    1.680    0.405
        98  -9.8988    104.0117     86.5133   4.5075632087e+01   4.5162333230e+01    0.2104467    0.1969036 -36.20  0.001157636    1.081    0.075
        99 -10.1298     52.0357     86.9720   6.2807186054e+01   5.3536486661e+01    0.1987697    0.1769918 -35.55  0.001193378    1.019    0.018
       100 -11.5187     44.4970     84.8382   6.5070855215e+01   5.4893029562e+01    0.5943121     0.423655  21.41  0.002421402    1.495    0.331
       101  -9.9493     37.1643     86.1301   6.8138572378e+01   5.5382080782e+01    0.2468184    0.1761961  38.50 0.0008019594    1.605    0.377
       102 -11.1819    143.2162     84.6315   3.3930992501e+01   3.7036726016e+01     0.250783    0.2420376 -51.70 0.0002634868    1.067    0.062
       103  -9.7444    112.4909     82.9543   4.1543468810e+01   4.4146028677e+01    0.4229488    0.1934503  49.63  0.001606384    2.245    0.555
       104 -10.3156     67.1766     81.6506   5.5872264277e+01   5.2622505577e+01    0.3277863     0.239523 -18.74  0.001322243    1.522    0.343
       105  -9.3365    103.0563     79.2918   4.3257688142e+01   4.6792997676e+01    0.1984196    0.1898495  27.61 0.0005311154    1.022    0.021
       106 -10.3411     88.8530     77.4848   4.7200084028e+01   4.9869661243e+01     0.460146    0.2938998  49.54   0.00215716    1.714    0.417
       107  -9.9522     94.2290     76.5843   4.5192065276e+01   4.9043814646e+01    0.2812968     0.212486  29.94  0.001037208    1.334    0.250
       108 -11.9369     53.0086     73.6958   5.8864959519e+01   5.6249577383e+01    0.4699935    0.2586056 -56.57 0.0005356221    1.943    0.485
       109 -11.8162    247.6158     77.0656   1.4318859747e+01   1.5181274352e+01    0.3839695    0.2474096  76.01  0.002149482    1.743    0.426
       110 -11.0367     14.0713     74.7489   7.4539485208e+01   5.9780255736e+01    0.3095064     0.232007 -70.89  0.001292426    1.393    0.282
       111 -10.0318    103.1611     75.0093   4.1942189452e+01   4.7595527833e+01    0.2471014    0.2047174  43.07 0.0006118472    1.178    0.151
       112 -10.8332      2.0690     71.6376   7.8702486077e+01   6.1125339923e+01    0.3748389    0.1643089 -58.29   0.00181736    1.745    0.427
       113  -9.4947     24.7186     73.8562   7.0072216156e+01   5.9190292836e+01    0.2130045    0.1276855 -43.11  0.001173275    1.421    0.296
       114  -9.3845     88.6546     73.0103   4.5907545332e+01   5.0778485348e+01    0.1915167    0.1785588 -28.93 0.0004494349    1.087    0.080
       115  -9.5663     92.5095     72.0277   4.4352240034e+01   5.0245377994e+01    0.2026077    0.1888375 -18.30  0.001163814    1.065    0.061
       116 -11.1224     35.1927     71.8591   6.5359337127e+01   5.8664146818e+01    0.4840848    0.2188898  27.41  0.001330631    2.318    0.569
       117  -9.7310     41.2277     72.7776   6.3199514856e+01   5.7842221238e+01    0.2834521    0.1822334 -25.56  0.001068672    1.619    0.382
       118 -10.6512     39.9623     69.0682   6.2683530344e+01   5.8747313554e+01    0.2574044    0.2158796   6.99 0.0007859345    1.199    0.166
       119  -9.2574    154.0459     72.4548   2.8119170187e+01   3.6703177469e+01    0.2272225    0.1385751  54.34 0.0006980004    1.565    0.361
       120 -10.5067    122.9905     68.8150   3.4456376612e+01   4.4504181504e+01    0.4671646    0.2313162  45.86  0.001920673    1.925    0.481
       121 -10.0140     77.9696     67.9331   4.7944744846e+01   5.3643624392e+01    0.3081315    0.2025047 -69.40  0.001327199    2.663    0.624
       122 -10.1471     13.8817     67.6127   7.3027319749e+01   6.1311318632e+01    0.3871414    0.1879674   4.78  0.001939646    2.460    0.593
       123 -10.0286     96.5053     65.5095   4.1043063830e+01   5.0672229123e+01    0.2393123    0.2225656  26.19 -3.697025e-05    1.025    0.024
       124 -11.0011     92.5077     62.9237   4.1478968801e+01   5.1911176692e+01    0.3814701    0.2587425  54.24  0.001093155    1.656    0.396
       125 -10.1250      7.8606     55.1283   7.2610015774e+01   6.4239376703e+01    0.7131041    0.4586314  63.84  0.003802523    2.863    0.651
       126 -12.1917      4.3520     61.7265   7.5700889851e+01   6.3094207130e+01    0.4196928    0.2924244 -46.73  0.001034805    1.136    0.119
       127 -10.7937    201.8309     64.8171   1.7635375697e+01   2.6750852624e+01     0.246027    0.1994069  88.36 0.0002989001    1.184    0.155
       128 -10.6067     58.0087     77.8775   5.8160193465e+01   5.4720203212e+01    0.2584287    0.2289908 -50.34 0.0005534733    1.178    0.151
       129  -9.5693    104.8198     63.6103   3.7915310633e+01   4.9324159683e+01    0.2001113    0.1311103  56.54 0.0005162924    1.669    0.401
       130 -10.8275     40.0330     56.7930   5.9027856344e+01   6.1167197132e+01    0.3170186    0.1736053  29.14  0.001035677    1.871    0.465
       131 -11.4023     43.0310     60.9890   5.9076173616e+01   6.0016657670e+01    0.3501679    0.2141788 -49.58  0.000892322    1.578    0.366
       132 -11.9048     46.4514     59.5033   5.7215808398e+01   5.9893416507e+01    0.7101116    0.2822195  42.80  0.002837084    3.312    0.698
       133  -9.3412    159.1491     62.6589   2.4381333394e+01   3.7114917294e+01    0.2126954    0.1198652  48.60 0.0005738678    1.755    0.430
       134 -10.1209     64.8136     61.1234   5.0529221991e+01   5.7050672602e+01    0.3255447    0.3044455   6.53   0.00145792    1.102    0.093
       135  -9.7407    124.5789     56.2933   3.0233754240e+01   4.6227947695e+01    0.2474683    0.1784445 -35.24  0.000721533    1.493    0.330
       136  -9.6811    123.3178     60.4862   3.1843074316e+01   4.5840327441e+01     0.248711    0.1987978  76.08 0.0005766944    1.454    0.312
       137 -10.5708    119.0714     56.8269   3.1808809317e+01   4.7381522531e+01     0.568777    0.3660568 -84.69  0.002194034    3.168    0.684
       138 -10.7494    110.0701     39.3537   2.8514067495e+01   5.1950158727e+01    0.4901563    0.2885108  -7.11  0.001855723    2.765    0.638
       139 -10.5144    112.4098     50.7911   3.1656591705e+01   4.9791653723e+01    0.4063537    0.2725954 -12.54  0.001930323    1.987    0.497
       140 -11.7122    117.5192     45.4274   2.8585931011e+01   4.9452870450e+01    0.6527607    0.4686724 -31.08  0.002935149    1.529    0.346
       141 -10.1442     49.0151    249.0151   8.6495264950e+01   1.6038353375e+01    0.2695579   0.08893727  62.09 0.0003751077    4.199    0.762
       142  -9.2477    113.5234     61.4953   3.4763450828e+01   4.7837914351e+01    0.1427599     0.134105  37.61 0.0008102035    1.005    0.005
       143 -10.5560     31.1211     53.1032   6.1706554098e+01   6.2811527449e+01    0.4997127    0.1715988  20.49  0.002002859    3.444    0.710
       144  -9.9539     29.4168     60.2075   6.4553352338e+01   6.1596971470e+01    0.3123025    0.2201963 -58.88  0.001846501    1.517    0.341
       145 -11.0837     24.8542     57.2805   6.5686075067e+01   6.2584814895e+01    0.4517236    0.3600664 -36.07  0.002121799    1.067    0.063
       146 -12.5101     75.5962     53.0225   4.3876751888e+01   5.6721577789e+01    0.5468234    0.4321871 -49.20 0.0009233159    1.481    0.325
       147 -10.3686    112.4996     42.5347   2.8934250218e+01   5.0977868019e+01    0.3495217    0.2229682  60.90 0.0007306338    1.614    0.380
       148 -10.2910     87.9734     56.1053   4.0706008838e+01   5.3953442022e+01    0.3373547    0.1782755 -26.31  0.001041735    2.384    0.581
       149  -9.6971     51.2009     56.1212   5.4203101347e+01   5.9921135583e+01    0.2150754    0.1562711 -13.15  0.001218821    1.394    0.283
       150 -12.4821     73.1511     47.7050   4.2897159790e+01   5.8021480600e+01    0.3577661    0.2708298 -48.52  0.001170084    1.575    0.365
       151 -10.1727    157.2460     54.1026   2.2398292418e+01   3.8893379177e+01    0.3762087    0.2151891 -89.18  0.001023202    3.011    0.668
       152 -11.0570     60.7365     48.0560   4.7666531863e+01   5.9982182815e+01    0.6831016    0.3085119 -35.96  0.003078996    2.256    0.557
       153 -12.3197     43.8329     44.8748   5.3454386186e+01   6.2875696256e+01    0.5817701    0.4439756  39.80  0.001838287    1.564    0.361
       154  -9.9062     55.4868     50.4865   5.0585651823e+01   6.0341553834e+01    0.1864188    0.1477189  29.35 0.0001628986    1.268    0.211
       155 -10.2051     51.9875     48.4738   5.1302193330e+01   6.1181557996e+01    0.2476957    0.1888037   1.52 0.0007711944    1.266    0.210
       156  -9.0355    201.2803     53.3525   1.5021843244e+01   2.8608296086e+01    0.1253398    0.1068957  23.26 0.0003977143    1.652    0.395
       157 -10.3110     10.8373     51.3119   7.0275720480e+01   6.4809232601e+01    0.2991686    0.1448692 -54.42  0.001075202    1.751    0.429
       158  -9.9359     13.2311     47.0300   6.7973428772e+01   6.5471546337e+01    0.2279005    0.1227385 -41.39 0.0009017169    1.503    0.335
       159  -9.6960    239.7497     50.9543   9.8997179248e+00   2.0622274706e+01    0.1762362    0.1407039 -60.23  0.000532601    1.073    0.068
       160  -9.6734    144.9716     50.3159   2.3778220996e+01   4.2383130739e+01    0.2281706    0.1827633  -6.47 0.0006475225    1.606    0.377
       161  -8.9759    189.4174     49.4713   1.5775494441e+01   3.1913654812e+01    0.1350289    0.1209712 -86.71 0.0001708135    1.027    0.027
       162 -11.0065     28.6457     46.9088   6.0845907849e+01   6.4206538493e+01      0.55891    0.2429289 -22.80  0.002215424    3.518    0.716
       163 -11.0873     20.6556     46.3125   6.4310592853e+01   6.5037626382e+01    0.4309961    0.2530813 -38.17  0.002219358    1.430    0.301
       164 -10.0438     26.1483     42.9490   6.0686183876e+01   6.5161819887e+01    0.2508954    0.1777367  33.75  0.000826396    1.664    0.399
       165 -11.3225      9.8171     62.6457   7.3580008174e+01   6.2599394571e+01    0.3069173    0.2675938 -53.33  0.001031832    1.171    0.146
       166  -9.4934     82.5076     46.9953   3.9395621955e+01   5.6457297681e+01    0.1940239     0.129576 -30.93 0.0008792665    1.559    0.359
       167  -9.9231    200.6387     45.2885   1.3220564714e+01   2.9903482839e+01    0.2468443    0.1498898  81.31 0.0008245467    1.687    0.407
       168  -8.9991    179.7192     45.2927   1.6186736753e+01   3.4789012567e+01     0.137406   0.09615384 -73.42 0.0002150425    1.531    0.347
       169  -9.9059    138.6094     44.4010   2.3370432353e+01   4.4732904770e+01    0.4240045    0.1867137  39.09  0.001552254    2.996    0.666
       170 -10.5756     23.3471     37.3889   6.0111261198e+01   6.6401699495e+01    0.4334815    0.1807518  34.67  0.002121581    2.728    0.633
       171 -10.4054    156.0477     42.0995   1.9283591594e+01   4.0890657307e+01     0.251558    0.2295072 -18.50 0.0007133064    1.300    0.231
       172  -9.7663     57.0409     42.0559   4.6964943296e+01   6.1526277519e+01    0.2280174    0.1602598  36.28  0.001317655    1.429    0.300
       173  -9.3272     99.5130     41.5084   3.2161165504e+01   5.3910874689e+01    0.1350462    0.1231739  37.13 0.0008101203    1.043    0.041
       174 -10.3624     80.2666     39.0345   3.7298485292e+01   5.8071263265e+01    0.3972147    0.2760084  71.94  0.001905962    2.516    0.603
       175 -10.0248     50.3345    245.6896   8.5986551080e+01   1.6531163167e+01    0.1313783   0.07028058  61.51 0.0007043705    1.678    0.404
       176 -10.6369      9.1354     31.0515   6.4960079938e+01   6.8651442211e+01    0.5545846    0.2554387   4.94  0.002922517    2.431    0.589
       177  -9.7306      2.4118     39.0000   7.0826760774e+01   6.7645694226e+01     0.282665   0.07955929  23.42  0.001278185    3.569    0.720
       178 -11.0988      4.7697     35.6917   6.8671297694e+01   6.8115361324e+01    0.4005779    0.2886622 -44.92  0.002554475    1.217    0.179
       179  -9.9059    231.5514     38.3802   8.1659896398e+00   2.4041883372e+01    0.2555602    0.1108859 -38.00  0.001220552    2.221    0.550
       180  -9.8436    220.6573     39.0314   9.4338830758e+00   2.6282629994e+01    0.1755368    0.1452058 -67.26 0.0005104868    1.065    0.061
       181  -9.3091    195.0022     37.6770   1.2161748547e+01   3.2230643324e+01    0.1774148    0.1467981  82.44  0.000270529    1.077    0.072
       182 -12.5705    152.9095     35.9376   1.8117516882e+01   4.2452641426e+01    0.2872748    0.2581562  66.41  0.000478026    1.045    0.043
       183 -10.9381     61.2357     36.0479   4.3067021019e+01   6.1806888246e+01    0.4470679    0.2763122  -9.90  0.001615134    1.994    0.499
       184 -10.2112     68.1883     32.5019   3.9087972664e+01   6.1163412276e+01    0.3512529    0.2142015  47.71  0.001871194    1.724    0.420
       185 -11.3562    175.5620     33.4953   1.3798844132e+01   3.7339593892e+01    0.4498713    0.3024712 -42.72 0.0009844756    1.549    0.354
       186 -11.7892    105.9533     32.5560   2.7292395732e+01   5.3737620081e+01    0.5860032    0.3133675  35.86    0.0026996    1.996    0.499
       187 -12.4732    113.7442     25.4227   2.2918748110e+01   5.2874792258e+01    0.7428761    0.3251027  48.34  0.002424704    1.975    0.494
       188 -10.4657    131.6928    240.9946   6.8494896017e+01   5.7415209113e+00    0.1772862    0.1664663  43.95 0.0008647053    1.102    0.092
       189 -11.1222     67.7338    240.8284   8.2054596478e+01   1.5250879614e+01    0.2482616    0.2019275  -5.90  0.001113093    1.946    0.486
       190 -10.5807     76.0201    239.5020   8.0201187735e+01   1.4384354453e+01    0.2741056    0.2048262  78.82  0.001679296    1.317    0.241
       191  -9.7888    240.9168     31.6775   5.9381012079e+00   2.2981058908e+01    0.1771154     0.139725  65.03  0.001119866    1.457    0.314
       192 -11.6009     57.6221     30.3696   4.2283554540e+01   6.3203404367e+01    0.3728041    0.2821426   2.69  0.002108615    1.248    0.199
       193 -11.6461     49.1640     30.5498   4.5818898840e+01   6.4447473953e+01    0.6438304    0.2501912  33.32  0.002910538    2.484    0.597
       194  -9.0258     22.2970     32.2753   5.8798519691e+01   6.7367256027e+01    0.1188913      0.07355 -16.96 0.0003604782    1.530    0.346
       195 -11.5861     26.4455     28.6997   5.5433478379e+01   6.7539584732e+01    0.3753058    0.2876377 -36.12  0.001579942    1.305    0.234
       196 -10.2928     32.7901     31.1056   5.3334247348e+01   6.6468570945e+01     0.191508    0.1649541 -16.31 0.0003396859    1.162    0.139
       197  -9.6184     31.5126     27.5255   5.2539306989e+01   6.7171910509e+01    0.1866225    0.1215408  -9.93 0.0008156944    1.484    0.326
       198 -11.1395    189.0240     27.6596   1.0529289880e+01   3.4886928638e+01    0.3603579    0.3164134  36.57  0.001913619    1.475    0.322
       199 -11.3236    182.9152     25.6587   1.0819115127e+01   3.6557368136e+01    0.3517491    0.2651579 -88.97   0.00158238    1.205    0.170
       200 -10.1830    187.3384     23.1380   9.6496752479e+00   3.5817810976e+01    0.2321532    0.1988412 -17.05 0.0009027196    1.552    0.356
       201 -11.8444    126.0713     28.1517   2.1037175031e+01   4.9748929038e+01    0.4620603    0.3456349  78.52  0.001916682    1.445    0.308
       202  -9.2805     86.2761     30.3534   3.2151990030e+01   5.8101165482e+01    0.1338059   0.09195203  15.49 0.0007006478    1.645    0.392
       203  -9.7919    196.9807     28.7536   9.8184806521e+00   3.2910072664e+01    0.1686809   0.09774295  70.70 0.0008743713    1.555    0.357
       204 -10.1714    230.6609     26.9997   5.9268490264e+00   2.5693125665e+01    0.2222582     0.157664  73.16 0.0008762958    1.362    0.266
       205 -11.6445    144.8350     25.5607   1.6577091235e+01   4.5636004370e+01    0.6684428    0.3192531  81.09  0.002544493    3.092    0.677
       206 -10.8847    147.7968     22.1208   1.5067091122e+01   4.5316906636e+01    0.3999827    0.1875104  47.28  0.001780189    2.144    0.534
       207  -9.9088     98.0963     26.5796   2.7310751492e+01   5.6150642691e+01    0.2516638     0.182067  29.65  0.001424686    1.362    0.266
       208  -9.1097    206.7391     25.9864   8.0845767596e+00   3.1029070739e+01     0.148441    0.1035322 -42.31 0.0003922337    1.471    0.320
       209 -10.8080    147.0806    238.8636   6.4921779089e+01   3.6988610200e+00    0.3383133      0.25617  78.97   0.00186132    1.900    0.474
       210 -10.5894     13.3543     23.4863   6.0045699886e+01   6.9589385325e+01    0.3226302    0.1996778  25.76  0.002085185    1.713    0.416
       211  -9.0528     15.4897    234.0095   9.2009113494e+01   2.2858768981e+01    0.1513876   0.07708475 -55.77 0.0008101229    2.509    0.602
       212  -9.3549    248.6511    223.6929   4.2509987786e+01  -8.8647617858e+00    0.1253295   0.07740662  -2.95 0.0007043124    1.705    0.414
       213  -9.2915    120.6833    223.6730   6.8569129230e+01   1.0855393016e+01    0.1330769    0.1060194  -5.96 0.0007045158    1.675    0.403
       214  -9.8508    155.3245     21.3146   1.3613607363e+01   4.3610817957e+01    0.2079985    0.1717251  55.40 0.0006281625    1.181    0.153
       215  -9.4121     44.5311    215.4787   8.4725079507e+01   2.3597466806e+01    0.1271929    0.1057676  72.06 0.0008094406    1.014    0.014
       216 -10.0055     59.9808     22.9751   3.8386551678e+01   6.3819548252e+01    0.2261573    0.1623787 -24.66 0.0007075755    1.418    0.295
       217  -9.8718    169.7491     23.4525   1.2039462634e+01   3.9930545604e+01    0.3285246    0.1062282  63.36  0.001288515    2.581    0.612
       218  -9.1820     90.6452     23.3031   2.8219677886e+01   5.8081752545e+01    0.1225603    0.1011759 -89.16 0.0007039502    1.710    0.415
       219  -9.3603    164.4645    211.5406   5.6924720031e+01   5.9269630786e+00    0.1384978    0.1259055  25.41 0.0001709217    1.016    0.016
       220 -10.5425     38.7026     22.3073   4.7058482663e+01   6.7060693100e+01    0.2089005    0.1515132 -19.98 0.0004274981    1.251    0.201
       221 -11.0938      8.8163    210.7263   9.1955911560e+01   2.8440694527e+01     0.251679    0.1360279  84.66  0.001430722    1.613    0.380
       222 -10.9577    179.0663     20.6399   1.0071424030e+01   3.8043618636e+01     0.459933    0.2359491  43.71  0.002098086    2.550    0.608
       223  -9.0778    171.6310    208.7179   5.4883258042e+01   5.2438730211e+00    0.1437652    0.1031402   4.23 0.0007015207    1.694    0.410
       224  -9.3317      4.9624     22.0057   6.3969078645e+01   7.0458556925e+01    0.1445497    0.1250497  30.57   0.00105441    1.614    0.380
       225  -9.7083    216.4922     20.0885   5.8149420183e+00   2.9571636134e+01    0.1873577    0.1427464 -88.87 0.0007381697    1.103    0.093
       226  -9.0931     61.5249    206.5263   8.0022690776e+01   2.3468293191e+01    0.1331379    0.1153207  71.11 0.0001163511    1.010    0.010
       227  -9.9315     74.5014     19.7697   3.1879738620e+01   6.1650031564e+01    0.2141991    0.1563355   8.53 0.0008747573    1.415    0.293
       228  -9.8306     46.5168     20.0438   4.2639526328e+01   6.6289953869e+01     0.170262    0.1087286 -29.45 0.0005534257    1.558    0.358
       229  -9.9433     78.7646    204.3147   7.5719201528e+01   2.1576709223e+01    0.2827646    0.1936605  74.75  0.001145698    1.566    0.362
       230 -11.1862      5.7069    199.9707   9.1934339360e+01   3.1094783666e+01    0.3712572   0.07048084 -64.56  0.001375359    4.009    0.751
       231 -10.4723    239.2625     16.5068   3.1250289451e+00   2.5180084683e+01     0.242345    0.1416834  78.08  0.001185674    1.558    0.358
       232  -9.2917    135.3017    196.7059   6.1051682845e+01   1.4052588624e+01    0.1445497    0.1099422  68.24 0.0002625725    1.573    0.364
       233 -12.4597      4.5964    183.9025   9.1104253169e+01   3.4833267714e+01    0.6242859    0.3667583 -86.72  0.003330291    1.424    0.298
       234  -9.6709     28.0261    175.9693   8.4882347652e+01   3.4592507385e+01    0.2003787    0.1410127 -47.05 0.0008595025    1.650    0.394
       235 -10.9635    228.7988     15.8358   3.8402480534e+00   2.7426393075e+01    0.2729735    0.1766224 -82.76 0.0003612904    1.336    0.252
       236 -10.6463     15.8893    174.3212   8.7705005081e+01   3.6121726837e+01    0.2337308    0.1487905  89.47  0.001326649    1.387    0.279
       237 -10.6462    186.8739     15.0794   7.7741617494e+00   3.6833228368e+01    0.2050292    0.1699745  88.33 0.0003231537    1.012    0.011
       238  -9.9700    120.3846     15.7634   1.8244799597e+01   5.2404989830e+01    0.1639395    0.1233204  -0.34  0.000478516    1.656    0.396
       239 -10.1355    199.2659     17.4279   6.9590971729e+00   3.3724352319e+01    0.2026661     0.176164 -84.45 0.0004502345    1.094    0.086
       240  -9.3018     39.3100    173.6538   8.1798662180e+01   3.3972611273e+01    0.1433485   0.08822156  68.81 0.0007045055    1.705    0.414
       241 -12.0836      8.9975    166.8768   8.8747775237e+01   3.8465312013e+01    0.5705699    0.3272523  17.16  0.003099893    2.265    0.559
       242 -11.6511     11.5040    162.5067   8.7738031386e+01   3.9308212793e+01    0.3785145    0.2088089  73.54  0.001951256    1.868    0.465
       243 -10.3458    219.0393     13.4502   4.1907248845e+00   2.9782634868e+01    0.2703794    0.1319096 -85.39  0.001333893    2.149    0.535
       244 -11.5273     14.3300    159.5840   8.6742619643e+01   3.9782038551e+01     0.413247    0.2139752 -72.30  0.001542564    1.617    0.382
       245  -9.4587    152.6643    167.3301   5.1444043624e+01   1.7278864065e+01    0.1560406    0.1204398  79.01 0.0003758188    1.730    0.422
       246 -10.8142     18.4170    164.7499   8.6195031193e+01   3.8191686855e+01    0.2348066    0.2034204 -47.70  0.001459443    1.333    0.250
       247 -10.5409    205.0442    163.4411   3.9247401950e+01   8.0140924146e+00    0.2799878    0.2036477 -39.18 0.0006660397    1.307    0.235
       248 -10.6358     28.2864    161.1956   8.3264788575e+01   3.8151626056e+01    0.2480165    0.1468988 -68.81  0.001299028    1.468    0.319
       249 -12.5876     22.5861    149.3523   8.3459496212e+01   4.1573729350e+01    0.6797169    0.3130404 -43.55  0.003001154    2.574    0.611
       250 -10.6467     16.4794    147.9880   8.4982985749e+01   4.2416914875e+01    0.2367084     0.198201 -75.46 0.0004296201    1.037    0.036
       251 -10.9324      9.5292    155.3236   8.7579997054e+01   4.1184402783e+01    0.2543187    0.1768729  82.76 0.0009934548    1.314    0.239
       252  -9.3825     65.9711     10.4914   3.0976731535e+01   6.4229711125e+01    0.1861715    0.1035042  45.87 0.0007004186    1.576    0.365
       253  -9.5463    104.3680    154.7955   6.1315560888e+01   2.9328142929e+01    0.2209762     0.135995 -47.09 0.0009502139    1.673    0.402
       254 -10.7187      4.5481    153.6761   8.8719706860e+01   4.1942084724e+01    0.2072634    0.1232566  53.06 0.0008460376    1.736    0.424
       255  -9.9265     61.3515    151.9532   7.2895981952e+01   3.6702867969e+01     0.245044    0.2107886  18.86 0.0004413468    1.338    0.253
       256 -11.4362     47.6350    147.3264   7.6114776689e+01   3.9551911079e+01    0.5998213    0.4277448 -32.07  0.003102536    1.722    0.419
       257 -10.5268      3.0597    147.6767   8.8564870579e+01   4.3475947256e+01    0.2048123     0.142145 -77.62  0.001252809    1.177    0.151
       258 -10.8904      8.2900    148.3391   8.7235760121e+01   4.2954607953e+01    0.2777753    0.1470782 -50.77  0.001045396    1.876    0.467
       259 -11.9253      3.8238    142.2177   8.7842427812e+01   4.4730187350e+01    0.5389869    0.3169185  48.68   0.00272063    1.830    0.453
       260  -9.9249    104.0920    147.0299   5.9845449483e+01   3.1270557577e+01    0.2163019     0.213416 -38.00  0.001183766    1.062    0.058
       261 -10.6959     33.0935    144.4108   7.9887198756e+01   4.1822450951e+01    0.2549981    0.2366729  85.95  0.000838368    1.082    0.076
       262 -10.3729     40.6710    138.9983   7.6904931597e+01   4.2395876665e+01    0.4076535    0.2183388 -66.68  0.001790792    1.670    0.401
       263 -11.9996     23.2130    136.6580   8.1729195745e+01   4.4631224524e+01    0.6263597    0.3606853  38.85  0.002263852    1.873    0.466
       264 -10.6988     30.1555    132.8453   7.9145635052e+01   4.4956124803e+01    0.3375408    0.2190541 -39.76  0.001023942    1.672    0.402
       265 -11.4132     12.5874    135.6320   8.4687843014e+01   4.5712981333e+01    0.5263274     0.249943 -51.42  0.002588561    1.947    0.486
       266  -9.7660     32.0871    137.3838   7.9214686891e+01   4.3656946693e+01    0.1766821     0.169264  60.08  0.001135742    1.148    0.129
       267  -9.7984     47.0018    132.5231   7.3966168181e+01   4.3312566708e+01    0.3416968    0.1617906 -69.64  0.001433008    2.103    0.524
       268 -10.7291     79.9817    138.5256   6.5079084089e+01   3.7395530921e+01    0.3112411    0.2541598  49.99 0.0006979776    1.264    0.209
       269  -9.1622    103.9297    130.9843   5.6457612579e+01   3.5185849138e+01    0.1771749    0.1746101 -73.98 0.0003375906    1.003    0.003
       270 -11.0735     10.2937    126.9267   8.4327582946e+01   4.7973060785e+01    0.5641677    0.2350372 -56.46  0.002682481    1.964    0.491
       271  -9.4635     26.6010    127.7077   7.9485087751e+01   4.6532998440e+01      0.18217    0.1141175 -79.48 0.0009367068    1.549    0.355
       272  -9.8450     22.7895    126.9305   8.0543850718e+01   4.7043120963e+01    0.1879285    0.1514668 -56.38 0.0003916619    1.127    0.113
       273  -9.9124     33.2965    125.8945   7.7135169418e+01   4.6370784747e+01    0.2171898    0.1549221 -86.48  0.001171899    1.460    0.315
       274  -9.9311      2.0444    125.6298   8.6624304925e+01   4.8798716104e+01    0.2498685    0.1479954  87.87  0.001363192    1.680    0.405
       275 -11.0016    104.6189    122.4822   5.4298651258e+01   3.7080026962e+01    0.3866003    0.3369957  67.65  0.001394841    1.251    0.201
       276 -10.5647     56.2849    121.8750   6.9125835047e+01   4.4835169357e+01    0.2245517    0.1886572  50.13  0.000525949    1.289    0.224
       277  -9.7459     43.5136    116.4782   7.2240840558e+01   4.7638022307e+01    0.1989781    0.1267773 -75.63 0.0007602348    1.675    0.403
