#   1 NUMBER                 Running object number                                     
#   2 MAG_AUTO               Kron-like elliptical aperture magnitude                    [mag]
#   3 X_IMAGE                Object position along x                                    [pixel]
#   4 Y_IMAGE                Object position along y                                    [pixel]
#   5 X_WORLD                Barycenter position along world x axis                     [deg]
#   6 Y_WORLD                Barycenter position along world y axis                     [deg]
#   7 A_WORLD                Profile RMS along major axis (world units)                 [deg]
#   8 B_WORLD                Profile RMS along minor axis (world units)                 [deg]
#   9 THETA_WORLD            Position angle (CCW/world-x)                               [deg]
#  10 FWHM_WORLD             FWHM assuming a gaussian core                              [deg]
#  11 ELONGATION             A_IMAGE/B_IMAGE                                           
#  12 ELLIPTICITY            1 - B_IMAGE/A_IMAGE                                       
         1 -14.3758    215.2128      5.2390   4.3444520400e+01   2.9468297615e+01     2.343818     1.365214  67.58  0.006795089    1.750    0.429
         2 -15.1051    191.7063     33.1676   5.4251254953e+01   3.2500185176e+01     2.988919       1.7521  17.91   0.01178969    2.560    0.609
         3 -11.9219    164.0394     56.3631   6.6203317438e+01   3.6510275748e+01    0.4351926    0.3301093 -34.68  0.001661125    1.301    0.231
         4 -16.9345     71.6462    147.2877   1.1198519885e+02   3.6542113339e+01     11.55376     5.078843  71.85   0.02438895    4.663    0.786
         5 -12.1663     48.5262    206.5139   1.2245909164e+02   2.7750510980e+01    0.2164889    0.1635491  76.50 0.0007583479    1.242    0.195
         6 -10.0825     32.3354    211.4925   1.2590486445e+02   2.8589966678e+01    0.1303048   0.07006117  49.58 0.0008720823    1.321    0.243
         7 -11.3237     70.4122    209.8096   1.1827761267e+02   2.4643122705e+01    0.2046928    0.1291396  53.02 0.0005025179    1.229    0.186
         8  -9.1459     75.6671    207.3702   1.1703206081e+02   2.4404692706e+01    0.2315261    0.1842146 -31.86  0.001576903    2.002    0.500
         9 -11.9196    193.0296    194.7644   9.2403286747e+01   8.9397224309e+00    0.7351921    0.4473765 -62.97  0.003018677    5.439    0.816
        10 -10.1976     36.2288    206.4506   1.2491201554e+02   2.9068107514e+01    0.1951596   0.06566813  41.13  0.001057264    2.037    0.509
        11 -13.1674    136.2472    199.6842   1.0392943076e+02   1.7137064392e+01    0.5131547    0.2835627  48.29  0.002868157    1.619    0.382
        12 -16.8419     58.1140    248.1825   1.2287418808e+02   2.0108584356e+01     8.564398     2.465908  27.52   0.02698257    8.370    0.881
        13 -10.5133    208.1644    196.1599   8.9968924773e+01   6.4472088195e+00    0.1485828    0.1270055  32.65 0.0005798623    1.323    0.244
        14 -10.1226     81.5609    195.3871   1.1479234950e+02   2.5722879960e+01    0.2162188    0.1999696   6.82  0.001582081    1.459    0.315
        15 -13.0872     69.0868    189.0204   1.1691376427e+02   2.8481365645e+01     0.668243    0.5993416 -57.52  0.004493658    1.458    0.314
        16 -12.8678    150.1886    189.7048   9.9787283986e+01   1.6467624122e+01    0.5382967    0.3748576 -89.13  0.002743578    2.780    0.640
        17 -17.4260     25.2638    241.6251   1.2828761209e+02   2.4445523896e+01     3.227318     2.139387  89.53   0.02703388    1.610    0.379
        18 -12.0518     99.4731    180.7323   1.0936492068e+02   2.5873494981e+01    0.2513744     0.217777  53.04 0.0005966527    1.058    0.055
        19 -10.5714     72.2039    230.3716   1.1934270804e+02   2.1129841455e+01    0.1462986   0.08801179  47.73  0.000452792    1.184    0.155
        20 -12.5913     35.7119    199.6243   1.2468145375e+02   3.0332416525e+01    0.2004379    0.1451718  49.86 0.0006331702    1.110    0.099
        21 -11.2749    149.2032    180.3246   9.8602911305e+01   1.8081491824e+01    0.2206492    0.1955208  66.26 0.0006880119    1.327    0.247
        22  -9.2976    169.0271    177.9701   9.4234234763e+01   1.5117889192e+01    0.1503247    0.1308012  23.85 0.0005071039    1.062    0.058
        23 -10.1169     60.9813    187.6329   1.1856882819e+02   2.9734919249e+01    0.2258372    0.1692963  80.34  0.001546983    1.278    0.217
        24  -9.6052     63.8244    223.3917   1.2047920444e+02   2.3202029062e+01    0.1007736   0.05998259  68.16 0.0005297088    1.592    0.372
        25  -9.8562    201.5134    169.4733   8.6628926357e+01   1.0794862587e+01    0.2440605    0.1860622 -33.19  0.001492046    1.496    0.332
        26 -10.2732    204.9871    166.6105   8.5485700313e+01   1.0582093318e+01     0.491405    0.2439233 -24.75  0.002403043    2.300    0.565
        27 -10.8958     59.8518    216.6816   1.2082879017e+02   2.4749479865e+01     0.289461    0.2172257  62.02  0.001299736    1.122    0.109
        28 -10.5885    164.3000    170.5543   9.3945888778e+01   1.7048558947e+01    0.2167312    0.1981264  72.38  0.000561664    1.385    0.278
        29 -11.2382    193.0571    165.2957   8.7418593942e+01   1.2808450961e+01    0.3543902    0.2699583 -47.60  0.001249735    1.734    0.423
        30 -10.6956    229.6215    165.8099   8.1142790593e+01   6.6140470769e+00    0.1588376     0.104519 -33.80 0.0007268605    1.712    0.416
        31  -9.0803     48.5572    217.4668   1.2305981257e+02   2.5885403414e+01    0.2542359    0.1382256  38.10  0.001679384    1.474    0.321
        32 -13.0110     96.3961    153.6846   1.0655925882e+02   3.1580355971e+01    0.6193304    0.5479755 -25.95   0.00380943    1.459    0.315
        33 -10.7772    189.0546    154.9711   8.6233535297e+01   1.4991541217e+01    0.4199094    0.2261968  46.00  0.001986208    1.781    0.439
        34 -11.6961    133.8142    145.1649   9.6089781482e+01   2.6894423249e+01     1.053241    0.3034053 -55.40  0.003006545    5.593    0.821
        35 -10.8048    113.3234    151.1669   1.0202508897e+02   2.9342612469e+01    0.2585232    0.1871991  74.83 0.0008892451    1.671    0.402
        36 -10.2215    174.6879    148.9372   8.7881955897e+01   1.8570639469e+01    0.2297104    0.2114833  73.22 0.0007669585    1.372    0.271
        37 -11.4067    144.0020    146.6155   9.4014895968e+01   2.4740706967e+01    0.3775658    0.2398424 -61.25  0.001803552    2.094    0.523
        38 -12.2152     42.3262    211.9900   1.2398391169e+02   2.7475951302e+01    0.4369813    0.2736415  21.05  0.002819272    2.093    0.522
        39 -12.3754    107.5509    139.7252   1.0154039251e+02   3.2644810761e+01    0.5374966     0.338989 -35.26  0.002516312    2.186    0.543
        40 -13.5557     59.7013    203.3653   1.1999317891e+02   2.7032511946e+01    0.5533554    0.4295056  62.49  0.001918524    1.089    0.082
        41 -12.5970     95.8332    139.6194   1.0454979773e+02   3.4609006951e+01    0.2883944    0.2811578  82.80 0.0005182661    1.126    0.112
        42  -9.9611    128.4685    139.2382   9.6250192994e+01   2.9020489200e+01    0.2684042    0.1809894  41.37 0.0007251264    1.358    0.263
        43 -11.4797    106.0739    130.8085   1.0032317055e+02   3.4777480565e+01    0.3744295    0.3145537  89.95   0.00113938    1.280    0.219
        44 -11.3242    102.5697    126.1333   1.0038107670e+02   3.6392304599e+01    0.2944024    0.2519844 -26.85  0.001095337    1.441    0.306
        45 -11.5187    114.8998    130.1410   9.7890808426e+01   3.3349260411e+01     0.336482     0.282256  -8.85  0.001046176    1.545    0.353
        46 -11.4846    119.9786    124.1368   9.5369032052e+01   3.3659103782e+01    0.5444724    0.3305674 -18.57  0.001950312    3.608    0.723
        47 -11.2118    135.7908    127.7081   9.2158759663e+01   2.9887172205e+01    0.4716348    0.1796638 -51.08  0.001691616    3.014    0.668
        48 -11.6206     55.5543    211.4464   1.2135056820e+02   2.6116916998e+01    0.1834727    0.1284189  57.01 0.0001655554    1.089    0.082
        49 -10.2375    160.3876    127.5556   8.6441133973e+01   2.4978107140e+01    0.2938067    0.2525336 -77.04  0.001592387    1.491    0.329
        50 -10.0369     94.1812    250.1009   1.1669534498e+02   1.5662881357e+01    0.1480185    0.1068865  37.74 0.0004565382    1.179    0.152
        51 -10.2635    110.1689    119.0599   9.6906162788e+01   3.6565702632e+01    0.2292947    0.1949087  46.19 0.0003009241    1.121    0.108
        52 -10.1029    168.0187    113.0024   8.1414482943e+01   2.5943708460e+01    0.3339705    0.2403631 -81.42  0.001448099    2.373    0.579
        53 -10.7039    135.0000    112.0812   8.8845821958e+01   3.3145459840e+01    0.3954263   0.08503943 -45.28  0.001043545    4.864    0.794
        54 -10.1804    205.6283    110.1125   7.3443674159e+01   1.8387967789e+01    0.2596387    0.1920552  36.47 0.0006368585    1.323    0.244
        55 -11.7908    119.0057    109.9909   9.2507916592e+01   3.6818800922e+01    0.6146344    0.3714334  49.36  0.002754186    1.630    0.387
        56 -12.2645     51.9354    208.8378   1.2191276912e+02   2.6970247410e+01     0.251252    0.1449196  50.74 0.0006900872    1.282    0.220
        57 -12.0047     53.4358     91.1287   1.0884350789e+02   5.1997007462e+01    0.3881145    0.2377649 -72.40  0.001583932    1.568    0.362
        58 -11.3507     41.6570     91.8422   1.1315924240e+02   5.3165590724e+01    0.2422524    0.2072464 -74.27 0.0005532757    1.064    0.060
        59  -8.9230    154.2795     80.3523   7.5716964091e+01   3.4903962868e+01    0.1571429    0.1203546   8.37 0.0007011981    1.650    0.394
        60  -9.9255     70.0510     72.0809   9.8317447298e+01   5.4257500638e+01    0.2122607    0.1947301  78.98 0.0004613849    1.128    0.113
        61 -11.9620    164.2688     64.9308   6.8883027832e+01   3.5086822720e+01    0.5484316    0.4003633 -79.99 0.0005040631    1.862    0.463
        62 -19.1571     12.5283    105.6585   1.2471104518e+02   5.2297595484e+01     16.11254    0.8010481 -78.41   0.02868025   15.064    0.934
        63 -13.3755    176.5896     47.8860   6.1185310413e+01   3.4513568467e+01    0.7742273    0.6601897  -1.79 0.0007526137    1.271    0.213
        64 -10.5791     60.3313    230.1149   1.2153143197e+02   2.2546584338e+01    0.1531063   0.09814633  64.94 0.0004837583    1.363    0.266
