#   1 NUMBER                 Running object number                                     
#   2 MAG_AUTO               Kron-like elliptical aperture magnitude                    [mag]
#   3 X_IMAGE                Object position along x                                    [pixel]
#   4 Y_IMAGE                Object position along y                                    [pixel]
#   5 X_WORLD                Barycenter position along world x axis                     [deg]
#   6 Y_WORLD                Barycenter position along world y axis                     [deg]
#   7 A_WORLD                Profile RMS along major axis (world units)                 [deg]
#   8 B_WORLD                Profile RMS along minor axis (world units)                 [deg]
#   9 THETA_WORLD            Position angle (CCW/world-x)                               [deg]
#  10 FWHM_WORLD             FWHM assuming a gaussian core                              [deg]
#  11 ELONGATION             A_IMAGE/B_IMAGE                                           
#  12 ELLIPTICITY            1 - B_IMAGE/A_IMAGE                                       
         1 -13.4677    194.9850     28.5315   6.9016651908e+01   3.2465236203e+01     1.594337     1.406404  38.30  0.007265986    1.253    0.202
         2 -13.4803    211.3030      8.2722   6.1625226532e+01   3.0463590657e+01     1.151805    0.8983326  45.03   0.00655993    1.468    0.319
         3 -12.3533      2.5840     12.8786   1.2377756870e+02   7.2462093349e+01    0.7323005    0.2320651 -53.32  0.003647087    2.489    0.598
         4 -10.7827     18.8616      6.1923   1.1162031256e+02   7.2344575538e+01     0.202219     0.125145  44.05  0.001165136    2.785    0.641
         5  -8.7252     75.7046    243.3157   1.4013581621e+02   1.7041443141e+01    0.1176903   0.06478404  64.16 0.0002176008    1.604    0.376
         6 -11.1883    240.8038    249.5995   1.1112390981e+02  -9.3477312144e+00    0.3608888    0.1364991  45.44  0.001699115    2.952    0.661
         7 -11.9146    138.7016    249.9662   1.2937022998e+02   6.5925002600e+00    0.5092399     0.176821  43.26  0.002392449    2.145    0.534
         8 -10.2348     98.0943    249.7972   1.3669703528e+02   1.2828230958e+01    0.1834447    0.1520991 -23.51  0.001254375    2.135    0.532
         9 -10.9807     45.9904    249.2125   1.4563923740e+02   1.9843018617e+01    0.2767419    0.1330869  55.63  0.001648144    1.514    0.339
        10 -14.2464     96.9829    228.4052   1.3486754998e+02   1.6554560253e+01     4.391602          nan  44.34  0.009522683   10.195    0.902
        11  -8.8627     57.3638    240.2730   1.4313886997e+02   1.9959774658e+01   0.09193396   0.08375992  29.33 0.0004175182    1.662    0.398
        12 -10.7491     22.9114    236.8724   1.4879209910e+02   2.4532356756e+01    0.2692931    0.1706549 -52.55  0.001808675    2.616    0.618
        13 -10.1326     80.8468    248.9292   1.3967307050e+02   1.5411540567e+01    0.2121921    0.1282582  73.60  0.001366029    1.624    0.384
        14 -15.2361     12.9834    158.3732   1.4586302029e+02   4.0898943779e+01     10.04213     3.291229  85.70   0.03695931    4.347    0.770
        15 -11.0886      2.6510    248.0405   1.5245805617e+02   2.4673083327e+01    0.3081951    0.1791334 -87.41  0.002435419    1.509    0.337
        16 -10.1360    174.1919    222.7094   1.1907699107e+02   4.6709337698e+00    0.3461113    0.2493403  65.37  0.001943968    1.863    0.463
        17 -13.9851     39.5286    227.0467   1.4540076075e+02   2.4446293935e+01    0.7370626    0.5237392  65.45   0.00236778    1.032    0.031
        18 -12.7615      9.2375    207.3609   1.4967501538e+02   3.1258301441e+01    0.6751572    0.5703378  33.57  0.003625387    1.640    0.390
        19 -12.5006     11.5856    239.4576   1.5074492733e+02   2.5244243633e+01    0.5885963    0.2310734  79.33  0.003488695    2.292    0.564
        20  -8.8349    152.5173    212.9857   1.2191500206e+02   1.0027111383e+01    0.1595272    0.1334014 -50.95 0.0003080902    1.447    0.309
        21 -11.6959     60.9826    199.8401   1.3919536030e+02   2.7026297480e+01    0.2495282    0.2218065 -66.80  0.000496832    1.392    0.282
        22  -9.5069    192.1901    193.5921   1.1067485700e+02   5.8725545778e+00    0.3682079    0.2240329 -67.61  0.001366701    4.257    0.765
        23 -11.1125     17.0243    198.2847   1.4774801639e+02   3.2279791276e+01      0.25117     0.151678  58.63 0.0005454828    1.343    0.255
        24  -8.2928     50.2750    196.6537   1.4109230595e+02   2.9009900827e+01    0.1254451   0.07168747  70.17 0.0005131178    1.627    0.386
        25 -12.0198     67.3008    191.3866   1.3703126803e+02   2.7911940167e+01    0.2543594    0.2250497 -71.24  0.000477061    1.298    0.230
        26 -11.5657      6.3296    188.6538   1.4922751462e+02   3.5161389402e+01    0.3180049    0.1526944 -74.91  0.001962224    1.775    0.437
        27 -13.2884     64.1654    176.5899   1.3608675416e+02   3.1454091255e+01     0.461582    0.2709073 -47.08  0.001654695    2.230    0.552
        28 -10.8987     77.4846    178.3236   1.3327556477e+02   2.9241293836e+01    0.2257495    0.2030076  73.63 0.0003482189    1.089    0.082
        29  -9.7509     98.7074    175.4887   1.2800620149e+02   2.6582557248e+01    0.2789367    0.1832332  70.82 0.0007640526    1.712    0.416
        30 -11.8526     85.1555    168.9939   1.3024053151e+02   3.0126746077e+01    0.6254933    0.5893947  24.20  0.003953149    1.309    0.236
        31  -9.5510    162.3286    249.3114   1.2497392510e+02   2.8910627481e+00    0.1179741   0.08069737  20.71 0.0003412918    1.667    0.400
        32  -9.1525    100.7003    148.4773   1.2307689305e+02   3.2184631701e+01    0.1804029    0.1379785  28.66 0.0009207016    1.492    0.330
        33 -12.1059     86.2303    152.1284   1.2739548023e+02   3.3723969974e+01    0.2847592    0.2435563 -47.63 0.0006676294    1.314    0.239
        34  -8.9723    134.0000    146.5882   1.1433173688e+02   2.6352762488e+01    0.4827125   0.08622037 -48.80  0.001151254    5.884    0.830
        35 -12.3402     67.2822    143.7027   1.3093036545e+02   3.8405744419e+01    0.6869195    0.4326654  66.06  0.003455821    1.783    0.439
        36 -10.1389     97.5549    152.9714   1.2467539350e+02   3.1706480397e+01    0.3576945    0.2915787 -34.34 0.0008531893    1.521    0.343
        37  -8.4402    192.3005    144.2758   1.0053307979e+02   1.4278612255e+01     0.149769    0.1128312  13.88  0.000244573    1.537    0.349
        38  -8.4516    180.7678    144.3257   1.0298737057e+02   1.6801874541e+01    0.1412477    0.1189554 -73.85 0.0003041955    1.517    0.341
        39  -9.8421    109.2850    137.8697   1.1879647546e+02   3.3054489704e+01    0.4324704    0.2871876 -18.40  0.001423014    2.691    0.628
        40 -11.1190     57.4903    132.4971   1.3179561101e+02   4.2265402151e+01    0.5253592    0.1929101 -75.45  0.001696699    4.185    0.761
        41 -10.5317     96.5611    135.0129   1.2160001287e+02   3.5954725842e+01    0.2415241     0.232797   0.46 0.0004555188    1.191    0.161
        42 -11.2597    124.9848    249.9321   1.3186540320e+02   8.7529563759e+00    0.4685919    0.1029697  42.61  0.001790783    3.306    0.698
        43  -8.9907    106.6612    124.1232   1.1654914714e+02   3.6648810487e+01    0.1916967    0.1777039 -48.40 0.0003477597    1.100    0.091
        44 -10.6561     33.1540    132.4900   1.3836004997e+02   4.4904124291e+01    0.3588812    0.1568079  53.44  0.001651383    2.618    0.618
        45  -9.4901    167.5530    112.8028   9.8228345837e+01   2.5916649032e+01    0.2978205    0.2415631  87.33  0.001149389    1.572    0.364
        46  -9.6408    203.1312    111.4064   9.0405266735e+01   1.7696092395e+01    0.2658402    0.2100818 -18.63  0.000746963    1.346    0.257
        47  -9.2567     38.4110     94.8678   1.3092434631e+02   5.3081904665e+01    0.1848217    0.1666176  63.09 0.0004834233    1.250    0.200
        48  -8.5845     68.2659     83.4124   1.1826243224e+02   5.2156604465e+01     0.167386    0.1294015  47.44 0.0004459908    1.473    0.321
        49  -9.7923    157.7485     76.2412   9.0149936632e+01   3.5211199224e+01    0.2220941    0.1847016  19.84  0.001060049    1.343    0.256
        50  -9.7951     40.9657     66.6320   1.2355923144e+02   5.9097456159e+01    0.4514942    0.1688938  46.72  0.001594132    4.774    0.791
        51 -11.2438      2.2150     61.3455   1.3730380890e+02   6.3003231242e+01    0.2936488    0.1502496 -67.24  0.001710444    1.559    0.358
        52 -10.9449     14.0091     55.0010   1.3125808577e+02   6.3722335079e+01    0.2339665    0.1623235  29.45 0.0008749658    1.771    0.435
        53 -11.6562      3.1331     38.9880   1.3193608742e+02   6.7562376201e+01    0.3200091     0.200764 -56.32  0.001850434    1.246    0.198
        54 -10.1852    248.9118    249.2548   1.0971661778e+02  -1.0459118451e+01    0.2317161    0.1183246  24.12  0.001390905    1.603    0.376
        55 -12.9061     34.4236    234.1001   1.4671240244e+02   2.3765953902e+01    0.3173223    0.2251571 -85.55 0.0007884136    1.361    0.265
        56 -11.3724     21.3958    244.3487   1.4939238003e+02   2.3413407279e+01    0.3776687    0.1398845  64.18  0.002192917    2.195    0.544
