#   1 NUMBER                 Running object number                                     
#   2 MAG_AUTO               Kron-like elliptical aperture magnitude                    [mag]
#   3 X_IMAGE                Object position along x                                    [pixel]
#   4 Y_IMAGE                Object position along y                                    [pixel]
#   5 X_WORLD                Barycenter position along world x axis                     [deg]
#   6 Y_WORLD                Barycenter position along world y axis                     [deg]
#   7 A_WORLD                Profile RMS along major axis (world units)                 [deg]
#   8 B_WORLD                Profile RMS along minor axis (world units)                 [deg]
#   9 THETA_WORLD            Position angle (CCW/world-x)                               [deg]
#  10 FWHM_WORLD             FWHM assuming a gaussian core                              [deg]
#  11 ELONGATION             A_IMAGE/B_IMAGE                                           
#  12 ELLIPTICITY            1 - B_IMAGE/A_IMAGE                                       
         1 -14.9323     68.4824    144.2718   1.0921338036e+02   3.7375489367e+01     5.124507     2.326342  64.73  0.003420884    4.046    0.753
         2 -13.1644    229.8743      2.7298   3.7298711139e+01   2.7005408508e+01     1.840413    0.4448747  63.17  0.005426363    3.529    0.717
         3 -14.3515    196.0647     37.1260   4.9790274919e+01   3.1320446455e+01     1.686139     1.373703  -4.31  0.004959879    1.514    0.340
         4 -14.6897    206.2838     25.9739   4.5410403479e+01   3.0138594070e+01     1.764498     1.346123  27.01  0.002111492    1.732    0.422
         5  -9.9385    155.5085     11.0515   4.7847728427e+01   4.4831522589e+01    0.2114822    0.1727375  67.59 0.0004123767    1.109    0.099
         6 -10.5299     64.0789      8.8729   6.9366857341e+01   6.5662609765e+01    0.1768619    0.1659574   8.32 0.0005700503    1.296    0.229
         7 -12.8675     58.1953      3.6086   6.8933171311e+01   6.7251448461e+01    0.6825502    0.3694185  35.24  0.003747649    1.678    0.404
         8 -12.0805     31.3741      2.9886   8.0427887848e+01   7.1263915112e+01    0.3209421    0.2137123  36.48  0.002071328    1.761    0.432
         9  -9.3156    113.8269    208.5657   1.0801007998e+02   1.6121886104e+01     0.186884     0.104429  51.64 0.0004429108    1.609    0.379
        10 -11.0948    139.7965    249.1644   1.0796684884e+02   4.9183732361e+00    0.3349622    0.2584026  74.98  0.002227092    1.541    0.351
        11  -9.7735    117.9007    250.5139   1.1211906447e+02   8.1068833789e+00    0.1824082   0.09227768  43.37 0.0004116899    1.542    0.352
        12 -14.8759     85.6492    229.4292   1.1599463536e+02   1.6526729835e+01     1.913157     1.320663  71.20  0.007601582    1.321    0.243
        13 -14.8295     47.2050    219.9354   1.2240901842e+02   2.3454887742e+01     1.279935     1.184893 -29.48  0.009490379    1.780    0.438
        14 -16.2905     53.0685    199.8031   1.1959912646e+02   2.6797190299e+01     4.059275     3.096336 -84.78   0.01997294    1.188    0.158
        15 -16.5695     60.8047    247.5468   1.2199089746e+02   1.6679099828e+01     7.935605     2.447596  31.61   0.01991872    7.690    0.870
        16  -9.4496     95.0669    189.3874   1.0947231755e+02   2.3072532966e+01    0.3070574     0.229862   6.77  0.001062668    2.242    0.554
        17  -9.6905     99.0027    186.4108   1.0818491041e+02   2.3081073069e+01    0.2468062    0.1741639  89.66 0.0006679651    1.552    0.356
        18  -9.1871    154.3294    185.6801   9.5781249855e+01   1.3365872055e+01    0.1436952    0.1087467  73.75  0.000704802    1.689    0.408
        19 -10.5847    146.8938    184.3575   9.7169147276e+01   1.5033595285e+01    0.2343399    0.1991863 -72.98   0.00114419    1.340    0.254
        20 -10.4731     99.4048    180.6198   1.0725755377e+02   2.4271797513e+01     0.237088     0.223664  60.24 0.0006487552    1.138    0.121
        21 -12.1607     72.0121    176.5664   1.1297850462e+02   2.9345022103e+01    0.3909825    0.2786372 -39.16  0.001460088    1.972    0.493
        22 -12.1345     76.0352    171.5032   1.1137777258e+02   2.9918932772e+01    0.3290156    0.2704737 -45.77  0.001254725    1.485    0.326
        23  -9.5327    219.2709    177.3536   8.0899153718e+01   2.4425620475e+00    0.1415051   0.09848087   0.46 0.0001839052    1.635    0.388
        24 -11.5503     47.1365    172.9890   1.1821982551e+02   3.3364325546e+01    0.4470501    0.2498768 -64.48  0.001563912    1.652    0.395
        25 -14.0336     53.2870    146.4933   1.1348953131e+02   3.8801557593e+01     5.149688    0.6110414  44.16   0.01300192    7.440    0.866
        26 -10.4428    132.9864    171.7236   9.8035327076e+01   2.0264208303e+01    0.2145095    0.1825642  47.62 0.0007154275    1.107    0.097
        27 -11.8007    203.5368    199.2906   8.8165542461e+01   1.8180912916e+00    0.3242687    0.2279058 -25.93  0.001790638    1.512    0.338
        28 -11.1721    208.6096    196.6521   8.6700494629e+01   1.3264169515e+00    0.2394139    0.2264049  11.79 0.0006421782    1.180    0.153
        29 -10.0045    161.6607    166.2206   9.0452124550e+01   1.5770835552e+01    0.2194148    0.1860036 -72.20 0.0006681995    1.396    0.284
        30  -8.7637    143.2707    159.6766   9.3322192322e+01   2.0838196486e+01    0.1473749    0.1165006  85.83 0.0002653658    1.572    0.364
        31 -12.2444     90.7690    155.2859   1.0531866823e+02   3.1429753549e+01    0.6016258     0.439582 -27.80  0.002930522    1.991    0.498
        32 -11.3008    133.6324    144.1549   9.2381959667e+01   2.6183072959e+01     1.198225    0.2916868 -54.09  0.002817886    5.825    0.828
        33 -10.3903     65.3696    155.2518   1.1168088486e+02   3.5182944327e+01     0.270385     0.175394  40.39 0.0008335061    1.605    0.377
        34 -10.6568    174.4546    148.9676   8.3917284708e+01   1.6572251628e+01     0.295967    0.2585356  63.65 0.0007575674    1.263    0.208
        35 -11.3251     41.2598    147.5559   1.1668287361e+02   3.9920287618e+01    0.3179742    0.1820521  48.52  0.001522159    1.788    0.441
        36 -10.7670    144.0207    146.2037   9.0300236783e+01   2.3601703058e+01    0.3681431    0.2163882 -65.61  0.001410521    2.382    0.580
        37  -9.9586     86.1115    145.1400   1.0474435363e+02   3.4570071927e+01    0.2112063     0.189254  86.62  0.000419067    1.046    0.044
        38 -10.4862    172.4930    238.9565   1.0056600239e+02   1.1584649431e+00    0.2422558    0.1997965 -56.30  0.001614179    1.605    0.377
        39 -11.0865    104.2118    140.1453   9.9041648871e+01   3.2722880669e+01    0.5578972    0.3779052 -28.66  0.002450036    2.089    0.521
        40 -12.4551     91.5908    140.2452   1.0239459931e+02   3.4857817262e+01    0.2875747    0.2564533 -54.59 0.0004282937    1.142    0.125
        41  -9.4029     79.0750    139.4531   1.0558558009e+02   3.7012847229e+01    0.1947692    0.1375562  40.97 -5.848209e-06    1.488    0.328
        42 -11.4252     46.1143    137.9979   1.1415576551e+02   4.1664783156e+01    0.5398558    0.1283781 -63.19  0.001888722    3.266    0.694
        43 -10.3183     41.8058    133.3579   1.1464437338e+02   4.3244858122e+01    0.2177911    0.1709117  24.90 0.0005742261    1.585    0.369
        44 -12.8732     44.6929    128.4477   1.1312927984e+02   4.4115942095e+01    0.8005353    0.4424768  66.55  0.003707298    2.318    0.569
        45  -9.6237     38.8572    137.8849   1.1605196993e+02   4.2470330072e+01    0.1863377    0.1502728 -61.57 0.0002632437    1.202    0.168
        46 -13.7816     72.6160    157.5104   1.1020925307e+02   3.3651245720e+01    0.5669971    0.4919589 -44.51  0.001595784    1.372    0.271
        47 -10.6680    106.0340    130.4832   9.6516665046e+01   3.4674409076e+01    0.3997812    0.2927141 -60.38  0.001937361    1.346    0.257
        48 -11.2575    135.5969    127.2341   8.8004020117e+01   2.9573290228e+01    0.7687883    0.1504759 -49.36   0.00174846    5.672    0.824
        49 -10.3075    112.4847    130.5512   9.4802084603e+01   3.3458496824e+01    0.2953677    0.2579105 -11.06 0.0007239132    1.395    0.283
        50 -10.2786    160.6812    127.8671   8.2051965276e+01   2.3945594830e+01    0.3763072     0.223828 -45.22  0.001553597    1.690    0.408
        51 -11.1883     99.7261    126.9193   9.7452675313e+01   3.6650564540e+01    0.3875403    0.2900089 -10.92  0.001403503    1.988    0.497
        52 -11.4123    119.0028    124.5110   9.1667287813e+01   3.3598762362e+01    0.6776326     0.407625 -25.94  0.002518279    2.641    0.621
        53 -13.1405     84.1113    162.3223   1.0810856761e+02   3.0831455898e+01     1.352869    0.5258281  57.15 0.0004695242    3.900    0.744
        54 -15.3940     10.1271    206.3932   1.2833381504e+02   3.0137501916e+01    0.6144897    0.5982842  -8.01  0.002435642    1.706    0.414
        55 -10.1971    108.7020    119.2130   9.3199192280e+01   3.6826042204e+01    0.2285079    0.2003174  59.27 0.0003848663    1.190    0.159
        56 -12.4910     43.6766    115.3118   1.1128432958e+02   4.7387657409e+01    0.4799434    0.3298255  57.01  0.002644459    1.656    0.396
        57 -10.4050    135.0000    112.5277   8.4442599363e+01   3.2973946166e+01    0.5008548    0.0888245 -45.05  0.001118812    5.566    0.820
        58  -9.8189    167.4691    112.4417   7.6539530906e+01   2.5588211952e+01    0.3495188     0.240938 -79.72  0.001157924    2.343    0.573
        59 -12.0888    118.5722    108.6646   8.7811132248e+01   3.7310412903e+01    0.7470347    0.5476237 -53.92   0.00349204    1.365    0.267
        60 -11.3335     46.2039    110.1347   1.0960184592e+02   4.8361233370e+01    0.2696753    0.2289502 -58.08  0.001468051    1.075    0.070
        61 -12.0635     41.0336    108.1918   1.1082337021e+02   4.9367833867e+01    0.3850685    0.2469423  53.85  0.001510881    1.843    0.457
        62 -10.0617    205.6029    110.1318   6.8067927214e+01   1.7086549441e+01    0.2761787    0.2207213  41.85 0.0006225944    1.306    0.235
        63 -10.0929    134.5218    104.4876   8.2402720805e+01   3.4836511976e+01    0.5321257    0.1539998 -43.59  0.001524743    3.410    0.707
        64 -12.0999     53.4001    110.1202   1.0740815598e+02   4.7551541302e+01    0.3822717    0.2941598 -58.62  0.001956186    1.129    0.115
        65  -9.8913    241.3415    101.6881   5.9967176703e+01   1.0611474341e+01    0.1458529    0.1054636 -64.19 0.0001127219    1.699    0.411
        66 -11.9114     20.9772    111.2555   1.1733194084e+02   5.0422676186e+01    0.4617696    0.1763961  41.69  0.002109891    2.956    0.662
        67 -10.3200     59.4692     97.1470   1.0273259716e+02   4.9896794545e+01    0.2583176    0.2001527  47.64  0.001433869    1.475    0.322
        68 -11.4286     52.9729     91.9331   1.0365142724e+02   5.1911970570e+01    0.5293891    0.2718476 -62.39   0.00186986    1.819    0.450
        69 -11.3090     41.7837     91.6885   1.0732832386e+02   5.3195385046e+01    0.3197702     0.225999 -33.86  0.001273285    1.505    0.336
        70  -8.9480    161.7214     89.3195   7.1431995356e+01   3.1575670565e+01    0.1593563    0.1242496 -71.64 0.0002635287    1.579    0.367
        71  -9.7635    157.2594     80.9810   6.9986509653e+01   3.4260410271e+01    0.2232773     0.203067 -38.28 0.0004523801    1.096    0.088
        72  -9.4595    184.2097     77.1155   6.3209056884e+01   2.8211414665e+01    0.2368349    0.2125553   9.78 0.0007420302    1.254    0.203
        73 -10.4530     61.1621     68.5239   9.4490916352e+01   5.6112688379e+01    0.2926747    0.2270492  59.69  0.001048728    1.761    0.432
        74 -17.9219      5.9043    240.3273   1.3064636344e+02   2.4169517150e+01     11.10174     1.467897 -77.47   0.03279689    6.226    0.839
        75 -13.7716    186.2612     44.7729   5.3451131673e+01   3.2799909460e+01     1.233868    0.8719116  32.72 0.0009785979    1.738    0.425
        76 -10.2206     81.9460    195.0162   1.1304986536e+02   2.3878520011e+01    0.2513153    0.2037824  60.54 0.0008442597    1.083    0.077
        77  -9.5556    111.7603    217.7941   1.0960691602e+02   1.4702497467e+01    0.1781626    0.1545108  48.33 0.0004137943    1.130    0.115
        78 -10.7783    151.4564     54.7493   6.3061985245e+01   4.0278423669e+01    0.2841998    0.2568459 -84.18 0.0003505093    1.207    0.171
        79 -10.9792    153.1038     48.3061   6.0603924116e+01   4.0854551911e+01    0.3458693    0.2831037 -79.68   0.00149822    1.427    0.299
        80 -11.8672     13.9601     43.6575   1.0593723407e+02   6.5982203990e+01    0.2365248    0.1843624 -36.90  0.001310755    1.065    0.061
        81 -12.3882     18.8999     33.6015   1.0040311252e+02   6.7585448367e+01    0.4771659     0.200824  28.99  0.002462441    2.737    0.635
        82 -11.8114     34.1551     16.3335   8.5860727395e+01   6.9058981771e+01    0.3607848    0.1048685  31.39  0.001472618    3.752    0.733
        83  -9.7471    189.6879     14.9851   4.4371102294e+01   3.5612333141e+01     0.190576    0.1742395 -51.39  0.000594768    1.134    0.118
        84  -9.1491    130.5365    213.0224   1.0516279136e+02   1.2478437464e+01     0.172801    0.1302704 -61.08 0.0004296819    1.517    0.341
        85 -12.1760    193.1621    194.8420   8.9377879001e+01   4.4087265860e+00     1.027722    0.5725132 -65.57  0.003204618    5.882    0.830
        86 -10.1717    107.8770    203.3673   1.0857132426e+02   1.8119815824e+01    0.2169143    0.1692703 -88.68 0.0006186645    1.342    0.255
