#   1 NUMBER                 Running object number                                     
#   2 MAG_AUTO               Kron-like elliptical aperture magnitude                    [mag]
#   3 X_IMAGE                Object position along x                                    [pixel]
#   4 Y_IMAGE                Object position along y                                    [pixel]
#   5 X_WORLD                Barycenter position along world x axis                     [deg]
#   6 Y_WORLD                Barycenter position along world y axis                     [deg]
#   7 A_WORLD                Profile RMS along major axis (world units)                 [deg]
#   8 B_WORLD                Profile RMS along minor axis (world units)                 [deg]
#   9 THETA_WORLD            Position angle (CCW/world-x)                               [deg]
#  10 FWHM_WORLD             FWHM assuming a gaussian core                              [deg]
#  11 ELONGATION             A_IMAGE/B_IMAGE                                           
#  12 ELLIPTICITY            1 - B_IMAGE/A_IMAGE                                       
         1 -10.8610      5.3381     38.1165   1.0278606730e+02   6.7794605593e+01    0.5978933    0.4848872  76.26    0.0029451    1.988    0.497
         2 -11.5241     14.4693     39.2001   9.8806735914e+01   6.6978060672e+01     0.598076    0.3867511 -62.28  0.002438064    1.756    0.430
         3  -5.9184     10.0923     23.2024   9.5029994637e+01   7.0215330554e+01    0.3872105    0.1293229 -39.87  0.001862292    2.304    0.566
         4 -10.2983     40.7811     20.7852   7.8926514757e+01   6.7381204457e+01    0.9851903    0.3105448 -42.37  0.003965811    3.389    0.705
         5 -11.7612     18.2925     22.5861   9.0541454563e+01   6.9635701380e+01    0.7026585      0.36543 -53.32  0.002719266    2.304    0.566
         6 -12.3718    107.6485     29.2505   5.9478202769e+01   5.4091420673e+01    0.5114771    0.3853068 -24.00  0.001258886    1.366    0.268
         7  99.0000     36.1384     20.7998   8.1044071837e+01   6.7980779512e+01    0.9720493    0.4196116 -29.91  0.004707109    2.196    0.545
         8 -11.4484    165.7945     18.3186   4.4423035666e+01   4.1338478464e+01    0.4083125    0.2908339  48.83 0.0007709617    1.410    0.291
         9 -12.5081    116.8909     22.3215   5.4602588981e+01   5.2805700697e+01     0.293409    0.2807738  78.54 0.0005368175    1.166    0.142
        10  -9.9712    123.9597     22.5087   5.3115645865e+01   5.1130705206e+01    0.4162481    0.3231456 -65.79  0.001076347    1.620    0.383
        11 -10.0196    132.3794     21.6340   5.1083064444e+01   4.9214754531e+01    0.8165911     0.309517 -31.96  0.003270463    2.661    0.624
        12  -9.7589    127.4628     18.8108   5.1060964157e+01   5.0694509275e+01    0.4527259    0.2341127 -52.36  0.001890482    2.708    0.631
        13 -10.6678    183.1017     17.5111   4.1914212754e+01   3.7145064774e+01    0.5637323    0.3269306  30.72  0.001667503    2.592    0.614
        14 -10.8485     26.8807     21.2118   8.5641592641e+01   6.9000293189e+01    0.5568611    0.2806208 -13.42  0.002654283    2.617    0.618
        15 -10.2102    218.7412     19.0030   3.8476948039e+01   2.8472543155e+01    0.4256265    0.3247655  57.65   0.00254706    1.446    0.308
        16 -11.7103      5.1338     16.0182   9.4676713964e+01   7.1793495271e+01    0.5314228    0.4633635 -40.64  0.001695585    1.419    0.295
        17  -8.4325      6.0170      9.2063   9.1065535728e+01   7.2816432042e+01     0.660166    0.2398787  35.45  0.003154258    3.885    0.743
        18 -10.4089     30.5354      4.1009   7.5320483820e+01   7.0950526244e+01    0.4829564    0.1891946 -25.86  0.001373953    2.494    0.599
        19 -10.0791     17.6300      1.8008   8.0704249429e+01   7.2779943599e+01    0.3825592    0.1979231  12.38  0.002113833    2.084    0.520
        20  -9.7195     23.6813      1.3848   7.7264162988e+01   7.2139330915e+01    0.1605003     0.119235  23.59 0.0001489613    1.381    0.276
        21 -11.1404     24.8932      6.6981   7.9518929758e+01   7.1320075838e+01    0.2323264    0.1789742 -30.95 0.0003887569    1.424    0.298
        22 -11.8549     20.3265      6.9200   8.2007397894e+01   7.1806382282e+01    0.3885622    0.2106479 -30.23  0.002364431    1.547    0.354
        23 -11.8303     16.1400      7.9238   8.4771222141e+01   7.2102505056e+01    0.4605481    0.2357054 -30.06  0.002742141    1.611    0.379
        24 -10.0142    199.5772     18.1445   4.0194722850e+01   3.3073627335e+01    0.3946297    0.2356318 -22.94  0.001985589    1.947    0.486
        25 -10.1034     61.0050     17.2972   6.8953189270e+01   6.4773408621e+01    0.4273614    0.2673751  18.57   0.00154356    1.619    0.382
        26 -11.3094     68.1009     14.6896   6.5171882301e+01   6.3837310161e+01    0.4916814    0.2975618 -14.12  0.001516086    1.666    0.400
        27 -10.4386    230.2434     15.2231   3.6577858791e+01   2.6304934235e+01    0.3679516    0.1777704 -30.04  0.001537347    2.129    0.530
        28  -9.7711    225.6521     16.9922   3.7375776676e+01   2.7130455572e+01    0.2661453    0.2203107 -19.49  0.001138587    1.495    0.331
        29  -9.7073     45.5809     15.4949   7.4294568306e+01   6.7438842534e+01    0.4042151    0.2606102  30.99   0.00243831    1.490    0.329
        30  -9.4826    117.0056     15.0799   5.1863630941e+01   5.3537804782e+01    0.3420123    0.2040023  45.97  0.001109579    1.506    0.336
        31 -10.9725    175.2718     11.5827   4.1210746765e+01   3.9685459869e+01     0.526166    0.3271132  39.35  0.001332346    1.919    0.479
        32  -8.9120    179.4756     13.4800   4.1233973480e+01   3.8459807891e+01    0.1925604    0.1776559  32.74  0.000589602    1.258    0.205
        33  -9.6694    209.7381     13.8068   3.8073028308e+01   3.1142370169e+01     0.239129    0.2060386  87.96 0.0006182509    1.082    0.076
        34  -9.5052    212.0096      9.0985   3.6719854162e+01   3.1115891750e+01    0.3705658    0.2230657  57.04  0.002000079    1.751    0.429
        35 -10.9489    133.1446     12.7814   4.7857877037e+01   4.9929724389e+01    0.2287265    0.2139232  34.89 0.0003085735    1.079    0.073
        36 -10.2615     89.1251     13.3633   5.8010744845e+01   5.9874559076e+01    0.2195841    0.1929793  13.76 0.0004212013    1.062    0.058
        37  -9.3782     39.7654     10.7220   7.4477215002e+01   6.8884818147e+01    0.4220899    0.1940119  43.82  0.002125356    2.547    0.607
        38  -8.8650     51.6298     13.7670   7.0925888820e+01   6.6739997697e+01    0.2653437    0.1292313 -27.10 0.0007389927    1.945    0.486
        39  -8.7492     46.4588      8.5064   7.0437944177e+01   6.8171792031e+01    0.2143376    0.1012176  35.73 0.0006272517    1.983    0.496
        40  -9.6254     53.5748     10.0294   6.8309383033e+01   6.6871189203e+01    0.3157637    0.2774462  78.94  0.001084906    2.002    0.501
        41  -8.9752     49.6697      8.3316   6.9021393238e+01   6.7691947375e+01    0.2670972    0.2009726  -2.72   0.00171741    1.126    0.112
        42 -10.8234    147.1748     12.0946   4.5266038890e+01   4.6572938358e+01    0.6133518    0.3470051  77.41   0.00166149    1.849    0.459
        43  -9.3225    142.3589      7.8797   4.4646353251e+01   4.8141307809e+01    0.2430715    0.1324816 -11.99 0.0009935576    2.273    0.560
        44  -9.8987     32.4813     12.3636   7.8686621263e+01   6.9639433509e+01    0.2067685    0.1835585 -11.44 0.0007408034    1.341    0.254
        45  -9.2711     26.5780     12.5263   8.1656011603e+01   7.0328529381e+01    0.2285711    0.2005277  31.92  0.001079686    1.628    0.386
        46  -9.1278    219.0040     11.5024   3.6676182282e+01   2.9249167491e+01    0.2507955    0.1464921 -51.40  0.001115907    1.548    0.354
        47  -8.8075     79.3164     10.3610   5.9545440407e+01   6.2169187204e+01    0.2615289    0.1124178 -12.89  0.001080838    2.952    0.661
        48  -9.9803    224.8042      9.0962   3.5631712589e+01   2.8194847079e+01    0.2256193    0.1735508 -61.07            0    1.122    0.109
        49  -9.4093    224.3083      3.6131   3.4424723916e+01   2.8881659947e+01    0.2388402     0.191665 -20.31 0.0008263294    1.555    0.357
        50 -10.3038    164.9323      7.5919   4.1349889186e+01   4.2616967072e+01      0.34273    0.2175943 -39.97 0.0004813678    1.643    0.391
        51 -10.8734    160.2815      2.8284   4.0524913400e+01   4.4186487420e+01    0.4613421    0.2770509  67.43 0.0008254505    1.454    0.312
        52  -9.0430    108.7824      1.4268   4.8365496418e+01   5.6634212501e+01    0.3315315    0.1623804  48.11  0.001157421    1.722    0.419
        53 -10.5036    107.4567      6.3450   5.0574477074e+01   5.6534458900e+01    0.4193705    0.3528682 -19.74  0.002619268    1.298    0.229
        54  -9.5296    111.5037      6.5028   4.9769328346e+01   5.5598803394e+01     0.236801    0.2320581 -41.32 0.0009846336    1.186    0.157
        55 -10.8026    248.1085      5.0565   3.3048467095e+01   2.3583837161e+01    0.3651632    0.2894569  -3.09 0.0004105666    1.937    0.484
        56  -9.9809    202.7742      8.7330   3.7480550646e+01   3.3317630304e+01    0.2271643    0.1800191 -68.73  0.001392004    1.140    0.123
        57  -9.1607     92.2595      7.9629   5.4860967438e+01   5.9734908504e+01    0.3549445    0.1874272 -13.39  0.001670706    2.093    0.522
        58  -9.2090     81.5356      2.0310   5.5141312332e+01   6.2487019167e+01    0.2335824     0.200988  76.24   0.00149981    1.505    0.336
        59 -10.7158     74.0519      1.8097   5.7204904187e+01   6.4000076943e+01    0.4225783    0.1916874  52.16   0.00133636    1.983    0.496
        60  -9.4870     69.0593      1.5178   5.8612377797e+01   6.4987107463e+01    0.2551223    0.1503637  37.68  0.001178314    1.450    0.310
        61 -10.3625     86.4939      5.9672   5.5531025399e+01   6.1127216940e+01    0.3350275    0.2864937  53.65  0.002035412    1.236    0.191
        62  -9.8064     89.9617      1.6742   5.2753396009e+01   6.0762820552e+01    0.4975761    0.1648631  55.76  0.001118892    2.505    0.601
        63 -10.9726    194.8183      4.1120   3.7072346183e+01   3.5668457441e+01    0.7269405    0.3861229  54.40  0.003502378    1.930    0.482
        64  -9.3695    127.2966      8.2075   4.7311064621e+01   5.1752201189e+01    0.4758464    0.1347031  60.88  0.001112672    2.842    0.648
        65 -12.0184    118.5868      2.6544   4.6906707457e+01   5.4274609998e+01    0.4706716    0.4008669  72.72   0.00167385    1.190    0.160
        66  -8.8138     97.5729      7.4524   5.3307488964e+01   5.8635669563e+01    0.2211633    0.1172278  -1.47 0.0007866611    2.374    0.579
        67  -8.9550     74.1000      8.1539   6.0149765566e+01   6.3406772205e+01     0.203395     0.140772  24.95 0.0007287019    1.299    0.230
        68  -9.5053    138.8974      6.3586   4.4690226902e+01   4.9117795330e+01    0.2931197    0.1855473  -9.51 0.0008953765    1.894    0.472
        69  -9.4912     62.0951      5.6948   6.2983841322e+01   6.5878236388e+01    0.2351808    0.1785543 -14.37  0.001510238    1.276    0.217
        70  -9.8736    208.9775      4.6947   3.5925207402e+01   3.2271880918e+01    0.3235472    0.2233033  53.61  0.001548645    1.613    0.380
        71  -8.9089    206.4622      1.5830   3.5389173625e+01   3.3164094486e+01    0.2072687    0.1573622 -83.25 7.028732e-05    1.151    0.131
        72  -8.9001    133.6193      6.1638   4.5489456548e+01   5.0412319811e+01    0.2392099    0.1646444  75.22  0.001292887    1.435    0.303
        73  -8.3288     39.0769      4.4833   7.1542975387e+01   6.9733330720e+01    0.3518777    0.2389615 -32.65  0.002244654    1.616    0.381
        74  -8.7971     42.7724      1.3355   6.8244113885e+01   6.9528549579e+01    0.1896641    0.1134913  13.89 0.0008665972    1.610    0.379
        75 -11.7795    179.7047      2.2457   3.8105838010e+01   3.9486533373e+01    0.4008112    0.2355074 -89.28 0.0007158412    1.711    0.416
        76 -10.3671    238.2603      3.0531   3.3290023287e+01   2.5880026466e+01    0.2840403    0.2071518 -86.09  0.001246215    1.208    0.172
        77 -10.1652    146.0817      2.8072   4.2434302398e+01   4.7667609063e+01    0.4627449    0.2240817  58.10  0.002205678    1.750    0.429
        78 -10.4929    219.0267      2.6313   3.4609668905e+01   3.0171105492e+01    0.2950674    0.2162669  77.77 0.0009317451    1.269    0.212
        79 -10.4413     49.7269      2.2197   6.5852936663e+01   6.8338725199e+01    0.3003764    0.1602672  31.81 0.0005772184    1.685    0.407
        80  -9.0913      3.5993      2.4597   8.9099324379e+01   7.4018256276e+01    0.1981991    0.1293049 -26.91  0.000808521    1.151    0.131
        81  -9.2751    186.1624      1.2864   3.7183765612e+01   3.8010364176e+01    0.2155951    0.1012003  72.21 0.0002580008    1.883    0.469
        82  -9.6898    127.9370      1.5622   4.4845585694e+01   5.2151930450e+01    0.4451096    0.1150218  66.58  0.001524836    3.454    0.710
        83 -10.0274     93.5101    119.1365   9.2486088188e+01   3.9533756203e+01    0.2876815    0.2563874 -32.83  0.001420987    1.162    0.140
        84  -9.4609    201.5239    249.5097   9.2244625824e+01  -5.3848083003e+00    0.2154358    0.1596463  25.93 0.0007701968    1.089    0.082
        85 -10.7529     54.6935    118.0834   1.0387430229e+02   4.5496924035e+01     0.221949    0.2143244 -70.71  0.000229011    1.109    0.098
        86  -9.2857     83.5443    117.3937   9.5008057241e+01   4.1607486943e+01    0.2499813    0.1999986 -80.88  0.000537405    1.404    0.288
        87  -9.8931     66.9848    118.2895   1.0018375451e+02   4.3853570300e+01    0.1907792     0.185314  38.72   0.00054922    1.151    0.131
        88  -9.8664     61.8085    115.0429   1.0107559071e+02   4.5344904515e+01    0.2447463    0.2067158 -75.69   0.00032262    1.172    0.147
        89 -10.5088     62.9591    110.9282   9.9828862721e+01   4.6196270550e+01    0.3158678    0.1959329 -52.27            0    1.419    0.295
        90  -8.9233     44.4985    120.0321   1.0732601279e+02   4.6186962829e+01    0.1901308    0.1855829  35.92 0.0005811327    1.204    0.169
        91  -8.8767     71.8832    112.8907   9.7500832221e+01   4.4478087483e+01    0.2048299    0.1769451 -43.49            0    1.114    0.103
        92  -9.8386    129.0431    109.0461   7.9966680398e+01   3.5001084625e+01    0.3388578    0.1987608  52.53  0.001363605    1.890    0.471
        93 -10.1529     36.5188    105.7478   1.0716364676e+02   5.0492302514e+01    0.6098543    0.2630927 -70.40  0.002519927    2.356    0.576
        94  -9.9438    137.2301    107.2349   7.7346343357e+01   3.3628771050e+01    0.2750404    0.2534077  55.99  0.000376936    1.136    0.120
        95  -8.7525    153.8595    107.1089   7.3229134891e+01   2.9931108602e+01     0.210072    0.1841894   8.67            0    1.287    0.223
        96 -10.4111     57.0805     99.8442   9.9186069890e+01   4.9624935302e+01    0.3913018    0.2145886 -41.92 0.0005216314    1.775    0.437
        97  -9.4541     51.8561    105.7648   1.0222551145e+02   4.8842015327e+01    0.4873922    0.2701726 -71.98  0.001278242    2.013    0.503
        98  -8.7100     48.0000    103.0900   1.0289885963e+02   4.9931692571e+01    0.2847282    0.1364421 -51.85  0.000966389    1.756    0.430
        99  -9.7571     50.5810     99.1093   1.0116612849e+02   5.0588840391e+01    0.2927534    0.2286722 -29.54 0.0003759999    1.357    0.263
       100  -9.0824     92.5350    106.3705   8.9597928337e+01   4.2733077451e+01    0.3466335    0.1487986  33.85  0.001245382    2.698    0.629
       101  -9.3110     31.3731    106.0171   1.0886444159e+02   5.0908057758e+01    0.2152899    0.1964471  24.86 0.0006459119    1.317    0.241
       102  -9.0865     29.5423    102.4691   1.0880108514e+02   5.1924547523e+01    0.2499486   0.09966853 -59.77 0.0005282142    1.948    0.487
       103  -9.8728     74.2637    104.5008   9.4765437309e+01   4.6142718178e+01    0.2928803    0.1894457 -52.91  0.001395949    1.397    0.284
       104  -8.5277     97.6047     88.7765   8.3151034344e+01   4.5795019763e+01    0.2621717    0.1841509 -62.52 0.0008081284    1.702    0.412
       105  -9.3322     94.3419     86.6926   8.3536096433e+01   4.6852109657e+01    0.2874491    0.2333196  -1.41  0.000146916    1.422    0.297
       106 -10.5148    101.5228     99.9978   8.5192818155e+01   4.2570387939e+01    0.6537764    0.3964106 -46.60  0.002858374    1.558    0.358
       107 -11.5681    109.2308     98.9839   8.2652339907e+01   4.1310901204e+01     1.052484    0.6006591 -58.84  0.004003571    2.107    0.525
       108  -9.6609    104.2715     91.0002   8.1799051135e+01   4.4037893519e+01    0.2543662    0.2062079  25.25            0    1.342    0.255
       109  -9.4793    101.5469     88.5715   8.1892738903e+01   4.5090517154e+01    0.2644177    0.2474481 -76.10  7.12149e-05    1.200    0.167
       110  -9.7018     68.7066    103.2625   9.6228712674e+01   4.7250003319e+01      0.42642    0.1484438  40.05  0.001526773    3.130    0.680
       111  -9.3849     77.5378     98.5233   9.2199070467e+01   4.7048008725e+01    0.4471528    0.2466883 -62.81  0.001847884    2.075    0.518
       112 -10.3978    124.5950     98.1675   7.8123596552e+01   3.8325933316e+01    0.4914854    0.3291415  24.67  0.001932521    1.910    0.477
       113  -9.8343     17.2232     98.4275   1.1210460169e+02   5.3864040644e+01    0.3495086    0.2584811  -5.82  0.002138375    1.712    0.416
       114  -9.4773     12.2987     94.1803   1.1300951302e+02   5.5199490479e+01    0.3772789    0.1526392 -76.54  0.001537759    2.589    0.614
       115  -8.5230     67.3697     97.7968   9.5302927587e+01   4.8732201631e+01    0.2016084    0.1183524 -46.44 0.0003145635    1.533    0.347
       116  -8.9958     33.8669     97.8180   1.0646866231e+02   5.2647250538e+01    0.1961008     0.151612 -44.04 0.0004757401    1.196    0.164
       117  -9.8076     32.7609     92.5445   1.0574836760e+02   5.3998229941e+01    0.4457644    0.2020736 -48.40  0.001573722    1.853    0.460
       118  -8.5859     21.4086     87.5552   1.0866252951e+02   5.6113109513e+01    0.1540276     0.119918  35.40 0.0001229243    1.565    0.361
       119  -9.7669     35.5528     82.5040   1.0248356286e+02   5.6068286933e+01    0.2507097    0.2002344 -54.75 0.0005842278    1.078    0.072
       120  -8.2832     38.4233     79.5265   1.0069532665e+02   5.6462121884e+01    0.1930858    0.1327035 -36.13 0.0002446092    1.356    0.263
       121  -9.4107     27.5259     91.5289   1.0734050801e+02   5.4696270230e+01    0.2014329    0.1890218 -12.93 4.409245e-05    1.232    0.189
       122 -11.0121     29.8557     85.0714   1.0513612536e+02   5.6001038367e+01    0.7525233    0.3346519 -34.56  0.003207089    2.661    0.624
       123  -8.2997     38.3520     99.2949   1.0527544688e+02   5.1863956560e+01    0.1397351   0.08892347 -34.81 0.0007032524    1.683    0.406
       124  -9.0790     42.3334     95.3812   1.0309462597e+02   5.2388546273e+01    0.2639559    0.1805575  75.06 0.0009188231    2.097    0.523
       125 -10.1610     23.4943     95.2228   1.0944302323e+02   5.4153642838e+01    0.2690643    0.1896113 -61.13   0.00103263    1.145    0.127
       126  -9.3486     81.2257     95.0104   9.0075480964e+01   4.7271207345e+01    0.2576407    0.1881153  52.19  0.001145334    1.619    0.382
       127  -9.0937    179.1092     94.1213   6.4152415055e+01   2.6619987320e+01    0.2373898    0.2084266   0.58 0.0005839861    1.298    0.230
       128  -9.8836     51.9767     93.9928   9.9496520884e+01   5.1634619640e+01    0.2034595    0.1800724 -54.63 -0.005334738    1.050    0.047
       129 -10.2092     47.2792     93.1780   1.0090323518e+02   5.2370449592e+01    0.3700871    0.2310176 -43.71  0.001893358    1.448    0.309
       130  -9.5069    116.8661     91.5636   7.8328123673e+01   4.1371223798e+01    0.2767872    0.2375154 -17.77 0.0006134054    1.236    0.191
       131 -11.1892    124.1495     88.3098   7.5349146277e+01   4.0498111996e+01    0.6022068    0.3489755 -52.66  0.002430972    1.919    0.479
       132  -9.8046     88.0866     87.9641   8.5882162194e+01   4.7696430148e+01    0.5741041    0.2522977 -45.77  0.001580492    2.110    0.526
       133  -8.7819     85.9567     82.4858   8.4926659566e+01   4.9258253489e+01     0.252392    0.1888611  28.86 0.0008273795    1.441    0.306
       134 -10.0753     80.2728     83.6669   8.7141525208e+01   4.9965139001e+01    0.6659553    0.4299805  27.45  0.003138208    1.754    0.430
       135 -10.2758     68.9507     87.1677   9.1942803233e+01   5.0952488261e+01    0.6716229     0.396903   1.67  0.002597508    3.085    0.676
       136  -9.6290     73.8071     79.3945   8.8025780977e+01   5.1932372579e+01     0.306125    0.2407173 -17.09 0.0009474234    1.358    0.264
       137  -9.4744    189.2705     87.1036   6.0290785116e+01   2.5501059548e+01    0.2408548    0.2357957 -32.64 0.0005184502    1.050    0.048
       138  -9.4855     48.2413     87.9261   9.9293493856e+01   5.3484765726e+01     0.206224    0.1888196 -43.17   0.00127238    1.071    0.066
       139  -9.5880     48.5125     83.6488   9.8103801688e+01   5.4434009429e+01    0.3906865    0.3101043 -54.95  0.002262613    1.141    0.124
       140  -9.4770     53.1950     81.8221   9.5943436273e+01   5.4286545086e+01    0.3071097    0.2091933 -23.24  0.001209904    1.657    0.397
       141  -9.3002     59.8769     83.8377   9.4136821904e+01   5.2974127665e+01    0.3444821    0.1748442 -56.70  0.001013284    1.898    0.473
       142  -9.6503     56.5526     82.0167   9.4802260699e+01   5.3819101330e+01    0.5060421    0.3014108 -64.77   0.00234379    1.930    0.482
       143  -9.9095     43.6393     88.1114   1.0095359992e+02   5.3953343960e+01    0.2214712    0.1974061  14.55  0.000481098    1.285    0.222
       144 -10.1749     16.4100     86.4055   1.1019213462e+02   5.6740498197e+01    0.4196043    0.2161421 -52.33  0.002161339    1.520    0.342
       145  -9.8445     72.6554     82.8666   8.9453716165e+01   5.1354424896e+01    0.3540905    0.2478059   1.06  0.001002379    1.888    0.470
       146  -8.6129     54.6266     86.7763   9.6765183509e+01   5.2985152709e+01    0.1861873     0.157536 -32.54  0.000739161    1.123    0.110
       147 -10.4576    155.0446     84.7495   6.6621457078e+01   3.4119317654e+01    0.3340411    0.2975999 -58.28 0.0003325728    1.163    0.140
       148 -10.7241    151.5187     79.3320   6.5813459705e+01   3.5974895723e+01    0.4179977    0.3730968  -9.04 0.0007157839    1.211    0.174
       149  -9.0793    133.1976     81.7492   7.0971678147e+01   3.9797892370e+01     0.215488    0.1821742   3.65  0.001053833    1.350    0.259
       150  -9.4217     11.9822     74.7263   1.0943915892e+02   5.9696365804e+01    0.1749902    0.1622746  18.79 0.0004907172    1.345    0.256
       151  -9.7686     16.3524     78.7377   1.0866093034e+02   5.8504271637e+01    0.4519821     0.289646  64.86  0.001836313    2.320    0.569
       152 -11.3245     16.9212     73.9633   1.0740679167e+02   5.9542287195e+01    0.6305349    0.3728929 -82.98 0.0003871954    2.210    0.548
       153  -9.1388     42.4477     80.4867   9.9468358245e+01   5.5826723283e+01    0.3288167    0.1798988 -40.86  0.001604063    1.667    0.400
       154  -9.9105    179.8741     74.1432   5.8453311718e+01   3.0026716529e+01    0.4855394    0.3240452  21.67  0.002009578    2.265    0.559
       155  -8.9359    166.3345     73.2853   6.0832592844e+01   3.3476813865e+01    0.2462398    0.1838451  40.18 0.0005001499    1.442    0.306
       156  -8.9555    175.0459     75.2477   5.9680067186e+01   3.1011981878e+01    0.2336679    0.2178739 -57.41  0.000327811    1.053    0.051
       157 -11.0430    170.4854     73.5583   6.0082786321e+01   3.2416199005e+01    0.8429639     0.473062 -16.46    0.0029117    2.798    0.643
       158 -10.3530    129.1829     85.9881   7.3305807131e+01   3.9862641466e+01    0.4633596    0.3363276  24.50  0.001284477    1.656    0.396
       159 -10.9155    158.0692     76.7709   6.3594141198e+01   3.4868644945e+01    0.3397043    0.3011532  40.00 0.0004300588    1.165    0.142
       160 -10.6877     63.4418     75.6267   9.0497300819e+01   5.4291985317e+01    0.4936954     0.431621  46.44  0.002247114    1.361    0.265
       161  -8.4466    129.6431     77.7104   7.0633806628e+01   4.1384769640e+01    0.1589409     0.119567  13.45 0.0007026546    1.683    0.406
       162  -9.9432    107.1964     77.5391   7.6793942080e+01   4.6264804135e+01    0.5090682    0.2725892 -22.91  0.001797843    2.860    0.650
       163  -9.9086     52.5376     54.1261   8.7552330538e+01   6.0176274434e+01    0.3708752    0.2822269 -76.41  0.001935935    2.196    0.545
       164 -10.8359     46.2218     68.5725   9.4729720056e+01   5.8025695411e+01    0.6831928    0.3361612 -29.30  0.002030991    2.520    0.603
       165  -9.6135     53.7467     60.9286   8.9417750286e+01   5.8678629359e+01    0.3948363    0.2314432 -18.03  0.001245542    2.225    0.551
       166 -12.0174     52.9852     75.1712   9.4144582819e+01   5.5786155896e+01    0.2824881    0.2413868 -25.62 0.0002993864    1.104    0.095
       167 -10.5655     52.8952     70.1635   9.2687012561e+01   5.6876733808e+01    0.3228239    0.2248864 -59.81 0.0005367921    1.541    0.351
       168 -11.8473    199.7582     71.8464   5.4382764132e+01   2.5620023997e+01    0.3542723    0.2751676 -26.22 0.0005139412    1.362    0.266
       169  -9.5007    126.5990     75.4010   7.0700231894e+01   4.2511525940e+01    0.3881504    0.2397549  26.50 0.0005274087    2.163    0.538
       170  -9.2360     82.4743     74.9990   8.3734833654e+01   5.1439477269e+01    0.3879178    0.2571482  -9.03  0.001097374    2.124    0.529
       171 -11.1337     89.6670     72.3034   8.0504116275e+01   5.0713136759e+01    0.5564138    0.3642165 -45.36  0.002620733    1.484    0.326
       172 -10.9252     94.1493     71.0614   7.8663974429e+01   5.0123763234e+01      0.73622    0.2681871 -43.10  0.002606932    2.630    0.620
       173  -8.9204     76.1382     74.9318   8.5849087129e+01   5.2510466151e+01    0.2675641    0.1822557  -0.85  0.001225942    1.995    0.499
       174  -9.3789     68.9712     74.1858   8.8097637677e+01   5.3789786388e+01    0.2375178    0.1817941 -42.76 0.0006236461    1.183    0.155
       175  -8.4472     37.0321     75.4845   1.0016491402e+02   5.7507937788e+01     0.172836      0.12972  12.01 0.0006331225    1.533    0.348
       176  -8.8167     28.6492     75.1030   1.0322893715e+02   5.8373173512e+01    0.1975571    0.1350123 -50.14  0.001140693    1.181    0.153
       177 -10.6779    152.0916     72.2416   6.3539266768e+01   3.7120882037e+01    0.2602815    0.2371307 -38.83 0.0002297352    1.089    0.082
       178  -9.6295    138.2003     72.0705   6.6711132143e+01   4.0461525413e+01    0.3069385    0.2147582  51.51 0.0005744471    1.441    0.306
       179  -9.0523    145.7085     70.9145   6.4573236320e+01   3.8889574222e+01    0.2660995    0.2050229  40.53 0.0006826927    1.337    0.252
       180  -9.7357      1.7377     78.1807   1.1389059713e+02   5.9486867054e+01     0.537686    0.1423563 -70.01  0.002040206    3.286    0.696
       181 -11.7936     79.8343     69.9189   8.2972160528e+01   5.2928659879e+01    0.2679885    0.2485392   1.46 0.0003337718    1.078    0.072
       182  -9.9387     75.2803     65.9915   8.3226264548e+01   5.4475100365e+01    0.3638003    0.2339274 -30.58 0.0006992876    1.541    0.351
       183  -8.9106    101.0044     69.9914   7.6184110258e+01   4.8997102368e+01    0.1815814    0.1666746 -22.31 0.0004722399    1.032    0.031
       184  -9.7685     14.9086     64.5571   1.0597610516e+02   6.1753893983e+01    0.3117568    0.2690699  45.42  0.001781585    1.515    0.340
       185 -10.8195      2.2276     67.5274   1.1166655397e+02   6.1839934779e+01    0.4390089    0.2581764 -59.88  0.001799059    1.288    0.223
       186 -10.1269      9.3093     62.0298   1.0762579262e+02   6.2654835919e+01     0.344479    0.2084195 -47.50  0.001393713    1.270    0.213
       187 -10.9144      1.7655     61.9180   1.1065885085e+02   6.3085489045e+01    0.5941972    0.1708512 -63.55 0.0007194603    2.609    0.617
       188 -10.8650      6.0898     59.1225   1.0824930021e+02   6.3462596430e+01    0.3671775    0.2767587 -75.19 0.0006412693    1.440    0.305
       189 -10.1463    110.5080     76.9999   7.5654980360e+01   4.5689940686e+01    0.2983375    0.2706696   5.29 0.0008082312    1.126    0.112
       190  -9.3550    157.2990     68.7802   6.1358250886e+01   3.6459398881e+01     0.252571    0.2037718  68.97 0.0006107207    1.322    0.244
       191  -9.7712    120.3790     66.1396   6.9344826353e+01   4.5613904260e+01     0.602308    0.2629222 -33.70  0.002214797    2.395    0.582
       192  -8.7824     64.0364     69.3159   8.8318425374e+01   5.5541127745e+01    0.1864761    0.1684969  12.18 0.0004320396    1.166    0.143
       193 -10.6659     31.0089     53.2223   9.6072674215e+01   6.2821017257e+01    0.6125521    0.2969225  24.84  0.002556987    2.317    0.568
       194  -9.5469     25.0301     53.4806   9.8697626196e+01   6.3314341869e+01     0.363392    0.1800501 -49.11  0.001399118    1.607    0.378
       195 -10.0825     47.1064     46.9879   8.7152050134e+01   6.2227272776e+01    0.6668758    0.2843898 -44.27   0.00185816    2.073    0.517
       196 -11.8310     31.2828     63.1401   9.8992894490e+01   6.0745928046e+01    0.9466671    0.4672698 -42.59  0.004744408    1.690    0.408
       197 -10.2604     39.9738     58.1261   9.3942003972e+01   6.0906836448e+01    0.3455831    0.2698336 -13.60   0.00159691    1.261    0.207
       198 -10.5713     23.4123     62.8621   1.0209787435e+02   6.1490101965e+01    0.5300785    0.2582427 -30.13  0.001852459    2.233    0.552
       199  -9.6387     22.2494     57.7705   1.0115183569e+02   6.2660314597e+01    0.3312943    0.2242105 -65.26  0.001287582    1.569    0.363
       200  -9.6916     32.3533     41.9239   9.1582033985e+01   6.4871321916e+01    0.2975824    0.2521775 -38.50    0.0014131    1.201    0.168
       201 -11.5384     41.1268     37.9225   8.6188744212e+01   6.4598614097e+01    0.5776828    0.3122151 -16.39  0.000837759    2.369    0.578
       202 -11.1923     42.1732     51.2471   9.0727243872e+01   6.2023115177e+01     0.838066    0.3280553 -52.77  0.003488443    2.622    0.619
       203  -8.8673     10.2811     69.1672   1.0888585623e+02   6.1039013446e+01    0.2094899    0.1094633 -47.65 0.0007545498    1.491    0.329
       204 -10.6139    135.4112     64.9038   6.5098980319e+01   4.2384925952e+01    0.5844471    0.3961445  45.61  0.002454676    1.469    0.319
       205 -10.2935    143.5743     66.4722   6.3672464246e+01   4.0176533606e+01     0.338011    0.2889903  26.58  0.001027032    1.253    0.202
       206  -9.1486    147.5558     64.4907   6.2146879411e+01   3.9555815287e+01    0.2283085    0.1802215  15.74  0.000628631    1.528    0.346
       207  -9.3355    106.3209     66.7577   7.3508261272e+01   4.8527511544e+01    0.3221594    0.2956254  60.30  0.001120553    1.234    0.189
       208  -9.9070    203.6876     63.5337   5.1570834409e+01   2.6010940655e+01     0.372271    0.2824503  78.54  0.001270847    1.409    0.290
       209  -8.7602    170.8810     64.8833   5.7476494066e+01   3.3776970185e+01    0.2116241    0.1969767  20.02 0.0002938313    1.178    0.151
       210 -10.3614     83.1151     62.9818   7.9514889223e+01   5.3719267509e+01    0.3889779    0.2969899 -55.45  0.001422197    1.539    0.350
       211  -8.4582    100.1532     63.6764   7.4301696439e+01   5.0356978158e+01    0.3990632    0.1848066  38.38  0.001556329    2.309    0.567
       212  -9.0747     98.2631     60.4413   7.3753598799e+01   5.1324439086e+01    0.2123578    0.1794241 -78.71  0.001095161    1.630    0.387
       213  -8.2417     59.6617     64.3189   8.8301735502e+01   5.7190348615e+01    0.1286266    0.1100197  87.22  0.000704944    1.708    0.414
       214  -9.9009    194.3105     61.0417   5.2342108495e+01   2.8646979419e+01     0.377865    0.2458298 -44.24 0.0006186169    1.465    0.318
       215 -10.1216    160.2150     61.0367   5.8403399116e+01   3.7030517654e+01     0.453189    0.3234158  35.80  0.001508077    1.582    0.368
       216 -10.6329    167.1863     56.8032   5.5777551995e+01   3.5974509420e+01    0.5257626    0.3293838  68.80  0.001697483    1.731    0.422
       217 -10.3277    163.3082     54.9009   5.5933590520e+01   3.7228415486e+01    0.6192394    0.2607643 -39.30  0.002344407    2.316    0.568
       218  -8.4277    212.1522     61.1742   4.9736268268e+01   2.4380494681e+01      0.19025    0.1482732 -62.10 0.0002786052    1.257    0.205
       219 -10.4841     70.6491     60.1061   8.2840579734e+01   5.6374848840e+01    0.3031872    0.2809828  47.18 0.0004825491    1.314    0.239
       220  -9.6801    180.5239     59.1262   5.4072178934e+01   3.2314849399e+01    0.3764966    0.2755564 -27.52  0.001617966    1.446    0.308
       221  -9.9175    151.6702     59.4205   5.9662547498e+01   3.9389582674e+01    0.4373279    0.2507469  57.08  0.001875232    1.735    0.424
       222  -9.5804    129.2731     58.3861   6.4456569806e+01   4.4923088209e+01    0.3827485    0.3078896 -58.93  0.001926673    1.445    0.308
       223  -9.8502    136.1580     56.5378   6.2184915872e+01   4.3602577815e+01    0.5562131    0.3329323  25.74  0.002196651    2.378    0.579
       224  -9.0729     24.7908     38.7795   9.3844011054e+01   6.6197618276e+01    0.3806929    0.2126213  -9.98 0.0009498563    2.160    0.537
       225  -9.5060     15.9106     59.8640   1.0436846265e+02   6.2693418985e+01    0.6251124     0.282539 -74.24  0.002479431    3.626    0.724
       226  -9.3738      8.3373     43.9103   1.0316985906e+02   6.6475369971e+01    0.2548245    0.1633065 -53.55 0.0003598191    1.295    0.228
       227  -9.8533    115.8466    248.6781   1.0828924549e+02   7.7280490140e+00     0.203671    0.1888335  27.96 0.0007009021    1.255    0.203
       228  -9.5411      5.2140     31.6454   1.0070340411e+02   6.9032715782e+01    0.4205656    0.2209825   7.76  0.002467944    2.141    0.533
       229  -9.1991    163.4723    246.5581   9.8927759023e+01   7.7115516206e-01    0.1228868    0.1003037  31.96  1.22469e-05    1.008    0.008
       230 -10.5852      6.8856     50.5209   1.0571346369e+02   6.5223152885e+01    0.3656641    0.3123699  55.89  0.002563942    1.653    0.395
       231 -11.1932     11.6331     46.5099   1.0245267764e+02   6.5744600159e+01    0.8375031    0.2140337 -54.75  0.003483752    2.791    0.642
       232  -9.7996     61.1820     58.3346   8.5701084436e+01   5.8161536975e+01    0.2357023    0.2214489  29.01 0.0006721047    1.254    0.203
       233  -9.6904    105.1210     57.6500   7.0713946953e+01   5.0411130272e+01    0.2504232    0.1984036 -27.10 0.0002484178    1.240    0.194
       234 -12.1888    225.8537     55.3238   4.6488380037e+01   2.2106869481e+01     0.281395    0.2296906 -50.65 0.0002920178    1.091    0.084
       235  -8.9833     83.2567     52.9717   7.5877735484e+01   5.5523336008e+01    0.3621773    0.2125375 -37.00  0.001718579    1.629    0.386
       236  -9.1248     79.6278     48.8299   7.5555950581e+01   5.6894243848e+01     0.344342    0.2254443 -56.74  0.001407065    2.203    0.546
       237 -10.6613     37.6400     46.0460   9.0784381782e+01   6.3531676922e+01    0.3517157    0.2980826 -33.56  0.001914109    1.126    0.112
       238 -11.2456    120.1612     53.4023   6.5067984454e+01   4.7830269803e+01    0.9720793     0.484877  38.05  0.001758599    2.229    0.551
       239 -11.4783    125.1898     45.5720   6.1071215542e+01   4.7876388656e+01    0.4463779    0.3423081  26.14 0.0009823712    1.397    0.284
       240 -10.3758    154.6103     31.2393   5.0170415632e+01   4.2651241622e+01    0.8623722    0.1943878  54.87  0.002710034    3.546    0.718
       241 -10.1614    136.2481     35.9954   5.5255257245e+01   4.6568282038e+01    0.3691376    0.2652713  27.58 0.0003255329    1.568    0.362
       242 -10.6466    145.4912     29.7452   5.1329203843e+01   4.5089686318e+01     1.131804    0.5735772  50.89  0.004998421    1.831    0.454
       243  -9.3638    140.6201     26.0372   5.1007417120e+01   4.6721085060e+01    0.2201499    0.1802951  77.69 0.0004081279    1.262    0.208
       244 -10.4783    127.2883     39.6222   5.8488111390e+01   4.8228164137e+01    0.3090339    0.2722572  60.03 0.0008610313    1.146    0.127
       245 -10.4530    130.9917     36.1945   5.6453952447e+01   4.7807199698e+01    0.4282402    0.3325849  56.41  0.001054936    1.233    0.189
       246  -8.4363    243.4733     55.5681   4.4515348848e+01   1.8219691550e+01    0.1321301    0.1137393 -56.20 9.087515e-05    1.018    0.018
       247  -8.8994    231.4919     55.0712   4.5752982978e+01   2.0885307836e+01    0.1917603    0.1681431 -89.71 0.0001869424    1.151    0.132
       248 -10.7415    191.4958     54.4053   5.0964944720e+01   3.0337719481e+01    0.2915869    0.2537645 -33.36 0.0006993241    1.181    0.153
       249  -9.6850    145.3694     53.5869   5.9151846964e+01   4.1847460385e+01    0.4339538    0.1754148 -28.96  0.001528446    2.759    0.637
       250 -10.2099    149.7488     54.5735   5.8537034737e+01   4.0625036317e+01    0.4696184     0.305108  40.65  0.001201105    1.635    0.389
       251 -10.4449    153.9278     49.0267   5.5930215269e+01   4.0431620216e+01    0.4842215    0.3900666  87.11   0.00248701    1.396    0.284
       252 -10.1595    124.1765     30.8892   5.6095010808e+01   5.0100116637e+01    0.6768398    0.4523209  88.73  0.003077297    2.227    0.551
       253  -9.8353     83.6180     45.3490   7.2874737044e+01   5.6740818107e+01    0.2920507    0.2215218 -54.79 0.0009741265    1.723    0.420
       254  -9.5842     90.9826     41.1078   6.8853409888e+01   5.5982800573e+01    0.3865113    0.1796647 -34.94  0.001655708    2.122    0.529
       255 -11.7547     94.2070     48.8011   7.0786277970e+01   5.4131457821e+01    0.8587776    0.7081669  23.98   0.00271499    1.181    0.153
       256 -12.1706    103.8663     39.4973   6.4418039051e+01   5.3548606170e+01    0.5557297    0.4206401 -26.19 0.0006543767    1.327    0.246
       257  -8.4708    106.5435     52.9806   6.8639066719e+01   5.0898053146e+01    0.1988192    0.1386427 -31.77  4.93898e-05    1.422    0.297
       258  -8.8730     27.2833    245.6822   1.2415743294e+02   1.9901874047e+01    0.1145069   0.05863287  66.00 0.0002670337    1.584    0.369
       259  -8.8615      1.4518    244.0582   1.2835408421e+02   2.2838351538e+01    0.1463198   0.07874822 -89.58 0.0004000971    1.522    0.343
       260 -10.2495     71.1089     51.7701   7.9662779728e+01   5.7847708461e+01    0.3227145    0.2753311   0.36  0.001416772    1.103    0.094
       261 -11.1546     57.3482     34.2048   7.7910196032e+01   6.2985394544e+01    0.6683404    0.4275778  42.89  0.001764042    1.793    0.442
       262  -9.1725     55.7501     29.2395   7.6415557223e+01   6.3991320948e+01    0.2053665    0.1720063   5.27 0.0003680432    1.070    0.065
       263  -9.2647     13.9213     28.7675   9.5283322844e+01   6.8945398131e+01    0.3408148    0.1523576  29.83  0.001817214    2.591    0.614
       264  -9.8521     51.8966     28.9493   7.7853088364e+01   6.4612950684e+01     0.198237    0.1678874  25.75 0.0004331256    1.284    0.221
       265  -9.8684     48.8247     25.6778   7.7679584950e+01   6.5549138969e+01    0.4039754     0.226586  37.18  0.001732563    1.856    0.461
       266 -10.6899     65.6062     49.2777   8.0747935993e+01   5.9178442363e+01    0.5135562    0.2870768 -16.78  0.001740652    2.473    0.596
       267 -12.5789     61.8414     44.0688   8.0167606154e+01   6.0674458098e+01    0.5983455    0.2748173 -38.86  0.000506955    2.011    0.503
       268 -10.5853     67.5369     44.2292   7.8085432729e+01   5.9744186461e+01    0.4536866    0.2854088  17.61  0.002064494    1.838    0.456
       269  -9.7950    202.8046    242.3068   9.0910432734e+01  -4.6129296020e+00    0.1864818    0.1522338   4.02 0.0004357052    1.121    0.108
       270 -12.2438     26.0945     30.9927   9.0224839230e+01   6.7468264651e+01    0.7515807    0.3637511  20.03  0.003033409    2.290    0.563
       271 -10.9456     19.2024     29.0022   9.2754506699e+01   6.8462304902e+01    0.2100465    0.1476551 -36.90 0.0004269509    1.166    0.142
       272 -10.0430     26.6809     44.9080   9.5172720584e+01   6.4865350109e+01    0.3868799    0.1642081 -38.94  0.001467888    1.996    0.499
       273  -9.6486     19.7463     49.6809   9.9809844491e+01   6.4518888514e+01    0.4751387     0.214948 -49.40  0.002446178    1.713    0.416
       274  -8.5840     21.8832     46.0963   9.7715195598e+01   6.5057564793e+01      0.19032    0.1300873 -31.56  0.001173131    1.222    0.182
       275  -9.0219     17.7746     46.0294   9.9536099856e+01   6.5400654889e+01    0.2909804    0.1582655 -39.70  0.001019059    1.467    0.318
       276  -9.0736    175.4906     50.2720   5.2373918257e+01   3.4892171611e+01    0.2703204    0.2425577   5.38  0.001485283    1.292    0.226
       277  -9.4289    181.3837     48.9256   5.1017381518e+01   3.3625309429e+01    0.2372215     0.197088 -88.43  0.001268786    1.237    0.191
       278  -8.6886    137.2868     49.6322   5.9633387399e+01   4.4406125910e+01    0.1511841    0.1119423 -64.79 0.0007021283    1.702    0.413
       279 -10.2850    114.3915     46.4376   6.4116690706e+01   5.0216356675e+01    0.3913948    0.2611219 -14.97  0.001420986    1.728    0.421
       280  -9.6230    203.9261     46.4950   4.7056233759e+01   2.8468992821e+01    0.3822717    0.2108026  45.62  0.001278492    2.168    0.539
       281  -8.7414    196.5206     48.3332   4.8566145240e+01   2.9995673858e+01    0.2385027    0.1278861  64.27  0.001053161    1.858    0.462
       282  -9.4227     31.8100     47.8311   9.3929584407e+01   6.3806563257e+01    0.1741902    0.1470619 -27.50 0.0005281377    1.065    0.061
       283 -10.1842    232.1598     45.7972   4.3477339361e+01   2.2043870446e+01    0.3609245    0.2426701 -38.35  0.001776097    1.370    0.270
       284  -9.6314    245.7768     45.1810   4.1921266018e+01   1.9180709439e+01    0.3433196    0.2175274 -77.26   0.00179397    1.717    0.418
       285  -9.2331    164.5233     46.3966   5.3124809965e+01   3.8179230965e+01     0.339559    0.1622138  52.46  0.001209862    2.010    0.502
       286  -9.8541    176.0971     44.6562   5.0637623441e+01   3.5540305528e+01    0.2879231     0.239104  80.32 0.0008313608    1.201    0.168
       287  -9.7322    200.1538     43.2788   4.6712328316e+01   2.9819960797e+01     0.236164    0.2254704 -58.11 0.0004231441    1.090    0.082
       288  -8.9961    186.4821     44.4238   4.8957164028e+01   3.2999819500e+01    0.2992196    0.1345744  64.28 0.0008489856    2.192    0.544
       289  -9.7194    150.7662     43.0437   5.4647222429e+01   4.2066414520e+01     0.379776    0.2216187  32.55  0.001073349    2.205    0.547
       290 -10.1057    143.8637     42.7693   5.5941060163e+01   4.3802524702e+01    0.6922689    0.1858263  49.41  0.002158942    3.455    0.711
       291 -10.0293     53.3198     43.1282   8.3148017461e+01   6.2090803926e+01    0.2514136    0.2332498 -70.36 0.0005747459    1.550    0.355
       292  -9.0788    157.5091     43.5015   5.3509694736e+01   4.0331286169e+01     0.143177    0.1376229  60.29 0.0008105236    1.022    0.022
       293  -9.4149    191.2662     39.7844   4.6983162466e+01   3.2453156199e+01    0.3717583     0.218672 -14.34   0.00124689    2.381    0.580
       294 -10.4813    228.2699     37.6563   4.1967985798e+01   2.4005756658e+01    0.3537926    0.1947741 -43.77 0.0003382258    1.601    0.375
       295  -8.0351    222.3289     40.2899   4.3242061469e+01   2.5004091287e+01    0.1266582    0.1029597  33.79 0.0006956993    1.620    0.383
       296  -8.9527    157.9490     39.1530   5.2070315549e+01   4.0811952261e+01    0.3053483    0.1504301 -52.24  0.001184518    2.531    0.605
       297  -9.9391    182.2798     38.8670   4.8016737744e+01   3.4789244544e+01    0.2516232    0.2085619 -68.48 0.0004173363    1.206    0.171
       298  -9.7043    176.6618     36.4950   4.8178435314e+01   3.6493774422e+01    0.4427584    0.2601581  81.38  0.001291107    1.962    0.490
       299  -8.6473    165.9204     39.5225   5.0795834704e+01   3.8775294866e+01    0.2019295    0.1358657  65.10 0.0003404754    1.437    0.304
       300  -8.8568    120.8451     39.2861   5.9898375157e+01   4.9780730707e+01    0.2182782    0.1820584  86.68  0.001160482    1.482    0.325
       301  -9.6407     82.5151     38.9143   7.0711203139e+01   5.7956018811e+01    0.2198937    0.2023053   9.99 0.0005130012    1.089    0.082
       302  -9.6755     86.4521     36.1760   6.8331864898e+01   5.7605179377e+01    0.5325631     0.291351  -5.08   0.00141743    3.023    0.669
       303 -10.1986     77.5619     34.5161   7.0589691467e+01   5.9531987264e+01    0.4594434    0.3332665  45.21  0.001191639    1.458    0.314
       304  -9.8991     83.0751     32.8006   6.8046703957e+01   5.8740032439e+01    0.4321386    0.3110844  36.25  0.002395539    1.319    0.242
       305  -9.8138     71.3735     29.6780   7.0708617313e+01   6.1342556827e+01     0.301509    0.2614337  74.92  0.001131671    1.768    0.434
       306 -10.2172     75.3516     28.0788   6.8638591358e+01   6.0843950656e+01    0.3261141    0.2668004 -12.36  0.001509067    1.136    0.120
       307  -9.7808    238.2054     37.8642   4.1010203438e+01   2.1781665918e+01     0.207201    0.1924233  83.15 0.0002313831    1.202    0.168
       308  -8.8191    202.2165     38.1246   4.5084990818e+01   3.0014010717e+01    0.1974013     0.142988 -64.24 0.0005187463    1.373    0.272
       309 -11.3657    116.6067     33.7315   5.8911427819e+01   5.1499848115e+01    0.5308413    0.3477493   7.79 0.0005711019    1.979    0.495
       310 -10.4441    208.5519     34.3569   4.3340366501e+01   2.8990439092e+01    0.4733982    0.3023106 -13.97   0.00191513    2.144    0.534
       311  -9.6762    186.6069     36.7767   4.6804765992e+01   3.3993535509e+01    0.2576476    0.2173132 -68.68 0.0005755459    1.156    0.135
       312  -9.0071    217.6906     34.1541   4.2255237827e+01   2.6874622103e+01    0.3598907    0.1875161 -76.22  0.001460825    2.508    0.601
       313  -9.3092     47.3582     34.7724   8.2236544257e+01   6.4331178060e+01    0.2195774    0.1564045   9.62 0.0008190923    1.399    0.285
       314  -9.4703    246.9497    238.9596   8.2533404482e+01  -1.0376133677e+01    0.1528291    0.1454009  26.14   0.00114516    1.713    0.416
       315  -9.4726     95.0011     29.0662   6.2864553354e+01   5.6844082978e+01    0.3653379    0.2099999  15.29  0.001573028    2.420    0.587
       316  -9.3988    100.0142     26.7547   6.0529935761e+01   5.6069594081e+01    0.4199997    0.2820478  78.98  0.001958538    2.370    0.578
       317  -8.7539    232.9994     32.2221   4.0220590130e+01   2.3652284969e+01     0.205032    0.1271402 -73.08 0.0006338357    1.659    0.397
       318  -8.6642    235.4176     29.5510   3.9378744533e+01   2.3455625217e+01    0.1726611    0.1175373 -26.43 0.0001169176    1.646    0.393
       319 -10.7258    187.1592     30.4226   4.4966678349e+01   3.4659331814e+01     0.550875     0.274067  53.72  0.002072609    1.998    0.500
       320  -9.7042    179.8215     25.8144   4.4661725025e+01   3.7022184007e+01    0.6318541    0.2963666 -84.22   0.00212781    3.838    0.739
       321  -9.5731    221.4402    237.3660   8.6728385022e+01  -6.6773769036e+00    0.2491315    0.1481152  12.80  0.000894059    1.732    0.423
       322  -9.3041    247.5725     30.1550   3.8428635002e+01   2.0766588053e+01     0.259125    0.1884211  49.42 0.0009992734    1.774    0.436
       323 -10.3085    221.4534     27.7211   4.0299113797e+01   2.6814683303e+01    0.3649246    0.3243154 -42.65  0.001968734    1.188    0.158
       324  -9.8031    207.9931     26.6960   4.1461192184e+01   3.0075369821e+01     0.188545    0.1577764 -88.29 0.0004562743    1.101    0.092
       325  -9.5395    204.8272     23.5515   4.1010594876e+01   3.1201222896e+01     0.233673    0.2315588  19.52  0.001299342    1.225    0.184
       326 -10.1093    159.0442     24.5135   4.7323648297e+01   4.2338900797e+01    0.2298101    0.2238946 -54.73  0.001412623    1.090    0.082
       327 -10.4476    164.8316     25.6125   4.6758630316e+01   4.0772051154e+01     0.455933    0.2720021 -67.15  0.001455487    2.137    0.532
       328  -9.1282    167.9972    237.4957   9.6775433642e+01   1.4492588274e+00    0.1710262   0.09493244  54.94 0.0005650658    2.369    0.578
       329  -8.6694     32.2603    232.6535   1.2250351577e+02   2.1807822510e+01    0.1185461   0.06361498  69.25 0.0002936054    1.600    0.375
       330 -11.0951    105.4590     21.0717   5.6852496737e+01   5.5539545336e+01    0.4461478     0.266733  66.07 0.0003971835    1.923    0.480
       331  -9.3492    186.7875    231.3886   9.2213622934e+01  -5.9310544824e-01     0.186599    0.1024067  28.43 0.0009484256    1.714    0.417
       332  -9.2251    176.7855    231.4031   9.4151696141e+01   9.9761453229e-01    0.1850224    0.1049131  29.35 0.0009502583    1.648    0.393
       333  -8.1526    207.3430    226.3040   8.7479242945e+01  -3.0581783839e+00    0.1312101   0.08528534   7.32 0.0007040522    1.683    0.406
       334 -10.9481      2.0202     25.2640   1.0005859019e+02   7.0396403751e+01    0.2436399    0.1470079 -52.47 0.0005669163    1.470    0.320
       335 -11.1116    153.6584     22.9973   4.7718023208e+01   4.3847213772e+01    0.2829919    0.2504139  46.28 0.0003004834    1.126    0.112
       336  -9.0743    152.1470     18.5888   4.6562281002e+01   4.4696703357e+01    0.2242298    0.1924838  16.68 0.0007271886    1.319    0.242
       337 -10.3919     61.5763     23.9816   7.1805134907e+01   6.3811505341e+01    0.3053389    0.2170767  -6.03   0.00178138    1.341    0.255
       338  -8.7975     66.0205     22.5244   6.9494761957e+01   6.3250445438e+01    0.2096013    0.1785548  35.93  0.001207237    1.276    0.216
       339  -9.9070    234.1171     24.5941   3.8369141937e+01   2.4350995704e+01      0.33885    0.1211073  76.22   0.00135414    3.108    0.678
       340  -8.9205    170.2539     23.3546   4.5282508030e+01   3.9679201496e+01    0.3184828    0.1649925  69.78 0.0009761059    1.846    0.458
       341  -9.7185    175.7685     21.4171   4.3953940487e+01   3.8527021867e+01    0.4450326    0.2440289  60.38  0.001364956    1.674    0.402
       342  -8.8932    223.5280    224.9977   8.4275114288e+01  -5.3227806665e+00    0.1910021    0.1410333  22.28 0.0006355455    1.165    0.142
       343  -9.2381    142.9051     22.4045   4.9371387586e+01   4.6568076129e+01    0.2099467    0.1940772 -17.74  0.000380256    1.170    0.145
       344  -8.5927    131.6023    225.4956   1.0232974703e+02   9.3374705580e+00    0.1269646    0.1122904  47.95 0.0008015461    1.023    0.023
       345  -8.1759    246.3504    224.7157   8.0203761197e+01  -8.5387269081e+00    0.1003865    0.0941797  35.57 0.0006735782    1.656    0.396
       346 -10.0942    211.1046     19.8360   3.9421959320e+01   3.0149110303e+01    0.2741193    0.1769683 -60.40 0.0002850185    1.476    0.322
       347  -9.6154    214.3198     18.6723   3.8819829425e+01   2.9531932043e+01    0.2984805    0.2005459 -57.76  0.001320863    1.372    0.271
       348  -8.6184    189.3838     21.7625   4.2314853361e+01   3.5135780488e+01    0.1807256    0.1314978 -12.36  0.000954964    1.729    0.422
       349  -8.5754     80.1880     22.4248   6.4601493295e+01   6.0658265386e+01    0.1761687    0.1242075  59.91  0.000942028    1.768    0.434
       350  -8.3057      2.0050    224.2607   1.2738616274e+02   2.6525910354e+01     0.122044   0.07916472  46.79 0.0003498016    1.465    0.317
       351  -8.5178    196.4967    222.4790   8.8892949290e+01  -7.8488571332e-01    0.1300258      0.10761  14.17 0.0008098724    1.046    0.044
       352  -9.1304     88.7292    221.0297   1.1056870712e+02   1.6836240774e+01    0.2177405    0.1655252  45.78 0.0005805967    1.200    0.166
       353  -8.1146    183.4742    219.4734   9.0926348584e+01   1.8045699805e+00    0.1303275    0.1131019  22.04 0.0001087579    1.019    0.019
       354  -8.9219    203.0439    217.9389   8.6864101679e+01  -1.1399385954e+00     0.191396    0.1582521  11.36 0.0003341785    1.045    0.043
       355  -8.4237      2.2575    211.9663   1.2673188791e+02   2.8956054284e+01     0.137086   0.07469226 -86.50 0.0003257775    1.471    0.320
       356  -9.1530    230.8495    209.4526   8.0186450528e+01  -4.2296927321e+00    0.1988266    0.1450032   0.14  0.000409535    1.259    0.206
       357  -9.3835     34.7283    200.7301   1.1969705694e+02   2.8090954243e+01    0.2421597    0.1244018  77.55  0.001248045    1.956    0.489
       358  -8.6545    120.2290    199.1859   1.0094940519e+02   1.6345806760e+01    0.1897602    0.1505197  69.56 0.0005309449    1.338    0.252
       359  -9.1804    198.9908     14.2277   3.9248981946e+01   3.3641766908e+01    0.2751731    0.1758146 -88.90 0.0008365083    1.543    0.352
       360 -10.1951     93.5584     20.1086   5.9613571149e+01   5.8224245704e+01    0.2477339    0.2195744  29.38 0.0009693194    1.048    0.045
       361  -9.5885      7.0086    194.8069   1.2485275631e+02   3.2125476161e+01    0.2179621    0.1994214  67.12  0.001692384    1.337    0.252
       362  -8.4188     92.1889    188.3723   1.0569247549e+02   2.3239382023e+01    0.1917414    0.1151327  48.77  0.000777851    1.584    0.369
       363  -9.5440    234.7361     18.4564   3.6930966468e+01   2.4942918399e+01     0.333584    0.1740392  84.50   0.00168683    1.968    0.492
       364  -9.4355     55.3583    181.2734   1.1328235420e+02   3.0040597337e+01    0.2261438    0.1850891  64.56 0.0004440305    1.132    0.117
       365  -9.8923      7.2995    174.9354   1.2344295612e+02   3.6485501741e+01    0.1770288    0.1281673 -86.53  0.001181192    1.080    0.074
       366  -9.8536    144.5222     16.8457   4.7249474712e+01   4.6757283141e+01    0.3234383     0.176079  64.38  0.001523411    1.673    0.402
       367  -8.8737     72.9418     16.4372   6.4323277007e+01   6.2746078306e+01    0.1961854    0.1531457 -25.47  0.000586552    1.335    0.251
       368  -9.2963     17.1985    174.6208   1.2125785310e+02   3.5696660862e+01    0.1367604    0.1188225  14.74 0.0004130577    1.620    0.383
       369  -8.9335     17.0190    169.3733   1.2085060155e+02   3.6920267615e+01    0.2030659    0.1231616  13.98  0.001067152    2.520    0.603
       370 -10.6293      6.5694    167.4813   1.2303999232e+02   3.8240147294e+01    0.3490221    0.2400267 -21.92  0.002069033    2.440    0.590
       371 -10.2585     14.4598    166.4213   1.2117593730e+02   3.7828509439e+01    0.2394014    0.1264554 -51.68 0.0005648452    2.120    0.528
       372  -9.8894    242.7316     13.9735   3.5310735761e+01   2.3729390551e+01    0.1768995    0.1378938 -54.56 0.0004292463    1.106    0.096
       373 -11.6923     37.8705    159.5399   1.1490616339e+02   3.7210172012e+01    0.6246901     0.348357  61.31  0.002468829    1.925    0.481
       374 -12.2553     30.4290    154.8455   1.1620715324e+02   3.9098037655e+01    0.7938361    0.4360824  49.82  0.003290298    1.884    0.469
       375  -9.2365    139.3797     13.8222   4.7117153139e+01   4.8316436039e+01    0.2590589     0.164064  54.75 0.0007023131    1.404    0.288
       376 -10.5697     24.5988    162.7534   1.1847368969e+02   3.7772700415e+01    0.2279353    0.1908247  61.12 0.0002589744    1.224    0.183
       377 -11.6110     15.7708    142.7114   1.1856476471e+02   4.3320822208e+01    0.7078717    0.4304796 -15.64   0.00292756    2.811    0.644
       378 -10.7953      2.1782    153.6218   1.2293745977e+02   4.1772644079e+01    0.6198266    0.1434738 -72.02  0.002349345    3.067    0.674
       379 -10.9473      4.7890    147.0071   1.2174192699e+02   4.3132742256e+01     0.465575    0.2311188  75.58  0.002314987    2.095    0.523
       380  -9.8588      5.1784    141.9759   1.2117901694e+02   4.4291827667e+01    0.2993146    0.1308148 -57.93  0.001421793    1.983    0.496
       381 -10.4945     45.7385    151.8045   1.1193319735e+02   3.8222929750e+01    0.3581675    0.1863464 -53.12  0.001711139    1.862    0.463
       382 -10.4760     11.8072    151.6222   1.2045908055e+02   4.1515062777e+01    0.3260096     0.267802 -68.33  0.001446556    1.197    0.165
       383  -8.0124     19.2618    147.5801   1.1820188213e+02   4.1864812920e+01    0.1351319    0.0783463  77.02 0.0006945214    1.771    0.435
       384  -9.4951     54.2019    146.0127   1.0886547798e+02   3.8651463170e+01    0.2013995     0.186957  83.63 0.0002783283    1.102    0.093
       385  -8.9406     41.9497    139.5133   1.1120875005e+02   4.1655580680e+01    0.1771327    0.1327767  34.92 0.0004515327    1.524    0.344
       386  -9.4697    236.0069    136.9661   6.4379220320e+01   6.5481527985e+00    0.2149651    0.1892408 -31.49 0.0005121325    1.062    0.059
       387  -8.1270     22.7355     12.2995   8.3491453070e+01   7.0789794307e+01   0.09682482   0.08658184 -30.98 0.0004047708    1.516    0.340
       388  -8.5892    230.3743    137.2865   6.5397599038e+01   7.5584312656e+00    0.1451238    0.1051247   5.68 0.0003309127    1.718    0.418
       389  -9.7238     34.5163    136.6542   1.1283382611e+02   4.3122310693e+01    0.2648865    0.2134475  50.59 0.0008246285    1.358    0.264
       390 -11.0317      3.0966    132.1144   1.2074473862e+02   4.6768552682e+01    0.7785432    0.1857638 -68.72  0.003108501    2.841    0.648
       391 -10.6906      5.5930    123.5692   1.1915152705e+02   4.8640945257e+01    0.3329324    0.2993633 -47.92  0.002377558    1.290    0.225
       392  -9.9392     12.2060    127.1388   1.1774037778e+02   4.7335447999e+01    0.2659293    0.1825464 -45.19 0.0008015512    1.551    0.355
       393 -10.5295      8.5532    132.7676   1.1937193687e+02   4.6245182766e+01    0.3831941    0.1864557 -39.90  0.001860876    2.625    0.619
       394 -10.0145     12.8436    131.0700   1.1803051666e+02   4.6343400399e+01    0.1882891    0.1475146 -78.58 -0.0006383859    1.020    0.019
       395  -9.3633      8.0555    107.6388   1.1642923954e+02   5.2283747028e+01    0.3597953    0.1680026 -70.97  0.001141443    1.689    0.408
       396  -9.3716      2.0898     92.8555   1.1617902846e+02   5.6101749770e+01    0.2011197    0.1770166  84.17 0.0009130469    1.264    0.209
       397  -9.6210      3.5412    104.2664   1.1734968797e+02   5.3349881917e+01    0.6797493    0.2037244 -77.49  0.002514914    3.412    0.707
       398 -10.3623      2.4812    115.9573   1.1914468623e+02   5.0643251210e+01    0.3800563    0.2440984 -80.06  0.001560448    1.272    0.214
       399  -9.8117      4.4594    112.0275   1.1808928758e+02   5.1459299270e+01    0.2995901    0.1598345 -74.62 0.0007794539    1.493    0.330
       400  -9.2132     11.0219     85.9895   1.1200352875e+02   5.7187968822e+01    0.3929801     0.125538 -55.69  0.001746367    2.176    0.540
       401 -10.5581      6.4949     98.4690   1.1559333370e+02   5.4546683376e+01     0.512027    0.2522975  36.11  0.002713121    2.439    0.590
       402  -9.6007      6.3253     93.5407   1.1488825399e+02   5.5711447910e+01    0.3328366     0.182713 -72.57  0.001378434    1.514    0.339
       403  -9.3557      7.3947     89.3160   1.1383927568e+02   5.6633747657e+01    0.2317303     0.185839  88.95 0.0005436341    1.331    0.249
       404 -10.5612     42.8023    131.4554   1.0974452550e+02   4.3551510846e+01    0.5038265    0.2046987 -52.67  0.002136456    2.190    0.543
       405  -9.9470     61.9252    131.4330   1.0427235294e+02   4.1287109209e+01    0.3074045    0.2138198 -80.68  0.001490617    1.506    0.336
       406 -10.7053     32.8526    121.8619   1.1110430566e+02   4.6912959585e+01    0.6085619     0.248629  34.65  0.002720597    2.670    0.626
       407  -9.0968     30.4031    125.4782   1.1237462675e+02   4.6254051759e+01    0.2079097     0.163322 -66.30 -6.925417e-05    1.065    0.061
       408 -11.8296     28.7113    131.9790   1.1378712671e+02   4.4817178085e+01    0.2474319    0.2082414 -78.38 0.0003012244    1.033    0.032
       409 -11.3774     33.7819    128.8879   1.1191564940e+02   4.5100563447e+01     0.829475     0.446405 -28.40   0.00358635    3.017    0.669
       410  -9.1884     23.7314    133.2562   1.1533272833e+02   4.4945695785e+01    0.1968386    0.1787226  31.33 0.0004874131    1.358    0.264
       411 -10.3079     20.0825    131.3889   1.1609481421e+02   4.5704468154e+01    0.2356791    0.1764158 -74.34 0.0003359257    1.075    0.070
       412  -8.2141     88.3068    127.3115   9.5854872670e+01   3.8425399159e+01    0.1495459    0.1136218 -25.59 0.0006808224    1.619    0.382
       413  -8.7821    218.0387    125.3102   6.4761459697e+01   1.2132948057e+01    0.2033888    0.1908289 -29.77  0.001098551    1.044    0.042
       414  -9.0310     59.9540    125.5000   1.0373534587e+02   4.3010922512e+01    0.1861687    0.1414493  33.69 0.0003366969    1.482    0.325
       415  -9.2606     72.0057    123.7249   9.9826244630e+01   4.1811236484e+01    0.1918468    0.1839457 -80.11 0.0004295097    1.072    0.067
       416  -9.2158    237.5482    121.3693   6.0589026461e+01   8.9220663616e+00    0.2528277    0.1343707  67.60 0.0009631318    3.360    0.702
       417  -9.2136    123.6361    121.0377   8.4543723853e+01   3.3414583371e+01    0.2423098    0.2119772  61.33 0.0003952592    1.233    0.189
       418  -9.8062      9.3370    117.8713   1.1740694959e+02   4.9758727887e+01    0.2369597    0.1642789 -66.74 0.0006336824    1.137    0.121
       419 -10.0391     33.8103    114.1797   1.0954770420e+02   4.8702078144e+01    0.5226133    0.2732365  76.03  0.001807263    3.286    0.696
       420 -10.6427     19.6122    109.7740   1.1319714104e+02   5.0975869221e+01    0.4524791    0.3297708 -72.07  0.001935166    1.143    0.125
       421 -10.3405     14.0741    113.6012   1.1544536515e+02   5.0459726765e+01     0.375115    0.2561296  27.37  0.001470833    1.793    0.442
       422 -11.2433     21.4810    119.4388   1.1408365766e+02   4.8492760408e+01     0.525899    0.4028717  64.42  0.003232402    1.441    0.306
       423 -10.7041     27.6848    115.4183   1.1162198060e+02   4.8953345682e+01    0.5459865    0.3305753 -57.90  0.002384934    1.361    0.265
