#   1 NUMBER                 Running object number                                     
#   2 MAG_AUTO               Kron-like elliptical aperture magnitude                    [mag]
#   3 X_IMAGE                Object position along x                                    [pixel]
#   4 Y_IMAGE                Object position along y                                    [pixel]
#   5 X_WORLD                Barycenter position along world x axis                     [deg]
#   6 Y_WORLD                Barycenter position along world y axis                     [deg]
#   7 A_WORLD                Profile RMS along major axis (world units)                 [deg]
#   8 B_WORLD                Profile RMS along minor axis (world units)                 [deg]
#   9 THETA_WORLD            Position angle (CCW/world-x)                               [deg]
#  10 FWHM_WORLD             FWHM assuming a gaussian core                              [deg]
#  11 ELONGATION             A_IMAGE/B_IMAGE                                           
#  12 ELLIPTICITY            1 - B_IMAGE/A_IMAGE                                       
         1 -11.7712     19.6177     16.7663   3.9256267919e+01   7.3801453515e+01    0.4256974    0.2767926   3.73  0.002283298    1.880    0.468
         2 -10.8072     23.5943     16.7527   3.6427493698e+01   7.3219540057e+01    0.2679859    0.1983484 -61.12  0.001516432    1.899    0.473
         3 -10.8521    113.8843     15.0773   3.2250214008e+00   5.3867355177e+01    0.4518391    0.3316263  80.90  0.002687926    1.142    0.124
         4 -10.9550    183.3159     14.8913   3.5524119440e+02   3.8123695526e+01    0.3401715    0.1494796 -69.91   0.00128283    2.241    0.554
         5 -10.0499    178.7833      1.3977   3.5251383098e+02   4.0480150429e+01    0.1653178    0.1470317 -34.57 0.0005382255    1.515    0.340
         6 -12.0426    178.1681      7.8476   3.5403131048e+02   3.9954089364e+01    0.4617132    0.1995015 -45.74   0.00251446    1.928    0.481
         7 -11.8772    174.2466      3.9868   3.5342368715e+02   4.1179095796e+01    0.3155807    0.2482079 -79.43  0.001012617    1.080    0.074
         8 -10.6303     54.7653      8.8903   1.5763260534e+01   6.8380698344e+01    0.3339854    0.2130593  45.57  0.001868242    1.381    0.276
         9 -10.4777     50.5222     10.5111   1.8298894773e+01   6.9100824837e+01    0.2434488     0.182605  57.36 0.0007906821    1.172    0.147
        10 -11.1607     49.5460     14.1491   2.0559690930e+01   6.8859533203e+01    0.3344318    0.2266458  40.52 0.0008268195    1.341    0.254
        11 -10.6797     45.3809     12.1380   2.1429384792e+01   6.9963802382e+01    0.2662261    0.1901771  48.48 0.0005258867    1.177    0.150
        12 -10.4861     35.0440     13.7035   2.7607526062e+01   7.1748677790e+01      0.21316    0.1855761  -8.72 0.0006816098    1.276    0.216
        13 -11.0560     32.2111     10.2075   2.7326349873e+01   7.2739653985e+01    0.2480691     0.224314  24.37 0.0007281956    1.096    0.088
        14 -10.9344     27.9751     12.5612   3.1250794582e+01   7.3150912880e+01    0.3361389    0.1874631 -45.77  0.001773522    2.172    0.540
        15 -10.6827    162.1643     11.8724   3.5631099985e+02   4.2981749279e+01    0.1986309    0.1306866 -71.09 0.0007331043    1.268    0.211
        16  -9.3197    105.3669      9.8154   2.8988004301e+00   5.6469502048e+01    0.1435418    0.1273769 -11.81 0.0002657306    1.510    0.338
        17  -9.8956     69.6601      9.4331   1.0945528540e+01   6.4988467403e+01    0.1971849    0.1491494  22.27 0.0009431414    1.688    0.408
        18  -9.8303    218.8891      8.6364   3.5167239132e+02   3.1890921801e+01    0.1468253    0.1019498 -74.76 0.0003915396    1.134    0.118
        19  -9.7372    115.4774      8.5161   8.2282927982e-01   5.4167241465e+01    0.2036637    0.1156777 -39.17 0.0006245258    1.883    0.469
        20 -11.3826    113.9028      2.4018   3.5904179695e+02   5.5129461067e+01    0.3292735    0.2393506 -63.53  0.001268742    1.337    0.252
        21 -11.1190    124.2935      6.9399   3.5908622122e+02   5.2215734648e+01    0.3610679    0.1941505 -88.38  0.001834813    1.770    0.435
        22 -10.4851     97.5959      6.7374   3.2002984167e+00   5.8646346156e+01    0.4293863     0.176216 -53.31  0.001805096    2.996    0.666
        23 -11.2598     85.3463      7.0860   5.8551297290e+00   6.1548356681e+01    0.2791196    0.2208059 -88.49    0.0015429    1.217    0.179
        24 -10.6330     79.5483      7.8376   7.5429792272e+00   6.2848367913e+01    0.2977364    0.1495821  60.86  0.001007322    1.608    0.378
        25  -9.1156     40.2812      8.3312   2.1869502455e+01   7.1453317273e+01    0.1255237   0.08767509  23.96  0.000369889    1.608    0.378
        26  -9.2191    235.5026      7.4423   3.5064757737e+02   2.9106417939e+01    0.1051596   0.07192643 -62.93 5.394166e-05    1.007    0.007
        27 -10.1724     30.9737      3.9547   2.4410095027e+01   7.3767112646e+01    0.2071868    0.1338386  22.02  0.001144686    1.792    0.442
        28 -10.3981     16.1348      4.2101   3.4748554932e+01   7.6226922520e+01    0.1904865    0.1446298  15.43 0.0008836205    1.221    0.181
        29  -9.1472    131.4816      3.4870   3.5716485324e+02   5.0848248025e+01    0.1258997    0.1004869  89.00 0.0002028262    1.040    0.039
        30  -9.8506     79.5172    110.5240   4.1489627554e+01   4.4273743719e+01    0.2250413     0.186735 -14.85   0.00065429    1.505    0.335
        31  -9.8151     96.0848    111.7245   3.6355810500e+01   4.0897289198e+01    0.2067668    0.1966061  42.56 0.0005723265    1.070    0.066
        32  -9.7096    102.9913    105.9601   3.2889906537e+01   4.0855740205e+01    0.2517774     0.180402  73.68  0.001132172    1.721    0.419
        33 -10.4384      1.7756    104.7463   7.2682263844e+01   5.5285664435e+01    0.2415789    0.1708301 -57.55 0.0006775608    1.351    0.260
        34  -9.3536    108.1671    100.8369   3.0131876866e+01   4.0932321866e+01     0.192141    0.1779671  10.07 0.0003604994    1.282    0.220
        35 -11.3032     28.2351     99.4586   5.9804953356e+01   5.4609576083e+01    0.3942916    0.2470328 -21.08   0.00172595    1.985    0.496
        36 -10.0195     69.7826     98.8077   4.2188622769e+01   4.8836191782e+01    0.2718641     0.203966  26.68  0.001294991    1.399    0.285
        37 -10.8241    102.9687     95.5501   3.0278424358e+01   4.3145147188e+01    0.3032379    0.2169522 -48.58  0.001454065    1.458    0.314
        38  -9.3692      4.7821     95.7920   7.0280459486e+01   5.7478683342e+01    0.2598555    0.1020769 -38.55 0.0009564281    2.803    0.643
        39 -11.2082     89.9542     94.3758   3.3986549288e+01   4.6054141368e+01    0.2871526    0.2473446  49.37 0.0004051458    1.102    0.093
        40  -8.9433    157.5222     93.4919   1.6977215356e+01   3.2119672323e+01    0.1375583    0.1229385 -74.29 0.0003010321    1.021    0.021
        41 -10.3727     38.4726     93.4751   5.3938786403e+01   5.4958009419e+01     0.145691    0.1398773  41.17 -1.366769e-05    1.027    0.026
        42 -11.4838     64.6345     96.1669   4.3502900363e+01   5.0363359648e+01    0.3575073    0.2943474  37.57 0.0006486663    1.160    0.138
        43 -10.6852     16.1553     94.2426   6.4584931464e+01   5.7094145859e+01    0.3263403    0.2306262  16.52  0.000940428    1.415    0.293
        44  -9.2470      2.3022     88.3187   7.0564325307e+01   5.9554225036e+01     0.147564   0.09008517 -39.72 0.0004274093    1.624    0.384
        45 -10.4237     12.0408     85.6760   6.5231733337e+01   5.9619474034e+01    0.1943568    0.1714848   1.09 0.0004182705    1.129    0.114
        46  -9.4677    160.1544     81.1544   1.3631248979e+01   3.3743281981e+01    0.1871294    0.1421754 -71.91 0.0004363053    1.297    0.229
        47  -9.4829    105.2412     80.0046   2.5435323853e+01   4.5876242142e+01     0.187763    0.1243758 -48.50 0.0008744757    1.577    0.366
        48 -12.1256     54.3527     78.6787   4.3125091061e+01   5.6207281498e+01    0.3440467    0.2892602  57.31 0.0004782467    1.234    0.190
        49  -9.8738    143.8703     77.1783   1.5627029574e+01   3.7899895399e+01    0.2136844    0.1733118 -86.04 0.0008784951    1.207    0.171
        50  -9.6565    152.0334     76.2305   1.3869294521e+01   3.6298780646e+01    0.1756033    0.1084634  59.65 0.0006580704    1.610    0.379
        51 -10.5759      2.9664     74.4586   6.8250438067e+01   6.3025793224e+01    0.3568316    0.1753675 -66.75  0.001540424    1.915    0.478
        52  -9.6544     77.9853     77.9932   3.3528990448e+01   5.2017654255e+01    0.2181705    0.2013781  56.77  0.001198386    1.010    0.010
        53 -11.7608     64.1057     69.5637   3.6292386671e+01   5.6491972665e+01    0.2405506    0.2332373 -63.27 0.0002508805    1.105    0.095
        54  -8.9101    189.0000     68.9647   6.6434906655e+00   2.9878709784e+01    0.2107853   0.06291081 -39.84 0.0005106797    3.037    0.671
        55  -9.9709      7.8881     68.9490   6.4504560633e+01   6.4079575270e+01    0.2017401    0.1894204 -21.65 0.0005575669    1.002    0.002
        56 -10.6711    101.5064     67.0363   2.2719407164e+01   4.9181132730e+01     0.295669    0.2497895 -59.95 0.0006828293    1.231    0.188
        57 -11.0089    100.2088     63.3048   2.1949529196e+01   5.0151975788e+01    0.4300534    0.2635012 -63.87  0.001825836    2.040    0.510
        58 -10.0675    192.0743     65.8961   5.6099331423e+00   2.9741197194e+01    0.1830725    0.1481531 -65.41 0.0003713137    1.016    0.016
        59 -10.1833    250.2464     64.9706   3.5988933441e+02   1.9950110061e+01    0.1418326   0.06801194 -43.11 0.0005363851    1.569    0.363
        60  -9.4815    204.4944     65.4910   4.1217789274e+00   2.7465235860e+01    0.1221401   0.09533273 -63.44 0.0002154038    1.039    0.037
        61 -10.6193     75.0514     64.5355   3.0448680926e+01   5.5365680398e+01    0.2636139     0.171013  42.19  0.000798462    1.453    0.312
        62 -10.0951     78.4012     62.7575   2.8665452460e+01   5.5016224577e+01    0.2206281    0.1900855  66.77 0.0002901442    1.141    0.123
        63 -10.5737      4.2458     63.8744   6.5674562516e+01   6.5534719801e+01    0.2793919    0.2113009 -58.22 0.0009578468    1.280    0.219
        64 -10.8730      3.0662     59.3835   6.5520340567e+01   6.6670638224e+01    0.3589484    0.2382335  -6.91  0.001242148    1.500    0.333
        65  -9.1507    157.4792     61.4380   9.3078545049e+00   3.7526943245e+01    0.1346155    0.1136359 -79.24 0.0001866975    1.028    0.028
        66 -10.3224    114.1004     60.4842   1.7484810274e+01   4.7481152053e+01    0.3659759    0.2221951 -56.17  0.001459611    1.783    0.439
        67 -11.2398    231.2626     59.9547   5.0667477135e-01   2.3576064827e+01     0.297998    0.1701747 -76.51  0.001139239    1.912    0.477
        68 -10.6888    124.8644     59.8345   1.4857265196e+01   4.5114206778e+01    0.2220193    0.1996271  81.43 0.0003442863    1.045    0.043
        69 -11.8145     20.4546     58.7383   5.4755272779e+01   6.5408325548e+01    0.5050336    0.3252027  -3.77  0.002479778    1.756    0.431
        70 -10.3022     66.3053     58.0136   3.1627248754e+01   5.8399730950e+01    0.3127109    0.1750212  65.40  0.001190752    2.763    0.638
        71  -9.8847     28.9367     57.2507   4.9412445655e+01   6.4759653945e+01     0.228041    0.1487256 -11.16 0.0009047099    1.949    0.487
        72  -9.4795    161.9596     56.6848   7.4635716325e+00   3.7278724341e+01    0.2081743   0.08018621  45.85 0.0003543096    4.379    0.772
        73  -8.9818     45.4588     56.5058   4.0403941129e+01   6.2503759869e+01    0.1400713    0.1292967  31.77 0.0002174754    1.010    0.010
        74 -10.0547     88.5785     52.8510   2.2012289131e+01   5.4602616006e+01    0.2356972    0.1768914  48.53 0.0004894654    1.255    0.203
        75 -10.5808    149.7924     48.8722   7.3143772911e+00   4.1115013871e+01    0.3797064    0.1322512 -40.96  0.001533105    2.727    0.633
        76  -9.7236    111.9709     50.9897   1.5121698317e+01   4.9532816558e+01    0.2162573    0.1653191  32.49 0.0007647804    1.739    0.425
        77 -11.1097     15.4714     49.9089   5.5304134002e+01   6.7878224961e+01    0.3198069    0.2845735 -85.98  0.001791487    1.342    0.255
        78  -9.3274     64.3628     50.3225   2.9695985907e+01   6.0228200640e+01     0.145044    0.1089362  13.76 0.0007041185    1.782    0.439
        79 -11.3480    249.3075     57.0953   3.5859635036e+02   2.1097591118e+01    0.2746502   0.08723455 -44.82  0.001459402    2.186    0.542
        80  -9.2256    122.6664     49.2795   1.2261329533e+01   4.7298682030e+01    0.1427188   0.09777245 -82.80 0.0004330325    1.610    0.379
        81 -11.5975     94.0158     48.5422   1.8957426312e+01   5.4087740323e+01    0.2592161    0.2228358 -61.52 8.410342e-05    1.236    0.191
        82 -10.6394      5.3005     47.0431   6.1255595881e+01   6.9356856986e+01    0.4349335    0.1542547 -38.95  0.001681399    2.965    0.663
        83 -11.0142    249.5477     46.2394   3.5670028793e+02   2.2409202627e+01    0.2766407   0.08305071 -37.62   0.00109803    2.805    0.644
        84 -10.9306     39.4230     43.4773   3.8792839693e+01   6.6069980749e+01    0.3353907    0.2679889  27.26  0.001258949    1.157    0.136
        85  -9.4103     31.2942     43.6133   4.3413655976e+01   6.7288349667e+01      0.19412    0.1197991  21.49 0.0007837589    1.637    0.389
        86 -10.1626    118.9293     41.4111   1.0659273743e+01   4.9341703593e+01    0.2560154    0.1938535 -11.87  0.001333752    2.036    0.509
        87  -9.7460    185.9343     41.2770   9.1607150289e-01   3.4396139859e+01    0.1701644    0.1288767  47.77  0.000743922    1.847    0.459
        88  -9.1022     71.2824     41.6790   2.3812896002e+01   6.0276266674e+01    0.1359471    0.1055486  88.83 0.0003000874    1.589    0.371
        89 -10.3913    158.9415     39.2269   3.5441032809e+00   4.0412366010e+01    0.2057183    0.1640561 -62.55 0.0003544138    1.131    0.116
        90  -9.4172      1.2081     39.9559   6.2297359990e+01   7.1179097229e+01    0.1563793   0.09940445 -65.69 0.0004754378    1.654    0.395
        91  -9.1128     89.9909     39.0169   1.6806544052e+01   5.6497290515e+01    0.1624984    0.1483792  76.26 0.0009690283    1.058    0.055
        92  -9.0685     57.3162     39.2893   2.8432925029e+01   6.3569336947e+01    0.1355862     0.102955  18.74 0.0003112381    1.593    0.372
        93 -10.0171    218.0153     38.2279   3.5744469674e+02   2.8646890211e+01    0.1320449   0.08295692  80.43 0.0003847394    1.605    0.377
        94  -9.4793     96.0150     38.0170   1.4819246180e+01   5.5241551428e+01    0.1670305    0.1412435  69.04  0.000374974    1.029    0.028
        95  -9.6839     64.1732     38.3918   2.5234826134e+01   6.2318231218e+01    0.2021857    0.1191519  57.99 0.0007517873    1.694    0.410
        96 -10.1076     47.1541     35.8491   3.1713152232e+01   6.6101934543e+01    0.2375459    0.2136165 -12.71 0.0003533749    1.235    0.190
        97 -10.7256     51.8540     32.8936   2.8218805847e+01   6.5698130766e+01    0.2765723    0.1821045  45.34 0.0003054514    1.335    0.251
        98 -10.5221     48.3829     32.3014   2.9598169341e+01   6.6462318581e+01    0.2343248    0.1778265   6.45  0.000563484    1.688    0.408
        99 -10.6443     40.4618     35.7152   3.5098170177e+01   6.7318011425e+01     0.365772    0.2091747  49.76  0.001150374    1.813    0.449
       100  -9.9697    189.6510     33.8886   3.5892169317e+02   3.4590298239e+01     0.343256    0.1085179 -33.83   0.00141926    3.406    0.706
       101 -10.5471    119.1575     35.0203   8.6459953340e+00   5.0176869174e+01    0.2194439     0.170195  72.17 0.0003033595    1.127    0.113
       102  -9.2033    174.4226     34.5219   5.7572475404e-01   3.7662946278e+01     0.125338   0.09865642 -72.49 0.0002654942    1.023    0.022
       103 -10.4596     31.2068     33.4464   3.9402878919e+01   6.9226511987e+01    0.2940094    0.1400009  51.17 0.0008517854    2.826    0.646
       104  -9.4690    153.7552     31.9966   2.3604779493e+00   4.2514555090e+01    0.1750894    0.1462986 -79.43 0.0003981749    1.041    0.040
       105 -10.6105     92.5226     31.1528   1.3298407637e+01   5.7026126813e+01    0.2480015    0.1925642  69.00 0.0003471067    1.125    0.111
       106 -10.5010     17.8197     31.2044   4.7212936797e+01   7.1472741105e+01    0.2098985    0.1865406  13.26 0.0004719812    1.042    0.041
       107 -10.6722      4.5830     31.5316   5.7198494005e+01   7.2718614608e+01    0.3556329    0.1496875  36.13   0.00130415    2.450    0.592
       108  -9.5059     80.6452     31.6675   1.6840029798e+01   5.9714020541e+01     0.141548   0.09883826  31.93 0.0007044681    1.788    0.441
       109 -10.9367     59.2053     28.2233   2.3012704527e+01   6.4926913989e+01    0.4074945    0.3000875 -15.39  0.001590794    1.827    0.453
       110 -10.0868    129.0373     28.9282   5.0553029798e+00   4.8625892987e+01    0.1981422    0.1609568  87.77 0.0003867428    1.033    0.032
       111  -9.8899     65.1889     28.6250   2.0846894403e+01   6.3593913286e+01    0.2606591    0.1813542  32.64  0.001369264    1.614    0.381
       112  -9.7205    103.9681     28.2637   9.5556711225e+00   5.4690144713e+01    0.1907872    0.1510199  71.07 0.0003186178    1.082    0.075
       113 -11.3363     47.2111     26.6681   2.7653820961e+01   6.7575814361e+01    0.2876504    0.2329936   3.04 0.0001917455    1.482    0.325
       114 -10.1929     88.3624     25.2200   1.2193558026e+01   5.8785919755e+01    0.2270028    0.1623016 -52.70  0.001188713    1.554    0.356
       115 -10.2069    110.9231     24.9786   7.0221492310e+00   5.3436319341e+01    0.2347605    0.1670891  70.75 0.0007190265    1.202    0.168
       116  -9.4038    128.9761     23.9790   3.5937742517e+00   4.9247017263e+01    0.1576105      0.12942  88.70 0.0003586287    1.005    0.005
       117 -10.8117     98.4424     22.6419   8.8095947539e+00   5.6711868457e+01    0.2446281    0.2065082  84.37 0.0004303225    1.067    0.063
       118  -9.8533     38.4824     22.9065   3.0381027189e+01   6.9779673584e+01    0.1685912    0.1299774 -39.39 0.0003732711    1.483    0.326
       119 -11.1656     19.6301     22.7677   4.2217487682e+01   7.2785855722e+01    0.3391999     0.158658  24.69 0.0009006222    2.122    0.529
       120 -11.0677      2.3319     22.4677   5.5759640099e+01   7.4697710805e+01    0.2816103     0.229647 -62.19   0.00183396    1.434    0.303
       121  -9.4113    196.3405     22.7045   3.5594374297e+02   3.4602762521e+01     0.125302   0.06558078 -66.28 0.0007031094    1.658    0.397
       122 -10.1720    160.6102     27.1221   2.9183972923e-01   4.1585697441e+01    0.2065101    0.1427943 -86.50 0.0004018116    1.253    0.202
       123  -9.3819    138.6835     21.7117   1.5423603969e+00   4.7230715914e+01    0.1209461   0.09150663  50.41 0.0002702225    1.591    0.372
       124 -10.5588     66.6082     20.8571   1.7001432092e+01   6.4339545378e+01    0.2351928    0.1638114  60.56 0.0002999764    1.260    0.206
       125  -9.2573    159.4217     20.5346   3.5875874221e+02   4.2629518282e+01    0.1252633   0.09910402 -77.89   6.7096e-05    1.011    0.011
       126  -9.8722    104.0358     20.3713   6.8237226601e+00   5.5640511196e+01    0.1891463     0.143354  73.98 0.0004573421    1.113    0.101
       127 -10.0215     83.4734     20.0270   1.1486050470e+01   6.0578277310e+01    0.3747786    0.1585844  74.98  0.001323126    3.418    0.707
       128 -10.2633    109.4102     18.9432   5.2970391280e+00   5.4513230879e+01    0.2319964    0.1611138  84.07 0.0006761249    1.296    0.229
       129  -9.6245     48.5114     19.4991   2.3661665038e+01   6.8363248645e+01    0.1318908    0.1123564  43.70 7.676299e-05    1.010    0.010
       130 -10.2654      1.5202    181.9573   7.8051320877e+01   3.4780393370e+01    0.3687944      0.11732  85.61  0.001255808    3.537    0.717
       131 -10.6335     20.2741    174.8494   7.1802054606e+01   3.5126079166e+01     0.298357    0.1893079  55.82 0.0009542643    1.495    0.331
       132 -10.6614     21.5066    170.2884   7.1052606362e+01   3.6212120680e+01    0.2607219    0.2527308  13.75 0.0005563568    1.125    0.111
       133  -9.9978     85.6512     15.7664   9.2414243605e+00   6.0560746913e+01    0.3118704    0.1246157  60.68  0.001350792    2.038    0.509
       134 -10.1570    224.2159    173.0147   2.1345730297e+01   7.7189143194e+00    0.1569335   0.07547177 -41.35  0.000876877    1.714    0.417
       135  -9.6512     27.5325    158.9982   6.8044075849e+01   3.8653227058e+01    0.2165043    0.1413287 -78.74 0.0006487847    1.556    0.357
       136 -10.2112      3.0472    156.0744   7.6198093936e+01   4.1427184388e+01    0.2114443    0.1934119  71.78 0.0004225794    1.023    0.023
       137  -9.5210      8.6961    150.3356   7.3852833353e+01   4.2575870375e+01    0.1561885   0.09154258  55.38 0.0007038396    1.666    0.400
       138 -10.2691     39.9594    147.8753   6.2452436146e+01   4.0341942709e+01    0.2292563    0.2113277  49.71 0.0005385921    1.024    0.024
       139  -9.8756     25.0056    146.2906   6.7641563889e+01   4.2323975847e+01    0.2113291    0.1838474  25.01  0.001144242    1.148    0.129
       140  -9.2996     74.9174    143.9902   4.9832550176e+01   3.6630330506e+01    0.1875403     0.167736  37.95 0.0005417285    1.069    0.065
       141 -10.0137      6.8581    142.8639   7.3954881883e+01   4.4719196620e+01    0.2141243    0.1836881 -53.96 0.0008552283    1.217    0.178
       142 -10.9173     22.1204    141.6449   6.8209450054e+01   4.3850488126e+01     0.321381    0.2670555  38.48 0.0007464315    1.154    0.133
       143 -10.0963     18.4849    141.4431   6.9538646393e+01   4.4221329601e+01    0.2485663    0.1979573  41.01 6.042335e-05    1.200    0.167
       144 -10.2143     28.5056    138.1729   6.5430658673e+01   4.4192970847e+01     0.249561    0.2023921  23.26 0.0003994496    1.229    0.186
       145 -10.2139      3.5234    136.0091   7.4679123949e+01   4.6787192478e+01    0.2175437    0.1328152 -81.20 0.0006397098    1.584    0.369
       146  -9.9781    136.9772    134.0120   3.0286675487e+01   2.8117104156e+01    0.1726804    0.1681144  60.27 0.0006300639    1.036    0.034
       147 -10.2674     11.3328    133.9589   7.1527250150e+01   4.6818307688e+01    0.1961691    0.1797644 -87.70 0.0006959897    1.062    0.058
       148  -9.9287    108.6083    132.7559   3.7331314547e+01   3.3635141807e+01     0.301926     0.140437 -50.12  0.001156865    2.179    0.541
       149 -10.7901     18.6656    132.6973   6.8564216046e+01   4.6585895345e+01    0.4211449    0.1852138  38.12  0.001061874    2.109    0.526
       150  -9.3462      5.4913    125.4965   7.3059591162e+01   4.9507885138e+01    0.1387692    0.1334481  84.37 0.0008106094    1.008    0.008
       151 -10.8856    134.9816    124.0377   2.8635464507e+01   3.0602854899e+01    0.2225327    0.2158189 -76.76 0.0006435123    1.013    0.013
       152 -10.4206     62.4705    120.8675   4.9829567753e+01   4.4526406280e+01    0.3665059    0.2310147  69.19  0.001483483    2.107    0.525
       153 -10.3613      2.2497    118.0722   7.3733245273e+01   5.1701014513e+01    0.2466073    0.1918054  34.52 0.0004382499    1.285    0.222
       154 -10.1622     55.6905    117.2151   5.1661328395e+01   4.6489494123e+01    0.2535265     0.190795  40.74 0.0004195249    1.270    0.212
       155  -9.8877     13.1039    117.4875   6.9118032122e+01   5.1153816574e+01    0.2068652    0.1402345  15.03 0.0004152324    1.511    0.338
       156  -9.9344     91.4061    116.2064   3.8858827186e+01   4.0728578162e+01    0.2487571    0.2068135  30.57 0.0007580303    1.248    0.198
       157 -10.1369     21.0842    115.6092   6.5505877643e+01   5.1010894817e+01    0.3307088    0.1569143 -52.61  0.001343317    2.067    0.516
       158  -9.8290     80.5085    113.5910   4.1852125281e+01   4.3350042641e+01    0.2726618    0.2017531 -71.95 0.0005712241    1.507    0.336
