#   1 NUMBER                 Running object number                                     
#   2 MAG_AUTO               Kron-like elliptical aperture magnitude                    [mag]
#   3 X_IMAGE                Object position along x                                    [pixel]
#   4 Y_IMAGE                Object position along y                                    [pixel]
#   5 X_WORLD                Barycenter position along world x axis                     [deg]
#   6 Y_WORLD                Barycenter position along world y axis                     [deg]
#   7 A_WORLD                Profile RMS along major axis (world units)                 [deg]
#   8 B_WORLD                Profile RMS along minor axis (world units)                 [deg]
#   9 THETA_WORLD            Position angle (CCW/world-x)                               [deg]
#  10 FWHM_WORLD             FWHM assuming a gaussian core                              [deg]
#  11 ELONGATION             A_IMAGE/B_IMAGE                                           
#  12 ELLIPTICITY            1 - B_IMAGE/A_IMAGE                                       
         1 -10.4277    166.7181     10.1911   7.2467204149e+01   4.2257658675e+01    0.3640467    0.3076416  31.39  0.002021454    1.221    0.181
         2 -10.0588    169.5070     17.5278   7.4484199838e+01   4.0778998025e+01     0.360819    0.2945525  55.47  0.001938125    1.158    0.136
         3  -9.9987    166.3223     17.6751   7.5030762502e+01   4.1594987928e+01    0.4986852    0.3019712  13.75  0.002126221    2.228    0.551
         4 -10.8997    172.4056     10.4997   7.1747761489e+01   4.0741662960e+01    0.8689007     0.374341 -29.93  0.003545575    2.292    0.564
         5 -10.2358    243.9455    232.4032   1.1373535887e+02  -6.7654306970e+00    0.2501417    0.2048531  54.15   0.00176482    1.799    0.444
         6  -9.5336    248.6847    249.2383   1.1556272692e+02  -9.0597052097e+00     0.352548    0.1762694  27.73  0.002190108    1.622    0.384
         7  -8.2256    165.8528    249.6499   1.2898803383e+02   3.5405932113e+00    0.1536253    0.1332988  31.73  0.000320858    1.210    0.174
         8 -17.8024     76.6273    233.3572   1.4224574279e+02   1.9208634207e+01     3.403827     2.058698  54.97    0.0126502    1.270    0.213
         9 -10.7849    183.4112    210.4695   1.2058212046e+02   5.8763540196e+00    0.4624111    0.2853592 -47.62   0.00260069    2.011    0.503
        10  -9.2804    186.0000    228.1035   1.2275983343e+02   3.0273538464e+00    0.5029263    0.1398911 -45.85  0.001980843    4.849    0.794
        11  -8.9863    167.0696    226.7914   1.2588030592e+02   6.3699747844e+00    0.2295326    0.1811182 -43.90 0.0006492585    1.581    0.368
        12  -9.7848    174.1702    214.0555   1.2280105165e+02   6.9754867971e+00    0.4753968    0.1641131  35.66  0.001797416    3.322    0.699
        13  -9.7561     73.1759    179.0922   1.3763703505e+02   2.9645310341e+01    0.5445786    0.2023549  41.94  0.002132434    2.505    0.601
        14  -9.3816     75.6624    184.9116   1.3780043183e+02   2.8137801130e+01    0.2922679    0.1433618  47.74 0.0006089204    1.831    0.454
        15  -9.4647     71.1383    182.9410   1.3848292337e+02   2.9145719312e+01    0.3315229    0.2452466  55.21  0.001615123    1.234    0.190
        16  -8.0179    109.9155    183.6232   1.3072525547e+02   2.3235474641e+01    0.2579752     0.133203  54.69 0.0009787403    1.867    0.464
        17 -10.9594     44.7751    176.6875   1.4309723640e+02   3.3673025065e+01    0.7466716     0.348397  46.76  0.004201538    1.968    0.492
        18 -10.2817    132.8584    207.6498   1.2952147237e+02   1.5077112859e+01    0.3861513    0.2458764  64.62  0.001541195    1.673    0.402
        19  -9.3960     47.6542    182.7177   1.4308989066e+02   3.2127117907e+01    0.2027599    0.1561659  46.30 0.0005545557    1.414    0.293
        20  -9.3019      3.0999    177.9043   1.5111619044e+02   3.7493970945e+01    0.2180005    0.1780474  17.58  0.001728364    1.994    0.499
        21 -10.2032    137.8886    171.8355   1.2310261235e+02   2.0648242475e+01    0.3876699    0.2693219  30.47  0.001999663    1.667    0.400
        22  -8.7751    152.9239    175.8617   1.2069975941e+02   1.7089310514e+01    0.2239622    0.1961476 -88.56 0.0006014994    1.273    0.214
        23 -11.0690    126.5044    171.0141   1.2535787165e+02   2.2869062799e+01    0.6272404    0.3502156  64.83  0.002754916    2.328    0.571
        24 -10.3945    123.5249    168.2715   1.2553697719e+02   2.3939394491e+01    0.5074444    0.2648033 -48.70  0.002365079    2.078    0.519
        25  -9.1323     51.0007    181.2221   1.4229702195e+02   3.2035018141e+01    0.2026207    0.1437895  45.23 0.0003373934    1.463    0.317
        26  -8.5027    193.6567    171.6707   1.1184984059e+02   9.8885105514e+00    0.2356329    0.2164934   6.79 0.0008251469    1.084    0.078
        27  -8.5845    196.5421    170.5121   1.1107124300e+02   9.5060473958e+00     0.308511      0.22829 -22.54  0.001662739    1.492    0.330
        28  -9.2339    145.5937    168.8355   1.2096560574e+02   1.9779759124e+01    0.3068121    0.2367717 -88.03 0.0009560704    1.602    0.376
        29  -9.0642    175.0234    203.3158   1.2099066217e+02   8.4214456565e+00    0.2084693     0.184734 -61.51 0.0006136676    1.383    0.277
        30  -9.7877    112.9952    169.0043   1.2790856202e+02   2.5615473689e+01    0.2970594     0.265705  76.26   0.00131593    1.015    0.015
        31  -9.8761    117.5763    166.3676   1.2649960890e+02   2.5363251302e+01      0.35104    0.2646607  56.22  0.001982158    1.239    0.193
        32  -9.6715     50.3383    166.0233   1.4089642671e+02   3.5237109979e+01    0.2820696    0.2181713 -46.50   0.00115057    1.738    0.424
        33  -9.2183    138.6451    200.2919   1.2740839295e+02   1.5346250084e+01    0.3631819    0.2426451  89.66  0.001676975    2.150    0.535
        34  -9.3760     68.6432    170.5110   1.3756494652e+02   3.2015936945e+01    0.3600524    0.2152254  31.88 0.0007298983    2.093    0.522
        35  -7.9022    196.6691    201.7071   1.1675746348e+02   4.7668930696e+00    0.1298368   0.08887553  18.52 0.0004427337    1.631    0.387
        36  -9.8577     80.0079    162.7516   1.3413331906e+02   3.2079624741e+01    0.3357227    0.2442961 -48.32  0.001958528    1.642    0.391
        37 -10.6166    192.3334    188.7374   1.1529899592e+02   7.4663411346e+00    0.7377751    0.3165686 -44.62 0.0002623907    2.741    0.635
        38  -8.8141     36.7781    158.7844   1.4300435107e+02   3.8262318225e+01     0.303344    0.1400314 -85.00  0.001539926    2.125    0.529
        39  -9.9182     77.1289    157.6442   1.3405876924e+02   3.3576807459e+01    0.3258064    0.1704778  36.63   0.00151591    2.109    0.526
        40  -8.9341     43.4250    155.7039   1.4125402400e+02   3.8208281415e+01    0.4116324    0.2117313 -84.86  0.001894022    1.881    0.468
        41  -9.6261     40.7423    148.2382   1.4101152620e+02   4.0107429449e+01     0.432839    0.3132563 -88.49  0.002583884    1.148    0.129
        42  -9.6824    120.6665    157.2903   1.2427468026e+02   2.6671152810e+01    0.6892797    0.3457173  71.58  0.001969206    5.674    0.824
        43  -9.2458    113.2066    151.2251   1.2486830240e+02   2.9254749300e+01    0.5215654    0.3131377  80.71  0.002148502    2.712    0.631
        44  -8.7035    115.7862    148.3589   1.2375613820e+02   2.9405787366e+01    0.3624058    0.2177187  39.13  0.001345312    1.743    0.426
        45  -9.0925     13.2803    242.5836   1.5264943104e+02   2.5030660553e+01    0.2193986    0.1517618  81.11  0.001312127    1.178    0.151
        46  -8.5660     61.3303    156.5397   1.3742244482e+02   3.5921085763e+01    0.2910443    0.2021586  15.13  0.001541044    2.422    0.587
        47  -7.8430     29.4482    157.4515   1.4442396672e+02   3.9284204810e+01    0.1142684   0.08984473 -86.70  0.000208229    1.071    0.066
        48  -9.4534    158.2532    194.6994   1.2279052569e+02   1.2821990894e+01    0.2353467    0.1390344  47.08 0.0006854761    1.479    0.324
        49  -8.4975     80.9940    150.2166   1.3209343026e+02   3.4630943428e+01    0.2144506    0.1547876  75.66  0.001208493    1.408    0.290
        50  -9.3848     10.3485    223.1508   1.5223655840e+02   2.8534969148e+01    0.3807965    0.1165025 -71.96  0.001839321    2.865    0.651
        51  -8.3699     77.6326    174.2564   1.3614139930e+02   3.0016261761e+01    0.2234293     0.159096  67.87 0.0007656895    1.280    0.219
        52  -7.9881    132.8873    195.1174   1.2777970798e+02   1.7241399393e+01    0.1938257    0.1515773  69.11 0.0004242161    1.269    0.212
        53  -9.2308     69.7550    144.9990   1.3391844131e+02   3.7342917596e+01    0.2772494    0.2244288 -81.62 0.0007748706    1.078    0.072
        54  -9.1395     66.2044    141.9297   1.3429996220e+02   3.8490733500e+01    0.3951664    0.2439354  68.67  0.002078786    1.803    0.445
        55  -8.3338    143.7542    143.6091   1.1647061148e+02   2.5086205465e+01    0.3276736    0.2204987  68.67  0.001486308    1.887    0.470
        56  -8.0342    101.0564    143.7873   1.2634421566e+02   3.2917510859e+01    0.2164801    0.1701144  74.39 0.0007357218    1.308    0.235
        57  -9.9785     74.3021    139.8519   1.3204673212e+02   3.7861880887e+01    0.6046726     0.228644 -63.62  0.002454295    2.508    0.601
        58  -8.2973    109.8656    135.9642   1.2276925195e+02   3.3113378158e+01    0.2642409    0.1845663  45.86 0.0007853081    1.446    0.308
        59  -8.2375    136.2103    134.8468   1.1631418519e+02   2.8390930602e+01    0.2076419    0.1888781  83.92 0.0003108702    1.127    0.113
        60  -9.0738     61.4841    129.5106   1.3353516674e+02   4.1868927608e+01    0.3030702    0.2085456  58.02  0.001241188    1.528    0.346
        61  -9.0895     63.3412    124.3433   1.3221207155e+02   4.2799944366e+01    0.5221518    0.1696018  30.97  0.001906239    4.127    0.758
        62  -8.1749    200.9035    123.0316   9.9707422325e+01   1.6586368380e+01    0.2156672    0.2025604   8.97 0.0003211542    1.031    0.030
        63  -8.2663    133.0655    119.9973   1.1367490032e+02   3.2133811424e+01    0.2106437     0.206487 -79.63  0.001185211    1.011    0.011
        64  -7.5981     78.6930    118.0625   1.2706067341e+02   4.2130395314e+01    0.1797231     0.155249 -65.07 0.0004435091    1.049    0.046
        65 -10.0515    246.5483    113.6864   8.9519322593e+01   8.0754593272e+00    0.2659377    0.2375696  27.29 0.0003141791    1.147    0.128
        66  -8.0400    126.3115    113.9413   1.1386305591e+02   3.4778672155e+01    0.2566453    0.1881018  30.50 0.0005965911    1.587    0.370
        67  -8.9297     67.6460    101.7061   1.2670826175e+02   4.7362858451e+01    0.3845163    0.1704046 -49.12  0.001686655    2.055    0.513
        68  -7.3180    192.4384    100.5772   9.5588033472e+01   2.2488182450e+01    0.1508371     0.147165  -3.52 9.969189e-05    1.005    0.005
        69  -7.9061     63.4435    100.4558   1.2764068616e+02   4.8192721920e+01    0.1325663    0.1141841 -66.21 2.596974e-05    1.024    0.024
        70  -9.8119    249.4081     95.1101   8.4579890094e+01   1.0213025397e+01    0.4106373    0.2393364 -51.39  0.001530937    2.035    0.509
        71  -7.2411    103.6686     97.7141   1.1565812244e+02   4.2592737315e+01    0.1419621     0.113688  -9.75 0.0002951731    1.618    0.382
        72  -7.6776     24.5023     87.5212   1.3662024304e+02   5.5106097581e+01    0.1217979   0.09508314 -63.83 7.021609e-06    1.023    0.022
        73  -8.3704    146.5094     59.2219   9.2972632219e+01   4.0937579840e+01    0.2944289    0.2162023  53.63 0.0009493457    1.378    0.274
        74  -7.2735    160.7053     57.7082   8.9378370740e+01   3.7677689674e+01    0.1548443    0.1169867  20.83 0.0002767642    1.555    0.357
        75  -8.5064    198.1040     52.4117   8.0883871865e+01   2.8873092927e+01    0.2317866    0.2000185 -12.59 0.0004493348    1.229    0.187
        76  -9.6237    155.6287     45.7559   8.6484998310e+01   4.0787815623e+01    0.4203361    0.2140691 -37.59  0.001691784    1.950    0.487
        77  -8.3548    138.0768     43.8096   8.9627647217e+01   4.5410044383e+01    0.2056558    0.1959206 -71.45 0.0002783609    1.174    0.148
        78  -9.2622    161.2695     35.7629   8.2002717941e+01   4.0741330661e+01    0.3916447     0.322982  63.67  0.001241478    1.212    0.175
        79  -7.4544    193.0252     26.0226   7.3737410306e+01   3.3651827636e+01    0.1676355    0.1612445 -42.72 0.0009523102    1.060    0.057
        80 -10.4504    248.4655    243.2918   1.1470644745e+02  -8.4849438814e+00    0.3984655    0.2123277  26.15  0.002505794    1.546    0.353
        81 -10.3851    165.7479     13.5852   7.3748923672e+01   4.2172532425e+01    0.5856147    0.2326383  67.97  0.002189894    2.465    0.594
        82  -9.3264    143.8835    215.0844   1.2846687994e+02   1.2012547894e+01    0.2608275     0.182597 -60.43 0.0009167108    1.719    0.418
        83  -9.0496     15.1814    247.6472   1.5258759010e+02   2.4038626792e+01    0.3033707    0.1243379 -82.59  0.001403699    2.166    0.538
        84 -10.1661    146.3719     19.5763   7.9146518661e+01   4.6517491403e+01    0.2701316    0.2477304  21.55 0.0002356145    1.069    0.065
