#   1 NUMBER                 Running object number                                     
#   2 MAG_AUTO               Kron-like elliptical aperture magnitude                    [mag]
#   3 X_IMAGE                Object position along x                                    [pixel]
#   4 Y_IMAGE                Object position along y                                    [pixel]
#   5 X_WORLD                Barycenter position along world x axis                     [deg]
#   6 Y_WORLD                Barycenter position along world y axis                     [deg]
#   7 A_WORLD                Profile RMS along major axis (world units)                 [deg]
#   8 B_WORLD                Profile RMS along minor axis (world units)                 [deg]
#   9 THETA_WORLD            Position angle (CCW/world-x)                               [deg]
#  10 FWHM_WORLD             FWHM assuming a gaussian core                              [deg]
#  11 ELONGATION             A_IMAGE/B_IMAGE                                           
#  12 ELLIPTICITY            1 - B_IMAGE/A_IMAGE                                       
         1 -14.9786     40.0585     28.3225   1.0295523986e+02   6.5013297586e+01    0.3724729    0.1979291 -17.99  0.002008087    2.024    0.506
         2 -15.1659    182.5397    229.5867   1.1341017802e+02  -1.0906055293e+00     1.066647    0.5928817  43.41  0.005240446    1.658    0.397
         3 -14.5065    207.3879    248.5072   1.1167532871e+02  -8.2138994510e+00    0.7386612    0.3846039  32.35  0.003845555    1.714    0.416
         4 -14.7019    220.6797    239.9357   1.0774887691e+02  -9.0280132972e+00     1.158934    0.4886432  22.14  0.004140917    4.106    0.756
         5 -14.9252    167.5667    246.7068   1.1909701078e+02  -1.4223002598e+00    0.7299497    0.5638085  53.63  0.003922006    1.312    0.238
         6 -19.5501     67.1900    194.7103   1.3292321908e+02   2.5831254214e+01      7.12566     6.550038  54.74   0.03510648    1.241    0.194
         7 -15.9283    125.9309    179.1239   1.1685162636e+02   1.9749766457e+01     2.623223     1.607626  33.90   0.01069946    1.805    0.446
         8 -14.6452    157.0626    188.7390   1.1150632014e+02   1.1573710448e+01    0.5514769    0.3736814 -63.38  0.002536899    1.731    0.422
         9 -15.4978    184.2499    183.9199   1.0462203726e+02   7.2072360833e+00     0.887273    0.7131694  78.76  0.003977752    1.641    0.391
        10 -14.6715    172.1741    170.8325   1.0453356012e+02   1.2377834881e+01    0.7863114     0.520578 -60.33  0.003457146    1.767    0.434
        11 -16.2674    127.0774    220.4179   1.2346041480e+02   1.0487148876e+01     2.358128    0.9462559  51.08  0.009123661    2.565    0.610
        12 -16.6195    205.6320    226.0640   1.0822438628e+02  -4.4540408706e+00     1.663823     0.877859  32.60  0.007780551    1.817    0.450
        13 -14.3978      8.1021    130.4447   1.3886234766e+02   4.7347533539e+01    0.3544179    0.1609374 -60.09  0.001867686    1.673    0.402
        14 -14.0399    116.0258    122.0994   1.0709227471e+02   3.5112937872e+01    0.7981746     0.408799  47.60  0.003136068    2.071    0.517
        15 -14.6824    108.9350    122.8145   1.0919364744e+02   3.6314470733e+01     1.014281    0.6564583 -64.46  0.004392838    1.770    0.435
        16 -15.2708     99.9093    113.4220   1.0938662298e+02   4.0142424277e+01     1.278902     1.099847 -76.22  0.006727966    1.289    0.224
        17 -16.1400     29.9260    125.3587   1.3220716634e+02   4.6782998645e+01    0.6786231    0.5491177  42.59  0.004253243    1.454    0.312
        18 -16.4646    195.4037    202.4006   1.0593052467e+02   1.4843668041e+00      2.49113     1.084432 -45.05   0.01012988    2.396    0.583
        19 -15.0548    149.6480     99.7520   9.2643608433e+01   3.2756797492e+01      1.28177    0.8060768  66.97  0.005205283    2.041    0.510
        20 -15.0327    139.7455    112.3109   9.8409375139e+01   3.2348263020e+01    0.9553975    0.6908499  47.30  0.004406813    1.404    0.288
        21 -15.3883    138.2256    102.9009   9.6283074474e+01   3.4686180138e+01    0.7313361     0.505231 -16.01   0.00304107    2.081    0.519
        22 -15.4465    123.7029    112.0307   1.0247359095e+02   3.5836626411e+01    0.7057537    0.4171129  49.48  0.002966204    1.780    0.438
        23 -15.4930     75.4561    108.1449   1.1525217353e+02   4.5381123824e+01     1.120487    0.7822945  29.27  0.005717765    1.600    0.375
        24 -15.0641    152.8050    219.8569   1.1792873982e+02   5.9999772415e+00     1.147931    0.7690183  15.41  0.005326388    2.168    0.539
        25 -14.7020    148.5818    213.3562   1.1775908860e+02   8.0574448537e+00    0.8751946    0.5463089  31.45  0.003599421    1.720    0.419
        26 -14.2689     65.0964     71.6430   1.0863969994e+02   5.4568461267e+01    0.4706801    0.2287639  43.41  0.002119487    2.446    0.591
