#   1 NUMBER                 Running object number                                     
#   2 MAG_AUTO               Kron-like elliptical aperture magnitude                    [mag]
#   3 X_IMAGE                Object position along x                                    [pixel]
#   4 Y_IMAGE                Object position along y                                    [pixel]
#   5 X_WORLD                Barycenter position along world x axis                     [deg]
#   6 Y_WORLD                Barycenter position along world y axis                     [deg]
#   7 A_WORLD                Profile RMS along major axis (world units)                 [deg]
#   8 B_WORLD                Profile RMS along minor axis (world units)                 [deg]
#   9 THETA_WORLD            Position angle (CCW/world-x)                               [deg]
#  10 FWHM_WORLD             FWHM assuming a gaussian core                              [deg]
#  11 ELONGATION             A_IMAGE/B_IMAGE                                           
#  12 ELLIPTICITY            1 - B_IMAGE/A_IMAGE                                       
         1 -11.8864     12.1787     48.1675   8.4017130984e+01   6.4007343473e+01    0.7719461    0.3368852 -70.53  0.003766484    2.617    0.618
         2 -12.6173     26.7450     50.5337   7.9140614537e+01   6.2517679545e+01     1.713545    0.7499925 -70.25  0.006957595    3.721    0.731
         3 -13.1692     38.0218     49.5768   7.4641270655e+01   6.1713371613e+01    0.8156837    0.5276158 -42.69  0.004870267    1.253    0.202
         4  -9.9960     31.0057     12.6653   6.4014837634e+01   6.8898852411e+01    0.1743023    0.1325294 -35.08 0.0005303022    1.240    0.194
         5 -10.9874     29.9955     18.6563   6.7021657240e+01   6.8051914980e+01    0.4598099    0.1985387 -29.75  0.001670369    2.326    0.570
         6 -10.5838     33.7603     16.0126   6.4251089326e+01   6.8095007020e+01    0.3564267    0.1805833 -32.12  0.002018328    1.662    0.398
         7 -10.9759     18.6751     16.7039   7.1344000520e+01   6.9371264975e+01     0.383182    0.2282644 -13.63  0.002420808    1.756    0.431
         8 -10.2070     15.0242     13.5208   7.1778131085e+01   7.0181373556e+01    0.1754735    0.1351967 -27.52 0.0008043567    1.063    0.059
         9 -10.4426      9.7113     15.9044   7.5218973667e+01   7.0156338073e+01      0.30716    0.1342384 -36.13  0.001454661    1.824    0.452
        10 -12.2911      4.2488     16.5419   7.8029833444e+01   7.0381402887e+01    0.3230548    0.2723094  51.35  0.001224287    1.891    0.471
        11 -11.5761    165.6317     16.4081   2.6243020928e+01   4.1898305777e+01    0.5005505    0.3342398  30.34  0.001648659    1.702    0.413
        12 -12.1119     66.2024     20.3026   5.3065432983e+01   6.3233698556e+01    0.4781736     0.289703   0.44 0.0003144373    2.059    0.514
        13 -10.7244     70.6674     13.6595   4.8523360024e+01   6.3419158218e+01    0.2938074    0.1940862 -18.34 0.0006984324    1.388    0.280
        14 -11.4783     76.7002     10.8676   4.5198154349e+01   6.2731905201e+01     0.563831    0.2703612  46.24  0.002767362    2.085    0.520
        15 -10.6705     73.9186      6.8623   4.4286542904e+01   6.3690102302e+01    0.2440213    0.1694151   3.60 0.0005072792    1.369    0.270
        16 -12.5797    237.9468     17.5278   1.7340945882e+01   2.3036474706e+01    0.3452797    0.2580915 -70.26 0.0004106473    1.278    0.218
        17 -11.9865    235.0682      4.2975   1.4350075473e+01   2.5198063807e+01    0.5415958    0.3480037  25.22  0.002601769    2.421    0.587
        18 -10.8117     50.6369     16.2515   5.7245513482e+01   6.6057364182e+01    0.3784736    0.1857424 -40.88  0.001978462    1.967    0.492
        19  -9.8879     37.0753      6.4756   5.8444148791e+01   6.9139303304e+01    0.2466757    0.1591525   7.07  0.001315334    1.562    0.360
        20 -10.4562     43.7960     13.6313   5.8881185972e+01   6.7313596533e+01    0.1949422    0.1705333  -3.30 0.0006557569    1.213    0.176
        21 -11.6782     40.0259     11.7668   5.9636310024e+01   6.8039778493e+01    0.5743928     0.303427 -20.33  0.001505511    1.941    0.485
        22 -10.1421    155.2808     14.3899   2.7328346302e+01   4.4799430245e+01    0.2898339    0.1856658  10.98 0.0006446891    1.994    0.499
        23 -10.6914    155.8775     10.8884   2.6032426002e+01   4.5005080541e+01    0.4120339    0.2314355 -49.75  0.001803105    2.161    0.537
        24  -9.8034     83.8119     13.4426   4.4043791799e+01   6.1132989741e+01    0.1898671     0.157032 -11.75 0.0003128657    1.127    0.113
        25 -11.6100    234.5548     10.7648   1.5990116628e+01   2.4630370163e+01    0.3104004    0.2479167 -10.00  0.001404748    1.549    0.355
        26 -10.2139    225.6719     14.0219   1.7690318306e+01   2.6481807678e+01    0.3142887    0.2035094  30.59  0.001233349    2.166    0.538
        27 -10.3257    131.4961     13.9803   3.1789518035e+01   5.0788401444e+01    0.3734016    0.2004745   7.51  0.001461422    2.736    0.634
        28 -12.1269    127.9161     10.0350   3.1059594023e+01   5.2054672403e+01    0.4400581    0.2451623 -35.97 0.0009393035    1.957    0.489
        29 -10.2162    118.3401     12.6591   3.4232040383e+01   5.4023873829e+01     0.365518    0.2022399  17.62  0.001562851    2.352    0.575
        30 -10.6449    118.2053      7.7464   3.2313218391e+01   5.4557741497e+01    0.2421111    0.1945316   0.40 0.0006011592    1.253    0.202
        31 -11.0367     60.6955     13.7604   5.2198240059e+01   6.4984265732e+01    0.2900554    0.1916171  35.92  0.001586641    1.565    0.361
        32  -9.0216     24.0866     13.5678   6.7558933381e+01   6.9423640217e+01    0.2725797    0.2257646  84.69 0.0007944708    2.604    0.616
        33 -12.0025    159.9384     22.8285   2.9350217215e+01   4.2660473694e+01    0.5470961    0.3876618   5.76 0.0008968501    1.723    0.419
        34 -10.0980    138.1646     10.9999   2.9316716380e+01   4.9468460081e+01    0.2579961    0.1879468 -46.03  0.001335158    1.593    0.372
        35  -9.9125     95.9492     12.0434   3.9790137557e+01   5.8936545407e+01    0.1892525    0.1589199 -60.74 0.0008536949    1.686    0.407
        36 -11.3251      5.1662     10.6283   7.5391681976e+01   7.1333777607e+01    0.2188645    0.1802566 -44.22  0.001750267    1.291    0.226
        37 -11.1249      9.8042      9.1357   7.2508564303e+01   7.1276092495e+01    0.2765562    0.2091349  31.58  0.002028913    1.831    0.454
        38 -10.8727    176.0894     10.2777   2.2671476222e+01   3.9791408566e+01    0.3240143    0.1997655  44.22  0.001527718    1.643    0.391
        39 -10.9564    164.6119      6.7618   2.3248065348e+01   4.3144159748e+01    0.5445126    0.2222238 -16.33  0.002004631    3.004    0.667
        40 -10.8043    148.6629      2.0070   2.4187476218e+01   4.7682128593e+01    0.2582062    0.1800472  54.64 0.0004578812    1.260    0.206
        41 -11.8238    146.1129      7.1987   2.6454310358e+01   4.7854780165e+01    0.4421883    0.3245703  15.17  0.001752726    1.513    0.339
        42 -10.0186    150.5568      5.5570   2.5104607082e+01   4.6881608850e+01    0.2287404    0.2045233  56.62 4.963725e-05    1.022    0.021
        43 -11.0564    241.0071      9.0082   1.4970745930e+01   2.3249582785e+01    0.2227871    0.1339595 -63.53 0.0005101142    1.645    0.392
        44 -12.5718    213.8799      5.6062   1.6703889316e+01   3.0379042111e+01    0.8052246    0.5113581 -69.65  0.003993218    1.651    0.394
        45  -9.2311     16.2387      9.3920   6.9476670039e+01   7.0754311484e+01    0.1174697   0.06024966 -28.98 0.0006921838    1.656    0.396
        46  -9.9336    191.5058      7.5360   1.9780199517e+01   3.6005222517e+01    0.3287384    0.2611523  40.74  0.001411386    1.352    0.260
        47 -10.8657    189.5057      4.9943   1.9283432108e+01   3.6780790785e+01    0.3549342    0.2477196  35.37   0.00179989    1.639    0.390
        48 -10.6479     24.2155      7.7314   6.4925098244e+01   7.0316062539e+01    0.3201375    0.1608044  39.81  0.001789466    2.876    0.652
        49 -11.5279     19.0382      3.6579   6.5530029565e+01   7.1397813210e+01     0.551148    0.3025942  20.17  0.003538545    1.972    0.493
        50 -11.3835     10.8156      3.2226   6.9442256029e+01   7.2136497156e+01    0.2116288     0.145697 -23.82 0.0003141596    1.105    0.095
        51  -9.4924    113.3035      7.1333   3.3209515873e+01   5.5733075605e+01    0.1790938    0.1126146 -30.66 0.0004394917    1.689    0.408
        52  -9.9934    100.5216      6.5716   3.6187973445e+01   5.8575651373e+01    0.2137904    0.1189415  -4.35 0.0006131771    2.076    0.518
        53  -9.5778     91.8809      6.9291   3.8730441043e+01   6.0312840585e+01    0.1789418    0.1577983 -62.41  0.000921788    1.602    0.376
        54 -10.4125     68.5983      4.7402   4.5106822001e+01   6.4844952813e+01    0.2500853    0.1582631 -34.12  0.001435405    1.681    0.405
        55  -9.5551    131.2429      5.5354   2.8661391116e+01   5.1689407236e+01    0.1896511    0.1119629  48.37  0.000390488    1.490    0.329
        56  -9.3137    109.4097      5.4702   3.3463817027e+01   5.6763926652e+01    0.1359445     0.113878  25.21 0.0001539978    1.058    0.055
        57  -9.3867     58.0847      5.4523   4.9284855728e+01   6.6445491521e+01     0.170668    0.1080438  34.74 0.0007143872    1.558    0.358
        58 -10.7319    178.7437      3.8519   2.0315401882e+01   3.9717627972e+01    0.2742167    0.1917993  77.43 0.0006615109    1.353    0.261
        59 -11.5407     28.7193      2.5237   6.0328930261e+01   7.0618657489e+01    0.4682338    0.2439266  19.89  0.002762311    2.093    0.522
        60 -10.8521    243.0061      2.5833   1.3264668227e+01   2.3456284348e+01    0.2408811    0.1867008 -39.10 0.0005955071    1.281    0.219
        61  -9.9325    125.8321      2.6750   2.8666129328e+01   5.3247166615e+01     0.240578    0.1456196  53.51 0.0008816824    1.447    0.309
        62  -9.9569    118.0157      3.4570   3.0643016515e+01   5.5007707322e+01    0.2862915    0.1332892  67.89 0.0008816756    2.502    0.600
        63  -9.3320     98.4510      2.9888   3.5191394113e+01   5.9363000174e+01    0.1798567    0.1209652 -12.27 0.0004040131    1.484    0.326
        64 -10.2401     74.2351      1.8954   4.1842895094e+01   6.4177698256e+01    0.2396893    0.1698001  55.01   0.00116436    1.720    0.418
        65 -10.1471    194.6359      1.5288   1.7670905642e+01   3.5767143028e+01    0.3002485    0.1266361  72.42  0.001210841    2.180    0.541
        66  -9.5407    177.4051    168.5074   6.5418060083e+01   1.3001553661e+01    0.1405453    0.1300753  38.47 9.009566e-05    1.021    0.021
        67 -12.2745    232.7479    244.7453   6.8312377747e+01  -7.6957980702e+00    0.5252271    0.2477652 -22.71  0.002870995    2.757    0.637
        68 -11.8586     88.9469    249.2899   9.3010143306e+01   1.4513744394e+01    0.3264353    0.1963219  49.96 0.0009972913    1.296    0.229
        69 -12.0255     29.0353    247.1912   1.0212320668e+02   2.2381275563e+01    0.4698991    0.2062384  76.36  0.003044265    1.965    0.491
        70 -12.4312     18.8931    236.8964   1.0312026082e+02   2.5152241725e+01    0.4738856    0.1942402  56.31  0.003154012    1.749    0.428
        71 -12.8031      6.0514    245.6402   1.0535200862e+02   2.5016457720e+01    0.5965958    0.3021262  85.60  0.003874539    1.511    0.338
        72 -12.8422     15.4015    245.8121   1.0403455875e+02   2.4052124301e+01    0.5644649    0.2478945  64.51  0.003055459    1.621    0.383
        73  -9.4289    111.6385    164.2077   7.8742232221e+01   2.6574544625e+01     0.183342    0.1220899 -49.65 0.0005611671    1.651    0.394
        74  -9.4932    221.2799    161.2979   5.5378296669e+01   5.1685793277e+00    0.1400066    0.1016954  11.49  0.000234383    1.539    0.350
        75 -12.0052     21.6884    156.9614   9.7439227940e+01   4.0031386729e+01    0.4169635    0.3777033  57.88  0.003294568    1.370    0.270
        76  -9.2575    216.3123    154.7254   5.4897523692e+01   7.2348098781e+00    0.1319842    0.1146864  87.79 0.0002505679    1.557    0.358
        77 -11.3061      9.7520    152.4041   9.9523009927e+01   4.2009609631e+01    0.3263728    0.1605605  57.15  0.001471151    1.950    0.487
        78  -9.3461    222.5725    152.4480   5.3238538175e+01   6.2985404110e+00    0.1417337    0.1282339  12.91 8.823512e-05    1.015    0.014
        79  -9.4747    169.9603    152.0000   6.3614784661e+01   1.7608460756e+01    0.2488046   0.07979992  46.47 0.0008001951    2.927    0.658
        80  -9.9073    176.8587    150.0945   6.1748608878e+01   1.6487060672e+01    0.2266846    0.2009872  79.01  0.000755708    1.275    0.215
        81  -9.1054      8.3425    157.7044   1.0021866947e+02   4.1025432865e+01    0.1146012    0.0617368  69.63 0.0007031861    1.663    0.399
        82  -9.4478     14.6410    148.3191   9.8159258215e+01   4.2466753075e+01    0.1202612   0.06514337  70.28 0.0001201168    1.762    0.433
        83 -10.1764    207.0456    146.5058   5.4855971290e+01   1.0570683781e+01    0.2236357    0.1383539  46.57 0.0006743104    1.552    0.356
        84  -9.4006     19.3259    145.6855   9.6912512787e+01   4.2629227582e+01    0.1192587   0.06827427  72.39 0.0003411997    1.668    0.400
        85 -10.6483    219.3106    144.3577   5.2048010296e+01   8.2915930704e+00    0.3513988    0.1640213  36.58   0.00135883    2.356    0.575
        86 -10.1087     10.4864    143.8285   9.8655969640e+01   4.3751020636e+01    0.1952839    0.1131366 -45.21  0.001147881    2.330    0.571
        87  -9.3183    204.5224    141.5350   5.4225124609e+01   1.1976556270e+01    0.1465042    0.1393831  24.57 0.0001128095    1.025    0.024
        88  -9.4457    240.3239    140.3162   4.7382378959e+01   4.5314820840e+00    0.1470659    0.1026093  11.87 0.0004347518    1.667    0.400
        89  -9.5667     13.6652    139.7397   9.7595552183e+01   4.4368302045e+01    0.1024656   0.07445242 -53.01 0.0002301701    1.576    0.366
        90 -10.8867      9.2828    136.3626   9.8255505394e+01   4.5427562483e+01     0.219987    0.1391879 -81.47 0.0002190204    1.199    0.166
        91 -10.7160      2.7046    136.0266   9.9677532496e+01   4.5974529690e+01    0.3616327   0.09276078 -72.48  0.001645251    2.774    0.639
        92  -9.3532    143.7665    137.0528   6.6216718041e+01   2.6145823603e+01    0.1874952    0.1242666 -49.75 0.0004590471    1.553    0.356
        93  -9.6503     43.6838    137.3039   9.0430508266e+01   4.2110910973e+01    0.1256716    0.0799398  74.83 0.0002539059    1.622    0.384
        94 -10.0556     17.4934    137.0378   9.6478903697e+01   4.4637757599e+01    0.1554713    0.1301073  81.34  0.001162158    1.153    0.132
        95  -9.8873     21.0340    134.9814   9.5459602520e+01   4.4786687373e+01    0.1877133    0.1098667  76.75 0.0006121349    1.680    0.405
        96  -9.8610    249.1003    133.6883   4.4409768195e+01   3.7508055885e+00    0.1932752    0.1694306  24.61 0.0004164277    1.121    0.108
        97 -10.2863    241.0284    134.0824   4.5846487238e+01   5.3450844940e+00    0.2144743    0.1983562  -3.56 0.0005491496    1.030    0.029
        98 -10.8735     54.1803    132.4965   8.7225665288e+01   4.2006797126e+01    0.3675066    0.2282574  27.24  0.002009395    2.090    0.522
        99  -9.2698     59.2982    132.2959   8.5931382256e+01   4.1437577509e+01    0.1206955   0.09234889 -42.18  0.000293845    1.570    0.363
       100 -10.0740     47.7208    133.3230   8.8925633588e+01   4.2557234241e+01    0.1846389    0.1625507  61.14 0.0006447543    1.229    0.186
       101  -9.5959     79.7529    132.3895   8.0848618799e+01   3.8669392786e+01    0.1651226    0.1308315  28.65 0.0004414601    1.549    0.355
       102 -11.2596     36.6688    130.3104   9.1209646552e+01   4.4381791395e+01    0.3342575    0.2183385 -52.37  0.001283643    1.575    0.365
       103 -11.1595     73.9000    128.9952   8.1727427112e+01   4.0269533695e+01    0.2984017    0.2661482  71.11 0.0009849227    1.126    0.112
       104  -9.6863     25.4342    127.1824   9.3544637038e+01   4.6112129467e+01      0.17238   0.09224952 -84.19 0.0009466482    1.702    0.412
       105 -11.0346     15.9039    125.5151   9.5645620260e+01   4.7257908108e+01    0.2883142    0.1550748  33.68  0.001750571    2.193    0.544
       106 -11.2955     10.7809    122.9446   9.6595042368e+01   4.8197597322e+01    0.2746677    0.2044014  77.54  0.001965184    1.253    0.202
       107 -10.1924      2.4154    123.4370   9.8621706105e+01   4.8665242583e+01    0.3215544    0.1153868 -49.27  0.001544743    3.219    0.689
       108  -9.7584    219.8792    124.0733   4.7219606476e+01   1.1539871409e+01    0.2171752    0.2013029 -59.25 0.0004694028    1.218    0.179
       109  -9.8270    243.5557    122.4754   4.2731905772e+01   6.6134424345e+00    0.1421281    0.1302722  -8.46 9.720724e-05    1.006    0.006
       110  -9.8734     20.1629    121.6061   9.4167441438e+01   4.7775203952e+01    0.1294783    0.1113089 -13.47 0.0005187689    1.660    0.398
       111 -12.0002     15.6659    115.4045   9.4547831666e+01   4.9478862441e+01    0.2924138    0.1770869 -70.12  0.000302627    1.271    0.213
       112  -9.9614      9.5042    111.5191   9.5648259021e+01   5.0760424528e+01    0.2002146    0.1091759 -71.34 5.207309e-05    1.382    0.276
       113 -11.7731     14.4371    108.7499   9.4044070747e+01   5.1021223559e+01    0.3664863    0.3322394  -2.95  0.002829406    1.512    0.339
       114  -9.7934      1.3199    118.7352   9.8430379503e+01   4.9738634706e+01    0.1524781   0.07334653 -69.25 0.0003780057    1.540    0.351
       115  -9.9988     23.2640    117.7920   9.2924454849e+01   4.8361221183e+01    0.1568762    0.1151062 -54.79  0.000653671    1.351    0.260
       116 -10.1846     72.7795    116.7446   7.9772331201e+01   4.3196780743e+01    0.2801143    0.1660374 -70.46 0.0007850611    1.712    0.416
       117  -9.5610    179.4803    115.9472   5.3189306410e+01   2.2392162307e+01    0.2332642    0.1532728 -39.17   0.00101802    1.548    0.354
       118 -10.2956     85.9917    116.0581   7.6105997133e+01   4.1418085266e+01    0.2029182    0.1851488 -70.49 0.0003114821    1.013    0.013
       119 -10.2259    214.0011    115.1004   4.6106949912e+01   1.4408377341e+01    0.2273623    0.2157695  11.25 0.0004576106    1.032    0.031
       120  -9.6188    183.6859    114.3304   5.1890033503e+01   2.1703718253e+01    0.1581007    0.1237361 -78.37 0.0007044902    1.677    0.404
       121 -11.0338    249.4481    112.1362   3.9344582308e+01   6.9568461983e+00    0.2758397     0.237931 -33.41  0.000542925    1.113    0.102
       122 -10.4658     94.3498    112.4392   7.3090604658e+01   4.0892388586e+01    0.2746614    0.2519105 -66.88  0.001008995    1.011    0.011
       123 -12.3619     54.6188    109.4852   8.3335342151e+01   4.7141622069e+01    0.3893132    0.2369271 -51.77 0.0002036288    1.501    0.334
       124 -10.6306     52.0187    103.6923   8.2985335534e+01   4.8740691055e+01     0.206006    0.1696297 -62.17 0.0006587942    1.046    0.044
       125 -11.0420      2.5655    107.4585   9.6953887870e+01   5.2078153978e+01    0.4483194    0.2314364 -64.02  0.002790793    1.477    0.323
       126 -11.1447     35.3432    108.2876   8.8406274051e+01   4.9414979191e+01    0.3580707     0.161493 -49.63  0.001723655    2.114    0.527
       127 -10.1488     37.9888    102.9919   8.6810306371e+01   5.0347746033e+01    0.2390071    0.1764708 -79.74  0.001152763    1.242    0.195
       128  -9.6990    100.4305    107.5176   7.0322799838e+01   4.0954012691e+01    0.1423234    0.1326661 -59.39 3.389076e-05    1.022    0.021
       129  -9.8368     82.3296    105.4268   7.4812554334e+01   4.4368098433e+01    0.3538642    0.1716613 -62.50  0.001205594    2.164    0.538
       130 -10.8383     23.3017    106.7951   9.1435805691e+01   5.0782718556e+01    0.1983372    0.1649694  -7.91  0.000851259    1.658    0.397
       131 -11.1526     26.9534    103.9336   9.0024285636e+01   5.1118387706e+01    0.3468252    0.1923426  81.59  0.001784085    2.295    0.564
       132  -9.2369    103.3313    105.2883   6.9003420204e+01   4.0933974559e+01    0.1412137    0.1141423 -11.17 0.0003645975    1.622    0.384
       133 -10.2662    119.3289    103.2534   6.4224378255e+01   3.8356483666e+01    0.3966269    0.1300462 -42.86  0.001260125    3.154    0.683
       134  -9.5913     73.6431    103.3285   7.6788150321e+01   4.6102687979e+01    0.1400129    0.1003516  80.37 -4.919254e-06    1.783    0.439
       135 -11.1567    143.7973     98.2971   5.6687417383e+01   3.4186820751e+01     0.450072    0.3747368 -80.14  0.001855272    1.429    0.300
       136 -11.3662     61.9334     98.8134   7.9170590389e+01   4.8662483419e+01    0.3022747    0.2519748 -42.04 0.0009045842    1.223    0.182
       137 -11.4345     66.8048     97.9608   7.7574059403e+01   4.8230099553e+01    0.2187141    0.2152258  88.99 0.0002524505    1.135    0.119
       138  -9.4908     47.7496    100.3276   8.3564612115e+01   4.9960608124e+01    0.1622322    0.1276164  34.74 0.0002051007    1.502    0.334
       139 -10.8803     51.5206     97.9827   8.2021795140e+01   5.0074500897e+01    0.3250578    0.1660448 -45.63 0.0005373983    1.918    0.479
       140  -9.2128    107.7091     99.3613   6.6331431384e+01   4.1430140035e+01     0.149405     0.113608 -84.66  0.000702748    1.696    0.411
       141 -10.0867     90.4921     99.0487   7.1032790628e+01   4.4503712173e+01    0.2200263    0.1295238 -52.17 0.0004174443    1.569    0.363
       142 -10.7184     10.0434     98.7781   9.3925025858e+01   5.3488361364e+01    0.1970837      0.12235 -78.56 0.0006636597    1.315    0.240
       143 -10.4142     94.7566     97.6666   6.9489564664e+01   4.4098845653e+01    0.2425528    0.1806806  54.20 0.0006155279    1.488    0.328
       144 -11.0612     14.6976     96.5953   9.2336523648e+01   5.3654322527e+01    0.2334186    0.1619247 -54.03  0.001573207    1.297    0.229
       145 -11.1133      2.0654     94.8115   9.5596799159e+01   5.4820884825e+01      0.45249    0.1681489 -64.42  0.002432098    1.882    0.469
       146 -12.1734    166.2909     83.4950   4.7249774949e+01   3.1715875483e+01    0.8795996     0.539084  55.03  0.003256169    1.644    0.392
       147 -12.2663    159.6777     89.9173   5.0580828233e+01   3.2127320648e+01    0.8837873     0.616897 -67.14   0.00373171    1.922    0.480
       148 -10.8705     66.0889     93.0912   7.6692908216e+01   4.9405847799e+01    0.3499668    0.1945741  31.01  0.001716671    2.129    0.530
       149 -10.1000     36.4746     91.5505   8.5202296999e+01   5.3027401282e+01    0.1883854    0.1277829 -41.14  0.001126979    1.514    0.340
       150  -9.9220      7.6488     81.6894   9.2153938951e+01   5.7314169964e+01    0.2794026    0.1691239 -53.47  0.001823437    1.359    0.264
       151 -11.1726     10.3822     90.6477   9.2698932643e+01   5.5226129438e+01     0.199189    0.1702096 -72.76 0.0004500706    1.123    0.110
       152 -10.4181      9.7062     86.3717   9.2260367357e+01   5.6189048184e+01    0.3641605     0.211403  80.91  0.002100993    2.078    0.519
       153 -11.0832    156.1456     82.5080   4.9251149879e+01   3.4380826229e+01    0.8145669    0.3692178  34.82  0.002543886    3.302    0.697
       154 -12.1473     22.1370     87.4513   8.8744981464e+01   5.5115989632e+01    0.7913002    0.1992355 -63.02  0.003274152    2.812    0.644
       155 -11.6386      6.0082     51.0720   8.7002816067e+01   6.3774008686e+01    0.5538235     0.345293 -69.66  0.003637122    1.444    0.307
       156 -11.2075      6.9992     40.8732   8.4186032776e+01   6.5738336547e+01    0.2818931    0.1394652 -53.50  0.001315449    1.448    0.310
       157 -12.3667    226.5744    244.8956   6.9354164877e+01  -6.7474350726e+00    0.5295356    0.3025988  12.32  0.002992086    2.199    0.545
       158 -14.1233     16.5851     67.3674   8.6749554850e+01   5.9801963635e+01    0.4791648    0.3539913 -68.67  0.001130908    1.187    0.157
       159 -12.6173     14.0590     77.2358   8.9441930104e+01   5.7876006850e+01    0.6291218    0.5529931  78.26  0.003587512    1.316    0.240
       160 -12.3809      5.8592     74.0622   9.1477550229e+01   5.9033829134e+01    0.4978856    0.3681236 -23.66  0.002456751    1.631    0.387
       161 -12.7771      3.0348     61.5800   9.0199922658e+01   6.1785042268e+01    0.7219987    0.3194547 -76.47   0.00279197    2.303    0.566
       162 -11.6043      9.6348     61.1444   8.7849597809e+01   6.1523395331e+01    0.3718725    0.2562981  56.25  0.001361147    1.984    0.496
       163 -10.9160     12.0637     57.1015   8.6141011432e+01   6.2212045996e+01    0.1995461    0.1293065 -63.78 0.0003665865    1.260    0.206
       164 -10.6625     95.8549     89.1554   6.6970027727e+01   4.5755025586e+01    0.3667368     0.199917  44.26  0.001631725    1.970    0.492
       165 -10.2084     83.0683     88.4967   7.0531003718e+01   4.7992239039e+01    0.2379711    0.1800631 -50.24 0.0005410558    1.200    0.167
       166 -10.7744     78.1941     88.1236   7.1885216705e+01   4.8811574941e+01    0.3299685    0.3000376 -31.45  0.001810347    1.129    0.114
       167 -10.4420     47.8623     88.1084   8.1077464501e+01   5.2660527164e+01    0.2091157     0.169339 -72.14 0.0003257785    1.174    0.148
       168 -10.4827    115.8096     87.8456   6.1007522774e+01   4.2310933934e+01    0.3537232    0.2483409  62.91   0.00163447    1.749    0.428
       169 -10.4460    115.2654     83.9826   6.0050017074e+01   4.3214551073e+01    0.3856374    0.1975335  42.11  0.001577768    2.042    0.510
       170 -11.0677     66.3208     86.0413   7.4956369246e+01   5.0924359970e+01    0.5099308    0.2544412 -35.70  0.002175864    2.510    0.602
       171  -9.7609    120.9405     86.4982   5.9234780723e+01   4.1545931599e+01    0.2167719    0.1481667  45.62  0.000455705    1.504    0.335
       172 -10.0921      4.8741     86.1417   9.3640893942e+01   5.6520408133e+01    0.1504969    0.1035999 -52.17 0.0005657129    1.304    0.233
       173 -11.4958     30.0162     81.5144   8.5237515742e+01   5.5786254616e+01    0.4297537    0.2260648 -42.14  0.002331571    1.874    0.466
       174  -9.8501     74.2801     82.0215   7.1493866550e+01   5.0699462145e+01    0.2046496    0.1580721 -48.32  0.001154007    1.152    0.132
       175  -9.5777     62.4778     82.4847   7.5267990393e+01   5.2192469276e+01    0.1320112    0.1145442 -51.98 2.997571e-05    1.004    0.004
       176 -10.4010     42.5322     81.5849   8.1319099424e+01   5.4633023363e+01    0.2726369    0.1382331 -46.16  0.001322737    1.761    0.432
       177  -9.4189    146.5040     80.9734   5.1076484819e+01   3.6970819721e+01    0.2313614    0.1511257 -40.86 0.0008214173    1.528    0.346
       178  -9.8070    101.2281     80.9840   6.3140412056e+01   4.6520758924e+01    0.1894064    0.1134605 -46.01            0    1.575    0.365
       179  -9.1939     79.6495     81.7125   6.9767234391e+01   4.9973688540e+01    0.1377422    0.1030187 -16.94 0.0004245747    1.663    0.399
       180  -9.8899    115.3081     79.6959   5.8778334756e+01   4.4074410371e+01    0.2067403    0.1396219  35.32 0.0003766099    1.608    0.378
       181  -9.3316    112.3096     79.6854   5.9607970299e+01   4.4676232664e+01     0.151666      0.14301 -20.23 0.0002363003    1.052    0.049
       182  -9.4282     58.6926     79.3325   7.5674214197e+01   5.3341581899e+01    0.1676422    0.1266939  12.72 0.0006492864    1.648    0.393
       183 -10.3401     61.3594     78.2659   7.4558166167e+01   5.3241281721e+01    0.2061688    0.1598527  81.00 0.0007701492    1.729    0.422
       184 -12.8321     44.9839     74.9682   7.9017444352e+01   5.5811933275e+01    0.3584959    0.2694333  68.04 0.0008385704    1.782    0.439
       185 -10.7975     37.4484     69.3346   8.0163055573e+01   5.7742678191e+01    0.5339165    0.2909257  64.16  0.002241533    4.011    0.751
       186  -9.7641    169.7194     77.1204   4.4640459894e+01   3.2012179480e+01    0.2138571    0.2019526 -33.04 0.0003925089    1.070    0.065
       187  -9.9435     31.1327     93.2065   8.7082305378e+01   5.3136169947e+01    0.2180358    0.1270938 -56.11 0.0008015878    1.394    0.283
       188  -9.0332     70.2803     76.3299   7.1217376167e+01   5.2474881277e+01     0.136075   0.09487543 -27.90 0.0001787994    1.603    0.376
       189 -10.1187    145.4960     74.4891   4.9360694883e+01   3.8422587378e+01    0.3183098    0.1519836 -36.97  0.001193399    2.105    0.525
       190  -9.3049    121.5060     75.5505   5.5830277519e+01   4.3613676978e+01    0.1470399    0.1437883 -30.83 0.0008083124    1.028    0.028
       191 -10.3029     75.4788     74.4803   6.9062642038e+01   5.2120456863e+01    0.3761562    0.2246899  16.52  0.001689662    2.508    0.601
       192 -10.7284    207.5051     73.1412   3.6241604087e+01   2.3056264210e+01    0.2660181     0.231806  51.70  0.000325211    1.156    0.135
       193 -10.6064     54.9523     74.3579   7.5616658186e+01   5.4849783159e+01    0.2891333    0.1520411  41.05   0.00142914    2.242    0.554
       194 -11.0210    101.1389     71.8385   6.0435272618e+01   4.8390487246e+01     0.379724    0.2475547  66.57  0.001643396    2.372    0.578
       195  -9.7759    152.1504     71.8621   4.6975702702e+01   3.7302594032e+01    0.2100286    0.1789508  19.40 0.0003658794    1.288    0.223
       196  -9.9914     78.0000     69.9693   6.6958370761e+01   5.2674339607e+01    0.2283477    0.1883367  21.48  0.000612582    1.346    0.257
       197 -10.2688     74.9895     69.4562   6.7767937302e+01   5.3229694716e+01    0.3810416    0.1615748 -42.71  0.001591911    2.173    0.540
       198 -11.0218     47.2673     59.1025   7.4082742299e+01   5.8875183036e+01    0.5132309    0.2512889 -50.39  0.002610537    1.684    0.406
       199 -11.8103     50.5607     68.1253   7.5441000382e+01   5.6661842599e+01    0.4556023    0.3189343 -34.47  0.001136318    1.389    0.280
       200 -10.4378     52.2780     62.0325   7.3174143580e+01   5.7722959176e+01    0.3260008    0.1934741 -37.26  0.001294475    1.580    0.367
       201 -10.7400    167.7699     69.6476   4.2823531404e+01   3.3808084876e+01    0.2539112    0.2464688 -75.30 0.0003082307    1.067    0.062
       202  -9.7015     68.8719     70.1699   6.9949174073e+01   5.3956368226e+01    0.1849909    0.1436155 -23.96 0.0004364868    1.360    0.265
       203  -9.6764    194.9009     69.5230   3.7448767444e+01   2.6866693904e+01    0.2249353    0.1508698  58.16 0.0004110418    1.481    0.325
       204  -9.2364    230.4621     68.5195   3.1356057181e+01   1.8046875322e+01    0.1463249    0.1386248 -52.35  0.000177665    1.015    0.014
       205 -10.3521    128.2964     66.6599   5.1226517043e+01   4.3819405249e+01    0.3928544    0.2786343  86.63  0.001655016    2.290    0.563
       206 -10.5971     43.1634     67.6100   7.7805290035e+01   5.7552983004e+01    0.2320533    0.1714199 -53.09 0.0007531024    1.126    0.112
       207  -9.4292    220.5553     67.5932   3.2604976682e+01   2.0635970390e+01    0.1462715    0.1415898 -67.08 6.047354e-05    1.016    0.016
       208 -11.1643     93.7323     66.6092   6.1020375370e+01   5.0761774493e+01    0.2585248     0.235666 -13.64 0.0003248818    1.077    0.071
       209 -10.3111     98.9622     64.6702   5.8819345800e+01   5.0191788151e+01    0.3485194     0.201045  32.46  0.001551702    1.990    0.497
       210 -12.0918     37.0151    242.8922   1.0070892998e+02   2.2185630779e+01    0.4853654    0.2150482  84.63  0.002194303    2.151    0.535
       211 -10.6759    250.2811    246.1643   6.5677602397e+01  -1.0490031490e+01    0.1736887    0.1136887   9.10 0.0007961805    1.428    0.300
       212 -10.6907     24.0130     41.4902   7.7603307852e+01   6.4498581811e+01    0.2470112    0.2362104  80.03 0.0006337743    1.417    0.294
       213 -10.3572     33.7884     32.2103   7.0604953492e+01   6.5371980416e+01    0.3506029    0.2035047  15.02    0.0014946    2.049    0.512
       214 -11.2219     28.7195     65.9438   8.2323340984e+01   5.9212002798e+01    0.2760484    0.1741233 -43.56 0.0005680958    1.371    0.271
       215 -11.0197     32.6732     63.9258   8.0478905285e+01   5.9301902386e+01    0.2057085    0.1801486 -49.39 0.0004640334    1.092    0.084
       216 -12.7992     27.6242     37.8286   7.5023124763e+01   6.4899448656e+01    0.3337403    0.2170354 -47.18 0.0003757956    1.229    0.186
       217 -11.7069     24.4996     34.5114   7.5219872208e+01   6.5773490201e+01    0.2258137    0.1667068 -30.26 0.0006623264    1.151    0.131
       218 -10.9852    119.0588     65.3473   5.3275001018e+01   4.6069041809e+01    0.2589995    0.2089463 -32.17 0.0003520885    1.213    0.175
       219 -12.1894    122.9703     63.8924   5.1740726530e+01   4.5495635982e+01    0.4127429    0.3146919 -64.50 0.0003056568    1.674    0.403
       220 -10.9452     77.5236     63.4523   6.5126792261e+01   5.4056187600e+01    0.4116608    0.2956931  68.48  0.001546015    2.206    0.547
       221 -10.4172    202.1438     61.9370   3.4019850305e+01   2.6197046029e+01    0.3008851    0.2170105 -21.78  0.001394725    1.514    0.339
       222 -10.2322    113.2005     60.9131   5.3443250261e+01   4.8106940928e+01    0.2112043     0.193959 -61.51 0.0005020115    1.231    0.188
       223 -10.3536     80.2333     59.2537   6.2906341082e+01   5.4452440082e+01    0.4321913    0.1509715 -49.40  0.001098736    2.941    0.660
       224 -11.2304     85.6586     59.5956   6.1273899630e+01   5.3503421484e+01      0.51378    0.3661274  17.59  0.002661238    1.671    0.401
       225 -10.5344     92.5347     60.9080   5.9548878120e+01   5.2071684036e+01    0.2243569    0.1860272  16.56 0.0005639055    1.291    0.225
       226 -11.8068     96.9101     58.9107   5.7543838542e+01   5.1656649941e+01     0.528759    0.3983234  12.63  0.001244144    1.557    0.358
       227 -10.3359    168.9981     59.9885   3.9609744417e+01   3.5104129857e+01    0.2260593    0.2218934  34.50 0.0003384805    1.015    0.015
       228 -11.4870     58.6458     58.6933   6.9984802739e+01   5.7629381476e+01    0.3530208    0.2851744 -31.08  0.001414974    1.123    0.109
       229 -10.1557     61.8934     53.6467   6.7266461421e+01   5.8198386450e+01    0.3302724    0.1531513 -42.11 0.0008650749    1.883    0.469
       230  -9.5047    156.5062     64.0105   4.3539706529e+01   3.7601049375e+01    0.2238366    0.1523438 -34.50 0.0003773498    1.486    0.327
       231 -11.2372    147.2274     56.6784   4.3300701985e+01   4.1117948815e+01    0.2825673    0.2535862 -49.72 0.0003587362    1.182    0.154
       232 -11.2114    132.7689     55.1262   4.6276273942e+01   4.4823041615e+01    0.6326417    0.3426687 -22.35  0.001733176    2.274    0.560
       233 -11.7188    129.0658     49.4803   4.5283995133e+01   4.6603530162e+01     0.515586     0.387446   8.49  0.001937854    1.575    0.365
       234 -10.2334    109.8584     54.6124   5.2255590328e+01   4.9916648576e+01    0.2525885    0.2038666 -34.15 0.0004304242    1.200    0.167
       235 -12.9177    105.1217     52.4518   5.2875482862e+01   5.1247115621e+01    0.3706528    0.3299434  -5.43  0.000393742    1.085    0.079
       236 -10.3237     75.3598     55.7190   6.3347249138e+01   5.5886237770e+01     0.231508    0.1774688 -42.35 0.0003941288    1.197    0.164
       237  -9.8404    230.5115     54.8586   2.7776186176e+01   2.0042560377e+01    0.2225277    0.1389245 -31.74  0.001023949    1.564    0.361
       238 -11.0483     88.1970     53.2657   5.8331681574e+01   5.4251145795e+01    0.4020675    0.2318476 -41.68  0.001404545    1.627    0.385
       239 -10.2077    119.8835     52.8167   4.8847294895e+01   4.8109258698e+01    0.2158969    0.1853067   8.87 0.0003455272    1.204    0.169
       240  -9.3844     96.0128     52.0588   5.5469316350e+01   5.3065380323e+01    0.1622028    0.1477406 -14.33            0    1.003    0.003
       241  -9.9693     73.2378     51.1710   6.2527202864e+01   5.7061300517e+01    0.2291964    0.1342824 -11.26 0.0009529244    2.818    0.645
       242  -9.8305     52.2996     50.6437   6.9713089671e+01   5.9975845475e+01    0.2344917    0.1221936 -35.53  0.001167403    1.824    0.452
       243 -11.5659     34.7131     42.6057   7.3745528190e+01   6.3370043540e+01    0.5234334    0.2917473 -13.78   0.00263583    2.497    0.600
       244  -9.4776    181.6360     49.7470   3.4019872640e+01   3.3399231626e+01        0.207    0.1367932 -41.55 0.0002694508    1.544    0.352
       245  -9.6603    167.7928     49.0119   3.6411362252e+01   3.7123243561e+01    0.2004318     0.196224 -12.47  0.001090403    1.051    0.048
       246 -10.6363     59.7428     47.4500   6.5967339887e+01   5.9653885115e+01    0.3320444    0.2938823  82.97  0.002091707    1.633    0.388
       247 -10.0383    120.0250     46.7069   4.6666907585e+01   4.9083116988e+01    0.1981348    0.1735069  37.57 0.0001896647    1.123    0.109
       248 -10.3220    104.4287     46.8595   5.1090845726e+01   5.2336936688e+01    0.2649506    0.1977141  31.76 0.0006212246    1.364    0.267
       249  -9.7318     78.5094     47.0296   5.9298537653e+01   5.6991338036e+01    0.1955108    0.1200201 -36.91  0.000349147    1.483    0.326
       250 -10.3609    151.5483     45.7541   3.8718179617e+01   4.1759478164e+01    0.2529748    0.2274663  39.13 0.0003425064    1.078    0.072
       251 -10.4390    143.0374     45.2279   4.0441027823e+01   4.3948153205e+01    0.2477093    0.2126364 -26.79 0.0005790023    1.187    0.157
       252  -9.9679    113.2815     44.9889   4.7887765382e+01   5.0817230971e+01    0.3128968    0.1654494  26.85  0.001182055    2.721    0.632
       253 -10.2364     98.0270     37.9659   4.9697504817e+01   5.5031708111e+01     0.212105    0.1928612 -11.75 0.0005385919    1.052    0.050
       254 -10.7883    101.1945     36.2595   4.8100294902e+01   5.4669757818e+01    0.3586553    0.2621145 -82.30   0.00163584    2.597    0.615
       255 -10.9246     91.8322     43.4059   5.3650769315e+01   5.5323764560e+01    0.4879065    0.2293355 -44.61  0.002070597    2.240    0.554
       256 -10.7468     95.5151     42.9386   5.2332822987e+01   5.4716773372e+01    0.4073212    0.2335749 -24.36  0.001011311    1.882    0.469
       257 -11.7906     52.5960     42.4359   6.6854779892e+01   6.1480889372e+01     0.593595    0.2780045 -27.91  0.002571425    2.712    0.631
       258  -9.7382     86.0000     45.5105   5.6283715307e+01   5.6005750350e+01    0.3058089   0.07198954 -40.11 0.0009391071    3.970    0.748
       259  -9.7635    187.1519     42.9297   3.0989498127e+01   3.2924024362e+01     0.231031    0.1953263 -70.90 0.0004744647    1.268    0.211
       260 -11.1113    158.2512     42.6734   3.6281908260e+01   4.0510945998e+01    0.2526825    0.2339936  32.63 0.0002922568    1.067    0.063
       261 -11.1295    131.3292     41.6217   4.1963186440e+01   4.7295581787e+01     0.355012    0.2676826 -44.05 0.0007663355    1.437    0.304
       262 -11.7679     44.6660     38.1889   6.8385151274e+01   6.3174126566e+01    0.3095566    0.2620822  26.17            0    1.391    0.281
       263 -10.2703    148.5432     40.4252   3.7574977004e+01   4.3290206958e+01    0.4547428    0.1449963 -30.46  0.001469435    3.193    0.687
       264  -9.8178    121.0371     41.6546   4.4586064700e+01   4.9648140576e+01    0.2029668    0.1832943  26.42 0.0007505507    1.058    0.055
       265 -10.0915     82.1530     41.8430   5.6189828790e+01   5.7289307588e+01    0.1909926    0.1474511  -1.74  0.001067292    1.352    0.261
       266  -9.7609    110.7943     41.6527   4.7364410204e+01   5.1870713265e+01    0.1889021    0.1333486  57.57  0.000227773    1.613    0.380
       267 -10.9136    226.0714     33.0342   2.2607726383e+01   2.4109859685e+01    0.2226126    0.2082595 -73.02 0.0003203934    1.017    0.017
       268 -11.2971    225.0583     37.8368   2.4002881666e+01   2.3744866317e+01    0.3950021    0.2808847  89.80 0.0004440866    1.511    0.338
       269 -11.4720    221.7355     31.9170   2.2841438794e+01   2.5351648458e+01    0.2843682    0.2257684 -40.88 0.0002920007    1.235    0.190
       270 -11.1853     69.7631     37.2678   5.8698990579e+01   6.0045113429e+01    0.3163081     0.206623 -15.37 0.0003784698    1.682    0.405
       271 -11.5934     74.4503     35.8224   5.6503858228e+01   5.9555263611e+01    0.4191816    0.2947581   4.18  0.001294802    1.607    0.378
       272  -9.7125      1.5831     37.6348   8.5525322993e+01   6.6641181294e+01    0.1668494   0.08764618 -40.72 0.0007366043    1.535    0.348
       273 -11.0102     83.0427     35.7269   5.3564846635e+01   5.8140241037e+01      0.41382     0.280151  13.56  0.002145334    1.713    0.416
       274  -9.9660    110.6091     35.7099   4.5197923267e+01   5.2810769700e+01    0.2329543    0.1791625  33.48  0.001223909    1.264    0.209
       275 -12.7516     57.8172     34.0413   6.1816712261e+01   6.2293992234e+01    0.3126232    0.2537295  -7.92 0.0006241114    1.146    0.127
       276  -9.5968    134.4783     34.9227   3.8819946542e+01   4.7510141028e+01    0.2170049    0.1407732 -31.61  0.001015174    1.571    0.363
       277 -12.2641      8.6831     31.9774   8.1041309095e+01   6.7340884265e+01    0.3670294     0.259844 -59.97  0.002605966    1.324    0.245
       278 -10.7630     17.0100     30.9330   7.7187899947e+01   6.6998547798e+01    0.3429735    0.1903483  15.99  0.002126263    2.154    0.536
       279 -10.2736    205.8910     32.4359   2.5054505555e+01   2.9382882768e+01    0.2186034    0.1936577 -35.00 0.0005362599    1.168    0.144
       280  -9.6996    192.6764     33.7029   2.7342250413e+01   3.2700467918e+01    0.1529711    0.1085587  34.51 0.0004175661    1.624    0.384
       281 -10.1310    166.5204     32.1053   3.1216018486e+01   3.9808449003e+01    0.2191109    0.1488639 -24.94  0.001022857    1.566    0.361
       282 -10.1248     49.5013     30.5476   6.3659892524e+01   6.3948602204e+01    0.2299412    0.1742019 -42.04 0.0006272846    1.287    0.223
       283 -11.0046     49.2383     26.0590   6.1980960971e+01   6.4723773697e+01    0.2203401    0.2057942  22.32            0    1.373    0.272
       284  -9.7784     43.9754     31.3375   6.6152707958e+01   6.4462659675e+01    0.1549292    0.1355917 -10.96 0.0002719466    1.144    0.126
       285 -10.6625    102.5111     29.3555   4.5031755917e+01   5.5410617418e+01    0.3328934    0.2615932  56.11  0.001140998    1.445    0.308
       286 -10.7100     79.8828     27.8584   5.1472487886e+01   5.9895064407e+01    0.3974652     0.223528 -24.51  0.001383756    1.762    0.432
       287 -10.8309    198.0157     28.0117   2.4886564420e+01   3.2005761467e+01    0.2458686    0.1653326  36.30  0.001137235    1.741    0.426
       288 -10.2722    113.5797     21.2540   3.8806360408e+01   5.4113546734e+01    0.4113401    0.2237357  29.78  0.001418032    2.098    0.523
       289  -9.6171    107.7536     27.6024   4.2862566609e+01   5.4560009438e+01    0.2563697    0.1331226  59.34  0.001087699    2.302    0.566
       290 -11.4207     66.3152     27.2888   5.5978126102e+01   6.2176880128e+01    0.6297908    0.2582978  26.56  0.002372261    3.785    0.736
       291 -10.2535    128.4504     26.4640   3.7144720385e+01   5.0063406591e+01    0.2559363    0.1579655  52.72   0.00049633    1.528    0.345
       292 -10.3953    129.3744     22.7927   3.5561278944e+01   5.0298133075e+01    0.3765494    0.2214775  -7.73 0.0008174101    2.091    0.522
       293 -10.5284    128.7866     18.9717   3.4260866925e+01   5.0887019227e+01    0.3319369    0.2162576   0.50 0.0008550598    1.816    0.449
       294 -10.8550    172.7645     25.7426   2.8075830210e+01   3.8960354468e+01    0.3710665     0.238748  37.56  0.001182925    1.696    0.410
       295  -9.5427    117.5446     26.4294   3.9805353030e+01   5.2578556865e+01    0.1403923    0.1274791  21.21 1.439412e-05    1.006    0.006
       296 -10.1365      1.5705     25.7547   8.2257188352e+01   6.8877610463e+01    0.1760688    0.1083598 -58.14  0.000560502    1.364    0.267
       297  -9.3365    219.4289     25.4370   2.1387028290e+01   2.6742645726e+01    0.1397761    0.1301476 -83.66 0.0001263774    1.018    0.018
       298  -9.7626    214.4802     25.0251   2.1874670198e+01   2.8065095850e+01    0.2038614    0.1418268 -25.42  0.000480084    1.544    0.352
       299 -13.2362     74.4192    238.3592   9.4502938464e+01   1.8271920572e+01    0.7232545    0.5373899  88.72  0.005496556    1.276    0.216
       300 -10.6097     62.1514    242.2519   9.6770329696e+01   1.9246625648e+01    0.3506432     0.104293  55.41  0.001718771    2.728    0.633
       301  -9.6871    109.8232    242.6025   8.8973679466e+01   1.2495199824e+01    0.1645162   0.07857735  53.36 0.0003878737    1.642    0.391
       302 -10.8996     22.5436     24.4350   7.2554022099e+01   6.7741427466e+01    0.2156795    0.1647162 -30.03 0.0006085454    1.039    0.038
       303 -10.6931     24.5497     21.5238   7.0573846676e+01   6.8073612576e+01    0.2477765    0.1783719 -54.03   0.00117428    1.546    0.353
       304 -11.0536     88.7388    240.9635   9.2353219246e+01   1.5859054754e+01     0.195368    0.1395618 -59.81  0.001382334    1.821    0.451
       305 -10.3369     72.3554    250.1501   9.5715588698e+01   1.6649246230e+01    0.1761556    0.1273546  43.18 0.0008873194    1.550    0.355
       306 -10.0492    195.4771    238.3391   7.3668355990e+01  -9.3319380185e-01    0.2031696    0.1543017  14.60  0.001350721    1.439    0.305
       307 -10.7142      6.8188     24.7838   7.9631088921e+01   6.8772512933e+01    0.2388853    0.2031834 -40.38 0.0008877415    1.187    0.158
       308 -11.5933     13.5834     23.2327   7.6091820858e+01   6.8624396194e+01    0.3046273    0.1715457  -7.85 0.0002329907    2.105    0.525
       309 -11.0238      6.0479     20.5085   7.8567002551e+01   6.9582441500e+01    0.1885369    0.1250229   8.87 0.0007518303    1.747    0.428
       310  -9.6359    134.6342    238.1356   8.4250653876e+01   9.2750595702e+00    0.1414101    0.1097814 -43.05 0.0009513802    1.802    0.445
       311 -10.5782    244.3016    236.8892   6.5204982253e+01  -8.6777066658e+00    0.1546955    0.1399705  -5.92 0.0009936056    1.410    0.291
       312 -10.9312    165.0394     22.7033   2.8406937787e+01   4.1347237495e+01    0.2423916    0.2287648  25.11 0.0002446761    1.095    0.086
       313 -10.8055    168.2979     21.3160   2.7399569439e+01   4.0654094642e+01    0.2550359    0.2438164 -43.22 0.0005867183    1.114    0.102
       314 -10.3376    159.9781    235.6951   7.9513677651e+01   5.4233642465e+00    0.1758467    0.1251978  45.11 0.0004295496    1.098    0.090
       315 -11.4558     59.3801     20.9803   5.5899140657e+01   6.4154513190e+01    0.3836096    0.2190145  19.59  0.001994557    2.050    0.512
       316  -9.8066     76.4643     15.4810   4.7345176232e+01   6.2199825880e+01    0.3270169    0.1860543  26.42   0.00144884    1.870    0.465
       317 -11.1024     30.5938    234.3713   1.0121985573e+02   2.4324420093e+01    0.3427826    0.1265263  86.34  0.001801392    2.955    0.662
       318 -11.7181     22.6058    248.7648   1.0313250845e+02   2.2824895485e+01    0.2958561    0.1681918  59.56  0.001283527    1.233    0.189
       319  -9.7160    177.3710    234.8151   7.6334135865e+01   2.5877446091e+00    0.1453759    0.1130311 -22.38  0.000949258    1.714    0.416
       320  -9.7930    186.4539     22.9469   2.5055550866e+01   3.5670896216e+01    0.2113079    0.1426653 -29.58 0.0006150765    1.554    0.356
       321  -9.2674    106.9466     23.4820   4.1452173443e+01   5.5273614378e+01    0.1787801    0.1254987  84.68 0.0008085019    2.479    0.597
       322 -10.0397    102.8256     21.1403   4.1648164921e+01   5.6437908875e+01    0.3266417    0.2100374  10.98  0.001402843    1.823    0.452
       323 -10.5113     97.7717     23.3858   4.4012499920e+01   5.7181256433e+01    0.5049915    0.3221267   3.16  0.002453003    1.883    0.469
       324 -10.0976     94.0375     22.0085   4.4553414451e+01   5.8102540939e+01      0.23618    0.1836721  37.93 0.0004018097    1.245    0.197
       325 -10.6688     85.1954     21.3378   4.7013380462e+01   5.9870094048e+01    0.4187592    0.2213617  36.96  0.002036498    1.877    0.467
       326  -9.6810    221.4683    234.4864   6.8642696754e+01  -4.7909643704e+00    0.1210143   0.09075785  27.64 0.0001820087    1.052    0.049
       327 -10.6903     86.7506    232.8716   9.1985366580e+01   1.7470739533e+01    0.2343848    0.1032291  60.78  0.001232437    2.122    0.529
       328 -10.2312    173.1768     20.1629   2.6231639747e+01   3.9502081735e+01    0.2067008    0.1674015 -75.32  0.001024696    1.356    0.262
       329 -10.4727    112.1173     27.1284   4.1492872629e+01   5.3686121833e+01    0.3541588     0.213802 -10.85  0.001487069    1.943    0.485
       330  -9.7830    139.0253     19.5227   3.2249200799e+01   4.8342305448e+01    0.2257322    0.1324835  58.57   0.00103352    1.595    0.373
       331 -10.0459     38.4965    232.4604   9.9879461959e+01   2.3760192038e+01    0.1633018   0.08394032 -79.73 8.979392e-05    1.781    0.439
       332 -10.3970     46.7062     16.7056   5.9045542605e+01   6.6497722796e+01    0.2299857    0.1454993  -3.89 0.0006987072    1.721    0.419
       333 -10.0545     24.1037    232.1452   1.0209739953e+02   2.5404343441e+01    0.1404986    0.1097517  80.44 0.0005487904    1.265    0.210
       334  -9.3389     58.5139    229.4923   9.6451196525e+01   2.1854330095e+01    0.1104021   0.07922705  69.19 0.0002310189    1.001    0.001
       335 -11.1042     41.8750     18.6478   6.1898638882e+01   6.6786678538e+01    0.2816698    0.2515819  17.13  0.001277211    1.358    0.264
       336 -11.0264      4.2780    226.7762   1.0484060309e+02   2.8309536723e+01    0.2531558      0.11739  81.84  0.001751665    1.655    0.396
       337 -10.5850    177.9743     18.0034   2.4805307753e+01   3.8477295470e+01    0.2110977    0.1955871  65.04            0    1.013    0.013
       338 -10.0069    151.8160     17.8450   2.9141028207e+01   4.5316136989e+01    0.2893535    0.2062196  53.48  0.001336044    1.276    0.216
       339 -10.9088    121.2326    226.4979   8.5304469982e+01   1.3274991165e+01    0.2833641    0.1518991  77.09  0.001304984    3.027    0.670
       340  -9.5737    190.5903    226.2017   7.2763385943e+01   1.4633010830e+00    0.1500967    0.1146899 -15.24 0.0007947021    1.658    0.397
       341 -10.1040    108.3778     17.2647   3.8564716036e+01   5.5729814668e+01    0.2273865    0.1798075  12.32 0.0004420151    1.225    0.183
       342 -10.7464    194.9723     16.7906   2.2036874068e+01   3.4118159519e+01    0.2124002    0.2018572 -51.83 0.0003251605    1.103    0.093
       343  -9.7089     82.5560     17.0902   4.6041393281e+01   6.0909705031e+01    0.1824898     0.116902 -24.21 0.0003679743    1.473    0.321
       344 -10.6029     15.8040    221.8932   1.0285364073e+02   2.8031856262e+01    0.2092003   0.07711551  60.29  0.001241494    2.104    0.525
       345 -10.0622    143.7208     16.2174   3.0111672929e+01   4.7541673397e+01    0.2059464    0.1519668  31.67  0.001052549    1.371    0.271
       346 -11.2049     21.3676    220.2318   1.0188971622e+02   2.7757234850e+01    0.1884523    0.1000739  85.45  0.001300762    1.502    0.334
       347  -9.4326    176.3631    219.2636   7.4301836206e+01   4.9417770268e+00    0.1266038   0.08600321  25.24 0.0006984407    1.641    0.391
       348  -9.8221    185.2176     14.7632   2.2757730264e+01   3.6915254072e+01    0.2012381    0.1586796  41.05 0.0007976923    1.329    0.248
       349  -9.9807    192.0000    218.0107   7.1262592111e+01   2.3310892763e+00    0.1788904   0.07311102 -40.93  0.000807585    2.978    0.664
       350 -10.4662     11.0996    207.9094   1.0287940842e+02   3.0993160083e+01    0.2108769    0.1129453 -85.03 0.0008775945    1.485    0.327
       351 -11.5484     10.3598    216.8504   1.0345378715e+02   2.9456157069e+01    0.3065248    0.1896991  40.19  0.002306798    1.846    0.458
       352 -10.1542     12.5009    212.1064   1.0287316066e+02   3.0097349951e+01    0.2064906    0.0782516 -79.58 0.0009468641    2.199    0.545
       353 -10.1064     38.7160    217.5417   9.8902420180e+01   2.6351194009e+01    0.1497293   0.07316685  54.88 0.0008007861    1.610    0.379
       354 -11.3223     29.4903    215.5771   1.0030525216e+02   2.7730261959e+01    0.1998558    0.1756804  65.04  0.001439207    1.453    0.312
       355 -11.4347    235.6587    214.2558   6.2925201938e+01  -4.7912945442e+00    0.2352415    0.2016922  16.15   0.00103485    1.123    0.110
       356  -9.6573    136.6434    215.6776   8.1162709632e+01   1.2494816326e+01    0.1198152    0.0947055  18.38 0.0007045488    1.765    0.433
       357  -9.4991    169.7548    213.0028   7.4588737042e+01   7.0648482864e+00    0.1434931    0.1113781 -46.18 0.0006650834    1.562    0.360
       358  -9.3989    110.0000    211.9997   8.5695969014e+01   1.7558763351e+01    0.1770653   0.06808099 -59.69 0.0007996056    2.923    0.658
       359 -10.4103     20.3494    211.8309   1.0158463287e+02   2.9367771066e+01    0.2091604    0.1074413  73.75  0.001351352    1.542    0.351
       360 -12.1946      5.4988    208.5411   1.0381608150e+02   3.1402797366e+01    0.3744884    0.1915415 -78.17  0.001952357    1.642    0.391
       361 -11.5219    238.4276    210.2039   6.1747626350e+01  -4.7730441717e+00    0.3613684    0.2629492  59.81  0.002093642    2.041    0.510
       362  -8.9714     80.2918    211.3088   9.1122129906e+01   2.2176332192e+01    0.0959475   0.09386419 -44.60 0.0005302394    1.583    0.368
       363 -10.4219    246.5039    202.4781   5.8990714203e+01  -5.2046197958e+00    0.2143181    0.1767787 -62.18  0.001226833    2.142    0.533
       364 -10.7634     20.3245    199.4664   1.0085026171e+02   3.1660956507e+01    0.2832682    0.1378757 -73.37  0.001216723    1.790    0.441
       365  -9.6399    107.5241     10.5324   3.6029407945e+01   5.6665823046e+01      0.13655    0.1175129  23.63 0.0001572908    1.022    0.022
       366 -10.6612    175.3268    202.3175   7.1867437865e+01   7.7057265199e+00     0.234304    0.1910806  50.31 0.0004244943    1.114    0.103
       367  -9.7744    117.2589    201.5963   8.3025806255e+01   1.8250482082e+01    0.1720026    0.1096591  39.45 0.0008278593    1.565    0.361
       368  -9.1378    188.2966    204.7081   6.9807963905e+01   4.9217794836e+00    0.1222326   0.09706248  68.19 0.0003443891    1.559    0.359
       369  -9.9793     58.3823    195.8303   9.3711941057e+01   2.8063278993e+01    0.1562331   0.09305498 -64.18 0.0009485147    1.726    0.421
       370 -11.5357     16.1629    192.9580   1.0116572785e+02   3.3305684124e+01    0.3391573     0.188478  40.91   0.00218214    1.887    0.470
       371 -10.2385    244.7034    188.0186   5.6592359350e+01  -3.0874357832e+00    0.1794207    0.1482611   0.55 0.0004576941    1.105    0.095
       372 -10.5863    168.3828    184.3512   7.0190216037e+01   1.2016602141e+01    0.4295048    0.2564659 -59.19  0.002013444    2.217    0.549
       373  -9.3768      2.3301    187.3194   1.0324122130e+02   3.5636263373e+01   0.09301494   0.06817168 -63.00 0.0005463756    1.689    0.408
       374  -9.6427     61.6401    184.7915   9.2011371826e+01   2.9840313504e+01     0.168469   0.09578226 -83.89 0.0009447316    1.681    0.405
       375 -11.5762     15.7825    181.9626   1.0052011638e+02   3.5479519526e+01    0.3964067    0.1791894  76.52  0.002261173    2.036    0.509
       376  -9.7266     58.8406    181.6952   9.2249106367e+01   3.0826531136e+01    0.1626043    0.1475573  49.36 0.0008353097    1.395    0.283
       377  -9.3289      1.7445    179.9884   1.0293140809e+02   3.7099879082e+01    0.1309201   0.06748375 -83.03 0.0004362438    1.478    0.323
       378  -9.7147    244.5011    177.9953   5.4665360511e+01  -1.7264242469e+00    0.1912088    0.1047919  -5.83 0.0008105842    2.670    0.625
       379 -10.3314     46.7466    177.3345   9.4224838824e+01   3.3186011715e+01    0.2206249    0.1669165 -87.07  0.001340639    1.105    0.095
       380 -10.6530     18.4917    173.0088   9.9377622241e+01   3.7016256572e+01    0.2089068    0.1170092  58.92  0.001162614    1.579    0.367
       381 -12.4729     37.0949    165.5602   9.5048338947e+01   3.6704318130e+01     0.618468    0.5433104 -26.53  0.002059817    1.803    0.445
       382 -10.6773     35.4680    161.4702   9.4989227911e+01   3.7736445792e+01    0.2038423    0.1857152  27.68 4.794581e-06    1.557    0.358
       383 -11.8658     51.6700    162.1329   9.1627940473e+01   3.5795082287e+01    0.5988433    0.3363749 -89.98   0.00326212    1.774    0.436
       384  -9.6506     77.4734    167.9754   8.6786334287e+01   3.1180802658e+01    0.1943162   0.09828721  89.96 0.0002546232    2.843    0.648
       385 -10.4008      5.0414    168.4997   1.0161874425e+02   3.9099073869e+01    0.1385695   0.09589975  45.40 0.0009339314    1.582    0.368
       386 -10.7812     55.4866    161.4526   9.0728351895e+01   3.5482088922e+01    0.2892615    0.1999167  76.82  0.001370843    1.322    0.243
       387 -10.1313    186.8011    165.1934   6.2853281733e+01   1.1643771381e+01    0.2390122    0.1623137  88.48 0.0009597326    2.894    0.654
