#   1 NUMBER                 Running object number                                     
#   2 MAG_AUTO               Kron-like elliptical aperture magnitude                    [mag]
#   3 X_IMAGE                Object position along x                                    [pixel]
#   4 Y_IMAGE                Object position along y                                    [pixel]
#   5 X_WORLD                Barycenter position along world x axis                     [deg]
#   6 Y_WORLD                Barycenter position along world y axis                     [deg]
#   7 A_WORLD                Profile RMS along major axis (world units)                 [deg]
#   8 B_WORLD                Profile RMS along minor axis (world units)                 [deg]
#   9 THETA_WORLD            Position angle (CCW/world-x)                               [deg]
#  10 FWHM_WORLD             FWHM assuming a gaussian core                              [deg]
#  11 ELONGATION             A_IMAGE/B_IMAGE                                           
#  12 ELLIPTICITY            1 - B_IMAGE/A_IMAGE                                       
         1 -15.0141     68.3823    144.3352   1.0476073237e+02   3.7226859027e+01     5.477894     2.759484  71.99   0.01069216    4.135    0.758
         2 -13.7275    196.5076     41.9455   4.6848324867e+01   3.0884147645e+01     1.168048     1.042897  20.15   0.00305246    1.371    0.270
         3 -14.0843    205.2481     35.9172   4.4134636106e+01   2.9575609783e+01     1.804503     1.224544  -4.44  0.008145806    2.212    0.548
         4 -14.1401    220.3196     20.5808   3.8704031628e+01   2.7928057673e+01     1.240545    0.9831739  41.85   0.00368688    1.618    0.382
         5 -12.6240    213.8356     27.4515   4.1019666883e+01   2.8609601372e+01    0.5007368    0.4516896  17.87  0.001074297    1.442    0.307
         6 -11.8988    243.3037      2.0798   3.2745217480e+01   2.4908306954e+01    0.6026352    0.2121926  77.20  0.002730119    2.749    0.636
         7 -10.2761     53.0432      4.5030   6.5733787191e+01   6.7559482855e+01    0.1741384    0.1072142  42.06  0.000663712    1.560    0.359
         8 -10.3746      2.0007      3.2524   9.0469050538e+01   7.4027705550e+01     0.214893    0.1010137 -32.08     0.001269    1.657    0.397
         9 -10.7995     47.7064      2.3570   6.6735580496e+01   6.8650825350e+01    0.2212109    0.1830971   8.88 0.0004905377    1.107    0.097
        10 -10.4693     56.9878      1.7928   6.2867614241e+01   6.7157647825e+01    0.1684027     0.158183   7.71  0.001206459    1.333    0.250
        11 -10.1122     62.3789    200.8824   1.1389720880e+02   2.4723105426e+01    0.2354069    0.1805925  79.38 0.0004457894    1.154    0.133
        12 -10.4288    140.3221    250.1243   1.0380270073e+02   3.7880771268e+00     0.217689     0.144189  32.52  0.001071922    1.354    0.262
        13 -10.8274    134.5370    248.4115   1.0469628795e+02   4.9458794237e+00    0.3502773    0.2005035 -71.10  0.001795827    2.753    0.637
        14 -14.8807     85.5951    229.1542   1.1207368098e+02   1.5695803833e+01     2.328192     1.401708  48.98   0.00252789    1.407    0.289
        15 -15.4885      9.5220    208.0408   1.2517165194e+02   2.9098053440e+01     2.384872      1.32341 -60.05   0.01454615    2.024    0.506
        16 -16.0117     50.5489    247.7346   1.2025166052e+02   1.6836303876e+01     9.971185     2.839494  29.52   0.01075645   11.051    0.910
        17  -9.7095     99.3443    181.0301   1.0292594649e+02   2.3764248629e+01    0.2206579    0.1962548  26.05 0.0007094003    1.288    0.223
        18 -12.1921     64.3859    177.8437   1.1075772192e+02   2.9673787780e+01    0.4255677    0.3078161 -36.16  0.002264923    1.908    0.476
        19 -12.0706     69.1819    172.5903   1.0891201812e+02   3.0260931048e+01    0.3657636    0.3259716  21.30  0.001266661    1.394    0.283
        20 -10.7487    209.8245    199.3173   8.2195862561e+01   6.7442362197e-01    0.2384041    0.2044556 -60.62 0.0006566092    1.658    0.397
        21 -10.6619    125.8737    173.6811   9.5372952546e+01   2.0859020572e+01     0.236214    0.1903064  19.44  0.001204245    1.453    0.312
        22 -13.5961     65.9587    158.9725   1.0775305238e+02   3.3968116644e+01    0.5559464    0.3839574 -51.52  0.001649762    1.482    0.325
        23 -12.6814     85.4475    156.3728   1.0231136085e+02   3.1777687018e+01     1.146489     0.758676 -50.02  0.001654466    1.523    0.343
        24 -12.9958     77.5241    160.7906   1.0508289529e+02   3.1901596507e+01     1.305616    0.7631624  77.98  0.002701523    2.437    0.590
        25 -16.7332      9.0691    239.2701   1.2689484275e+02   2.2983454197e+01     10.06305     2.704446 -77.15    0.0485499    3.262    0.693
        26 -10.9026    111.1788    196.0807   1.0249858284e+02   1.8508518919e+01    0.4380959    0.2413193 -79.47   0.00176171    2.872    0.652
        27 -11.6702     32.7905    155.8824   1.1573800783e+02   3.8614508541e+01    0.3687132    0.2643652 -88.88  0.001652782    1.223    0.183
        28 -11.0861    133.4434    142.1049   8.7048762719e+01   2.6585923055e+01    0.8597869    0.2686365 -56.32  0.002152925    4.982    0.799
        29 -10.1359    174.8964    149.1173   7.8924414571e+01   1.6520294095e+01     0.234541    0.2139163 -87.18 0.0007741033    1.297    0.229
        30 -11.0869    139.1895    171.3473   9.1793992389e+01   1.8907279518e+01    0.4319735    0.2463478  50.95  0.001520268    1.864    0.464
        31 -10.1383     99.4678    142.4826   9.5980021329e+01   3.2857990382e+01     0.315489    0.2522947 -67.17 0.0008386978    1.235    0.190
        32  -9.9591    102.1910    139.1895   9.4559367310e+01   3.3180689100e+01    0.3676733    0.2502039 -25.95   0.00158335    2.040    0.510
        33 -12.3457     87.4561    141.0951   9.8955622949e+01   3.5188784679e+01    0.2955643    0.2552166 -49.25 0.0004597537    1.158    0.137
        34  -9.7125     81.5627    141.3795   1.0062389283e+02   3.6040113042e+01    0.2777154    0.1946812  66.32 0.0008711881    1.677    0.404
        35  -9.8255    159.6273    135.5600   7.9179105873e+01   2.2593835422e+01    0.2666921     0.227115 -53.52 0.0003504676    1.202    0.168
        36 -11.8202     67.4739    127.3857   1.0189741838e+02   4.1545603897e+01    0.6280386    0.3282993 -67.11  0.002678661    1.930    0.482
        37 -10.2628    110.0178    131.1815   9.0666280278e+01   3.3686429209e+01    0.3556954    0.2780787  -7.53 0.0009315496    1.722    0.419
        38 -10.1380    106.0087    130.9933   9.1717389479e+01   3.4469848803e+01    0.3563458    0.2876183 -56.44  0.001599687    1.189    0.159
        39 -11.3069     32.7419    129.1309   1.1224750259e+02   4.5140285025e+01    0.4575956    0.1863804 -66.34  0.001753828    2.008    0.502
        40 -10.8179    135.5331    124.0127   8.2191338388e+01   3.0277803030e+01    0.3714118    0.1543431 -46.38  0.001278673    2.343    0.573
        41  -9.2373     72.1763    188.2141   1.1026401770e+02   2.6221522784e+01    0.1846819    0.1346392  71.60 0.0004346565    1.325    0.245
        42  -9.3864    126.1931    127.7964   8.5543485801e+01   3.1339218485e+01    0.2688681    0.1761785  86.55 0.0009567975    2.866    0.651
        43 -10.6741     97.3653    127.2724   9.3273689870e+01   3.6905716813e+01     0.310213    0.2447072 -28.97 0.0009924998    1.453    0.312
        44 -10.1911     28.9682    136.2777   1.1429865119e+02   4.3743012647e+01    0.1723304     0.152406 -79.15 0.0003448033    1.086    0.080
        45 -10.4092    116.6437    125.2934   8.7476335180e+01   3.3816284015e+01    0.3711579    0.2442225 -59.56  0.001611709    1.612    0.380
        46 -10.3628    159.0934    161.9001   8.5273169443e+01   1.7070044026e+01    0.4664079    0.3329139  73.73  0.001943465    2.074    0.518
        47  -9.8927    107.0152    119.8242   8.8792339949e+01   3.6943372822e+01    0.2181538    0.2095846 -46.89 0.0003988941    1.021    0.021
        48  -9.2770     79.5246    128.5343   9.8637451786e+01   3.9513671696e+01    0.1467955    0.1343124 -69.27 0.0002277472    1.022    0.022
        49 -13.2930     37.3766    205.3168   1.1953539562e+02   2.6807348649e+01     0.466465    0.4254822 -56.00  0.001316599    1.468    0.319
        50 -15.2132     46.5323    195.2994   1.1673294966e+02   2.7933443578e+01      2.32552     1.373381  72.95  0.009712132    1.657    0.397
        51  -9.5573    168.0556    113.0065   7.1564641348e+01   2.5476321249e+01    0.2609793    0.1967203 -77.71   0.00113635    1.806    0.446
        52  -9.7512    135.0000    112.5129   7.9346057063e+01   3.2959630893e+01    0.3591094   0.08802316 -44.66 0.0009376442    3.958    0.747
        53 -10.4884     39.8354    113.1705   1.0750828093e+02   4.8359050003e+01    0.2006028    0.1668428 -85.67 0.0004979825    1.211    0.174
        54  -9.9129    205.4871    110.2120   6.3329611848e+01   1.7569365096e+01    0.3165064    0.2141546  41.10 0.0009761348    1.634    0.388
        55  -8.9583    114.2895    110.6834   8.4416637761e+01   3.7667825588e+01    0.1539243      0.12328 -86.52 0.0002306204    1.594    0.373
        56 -10.6573     33.0883    109.1119   1.0888069366e+02   5.0002450433e+01    0.2404751    0.1752337 -77.84 0.0007999209    1.307    0.235
        57 -10.1431     29.1859    106.8045   1.0970346325e+02   5.0911873907e+01    0.1873752    0.1324474 -44.37 0.0006307065    1.356    0.263
        58 -10.0464    134.5230    106.0240   7.7708366209e+01   3.4483229117e+01    0.2512421    0.1520821 -44.40  0.001035694    1.604    0.376
        59 -10.9997     38.8262    101.8244   1.0563872641e+02   5.1210770822e+01    0.3284381    0.1847961  48.61  0.001574439    2.238    0.553
        60 -10.1915     41.7432     91.9973   1.0253060955e+02   5.3247919854e+01    0.2030718    0.1898358 -16.68 0.0005355547    1.179    0.152
        61 -10.6158     52.8176     90.8638   9.8440001939e+01   5.2264601227e+01    0.2297543    0.2118993  60.62 0.0005984975    1.282    0.220
        62  -9.8370    250.2193     88.0426   5.1134706507e+01   1.1922511214e+01    0.1869287   0.09711958 -35.83 0.0004068646    1.662    0.398
        63  -9.7660     73.4504     83.9217   8.9493847157e+01   5.0999307401e+01    0.2403332    0.1978842  57.02 0.0006045199    1.496    0.331
        64  -9.2530    159.5126     81.5467   6.4691267437e+01   3.3649847361e+01    0.1522521    0.1504264 -24.56 0.0001894423    1.020    0.019
        65  -8.7959    109.5436     79.5259   7.6737955029e+01   4.5384583214e+01    0.1500367    0.1440552 -30.27 0.0002327053    1.041    0.040
        66 -10.5767     13.5097     59.9636   1.0538798505e+02   6.2834943639e+01    0.2152064    0.1832504 -54.65 0.0004463614    1.153    0.133
        67  -9.0424     98.4055     57.2599   7.2583531640e+01   5.1860001319e+01    0.1847495     0.133138 -44.08 0.0003050977    1.450    0.310
        68 -10.2563     63.3550    196.7242   1.1323594999e+02   2.5509103369e+01    0.2928741    0.1759636  57.18 0.0009169535    1.564    0.361
        69  -9.7132    198.7300    222.7359   8.8508153243e+01  -1.1802709086e+00    0.1591661    0.1423023  42.58 0.0006470126    1.333    0.250
        70 -10.1966     65.6871    194.6765   1.1249399177e+02   2.5654033640e+01      0.29496     0.195173  52.61  0.001096783    1.393    0.282
        71 -10.9961    138.2459     44.2191   5.7610331601e+01   4.4966075230e+01      0.33914    0.2621752 -81.35 0.0003592636    1.643    0.391
        72 -10.0762    141.9475     39.3574   5.5205446659e+01   4.4737584977e+01    0.2223037    0.1933392 -49.80 0.0003910837    1.226    0.184
        73  -9.6560     12.0000     52.9641   1.0415512254e+02   6.4404733809e+01    0.2017567   0.05616676 -59.26 0.0006114109    2.917    0.657
        74  -9.9316    189.6788     15.0072   4.0461710629e+01   3.5805608654e+01    0.1830666    0.1657175 -52.14 0.0007907013    1.138    0.121
        75 -14.0429     24.5766    225.4364   1.2343843697e+02   2.4058014540e+01     1.257018    0.5174073  63.34  0.006583181    2.212    0.548
        76  -9.2302      2.3331     49.6882   1.0749409985e+02   6.5641727642e+01    0.1049039   0.08728987  78.15 0.0007044249    1.678    0.404
        77 -10.7315    145.4595    181.3127   9.2244287679e+01   1.5608469005e+01     0.379948      0.22246 -64.63  0.001584427    2.315    0.568
        78 -10.1867    113.1546    207.6321   1.0373502360e+02   1.5776607500e+01    0.2213093    0.1756807 -85.26 0.0007089855    1.381    0.276
        79 -11.5591    193.6247    195.5308   8.4649360314e+01   4.0853868673e+00    0.9084045    0.4935846 -63.93  0.002814572    5.698    0.825
        80  -9.4754    108.3044    203.3372   1.0418853171e+02   1.7445737422e+01    0.1284563    0.1066771 -15.68 0.0007039428    1.671    0.401
