#   1 NUMBER                 Running object number                                     
#   2 MAG_AUTO               Kron-like elliptical aperture magnitude                    [mag]
#   3 X_IMAGE                Object position along x                                    [pixel]
#   4 Y_IMAGE                Object position along y                                    [pixel]
#   5 X_WORLD                Barycenter position along world x axis                     [deg]
#   6 Y_WORLD                Barycenter position along world y axis                     [deg]
#   7 A_WORLD                Profile RMS along major axis (world units)                 [deg]
#   8 B_WORLD                Profile RMS along minor axis (world units)                 [deg]
#   9 THETA_WORLD            Position angle (CCW/world-x)                               [deg]
#  10 FWHM_WORLD             FWHM assuming a gaussian core                              [deg]
#  11 ELONGATION             A_IMAGE/B_IMAGE                                           
#  12 ELLIPTICITY            1 - B_IMAGE/A_IMAGE                                       
         1 -13.5827    248.6280     46.1983   2.6907880189e+01   2.0886651232e+01     1.781343    0.8975982 -50.15   0.01062662    1.585    0.369
         2 -13.4916    246.4986     12.2147   2.1141967986e+01   2.5377480814e+01     1.141853    0.7696627 -16.37  0.003524073    3.038    0.671
         3 -13.6812    247.1978     78.2394   3.2939621670e+01   1.6588174274e+01     2.332436    0.4165903 -41.53  0.007845665    4.360    0.771
         4 -13.0251    220.5612     32.6430   2.6833014259e+01   2.7888891249e+01      5.70179     1.001854 -37.08   0.02005576    4.924    0.797
         5 -10.5007    188.5760     44.5590   3.2815236893e+01   3.3012800041e+01     1.067159    0.1565646 -37.93  0.003279194    5.314    0.812
         6 -14.8379    242.2029     66.8248   3.1306198082e+01   1.9174241796e+01     4.839973     2.839459  47.33   0.02287034    2.443    0.591
         7 -12.9624    213.9254     27.9269   2.6512704897e+01   2.9778050732e+01     1.526183     1.076966 -88.71  0.007209856    1.228    0.186
         8 -11.2828    133.1995     38.3927   3.9992287498e+01   4.6254033958e+01    0.6452932    0.3269036 -24.71  0.002953278    2.505    0.601
         9 -10.6118    134.2137     16.6416   3.3577117320e+01   4.8366398315e+01    0.4629212    0.2526327  -9.75  0.001943416    2.895    0.655
        10 -14.4354    228.9836     92.2850   3.7834237406e+01   1.7640787957e+01     5.711107     1.529038 -52.05   0.01722138    4.928    0.797
        11  -8.8671    186.9861     11.6771   2.5692905141e+01   3.7149725726e+01    0.1787481    0.1561334 -60.66 0.0003381693    1.226    0.185
        12  -8.3934    183.6815     10.7064   2.5805327386e+01   3.7952012942e+01    0.2184253     0.146523  64.24 0.0004134438    1.403    0.287
        13  -9.5462    157.9046      7.2851   2.7804400273e+01   4.3904650446e+01    0.4265028    0.2690809   0.96  0.002317421    2.750    0.636
        14 -10.0732    120.1833      9.4104   3.3829445880e+01   5.2160233872e+01    0.2960606    0.2815217 -60.86  0.001075998    1.234    0.189
        15 -11.3185    205.8035      4.3965   2.2562349097e+01   3.3964453992e+01     0.318451    0.2246487 -12.44  0.001600838    2.401    0.584
        16  -7.7535    146.9764      7.0227   2.9102571500e+01   4.6362257248e+01     0.139694    0.1204036  79.96 0.0004224083    1.059    0.056
        17  -9.7070    136.4831      5.9223   3.0246993223e+01   4.8803808612e+01    0.2107482    0.1981989  69.09 0.0004299935    1.166    0.142
        18 -10.7923    234.9125      3.5438   2.0384152078e+01   2.8409953707e+01    0.2528145    0.2042419  59.02  0.000767236    1.709    0.415
        19  -8.8659    229.4028      1.9224   2.0447079011e+01   2.9603625479e+01    0.2370451       0.1235 -86.76  0.001498105    1.664    0.399
        20  -8.4065    240.5252      1.4423   1.9686977666e+01   2.7597125380e+01    0.1215919   0.08198449  78.78 0.0001057319    1.404    0.288
        21  -8.3185    192.1172      4.4411   2.3691048758e+01   3.6773836340e+01    0.2078357   0.08925354  70.19  0.001113363    1.954    0.488
        22  -9.2833    182.8502      3.5207   2.4322634410e+01   3.8814709446e+01    0.2917471    0.1743843  87.44  0.001792061    1.441    0.306
        23  -8.0159    171.9664      2.6683   2.5178891134e+01   4.1229633337e+01    0.1653329    0.1244442  89.12 0.0008671937    1.087    0.080
        24 -13.8663    180.3421     82.6034   4.2983480992e+01   2.9099252720e+01     3.284706     1.979474 -49.58  0.005067548    1.615    0.381
        25 -10.4189    211.9799    180.7874   5.8731109782e+01   4.2670883366e+00    0.6039304    0.2241678 -41.21  0.002366248    2.366    0.577
        26  -8.5556    185.9809    250.6340   7.6625638082e+01  -4.7709255817e+00     0.179501    0.1072079  26.42            0    1.508    0.337
        27  -8.9561    152.5212    250.4963   8.3781070320e+01  -1.8055106864e-01    0.2339344    0.1609692  26.32 0.0004060056    1.278    0.217
        28  -9.4732    154.0641    246.0915   8.2777618893e+01   4.0775983260e-01     0.232701    0.1870664   4.57 0.0003401998    1.153    0.133
        29  -9.5548    213.6995    176.3296   5.7522506147e+01   4.8547688771e+00    0.3064219    0.2660663 -89.59 0.0009955815    1.706    0.414
        30  -9.6383    242.0070    182.7612   5.3759081021e+01  -4.4268665103e-01    0.3329529    0.1818559 -29.92 0.0006203165    1.660    0.397
        31 -13.4410    227.2992    172.9885   5.4395244011e+01   3.4052406900e+00     5.649921     3.981339 -39.62   0.03192091    1.211    0.174
        32 -12.4660    240.1843     51.5672   2.8635690974e+01   2.1693368943e+01    0.8607336    0.4906021  76.64 0.0009401361    1.822    0.451
        33  -8.6814    134.8770    249.0603   8.7500337737e+01   2.5981123620e+00    0.2128006    0.1561702  72.28  0.001088492    2.127    0.530
        34  -9.6461    156.2616    168.4504   6.8155216444e+01   1.6411021031e+01    0.2687275    0.2480671 -32.94 0.0002846254    1.041    0.040
        35 -10.4817    242.5984    165.6364   5.0412572159e+01   2.5001324753e+00    0.4301995    0.2428902  43.33  0.002268919    2.201    0.546
        36  -7.9227    161.8363    165.6402   6.6233379934e+01   1.6016162133e+01    0.2043671    0.1419671  47.79 0.0003138283    1.611    0.379
        37  -8.5213    199.8607    164.0390   5.7688037720e+01   9.5386296329e+00    0.2102096    0.1862833 -57.10  0.000389165    1.262    0.208
        38 -10.3300      1.8700    157.9972   1.0989593264e+02   4.0662574200e+01    0.7314151    0.1254976 -67.57  0.002390281    3.640    0.725
        39  -8.6444    220.9638    160.8684   5.3102630379e+01   6.6565387696e+00    0.2001035    0.1740801 -38.83 0.0004381244    1.083    0.076
        40  -7.8570     99.7905    160.8590   8.1527410571e+01   2.8433896923e+01    0.1870948    0.1740318  85.93 0.0002707704    1.175    0.149
        41 -11.4486     17.4217    158.7769   1.0558449298e+02   3.9346345041e+01     1.501087    0.2046792 -51.54  0.004028196    5.429    0.816
        42 -10.2908     14.2143    159.5988   1.0659594111e+02   3.9384813875e+01    0.3097452     0.144207  17.50  0.001372381    2.577    0.612
        43 -10.5094    194.1550    156.7630   5.7292140538e+01   1.2014022556e+01    0.6647911    0.4493195 -62.24  0.002121235    1.891    0.471
        44  -8.5051     39.6857    248.3298   1.0862255588e+02   1.5438965298e+01    0.1339892   0.07631332  61.52 0.0007044768    1.676    0.403
        45  -8.9936    203.5511    151.6747   5.4383770449e+01   1.1373151468e+01    0.3294753    0.2432403 -72.28  0.001604381    1.913    0.477
        46  -8.6527    182.5239    151.6872   5.8587016656e+01   1.5195218462e+01    0.2498442    0.1956179 -59.61 0.0003969955    1.416    0.294
        47 -10.4406     66.5372    143.1828   8.8047884321e+01   3.8149406147e+01     2.405242     1.167012  54.34  0.008188111    3.201    0.688
        48 -12.0245     30.6714    146.6103   1.0000411985e+02   4.1382841399e+01    0.7223282    0.5120237 -63.54  0.001594506    1.235    0.190
        49 -12.8393     41.1028    143.6713   9.6254876046e+01   4.1120787322e+01     1.272842    0.9988154  -7.38  0.004674634    1.474    0.322
        50  -9.6781    133.6713    145.5208   6.8764338493e+01   2.6039630881e+01     1.193038    0.2735717 -53.52  0.002502454    6.587    0.848
        51 -11.9359     13.3854    143.0375   1.0485817630e+02   4.3728685740e+01    0.6308823    0.3729799 -61.29  0.003223142    1.400    0.286
        52  -8.9824    225.3143    146.7191   4.9496944793e+01   8.6132843012e+00    0.2263963    0.2113917 -82.29  0.000748904    1.289    0.224
        53  -8.7291    222.6404    145.2531   4.9644644397e+01   9.3318031498e+00    0.1922519    0.1861919 -48.76 0.0005372684    1.159    0.137
        54  -7.7699    200.3036    145.6232   5.3710559412e+01   1.3160277872e+01    0.1463774    0.1097645 -71.26  0.000614833    1.768    0.435
        55  -9.8675    192.1692    143.9479   5.4922923583e+01   1.4996388155e+01    0.2799722    0.2615841 -87.47 0.0004296467    1.237    0.191
        56  -8.2085    204.4751    144.4833   5.2685124127e+01   1.2633482577e+01    0.1791221     0.139726  60.38 0.0002385275    1.589    0.371
        57  -9.0079    201.6178    140.3007   5.2318468594e+01   1.3978621148e+01    0.4816478    0.2520308 -60.98  0.001444234    2.924    0.658
        58  -9.1560    184.8858    144.0286   5.6408572993e+01   1.6353203854e+01    0.2567271    0.2230741  39.65  0.001356062    1.248    0.199
        59  -8.9341    143.2977    143.9042   6.5903698170e+01   2.4529736572e+01    0.2654153    0.2274377 -51.04  0.000584614    1.165    0.142
        60  -9.3456    146.6135    139.5489   6.4054790930e+01   2.4867706096e+01    0.3221609    0.2077314  36.13  0.001387496    1.635    0.388
        61 -10.0899    213.7024    141.0908   5.0310930035e+01   1.1654373153e+01     0.332224     0.261283 -40.65  0.001089698    1.105    0.095
        62  -9.2477    217.5222    145.6660   5.0600645350e+01   1.0118658006e+01    0.4142513     0.281572 -28.43  0.001647679    1.494    0.331
        63  -7.4426    216.3159    136.2728   4.8853116387e+01   1.2112508477e+01    0.1313018    0.1037786  -9.05 0.0003457104    1.561    0.359
        64  -8.5143    142.1310    135.8413   6.4300767572e+01   2.6611975404e+01    0.2314263    0.2142469 -88.30 0.0005667076    1.221    0.181
        65  -9.2649    165.2423    150.0933   6.2032715569e+01   1.8829875106e+01    0.5202601    0.2916907 -67.32  0.001723768    3.382    0.704
        66 -10.2445    223.8144    129.3102   4.6179037669e+01   1.2096018643e+01    0.3798253    0.2934981  87.91  0.001096681    1.747    0.428
        67 -10.1960    160.3972    128.6902   5.8185296158e+01   2.4464844638e+01    0.4856182    0.3740051 -23.28  0.002317744    1.463    0.317
        68  -9.4937    136.5983    129.6441   6.4220559937e+01   2.9141723998e+01    0.5945813    0.2648587 -54.43  0.002012889    2.619    0.618
        69  -7.8939    210.6300    129.8213   4.8457592131e+01   1.4358313270e+01     0.199361    0.1159497 -50.03 0.0003814704    1.605    0.377
        70  -9.6260    170.0912    128.1203   5.5895931326e+01   2.2598596510e+01    0.3039393    0.2853402 -60.20 0.0006644108    1.080    0.074
        71  -8.5216    201.9024    125.7148   4.9093510585e+01   1.6775734642e+01    0.1882951     0.174224 -66.54 0.0005629528    1.114    0.102
        72  -7.6975     91.4978    125.5521   7.6190416107e+01   3.8735134285e+01     0.156471     0.147248 -21.14  6.05597e-05    1.024    0.023
        73  -8.4053     51.7751    124.1266   8.9044135928e+01   4.4975120729e+01    0.2018619    0.1905474 -65.68 0.0002946834    1.118    0.105
        74  -8.2180    172.4436    122.9687   5.4179854489e+01   2.3183627834e+01    0.2352421    0.1399708 -44.57 0.0009845624    1.587    0.370
        75  -9.4760    166.2215    122.6608   5.5441242028e+01   2.4533800279e+01    0.2942857    0.2289942 -29.86 0.0007404706    1.350    0.259
        76  -7.8817    205.9400    122.0410   4.7585201741e+01   1.6708611318e+01    0.1694912    0.1442451 -46.64 0.0004417219    1.044    0.042
        77  -8.4056    135.4326    120.0456   6.2132782563e+01   3.1528976468e+01    0.2428429    0.1499065 -44.97  0.001022964    1.589    0.371
        78  -8.2753     43.3267    245.3425   1.0760952393e+02   1.5660030230e+01     0.119423   0.09427643 -33.45 0.0007051103    1.739    0.425
        79  -9.0112     87.1106    116.8955   7.5443408500e+01   4.1578138668e+01    0.2543241     0.240435 -28.44 0.0007181407    1.022    0.022
        80  -9.4126    200.1244    115.8800   4.7236262046e+01   1.8994358110e+01    0.2464396    0.1981301  43.84  0.001163927    1.403    0.287
        81 -10.0796    173.9638    113.1317   5.1526473504e+01   2.4849482066e+01    0.5957116    0.2743722 -55.01  0.002143133    2.678    0.627
        82 -10.2163    134.7961    110.3929   5.9815330281e+01   3.3749774904e+01    0.8013238    0.1967219 -41.98  0.002138587    4.224    0.763
        83 -11.3767    136.1766    101.1240   5.7017516450e+01   3.5372442208e+01    0.7366713    0.6281718  81.38  0.001263147    1.382    0.276
        84 -10.1699    205.1540    109.7415   4.5028598040e+01   1.9149242916e+01    0.3570181    0.3479678  59.41  0.001619856    1.160    0.138
        85 -10.0787    209.1390    107.1791   4.3824611946e+01   1.8838256115e+01    0.4950166     0.276465 -57.94 0.0008154694    1.967    0.492
        86 -12.0652    123.7288    103.8653   6.1002453302e+01   3.7459361822e+01     1.314647     0.838043  41.83  0.004377514    1.570    0.363
        87 -10.1881     71.5672    108.0949   7.8404714030e+01   4.6192557008e+01     0.255173    0.2278754  13.59  0.000238315    1.126    0.112
        88  -8.7203    143.5441    108.0727   5.7028472704e+01   3.2367797184e+01    0.2335117    0.1476154 -43.70  0.000953285    1.561    0.359
        89  -9.0815    150.5889    105.0812   5.4591498618e+01   3.1454781661e+01    0.2811792    0.2527235   9.15   0.00059289    1.254    0.202
        90  -9.8654    196.0061    111.0502   4.6875162866e+01   2.0718635305e+01     0.399929    0.2762259  32.06  0.001198632    1.906    0.475
        91  -7.9730    108.3032     99.3228   6.4124336073e+01   4.1581885070e+01    0.1560195     0.118626  -4.12 0.0007030033    1.635    0.389
        92 -10.7767    144.3248     95.8724   5.3645165474e+01   3.4633894685e+01     0.441526    0.3470431  62.09  0.001299018    1.357    0.263
        93 -13.1816    235.6013     75.9734   3.3777191215e+01   1.9009894660e+01    0.9459053    0.6944125 -47.40  0.001583521    1.199    0.166
        94 -10.5444    120.2669     96.0575   5.9802926021e+01   3.9794037016e+01    0.4232917    0.3421171 -48.21  0.001951144    1.279    0.218
        95 -11.5781    160.5360     92.0839   4.9085585020e+01   3.1773218171e+01    0.6629425    0.4227291 -53.21 0.0009246786    1.649    0.393
        96  -7.9250    106.4551     90.9746   6.2298314058e+01   4.3671767442e+01    0.2250428    0.1465749 -44.18  0.001017181    1.567    0.362
        97  -9.1134    125.0652     84.6870   5.5315452526e+01   4.0972288796e+01    0.3743658    0.2057111 -45.04  0.001081457    1.894    0.472
        98  -8.7212    153.4708     83.3540   4.8299985984e+01   3.4915451823e+01     0.297964    0.2035537 -63.06 0.0008796622    1.749    0.428
        99  -8.6535    128.7838     82.3831   5.3712680118e+01   4.0583311101e+01    0.2112743    0.1319345  39.70 0.0003812886    1.640    0.390
       100  -9.1042    151.1127     71.3647   4.5605642328e+01   3.7477364833e+01     0.253351    0.1952704 -50.23  0.000306161    1.335    0.251
       101 -10.0717    156.4667     78.1187   4.6310110611e+01   3.5148654049e+01     0.482799    0.2416781 -45.76  0.001958312    2.031    0.508
       102  -9.5130    155.5795     73.1568   4.5185562585e+01   3.6175550781e+01    0.3160943    0.2641246 -82.03 0.0007080694    1.288    0.223
       103  -9.2289    139.8310     79.3308   5.0209679472e+01   3.8676034443e+01    0.3124979    0.2142474  28.45  0.001048105    1.835    0.455
       104 -12.5316    201.8466     86.6935   4.0452626183e+01   2.3863922248e+01     1.739312    0.7605114  40.34  0.006323055    3.866    0.741
       105  -8.3385     84.2545     72.4142   6.3655983599e+01   5.1557995435e+01    0.1869189     0.131856  46.92 0.0002459641    1.501    0.334
       106  -7.8867    102.7922     75.6417   5.8816927717e+01   4.7343897692e+01    0.2172086    0.1316497  52.65 0.0009613382    1.773    0.436
       107  -8.8844    155.1708    241.7921   8.1869543080e+01   1.0497118997e+00    0.1866945    0.1710751  16.51 0.0008887586    1.128    0.113
       108  -8.9027    146.7052     68.0023   4.5600747348e+01   3.9016377478e+01    0.1879212     0.180619 -46.77 0.0003594646    1.097    0.088
       109  -9.5142    207.3163     64.8320   3.4896484204e+01   2.6204422852e+01    0.2880629    0.2169839  76.24  0.001090919    1.315    0.239
       110  -8.3746    207.9995     60.6518   3.3913559290e+01   2.6679312283e+01    0.1717236    0.1443487 -86.00  0.000482484    1.089    0.082
       111 -10.1141    135.3492     61.9343   4.6329127450e+01   4.2536966874e+01    0.5079762    0.2986116 -35.02  0.001764879    1.835    0.455
       112  -8.4496    125.2546     63.3994   4.9076321398e+01   4.4578474641e+01    0.1840788    0.1752036  22.42 0.0005225988    1.081    0.075
       113  -9.4976    192.2757     39.6821   3.1261736728e+01   3.2843662952e+01    0.3329895    0.2625086 -21.37   0.00177353    1.706    0.414
       114  -9.4807    188.7116     33.9842   3.0414743211e+01   3.4315686764e+01    0.4787603    0.2357685 -63.53  0.001395044    2.366    0.577
       115  -7.9247    183.8263    239.9188   7.5337111575e+01  -2.6492871379e+00    0.1614314    0.1542357   5.15 0.0005324348    1.317    0.241
       116 -10.8730    196.7157     57.2037   3.4603216522e+01   2.9532314504e+01     0.547739    0.4822814 -81.49  0.003568605    1.033    0.032
       117 -10.3875    191.4113     55.1143   3.4840613016e+01   3.0962986832e+01    0.5344651    0.2918388 -29.23  0.002566182    2.290    0.563
       118  -8.1173    186.2762     59.4141   3.6547768972e+01   3.1457574346e+01    0.2342784    0.1359534 -58.14 0.0009207918    1.806    0.446
       119  -9.5270    144.3561     59.4560   4.3735628553e+01   4.0864730433e+01    0.2687653    0.2367778 -54.34 0.0008553117    1.187    0.158
       120 -10.1602    122.2546    233.2638   8.8131626684e+01   7.6083143441e+00    0.2562638    0.2350651 -39.79 0.0004018716    1.169    0.144
       121  -7.7948     72.5763     58.4851   6.3082023212e+01   5.6108967933e+01     0.135341     0.122571  10.72 0.0001305167    1.070    0.065
       122  -8.7100    109.3086     55.1943   5.0584540139e+01   4.9331197151e+01    0.2087126    0.1678383 -26.18 0.0003774532    1.350    0.259
       123  -9.8990    178.6537     51.6701   3.5827802419e+01   3.4229639640e+01    0.3841806    0.2603718 -20.93  0.002010516    2.031    0.508
       124  -9.2718    224.5429    230.9247   6.5642745153e+01  -6.4070967803e+00      0.30035    0.2034635 -49.42  0.001254824    1.916    0.478
       125  -7.7256    134.2453     51.3415   4.3525023200e+01   4.4331667354e+01    0.1303167    0.1028381  19.34 0.0002259081    1.565    0.361
       126  -9.4024    199.4482     48.2392   3.2281547099e+01   3.0199129250e+01    0.2799808    0.1998403 -37.28 0.0008971315    1.509    0.337
       127  -8.7318    111.1972     45.4580   4.7004236556e+01   5.0287971400e+01    0.2142067    0.1841984 -24.77 0.0002711452    1.283    0.221
       128  -9.6850    142.1755     44.6863   4.0061564003e+01   4.3416732950e+01    0.3392124    0.1181103  45.46  0.001216744    3.228    0.690
       129  -9.2816    249.8464    168.7936   4.9872361512e+01   9.3193819601e-01    0.1968931    0.1449677 -25.41 0.0006162166    1.214    0.176
       130  -9.0704    163.8061     41.5521   3.5559465249e+01   3.8892844557e+01    0.2239382    0.1890708  32.72 0.0006906087    1.470    0.320
       131  -8.7320     73.7833    224.5309   9.8574710848e+01   1.6513316727e+01    0.2227238    0.1858633 -67.59 0.0004359671    1.235    0.190
       132  -7.8684    105.3262     39.6837   4.6612374014e+01   5.2311872780e+01    0.1289565    0.1034784 -84.38 0.0004401282    1.673    0.402
       133 -10.1997    164.9126     34.0038   3.3504179800e+01   3.9567831406e+01    0.4088553     0.256798 -76.25  0.001115588    1.841    0.457
       134  -8.7213     78.1501     35.2487   5.2845710095e+01   5.8464669184e+01    0.3606008    0.1484878 -30.80  0.001575352    2.689    0.628
       135  -8.5322     78.5456     30.4667   5.0946189380e+01   5.8968529884e+01    0.1975883    0.1783418 -10.80 0.0004940758    1.219    0.180
       136  -9.2556    123.7450     37.5944   4.1676267917e+01   4.8491733752e+01     0.183044    0.1175902  68.28  0.000389622    1.574    0.365
       137  -8.6372    140.2940     33.6457   3.7323912185e+01   4.5200590736e+01    0.1321463   0.09326641 -72.23 0.0004714751    1.687    0.407
       138  -9.1132    159.7678     30.9936   3.3489641962e+01   4.1078140242e+01    0.2184304    0.1927496 -49.42 0.0005049934    1.236    0.191
       139  -9.6607    144.7806     29.8680   3.5515967777e+01   4.4607255165e+01    0.2947133    0.1613136  -9.37  0.001269099    3.349    0.701
       140  -9.4948    110.6422     38.5901   4.4942872382e+01   5.1288566004e+01    0.4187094    0.1683562 -24.35  0.001623365    3.389    0.705
       141  -9.0846     92.0705     28.6078   4.6326018547e+01   5.6439232108e+01    0.2070237    0.1827375 -10.23 0.0003010895    1.248    0.199
       142  -9.5155    156.5787     27.9146   3.3168714474e+01   4.2145472968e+01    0.2491879    0.1661448  44.34  0.001021337    1.675    0.403
       143  -9.5403    140.8193     25.8590   3.5069882018e+01   4.5944829507e+01    0.1910001    0.1583659  48.64 0.0005490576    1.214    0.176
       144  -8.7593    145.9780    220.7483   8.0569354520e+01   6.6040720195e+00     0.220836    0.1923822 -34.88 0.0005852014    1.171    0.146
       145 -10.2271    178.3837     23.7705   2.9308714057e+01   3.7740534594e+01    0.5638955    0.2849516  68.94  0.002991467    1.735    0.424
       146 -10.6147    133.5765     23.8600   3.5736445418e+01   4.7798397850e+01    0.2998011    0.2466032  -0.00  0.001540512    1.547    0.353
       147  -8.8475     33.0036    218.9886   1.0767318170e+02   2.2758271601e+01    0.1992211    0.1479298 -39.75  0.001084911    1.703    0.413
       148  -7.9719     78.5584     16.4709   4.5666638250e+01   6.0452639172e+01    0.1247849    0.1016897  36.92 7.978493e-05    1.006    0.006
       149  -7.8769    190.4782     15.4806   2.6170539972e+01   3.6018600203e+01    0.1181747   0.09510092 -85.79 5.723058e-05    1.000    0.000
       150  -8.3709    206.8409     13.4510   2.4262096423e+01   3.2831388197e+01    0.1637651   0.09447536  77.53  0.001000621    1.510    0.338
       151  -8.0356     90.2049     13.6362   4.1493178209e+01   5.8322290527e+01    0.1774315   0.08967178  48.25 0.0009205038    1.587    0.370
       152  -8.7654    224.3139    218.2626   6.3452004078e+01  -4.2739887356e+00    0.2296419    0.1665183  36.84  0.001046801    1.697    0.411
       153  -8.3756    250.3765    218.2067   5.8791752453e+01  -7.3959176953e+00    0.1665397   0.09680532 -42.72  0.000534614    1.670    0.401
       154  -7.9306    176.0085    213.6908   7.2481401898e+01   3.3839181338e+00    0.1675288     0.121347  26.54 0.0004748016    1.341    0.255
       155  -7.9243    247.2963    211.3323   5.8099899513e+01  -5.9410603640e+00    0.1292019   0.07731365 -16.33  0.000233649    1.641    0.391
       156  -8.9679    189.6613    211.0621   6.9051388029e+01   1.8313878347e+00    0.2425147    0.1894835  43.65 0.0005480269    1.564    0.361
       157  -7.7223    211.2956    209.6106   6.4373817744e+01  -1.0210679861e+00    0.1227566    0.1071505 -70.36 0.0007012124    1.780    0.438
       158  -7.8174    228.9060    207.4410   6.0640064349e+01  -3.0109739095e+00    0.1581167    0.1120304  56.25 0.0008066409    2.598    0.615
       159  -8.4977    206.8881    206.1071   6.4593981821e+01   2.4271228307e-01    0.1879359    0.1797483 -34.07 0.0005466799    1.330    0.248
       160  -9.1605      6.0288    204.6173   1.1274305120e+02   2.8756950779e+01    0.2139861    0.1539418 -70.82 0.0004745935    1.275    0.216
       161  -9.7887    192.3942    193.9123   6.5229497383e+01   4.7649480077e+00    0.9293379    0.4555323 -62.31  0.002638922    5.792    0.827
       162  -7.6318     54.4209    199.4803   1.0038371376e+02   2.5061435033e+01    0.1383151    0.1286342 -86.70 0.0001002345    1.028    0.027
       163  -8.7103      9.7561    189.0244   1.1064344502e+02   3.2253967440e+01    0.1840446    0.1706579  79.56 0.0002536157    1.123    0.109
       164  -8.7916    171.7947    186.3638   6.8223259769e+01   9.7031841387e+00    0.2434339    0.1935879 -54.22   0.00060049    1.390    0.281
