#   1 NUMBER                 Running object number                                     
#   2 MAG_AUTO               Kron-like elliptical aperture magnitude                    [mag]
#   3 X_IMAGE                Object position along x                                    [pixel]
#   4 Y_IMAGE                Object position along y                                    [pixel]
#   5 X_WORLD                Barycenter position along world x axis                     [deg]
#   6 Y_WORLD                Barycenter position along world y axis                     [deg]
#   7 A_WORLD                Profile RMS along major axis (world units)                 [deg]
#   8 B_WORLD                Profile RMS along minor axis (world units)                 [deg]
#   9 THETA_WORLD            Position angle (CCW/world-x)                               [deg]
#  10 FWHM_WORLD             FWHM assuming a gaussian core                              [deg]
#  11 ELONGATION             A_IMAGE/B_IMAGE                                           
#  12 ELLIPTICITY            1 - B_IMAGE/A_IMAGE                                       
         1 -11.4904     80.4768     23.3404   9.7088405602e+01   6.1572403375e+01    0.6225947    0.3306462  32.55 0.0005522858    2.243    0.554
         2  -9.1807    145.7128     21.5498   7.9203327273e+01   4.6107913069e+01    0.5275905    0.2848601  -1.32  0.001968501    2.675    0.626
         3  -8.6042    129.5753     13.2399   7.9017419348e+01   5.1301601260e+01    0.3002481    0.1477733 -21.10  0.001208827    2.121    0.528
         4  -8.9379    104.4403     15.5034   8.5864232804e+01   5.7352984507e+01    0.5088069    0.2531604  14.29  0.001554714    4.325    0.769
         5  -9.1537     70.8848      9.0374   9.3411033456e+01   6.5639769606e+01    0.5783375    0.2689994  49.41  0.002541524    2.175    0.540
         6  -9.5198     79.3652     12.8643   9.2317704205e+01   6.3368563509e+01    0.4155236    0.2715517  54.18  0.001526912    1.636    0.389
         7  -9.2152     74.2295     13.5877   9.4563171284e+01   6.4323176144e+01    0.4226183     0.277796   0.12  0.001753991    1.880    0.468
         8  -9.1872     63.8125     14.5185   9.9211757046e+01   6.6187544480e+01      0.38038    0.2249939  18.42  0.001693536    2.331    0.571
         9  -9.0664     96.8779     12.5736   8.6586341465e+01   5.9513460306e+01    0.3972841    0.2503419  13.95  0.001017037    1.991    0.498
        10  -9.7023    134.0734     13.5727   7.8271601699e+01   5.0088059650e+01    0.4289553    0.2716157 -30.51 0.0002169195    1.588    0.370
        11  -7.8862    137.4558     10.4863   7.6401349550e+01   4.9525564465e+01    0.2532478    0.1868116  -1.24 0.0006149497    1.494    0.331
        12  -9.1165    122.0378     13.9978   8.0916088378e+01   5.3162777540e+01    0.3460008    0.1780518  29.19  0.001303951    2.554    0.608
        13  -9.0327    125.2717     10.2893   7.8649369824e+01   5.2741813487e+01    0.2450112    0.2036088  26.86 0.0003427716    1.213    0.176
        14  -8.4249    112.8794     11.2365   8.1786698827e+01   5.5796535080e+01    0.2820072    0.1737764  16.59  0.001217175    2.023    0.506
        15  -9.1389     40.5004      6.6899   1.0609905882e+02   7.1285583727e+01    0.4178002    0.2568305  -4.30   0.00204973    2.207    0.547
        16  -9.7263     46.9264      6.3549   1.0251040213e+02   7.0361135495e+01    0.3146138    0.2389832  11.79 0.0004101784    1.344    0.256
        17  -8.1397     34.5300      9.4728   1.1102744565e+02   7.1624638334e+01    0.2486549    0.1720992  11.04  0.001126517    1.617    0.382
        18  -9.3118     32.2584      6.0484   1.1044259097e+02   7.2518694377e+01    0.2608796    0.2007045 -35.50 0.0003263519    1.147    0.128
        19  -9.1861     76.2350      5.6845   8.9605993705e+01   6.4979765117e+01     0.445734    0.2514857 -19.37  0.002067341    1.817    0.450
        20 -10.6329      7.4003      5.3953   1.2659407924e+02   7.5064538361e+01     0.568946    0.2684554  -6.79 0.0005970567    3.006    0.667
        21  -8.2689      2.8623      1.7919   1.2830288828e+02   7.6068876768e+01    0.1829863     0.146906 -42.99 0.0006203572    1.036    0.035
        22  -8.1846    155.8624      7.1718   7.2182472487e+01   4.4934353699e+01    0.2073798    0.1602823  38.86 0.0004204335    1.330    0.248
        23  -8.3761    100.9800      6.2509   8.2398306204e+01   5.9282510060e+01    0.4043952    0.2225358  24.21  0.001603663    2.281    0.562
        24  -8.7186    111.1892      4.5834   7.9133575214e+01   5.6938119868e+01    0.2510611    0.1568381  45.15 0.0008412103    1.512    0.338
        25  -8.6020    105.9787      1.5352   7.8885675916e+01   5.8545401285e+01    0.3728717    0.2131073  55.06  0.001427483    1.609    0.378
        26  -8.8646    119.1556      6.9447   7.8466388024e+01   5.4671210819e+01    0.2907139    0.2281479  14.59  0.000304586    1.340    0.254
        27  -8.0293    130.6053      6.1233   7.5859648037e+01   5.1775331781e+01    0.1984256    0.1345718   4.04 0.0004727609    1.686    0.407
        28  -7.0050    179.3138      5.3188   6.8584815571e+01   3.8840904814e+01      0.14917    0.1009056  36.37 0.0007037779    1.650    0.394
        29  -7.9635     91.1204      5.1588   8.4558835628e+01   6.1738937364e+01    0.2210822    0.1707658  27.22 0.0005126966    1.261    0.207
        30  -8.0978    149.5558      4.4727   7.2087347387e+01   4.6881422490e+01    0.3458821   0.02189876  53.95 0.0008099652    5.737    0.826
        31  -8.2475     84.8496      3.2483   8.5436607015e+01   6.3388011659e+01    0.2680791    0.1618246  12.35 0.0004812119    2.031    0.508
        32  -8.4526    143.1207      2.2079   7.2175732119e+01   4.8813465739e+01    0.2294428    0.2012277  -7.74 0.0003189055    1.195    0.163
        33  -7.5464    134.2187      3.5718   7.4161784389e+01   5.1063966873e+01    0.2039353    0.1228108  54.21 0.0004158977    1.532    0.347
        34  -8.2635     56.7885      3.0778   9.5838980350e+01   6.9160175487e+01    0.3164383    0.1711389  38.33  0.001552282    1.872    0.466
        35  -9.0419    159.4198      1.7067   6.9710420536e+01   4.4476289279e+01    0.3114911    0.1767944  61.39  0.001037045    1.630    0.387
        36  -8.3921    109.9921      1.7473   7.8076147463e+01   5.7520357204e+01    0.2177334    0.1991262 -65.99 0.0008087808    1.244    0.196
        37  -7.7543    109.2084     91.2225   1.1182906791e+02   4.2673209953e+01    0.2487745    0.1659733  -3.56 0.0009590166    2.811    0.644
        38  -8.7965    220.7854    250.3960   1.1725559368e+02  -6.8411464539e-01    0.1535117   0.06674895  29.87 0.0009572746    1.697    0.411
        39  -9.9581    200.0922    249.5612   1.2039777567e+02   2.0470317392e+00    0.3055213   0.09434877  35.56  0.001588274    2.362    0.577
        40  -8.0108     96.3753     90.7387   1.1546833940e+02   4.5184968659e+01    0.3653217    0.2338731  -2.35  0.001323727    3.442    0.710
        41 -10.1584     37.5495     81.1583   1.3303982312e+02   5.5680682003e+01    0.6529435    0.3549656 -25.75  0.002826042    3.026    0.670
        42  -8.3142     66.1901     84.9169   1.2372274197e+02   5.1368788552e+01    0.2555686     0.182507  -9.32  0.001236282    2.085    0.520
        43  -7.4712    127.3271     83.3527   1.0465796088e+02   4.0544101352e+01     0.157464    0.1193812   3.73 0.0007047293    1.767    0.434
        44  -9.8630      7.7447     77.8236   1.4346118935e+02   5.8748999151e+01    0.5677055    0.2324338 -38.12  0.002527405    3.172    0.685
        45  -7.2604    226.5154     80.5339   8.4270887204e+01   1.8379436772e+01    0.1373973    0.1246498 -16.38 0.0003614843    1.026    0.025
        46  -8.5902     87.7173     79.1621   1.1507484736e+02   4.9263681910e+01    0.3939623    0.2593417  10.57  0.001655843    2.486    0.598
        47  -7.9221    184.3412     78.0406   9.0430463358e+01   2.8275547610e+01    0.2111763    0.1832913 -25.81 0.0006198981    1.124    0.110
        48  -8.6388     49.9125     76.8280   1.2761651800e+02   5.5364812981e+01    0.4203359    0.2310614  16.31   0.00189293    2.553    0.608
        49  -7.6903    120.4770     75.9909   1.0431847486e+02   4.3476781795e+01    0.2710038    0.1964747  27.13  0.001252247    1.610    0.379
        50  -9.5854     28.9467     68.9362   1.3395568106e+02   5.9361710645e+01    0.5504234    0.2685902 -26.01  0.002247879    3.469    0.712
        51  -9.1080     23.8704     73.8838   1.3684317491e+02   5.8607907297e+01    0.3627557    0.1661895 -61.33  0.001784372    1.780    0.438
        52  -8.0936     23.4835     69.4769   1.3622091959e+02   5.9679166576e+01    0.2332893    0.1750688 -80.77 0.0005654619    1.218    0.179
        53  -8.2748     74.9873     74.0905   1.1792514532e+02   5.2516953403e+01    0.2036365    0.1966282 -48.28 0.0003288838    1.033    0.032
        54  -8.1633    105.5637     67.9870   1.0611411651e+02   4.8221210794e+01    0.3313691    0.2284525   6.03  0.001383463    2.293    0.564
        55  -8.5097     83.8934     64.1488   1.1187219070e+02   5.3186838840e+01    0.3475364    0.2481899   5.25  0.001280211    2.026    0.506
        56  -9.2166     16.9875     63.1084   1.3770735317e+02   6.1647064582e+01     0.435831    0.1953229 -28.29  0.001844314    3.393    0.705
        57  -8.9197     57.2872     62.2523   1.2107664684e+02   5.7789744685e+01    0.4412118    0.1983132  33.70  0.001889881    2.424    0.587
        58  -9.0756     62.3106     61.3309   1.1885816978e+02   5.7292481107e+01    0.3296318    0.2629974  14.10 0.0009995437    1.470    0.320
        59  -7.4167    122.3425     61.3419   9.9115666903e+01   4.5857318005e+01    0.1605388    0.1185109  10.85 0.0007048117    1.780    0.438
        60  -9.6802     36.8464     59.4882   1.2862185861e+02   6.0836912436e+01    0.3831063    0.1688439 -39.01  0.001590942    2.697    0.629
        61  -7.1542     96.5112     59.4851   1.0612197646e+02   5.1762329328e+01    0.1471849    0.1390639 -14.37 0.0003771299    1.058    0.055
        62  -7.8833    111.0741     58.2706   1.0123294750e+02   4.8947689920e+01    0.2071031     0.194582  29.71  0.000470306    1.072    0.067
        63  -7.7568     49.1015     58.5203   1.2327688091e+02   5.9690653152e+01     0.188218    0.1331658  31.76  0.001022429    1.566    0.361
        64  -8.5416     67.5040     60.4614   1.1661212355e+02   5.6709044975e+01    0.2754927    0.2265395  49.37   0.00153608    1.343    0.256
        65  -9.9219     75.0205     50.3646   1.1037932546e+02   5.7624302336e+01    0.5337089    0.3195271 -28.52 0.0003036446    2.018    0.504
        66  -8.3239    197.8738     53.6893   8.1173751038e+01   2.8529227635e+01    0.2288813    0.1902844  -8.07 0.0003417085    1.242    0.195
        67  -7.8720     98.5721     52.7435   1.0308716052e+02   5.2661045396e+01    0.2109588    0.1355582 -50.98  0.000668611    1.670    0.401
        68  -9.3601     45.5662     48.9482   1.2189596497e+02   6.2266084151e+01    0.3643413    0.2459201 -33.39 0.0008594496    1.552    0.356
        69  -8.2601    106.9000     48.4013   9.8914782146e+01   5.1683283317e+01    0.2879696    0.2119591   9.49 0.0009445475    1.754    0.430
        70  -8.3905    118.3018     50.9929   9.6603469810e+01   4.8644318868e+01    0.2580799    0.2147632  52.59 0.0006871691    1.226    0.184
        71  -8.8512      2.6956     43.3118   1.4052243607e+02   6.7035875563e+01    0.5231186    0.1466079 -62.38  0.002306359    2.412    0.585
        72  -9.4373     11.8616     46.3417   1.3672476184e+02   6.5872050374e+01    0.4591537     0.257739 -27.33  0.001214129    2.105    0.525
        73  -8.3630      6.9739     47.7946   1.3931647324e+02   6.5803959274e+01    0.2765446    0.1177069  25.66 0.0009396851    2.669    0.625
        74  -9.1637     56.4596     42.8246   1.1506320081e+02   6.2140580640e+01    0.6935542    0.2977905 -30.86  0.002233993    4.213    0.763
        75  -7.0663     96.6558     46.3266   1.0131240087e+02   5.4264448400e+01    0.1486717    0.1177808 -79.38 0.0007050716    1.743    0.426
        76  -7.8831    113.8292     41.7925   9.4398207336e+01   5.1252599731e+01    0.2624415    0.1580216  14.43 0.0009481452    2.872    0.652
        77  -7.4943    124.1501     39.6058   9.0817344162e+01   4.9141425789e+01    0.2106998    0.1329799  43.18 0.0004111704    1.601    0.375
        78 -10.1183     90.7956     38.2594   1.0004903434e+02   5.6941646506e+01    0.6217192    0.3143969  49.69  0.002605796    2.076    0.518
        79  -9.6504     68.7657     36.5732   1.0748026978e+02   6.1442165250e+01    0.7806798    0.4296053  17.36  0.002920867    3.326    0.699
        80  -8.2498    106.5911     36.2627   9.4269643470e+01   5.3832549038e+01    0.2628251    0.1703158  31.32 0.0007346998    1.761    0.432
        81  -9.0861     56.0185     35.4119   1.1238516830e+02   6.3722280772e+01    0.3199864    0.2285594   4.67  0.001282256    1.766    0.434
        82  -9.1760     38.9855     35.2987   1.2027488895e+02   6.6004259888e+01    0.3817365    0.2016526  16.23  0.001649176    2.564    0.610
        83  -8.2262     23.1508     35.8869   1.2842803931e+02   6.7445771121e+01    0.2192391    0.1786461  -5.49 0.0008175338    1.380    0.275
        84  -8.8231     21.7238     31.9655   1.2793470844e+02   6.8426231130e+01    0.2208762    0.1951576  41.46 0.0003363423    1.367    0.268
        85  -8.1249     18.9923     35.9919   1.3060402461e+02   6.7749399184e+01    0.1490334    0.1244198 -52.31  0.000334634    1.010    0.010
        86  -9.3372      6.7268     33.9776   1.3651474575e+02   6.8970139494e+01    0.3535732    0.2498193 -39.52  0.001645393    1.331    0.249
        87  -9.0678      1.7568     28.3270   1.3787663860e+02   7.0468704900e+01    0.5100363    0.1255638 -69.04  0.002008147    3.141    0.682
        88  -9.3996     42.0737     26.8954   1.1539773158e+02   6.7360353402e+01    0.4029829    0.2623314 -50.12 0.0008005396    1.415    0.293
        89  -9.6601     70.1935     26.1071   1.0230912660e+02   6.3101751876e+01    0.3595076    0.2681625  35.20  0.001164682    1.386    0.278
        90  -8.7011    247.5023    249.4881   1.1312641962e+02  -3.8846426353e+00    0.1010579    0.0663202  19.03 0.0008105666    1.006    0.006
        91  -9.0826     61.7109     26.9727   1.0624370766e+02   6.4437210466e+01    0.2614325    0.2077491 -17.69 0.0005476717    1.248    0.199
        92  -7.8970     25.6083     25.2668   1.2344951855e+02   6.9523588239e+01    0.2986521   0.07553152 -49.61  0.001131213    2.952    0.661
        93  -8.5586     28.7075     21.2552   1.2008789078e+02   7.0045957995e+01    0.3673374    0.2102127  -5.90  0.001748965    2.578    0.612
        94  -8.2334     32.9616     20.4831   1.1737847703e+02   6.9737859615e+01    0.1917807    0.1532448 -20.95 0.0004195044    1.198    0.165
        95  -9.7507    187.9128    250.0812   1.2241916009e+02   3.5947011143e+00    0.3069224   0.09697101  41.83  0.001576083    2.496    0.599
        96  -7.5829    129.2098     22.5705   8.2910322304e+01   5.0286980656e+01    0.2111319    0.1271683  47.16 0.0005904423    1.611    0.379
        97  -9.0372     92.6525     20.1297   9.1457483836e+01   5.9461069969e+01    0.4167694    0.2707624  -3.10  0.001886581    1.931    0.482
        98  -8.7655     46.2972     20.6953   1.1046190294e+02   6.7985325322e+01    0.2848659     0.185388 -30.24 0.0005723664    1.470    0.320
        99  -8.3837    140.3441     20.0563   7.9638632464e+01   4.7699713768e+01    0.2497866    0.1896044  48.35 0.0003648703    1.275    0.216
       100  -8.2655      9.2690     19.8072   1.3101253616e+02   7.1950322992e+01    0.2168584    0.1458991 -15.41 0.0008004348    1.640    0.390
       101  -7.3076    161.3203     19.6788   7.5877512837e+01   4.2178318292e+01    0.1564692    0.1072731 -60.08 0.0007044325    1.670    0.401
       102  -8.0814    112.0348     19.1830   8.5530945083e+01   5.5038341422e+01    0.2266259    0.1810529  28.52 0.0003414821    1.268    0.211
       103  -7.7515      5.1774     18.8130   1.3321433482e+02   7.2396241487e+01     0.168717    0.1085973 -42.04 0.0004517706    1.321    0.243
       104  -7.5623    118.3200     24.3224   8.6159277616e+01   5.2807630056e+01    0.1574839    0.1084547  24.37 0.0005801194    1.672    0.402
       105  -8.5357    127.7248     16.8644   8.0898124821e+01   5.1367315101e+01    0.2488411    0.2252916  39.56 0.0004331326    1.063    0.059
       106  -9.8313    171.7197    249.3041   1.2498757812e+02   5.8246023280e+00    0.3015898    0.1718695  56.41  0.001791178    2.687    0.628
       107  -9.1442     72.5398    243.5854   1.4152181078e+02   1.9266207885e+01    0.1712884    0.1559661  62.71  0.001538043    1.328    0.247
       108  -7.1965     97.2723    239.2884   1.3688137659e+02   1.6892333070e+01   0.09070358   0.07352524  21.12 0.0001609771    1.509    0.337
       109  -7.8735    181.6780    237.7003   1.2198099206e+02   5.7243080271e+00    0.1085571   0.06689836  17.90 0.0003939471    1.626    0.385
       110  -9.3953    188.3226    234.3153   1.2044607004e+02   5.1719407200e+00    0.2079905    0.1557851  50.63  0.001446364    1.662    0.398
       111  -8.5836    239.5258    234.5138   1.1228240343e+02  -1.6858275557e+00     0.105396   0.07241841  18.82 8.425089e-05    1.009    0.009
       112  -8.0466      7.1588    234.0669   1.5224873662e+02   2.7337761468e+01      0.12769    0.1009046  62.61 0.0003402968    1.216    0.178
       113  -7.1440    138.7095    228.6856   1.2844543308e+02   1.2820443321e+01    0.1041042   0.07597352  15.46 0.0007003127    1.591    0.372
       114  -7.4040     64.5567    228.4689   1.4198634453e+02   2.2441712499e+01    0.1042235   0.07814827  51.92 7.660751e-05    1.042    0.040
       115  -8.3791     49.9775    222.8906   1.4431161920e+02   2.4950581859e+01    0.1514016    0.1169298  55.60 0.0005083501    1.078    0.072
       116  -8.4923     11.6146    207.2209   1.5067090735e+02   3.1330423933e+01    0.1276928   0.08028716 -78.38 0.0009512929    1.663    0.399
       117  -8.3804    191.2338    188.4522   1.1334363832e+02   1.0191481619e+01    0.1963252    0.1607795 -11.22 0.0006558408    1.281    0.219
       118  -8.0710    141.9109     10.3336   7.5561627090e+01   4.8358147854e+01    0.2263775    0.1136783  54.40 0.0009335924    1.832    0.454
       119  -7.7248      7.2523    182.0143   1.5060665601e+02   3.6238904693e+01    0.1289565   0.07429602 -89.54 0.0004152266    1.523    0.344
       120  -9.1148     67.1604    144.7062   1.3383193000e+02   3.7674089779e+01    0.4510661    0.2441495  60.39  0.002217997    1.990    0.497
       121  -7.3672    139.6869    138.7052   1.1491238617e+02   2.7202536401e+01    0.1373426    0.1071795   7.21 0.0007008543    1.597    0.374
       122  -8.8345    136.0021    135.9785   1.1522250554e+02   2.8408387032e+01    0.2018859    0.1899718  38.21            0    1.013    0.012
       123 -10.3422    246.1152    114.9462   8.9639379019e+01   1.0112282656e+01    0.2817347    0.2249318  17.22 0.0004553557    1.182    0.154
       124  -6.9939    142.6597    111.6532   1.0827994095e+02   3.1762618066e+01    0.1535665    0.1147682   5.37 0.0007046578    1.788    0.441
       125  -8.8997      2.0173    109.7859   1.4822008475e+02   5.1689984463e+01    0.2995706    0.1207293 -58.12  0.001506235    2.376    0.579
       126  -9.3981    249.5300    106.0281   8.7161161000e+01   1.0575833374e+01    0.3525115    0.1132488 -27.35  0.001375613    2.791    0.642
       127  -8.0526    133.5192    106.9515   1.0936472197e+02   3.4562872583e+01    0.2198851    0.1448955 -42.15  0.001020007    1.562    0.360
       128  -7.4399    123.7986    107.3675   1.1194094320e+02   3.6439664717e+01    0.2076391    0.1334369  33.28  0.000359733    1.690    0.408
       129  -7.3884    109.4544    106.4713   1.1556077199e+02   3.9383379676e+01    0.1405713     0.139102  63.32 0.0008080674    1.026    0.025
       130  -9.0087     14.9869    105.1887   1.4395363482e+02   5.1906637193e+01    0.4119249    0.1888032 -31.23  0.001717144    4.036    0.752
       131  -7.7121     94.0311    103.4629   1.1923517519e+02   4.2792153631e+01    0.2144132    0.1379842  39.29 0.0008949771    1.573    0.364
       132  -6.8972     70.3094    103.6909   1.2641687904e+02   4.6446791451e+01    0.1397985   0.09988349  73.17 0.0002214228    1.619    0.382
       133  -7.8028    130.0360     96.9929   1.0771459515e+02   3.7264060046e+01    0.2361815    0.1824899   6.28  0.000551905    1.691    0.409
       134  -9.0323      8.0512     96.2935   1.4529272948e+02   5.4420840927e+01    0.3508012    0.1751602 -14.10  0.001638946    3.517    0.716
       135  -9.6151     16.0738     95.0028   1.4254871669e+02   5.4198767375e+01    0.3735625      0.31715 -84.63  0.001934684    1.027    0.026
       136  -8.8807     12.1232     93.6375   1.4370235048e+02   5.4783486382e+01    0.2186061    0.1462421 -79.29 0.0005245488    1.240    0.193
       137  -9.4654    248.7300     95.6801   8.4896670513e+01   1.1983707158e+01    0.2473985    0.1779861  66.10  0.001384549    1.850    0.460
       138  -7.4794     83.1842     93.5969   1.2022679281e+02   4.6805596718e+01    0.1926511    0.1368113  23.28 0.0007299916    1.706    0.414
       139  -8.4989     43.1157     92.4440   1.3312201960e+02   5.2442775330e+01    0.3160051    0.2134261   2.26   0.00164563    2.135    0.532
