#   1 NUMBER                 Running object number                                     
#   2 MAG_AUTO               Kron-like elliptical aperture magnitude                    [mag]
#   3 X_IMAGE                Object position along x                                    [pixel]
#   4 Y_IMAGE                Object position along y                                    [pixel]
#   5 X_WORLD                Barycenter position along world x axis                     [deg]
#   6 Y_WORLD                Barycenter position along world y axis                     [deg]
#   7 A_WORLD                Profile RMS along major axis (world units)                 [deg]
#   8 B_WORLD                Profile RMS along minor axis (world units)                 [deg]
#   9 THETA_WORLD            Position angle (CCW/world-x)                               [deg]
#  10 FWHM_WORLD             FWHM assuming a gaussian core                              [deg]
#  11 ELONGATION             A_IMAGE/B_IMAGE                                           
#  12 ELLIPTICITY            1 - B_IMAGE/A_IMAGE                                       
         1 -13.4603    215.6885     28.8314   8.3383676696e-01   2.8112239540e+01    0.8165393    0.7012368 -54.23  0.004260337    1.157    0.136
         2 -11.3801    227.0726      9.6014   3.5595708261e+02   2.7906887028e+01    0.2346063     0.174897 -82.93 0.0007516897    1.156    0.135
         3  -9.5517     98.0910    249.0378   6.9866301999e+01   9.4123166538e+00     0.185023    0.1267932  55.94 0.0003566897    1.532    0.347
         4 -15.5552    122.0361    232.5355   6.2530755243e+01   9.1127931036e+00     6.227817     4.309524 -70.76   0.03348063    2.003    0.501
         5 -10.5450     90.2047    221.9783   6.8601965183e+01   1.5807433592e+01    0.2858184    0.2021221 -68.24  0.000847513    1.618    0.382
         6 -12.0602     89.2766    215.0809   6.7978710628e+01   1.7404489866e+01    0.5777969    0.3101476 -58.86  0.001886984    2.029    0.507
         7 -10.7305     49.1136    221.6104   7.8311325771e+01   2.1244228916e+01    0.1172693   0.07438587  89.04 0.0001454382    1.692    0.409
         8 -10.3741     60.9467    219.2147   7.5294944045e+01   2.0322222065e+01    0.1341833    0.1134957  85.52 0.0003228482    1.198    0.165
         9 -11.0994     67.6998    213.7520   7.3099998585e+01   2.0657562931e+01    0.1725548    0.1592007  56.40 0.0003925972    1.049    0.047
        10 -19.3553     20.6502    137.5639   7.7479268392e+01   4.4790655272e+01     19.00518     3.426096 -73.57   0.04676905    6.167    0.838
        11 -12.1058     47.9302    228.7297   7.9179377915e+01   1.9856843512e+01    0.2708881    0.2316744 -62.35  0.001772842    1.356    0.263
        12 -11.1048     59.8527    226.9479   7.6288150211e+01   1.8795644588e+01    0.1639154    0.1621144 -27.72 0.0004685124    1.230    0.187
        13 -11.5769     70.4753    197.8663   7.0561500165e+01   2.3913375695e+01     0.372871    0.2238181  88.53  0.001343748    2.167    0.538
        14  -9.9657    210.8560    198.8031   3.8083965005e+01   1.8523682862e+00    0.1932062    0.1488624  -5.67 0.0004624618    1.137    0.121
        15 -11.7323    159.8687    222.2517   5.2565159253e+01   5.3795744244e+00    0.3308165    0.2601065 -11.76  0.001914341    1.269    0.212
        16 -15.7702     68.3479    143.1896   6.2849919384e+01   3.7866348747e+01     2.757603      1.96605 -86.33   0.01269424    1.682    0.405
        17 -11.3944     81.8754    194.6805   6.7173394177e+01   2.3059259735e+01    0.4374851    0.3044165  55.36  0.001592064    1.476    0.322
        18 -10.0318     49.4519    195.2463   7.5716841472e+01   2.7222109408e+01    0.2454977    0.1438948  42.88 0.0008975406    1.557    0.358
        19 -10.0922     54.7880    191.3093   7.3889408578e+01   2.7516508836e+01    0.2708343    0.1674511 -84.36 0.0008013976    1.766    0.434
        20 -10.1017    234.3095    191.0532   3.2489700481e+01  -1.6873244513e-01    0.1770145    0.1319511 -24.27 0.0004295736    1.116    0.104
        21 -12.1564     59.6938    178.4580   7.0982828041e+01   3.0044143618e+01    0.5854443    0.3509181 -33.35  0.001468292    2.327    0.570
        22 -10.2120    174.9606    179.5014   4.1623332738e+01   1.0919341044e+01    0.2514277    0.1870983 -25.78 0.0006024723    1.320    0.242
        23 -12.4931    172.6316    174.0444   4.1040134960e+01   1.2383526515e+01    0.7808232    0.5106426  -0.31  0.002285521    2.087    0.521
        24 -11.3679    180.8930    169.2525   3.8295827447e+01   1.1865523009e+01     0.499317     0.330803 -64.53  0.002181049    2.433    0.589
        25  -9.5837     53.2485    179.4231   7.2896848443e+01   3.0619905253e+01    0.1835137    0.1179641  46.10 0.0003687037    1.491    0.330
        26 -11.9784     91.9491    240.7557   7.0339448749e+01   1.1796277404e+01    0.2476626    0.1784371 -56.39  0.001029592    1.622    0.383
        27 -11.8181     95.3784    159.8220   5.7796245750e+01   2.9393650737e+01    0.2856008    0.2736477 -89.16 0.0006808941    1.079    0.073
        28 -10.4059     99.4852    160.5086   5.6752402090e+01   2.8531395535e+01     0.280036    0.2422198  84.18  0.001419384    1.313    0.238
        29 -10.7881    115.7677    154.9172   5.1069963008e+01   2.6994772206e+01    0.2735307    0.2422301  10.00  0.000207927    1.185    0.156
        30 -12.2743    133.0679    145.2299   4.4312973810e+01   2.5950708671e+01     1.041661    0.3437119 -53.20  0.003027932    3.658    0.727
        31 -10.5458    111.9441    150.4622   5.1195475228e+01   2.8761758430e+01    0.3210905    0.1862741  52.76  0.001258399    2.043    0.511
        32 -11.8319    108.8227    145.4771   5.1009851469e+01   3.0538412073e+01    0.3609642    0.3233111 -47.69 0.0006649601    1.123    0.110
        33 -11.4534     90.5672    148.5182   5.7008267012e+01   3.3015294706e+01    0.3097392    0.2924522 -47.76 0.0005863875    1.063    0.059
        34 -12.9959     95.9169    143.3621   5.4339008113e+01   3.3383596264e+01    0.7581293    0.5779166   3.69  0.002451498    1.634    0.388
        35 -12.6879    106.2356    132.0311   4.8722168274e+01   3.4271619925e+01    0.6985439    0.4854421 -53.59  0.003123648    1.466    0.318
        36 -10.3680    223.6281    132.3069   2.2603608155e+01   1.1067006360e+01    0.6059996    0.1730397 -49.74  0.001564446    6.413    0.844
        37 -11.9908     95.7485    130.7963   5.1604553366e+01   3.6521774958e+01    0.3385696     0.304409 -29.78 0.0004539293    1.142    0.125
        38 -11.2679    135.2062    130.9291   4.0401648964e+01   2.8742505774e+01    0.3689963     0.222989 -50.37  0.001532454    1.704    0.413
        39 -10.3557    161.8306    126.1671   3.2816165535e+01   2.4188464446e+01    0.2109464    0.1795114  -2.04  0.000428268    1.324    0.245
        40 -10.3898     62.8057    238.3907   7.6644949774e+01   1.6065491020e+01    0.1343045   0.09346183 -61.83 0.0004223357    1.639    0.390
        41 -11.2650    114.6719    125.4932   4.4678991982e+01   3.4174766053e+01    0.3066992    0.2610264   8.17 0.0007858473    1.312    0.238
        42 -10.6350    102.4071    120.4603   4.7060941378e+01   3.7777102675e+01    0.2995929    0.2558478 -11.00  0.001459595    1.310    0.237
        43 -10.1633    162.1316    119.8854   3.1210329295e+01   2.5399428025e+01    0.2337851    0.2038779 -71.40 0.0006322123    1.301    0.231
        44  -9.6639     93.1394    235.6968   6.9512711180e+01   1.2615764584e+01    0.1638442    0.1425246  34.60 0.0003209353    1.044    0.042
        45  -9.8629    159.2150    115.9306   3.0869295798e+01   2.6823718534e+01    0.2295681    0.2006747 -71.02 0.0004759649    1.282    0.220
        46 -10.0343    110.0436    115.6733   4.3533889602e+01   3.7386749574e+01    0.2184979    0.1981247  34.00 0.0003554031    1.100    0.091
        47  -8.4720     70.4048    233.4071   7.4470260240e+01   1.6114330573e+01    0.1221441    0.1120007  23.14 0.0003161601    1.199    0.166
        48  -9.9058     93.9003    112.8170   4.7772834133e+01   4.1219001704e+01    0.2242818    0.2053122 -10.19 0.0002987628    1.134    0.118
        49 -10.0884    155.9613    111.4502   3.0458736879e+01   2.8434438530e+01    0.2825416    0.2069442 -59.58 0.0007579881    1.547    0.353
        50 -12.0345    115.5375    108.3564   3.9977086529e+01   3.7906933056e+01    0.6078833    0.3252286  57.30  0.002182604    2.484    0.597
        51 -11.8479     66.3547    104.2908   5.5028431582e+01   4.8035200713e+01    0.3670224     0.289277  47.73  0.001249338    1.391    0.281
        52 -11.7085    111.7178     99.1527   3.8523858477e+01   4.0732652508e+01    0.4273814    0.2830255  72.96  0.001638483    2.457    0.593
        53 -10.1795     64.7200     98.9972   5.4255580418e+01   4.9569523405e+01    0.2955762    0.1900461 -56.91  0.001332563    1.576    0.365
        54 -12.4895     53.5234    230.2586   7.8034607523e+01   1.8871678432e+01    0.2895137    0.1870493 -88.02  0.001625069    1.688    0.408
        55  -9.3581    114.2551     88.9859   3.4813105973e+01   4.2313768549e+01    0.1926676    0.1331614 -42.36 0.0002967316    1.471    0.320
        56 -10.5452     98.2150     88.5415   3.9532805468e+01   4.5840381655e+01    0.4301362    0.2594055  73.27  0.001357762    3.896    0.743
        57 -10.1682    104.4846     78.4858   3.4448052599e+01   4.6553634402e+01    0.2706894    0.2272597  57.64 0.0001697915    1.261    0.207
        58 -10.3204    101.5156     76.5172   3.4723862205e+01   4.7581929988e+01    0.2588139    0.2395067  55.94 0.0001409517    1.129    0.115
        59 -12.8376    173.8935     67.3144   1.5283412445e+01   3.2242686958e+01    0.4415835    0.4037026 -57.53  0.000856567    1.055    0.052
        60 -13.5630    190.7578     54.1052   9.4049039919e+00   3.0315321730e+01     1.080235    0.8493911  34.00  0.004172338    1.683    0.406
        61 -11.9516    196.5583     48.8191   7.3833426026e+00   2.9739455393e+01     0.329981    0.3073062  24.93 0.0009399935    1.386    0.279
        62  -9.4531     68.6461     63.2747   4.1642787832e+01   5.6721717344e+01    0.1382598    0.1152902  69.51 0.0007004233    1.644    0.392
        63 -10.1302     60.6988     61.0238   4.4034593509e+01   5.8544844480e+01    0.1984469      0.17616 -19.89 0.0004682741    1.078    0.072
        64  -9.8365     75.0425     54.0154   3.5789693735e+01   5.7211228076e+01    0.1737615    0.1564184  19.24 0.0003950821    1.017    0.017
        65 -11.8939    249.1245    245.1269   3.9239777178e+01  -9.3447110359e+00    0.5392403    0.2140883 -17.99  0.002479088    3.230    0.690
        66 -10.9100     60.7019     21.1886   2.7343050367e+01   6.4875668342e+01    0.2209131    0.1666876  49.29 0.0007611081    1.329    0.247
