#   1 NUMBER                 Running object number                                     
#   2 MAG_AUTO               Kron-like elliptical aperture magnitude                    [mag]
#   3 X_IMAGE                Object position along x                                    [pixel]
#   4 Y_IMAGE                Object position along y                                    [pixel]
#   5 X_WORLD                Barycenter position along world x axis                     [deg]
#   6 Y_WORLD                Barycenter position along world y axis                     [deg]
#   7 A_WORLD                Profile RMS along major axis (world units)                 [deg]
#   8 B_WORLD                Profile RMS along minor axis (world units)                 [deg]
#   9 THETA_WORLD            Position angle (CCW/world-x)                               [deg]
#  10 FWHM_WORLD             FWHM assuming a gaussian core                              [deg]
#  11 ELONGATION             A_IMAGE/B_IMAGE                                           
#  12 ELLIPTICITY            1 - B_IMAGE/A_IMAGE                                       
         1  -8.8028     13.0714     30.4408   1.0540849413e+02   6.5695972712e+01     0.217388    0.1567672 -60.34  0.001077025    2.072    0.517
         2  -8.2376     17.1836     14.1858   9.8228947306e+01   6.7663073521e+01    0.1270383    0.1066598 -16.67 0.0004765489    1.346    0.257
         3  -8.6428     55.6989     10.1456   8.2102948272e+01   6.3835151372e+01    0.1685609    0.1375594  29.38 0.0006756594    1.325    0.245
         4  -7.9116     47.4336     10.1823   8.5006815600e+01   6.4931160134e+01    0.1365934   0.09359801 -33.26 0.0009022916    1.659    0.397
         5  -8.7225     90.9571      9.3219   7.1144252237e+01   5.8281321004e+01    0.1676499    0.1295656  35.87 0.0004013633    1.084    0.077
         6  -7.7862    101.4455      8.4651   6.8188766653e+01   5.6421469739e+01     0.118702   0.09851173  34.46  6.09329e-05    1.018    0.017
         7  -7.6423      5.3225      7.6693   1.0083402766e+02   6.9424370707e+01   0.08177496   0.07564968 -12.69 0.0007049647    1.698    0.411
         8  -8.5113     33.4120      5.0624   8.8245423535e+01   6.7165511646e+01    0.2251533    0.1562455 -49.91  0.001279935    2.870    0.652
         9  -8.5453     79.1815      4.0715   7.2522811756e+01   6.0809213595e+01    0.2217696    0.1374679 -30.34 0.0008376944    1.837    0.456
        10  -7.9329     44.6914      3.3622   8.3351307157e+01   6.5996917345e+01   0.08970976   0.08450061 -27.12  0.000703992    1.743    0.426
        11  -7.6436    115.3068      2.6356   6.3161155495e+01   5.4210349438e+01    0.1119957   0.08986773 -73.40  0.000703801    1.744    0.427
        12  -8.4252     62.6607      1.7439   7.6620053653e+01   6.3653379090e+01     0.167082     0.139916  63.67 0.0008960757    1.952    0.488
        13  -7.6470     39.4577      1.5093   8.4537585991e+01   6.6834507028e+01    0.1058243   0.07990838   4.77 0.0001368693    1.048    0.046
        14  -9.1335    119.8031    245.2509   1.1815098776e+02   6.9758011774e+00    0.3221636    0.1980349  77.22  0.001611916    2.066    0.516
        15  -9.4750    241.8229    248.1353   9.5093946406e+01  -1.3710284913e+01    0.4233834    0.2508953 -15.00  0.001958441    1.971    0.493
        16  -9.3551    211.3719    247.4562   1.0065502976e+02  -8.9345070725e+00    0.4169368    0.2399645 -60.75  0.001830503    3.341    0.701
        17  -8.4768     93.8863    249.6484   1.2355686561e+02   1.0291951883e+01    0.2420567    0.1356778  79.36   0.00120657    2.175    0.540
        18  -7.6166     86.2898    250.6478   1.2505139807e+02   1.1255883973e+01    0.1299119   0.07753932  72.52 0.0007026677    1.672    0.402
        19  -8.6404     67.6159    245.1671   1.2787997993e+02   1.5031282871e+01    0.2717538    0.1266197 -82.45  0.001097857    2.453    0.592
        20  -8.1321    139.5934    244.8050   1.1424156327e+02   3.7142410326e+00    0.1702179    0.1207866 -77.60 0.0007169567    1.721    0.419
        21  -9.4397     77.7174    243.1742   1.2585683533e+02   1.3980152526e+01    0.3838453    0.1780125  68.24  0.001221293    2.639    0.621
        22  -9.3152    246.5521    229.0347   9.0912922872e+01  -1.1661953874e+01    0.3620225    0.1924628 -38.66  0.001500297    1.893    0.472
        23  -9.6667    248.6371    242.3094   9.2865409572e+01  -1.3886964065e+01    0.2961373    0.2058991 -46.30   0.00115788    1.846    0.458
        24  -9.2593    248.0147    235.5817   9.1807225724e+01  -1.2841261254e+01    0.3537139     0.211956 -46.35  0.001406393    2.057    0.514
        25  -8.8312    202.0024    243.4865   1.0180396988e+02  -6.7855488627e+00    0.2179822    0.1785578 -63.23 0.0007845207    1.648    0.393
        26  -8.6765    169.2776    243.6008   1.0822289656e+02  -1.2145440009e+00    0.2635315    0.1939953  69.49 0.0007908959    1.697    0.411
        27  -7.7333     58.3331    244.6265   1.2947555313e+02   1.6410745431e+01    0.1329708   0.07015705  71.40 0.0007024729    1.846    0.458
        28  -9.3711    160.4732    240.7185   1.0953322143e+02   8.2875310881e-01    0.4016451    0.2613346 -83.97  0.001691878    2.604    0.616
        29  -9.2203    194.2502    240.4158   1.0281113405e+02  -4.9844802222e+00    0.3003515    0.2164053 -65.77  0.001145103    2.015    0.504
        30  -8.4941    153.3379    241.8528   1.1111653877e+02   1.8725710166e+00    0.2355925    0.1233647 -62.14 0.0009839642    2.511    0.602
        31  -7.8629    214.3043    241.6410   9.9135230940e+01  -8.5197043384e+00     0.118143    0.1009965  76.20 0.0004759386    1.723    0.420
        32  -9.2842    182.9502    240.0778   1.0497760089e+02  -2.9853338964e+00    0.3416259    0.2589949  74.37  0.001221717    1.837    0.456
        33  -8.5085    240.4829    240.5010   9.4036310272e+01  -1.2435423684e+01    0.2001129    0.1136598 -35.07  0.001098838    1.794    0.442
        34  -8.2014    146.3690    240.1134   1.1224975434e+02   3.4061529110e+00    0.1757099    0.1223368 -72.97 0.0006336713    1.780    0.438
        35  -8.5445    209.2422    238.4363   9.9569526652e+01  -7.1868634208e+00    0.1940784    0.1619264 -72.37 0.0007889498    1.745    0.427
        36  -9.3986    135.4600    238.5452   1.1419913094e+02   5.5942103927e+00    0.3064207    0.1848382  61.28  0.001524774    1.772    0.436
        37  -9.6067    133.8241    234.8191   1.1400777214e+02   6.5916281406e+00    0.3253772     0.221748 -81.70 0.0003749476    1.830    0.454
        38  -7.9964     41.2747    239.6259   1.3201798700e+02   1.9599890388e+01    0.1249601   0.06747703  74.71 0.0007003438    1.689    0.408
        39  -9.3835    230.8141    236.8244   9.5191528834e+01  -1.0416436954e+01    0.3116113    0.2214465 -57.53  0.001182679    2.123    0.529
        40  -8.3441    129.0354    238.3243   1.1544490725e+02   6.7407240402e+00    0.1886264    0.1530293  58.64 0.0005848312    1.073    0.068
        41  -9.8024    175.7680    233.4689   1.0535107332e+02  -5.7627332428e-01    0.5002296    0.2616811 -60.51  0.002165674    2.768    0.639
        42  -9.0450     79.1220    234.8594   1.2473089383e+02   1.5444043200e+01    0.4157883     0.203449  79.15  0.001461817    2.969    0.663
        43  -8.3837     25.3950    236.6180   1.3447909735e+02   2.2070243661e+01    0.2272454   0.08090946 -88.68 0.0009468084    3.469    0.712
        44  -9.8483    214.8417    233.1667   9.7592028361e+01  -7.2738069958e+00    0.5197918    0.3657393 -84.73  0.002310348    3.435    0.709
        45  -8.9496    203.2094    234.9252   1.0014956616e+02  -5.6061682301e+00    0.2810812    0.2014402 -67.18  0.001176115    2.164    0.538
        46  -8.4738    170.3902    235.6973   1.0678411578e+02  -2.0652406554e-02    0.2252921     0.130379 -55.75   0.00057925    2.075    0.518
        47  -9.3434    109.0508    234.5578   1.1890789177e+02   1.0834459543e+01    0.4776343     0.233064  58.18  0.001744023    2.136    0.532
        48  -8.1379     58.4575    237.0000   1.2876303924e+02   1.7917887410e+01    0.2411505    0.0614268  39.08  0.000920428    3.820    0.738
        49  -8.2400     88.3978    242.0515   1.2375913364e+02   1.2609513864e+01    0.1788368    0.1122945 -71.90 0.0005959407    1.607    0.378
        50  -8.5147     99.6898    234.5287   1.2074061342e+02   1.2354344444e+01    0.2643446    0.1650195  76.91  0.001186246    1.775    0.437
        51  -8.4398    122.8975    234.1491   1.1610492760e+02   8.6006637569e+00    0.2136625     0.159231  71.59 0.0007699532    1.341    0.255
        52  -9.4417     68.3452    232.2782   1.2648834580e+02   1.7524589787e+01    0.4815439     0.219618  74.17  0.001986813    3.149    0.682
        53  -8.6473    194.7159    232.8697   1.0147351042e+02  -3.8033989608e+00     0.216009    0.1843948 -78.45 0.0008088863    1.570    0.363
        54  -8.6953    140.1751    230.1233   1.1204991994e+02   6.3916889800e+00    0.3254649    0.1764989  59.88   0.00129084    2.145    0.534
        55  -8.9629    236.1670    231.1440   9.3198641375e+01  -1.0390347766e+01    0.2339603    0.1927392 -40.67 0.0006716237    1.395    0.283
        56  -9.3329    186.4406    230.8328   1.0277978853e+02  -2.0014850447e+00    0.3031636    0.2307767 -78.93  0.001171379    1.934    0.483
        57  -8.1346    157.7100    232.3401   1.0881841568e+02   2.8487944843e+00    0.2078195    0.1482466  70.97 0.0007714652    1.726    0.421
        58  -8.6670      8.3527    234.8308   1.3714771216e+02   2.4245285311e+01    0.1525356   0.07576784 -70.30  0.000944596    1.765    0.433
        59  -9.1636      1.8695    231.0974   1.3795219303e+02   2.5621572049e+01    0.2322404    0.1072003  80.72 0.0009170758    1.862    0.463
        60  -9.0163    151.3390    229.0079   1.0960356307e+02   4.6195023154e+00    0.2956901    0.1903728  89.85  0.001312474    2.554    0.608
        61  -9.5668    148.6813    224.6468   1.0947708589e+02   5.9439181432e+00    0.5024163    0.3163371 -89.48  0.001363036    2.690    0.628
        62  -8.0721    229.6309    228.8523   9.4016204834e+01  -9.0030271352e+00    0.1708875    0.1169586 -47.93 0.0009138371    1.746    0.427
        63  -8.7607    162.1877    228.0703   1.0723904879e+02   2.8454408656e+00    0.2543637    0.1837584  57.65  0.000861757    1.415    0.293
        64  -8.8593    127.9660    227.3589   1.1414202394e+02   9.0814989083e+00    0.3230816     0.210829  74.62  0.001352535    1.875    0.467
        65  -8.3183    119.8950    227.5573   1.1581496800e+02   1.0431956987e+01    0.2686692     0.170644 -86.06  0.001304665    2.008    0.502
        66  -8.9597      8.4063    228.2104   1.3671049124e+02   2.5553494867e+01    0.1620385   0.07819809  89.58 0.0009490429    1.717    0.418
        67  -8.2378    215.2628    226.9789   9.6431363414e+01  -6.3379542606e+00    0.1772238    0.1581661   2.36 0.0002817261    1.059    0.055
        68  -8.6803    216.3100    223.4322   9.5598935031e+01  -5.9269386507e+00     0.278044    0.2260477 -64.78  0.001210403    1.694    0.410
        69  -8.0522    177.7839    227.3627   1.0394729736e+02   1.6280058200e-01    0.1942927    0.1175873  33.90 0.0009411246    1.616    0.381
        70  -8.2939     49.2159    226.6873   1.2949003560e+02   2.1245528602e+01    0.2643493    0.1357791  72.63  0.001288031    2.002    0.500
        71  -8.6695    206.0991    225.6779   9.7992173394e+01  -4.5548987595e+00    0.2801419     0.181167 -42.16  0.001158672    1.657    0.397
        72  -8.0213    200.3274    226.2456   9.9231536796e+01  -3.6477953904e+00    0.1789357    0.1229484 -53.22 0.0007055036    1.747    0.428
        73  -8.8122    180.5872    224.4563   1.0289165815e+02   1.8734370150e-01    0.2955498    0.2148569  69.05 0.0009992979    1.821    0.451
        74  -8.7993    104.7793    223.7180   1.1837169049e+02   1.3754660370e+01    0.3509101    0.2127496  84.20  0.001664776    2.090    0.522
        75  -8.9076     94.0233    224.2783   1.2061190330e+02   1.5365603054e+01    0.3659839     0.200228  72.82  0.001633193    2.306    0.566
        76  -7.7738     78.3119    225.6806   1.2388082127e+02   1.7464599055e+01    0.1356618   0.08281246  72.37  0.000486258    1.647    0.393
        77  -7.9978     38.5147    225.0282   1.3128575775e+02   2.2909774096e+01    0.1765682   0.07973103  82.95 0.0008102765    2.573    0.611
        78  -8.7860    173.0128    223.2881   1.0424242276e+02   1.7790119590e+00    0.2787844    0.1899908 -60.85 0.0008694165    1.779    0.438
        79  -7.9176    113.8409    223.8554   1.1654294992e+02   1.2219039337e+01    0.1854662    0.1414846  77.09 0.0003720136    1.299    0.230
        80  -8.2053     59.7649    224.1431   1.2727914512e+02   2.0400606984e+01    0.2245106    0.1012201  70.24 0.0009480755    2.866    0.651
        81  -8.2385    140.5468    222.7543   1.1087075497e+02   7.7836497118e+00    0.1807486    0.1304567 -74.57 0.0009371549    1.614    0.380
        82  -9.3016    239.3871    221.2866   9.0830864621e+01  -9.3667677085e+00    0.3816708    0.2609855 -27.72  0.001366529    1.432    0.302
        83  -9.0925    225.4744    221.6757   9.3519198514e+01  -7.1744196171e+00    0.2170998    0.2114186 -36.57  0.000309774    1.247    0.198
        84  -9.2456    192.3742    221.3412   9.9968243710e+01  -1.3739728874e+00    0.3079097    0.2480303 -88.76  0.001227842    1.763    0.433
        85  -8.5330    162.6682    222.3279   1.0621454638e+02   3.8511060671e+00    0.2110959    0.1287689  55.34 0.0009936185    1.729    0.422
        86  -8.6797    159.0731    220.7892   1.0670874616e+02   4.8076998927e+00    0.2862591    0.2107856  68.64 0.0008130755    1.585    0.369
        87  -8.5983      6.4672    221.9747   1.3661568036e+02   2.7000469168e+01    0.1631795   0.06720351  80.43 0.0008087679    2.465    0.594
        88  -9.2613    120.4239    219.2832   1.1454309498e+02   1.2047169756e+01    0.4581775     0.248768  70.05  0.001564671    2.735    0.634
        89  -8.9062     82.8010    220.6777   1.2241865351e+02   1.7857178815e+01    0.2576829    0.1463167  82.70  0.001220755    2.120    0.528
        90  -8.3217     73.1989    221.0173   1.2435752843e+02   1.9196893848e+01    0.2148281    0.1223733  82.59  0.000860469    1.966    0.491
        91  -7.7601     27.5267    221.4839   1.3295237535e+02   2.4912988734e+01    0.1188157   0.08728672  82.59 0.0008097384    1.025    0.024
        92  -8.3832    210.4491    219.4694   9.6033189789e+01  -4.2471078804e+00    0.2148611    0.1825332  86.47 0.0007485026    1.679    0.405
        93  -8.1686    202.8627    220.1805   9.7661563867e+01  -3.0388032123e+00    0.1965411    0.1808646  67.26 0.0007202408    1.292    0.226
        94  -8.8312    249.1767    218.4435   8.8517070503e+01  -1.0446474234e+01    0.3547894    0.2346638  68.09  0.001531766    3.784    0.736
        95  -8.3520    135.7027    219.3183   1.1135645522e+02   9.3485563598e+00    0.2245099    0.1808983  73.07  0.001251826    1.262    0.208
        96  -9.0854    132.2786    215.4164   1.1147905941e+02   1.0768557707e+01    0.3547169    0.2321245 -82.41 0.0009040879    1.998    0.499
        97  -8.6842    179.4071    217.6796   1.0197407806e+02   1.6610436165e+00    0.2451204    0.1280587 -62.85 0.0009454162    3.064    0.674
        98  -7.9905    112.1628    217.7433   1.1604457329e+02   1.3784445646e+01    0.2307472    0.1272859  73.56 0.0009329493    2.683    0.627
        99  -8.6541     62.3461    217.6764   1.2611326491e+02   2.1430042518e+01    0.3469843    0.1584456  65.32   0.00152519    2.593    0.614
       100  -8.9877     51.5681    217.6708   1.2818761962e+02   2.2851033811e+01    0.2489908    0.1620267  81.99 0.0008549417    1.371    0.271
       101  -7.6510    229.3634    217.2716   9.1976230665e+01  -7.0953752242e+00     0.135149    0.0941073   7.33 0.0006999912    1.658    0.397
       102  -8.6495    169.2552    216.2025   1.0382323987e+02   3.8213843170e+00    0.3007998    0.2060124 -80.53 0.0008923623    2.251    0.556
       103  -8.8092    142.9267    216.4912   1.0939851693e+02   8.6222249943e+00    0.3231422    0.2117404 -85.54  0.001157737    2.203    0.546
       104  -8.7510    232.4388    214.4271   9.0869671512e+01  -7.1346842500e+00    0.3473568    0.2145539 -33.63   0.00182378    1.609    0.379
       105  -8.5618    185.4879    214.7396   1.0020817824e+02   1.0932226797e+00    0.2540193    0.2102993  73.63 0.0008108034    1.484    0.326
       106  -8.1994    154.0985    215.0454   1.0680772754e+02   6.8629422182e+00    0.2238222    0.1639543  75.94  0.000846194    1.694    0.410
       107  -9.0318     93.2401    214.1084   1.1948006556e+02   1.7663669740e+01    0.3728197    0.1868848  60.47  0.001300578    2.210    0.547
       108  -7.7149     41.3160    214.9932   1.2986862614e+02   2.4693035419e+01    0.2013138   0.07907377  87.94   0.00070423    4.216    0.763
       109  -9.5657    214.1557    212.3656   9.4008515028e+01  -3.6601202524e+00    0.4011434    0.2838393  62.01  0.001677016    1.960    0.490
       110  -9.4280     72.9839    211.7770   1.2333806707e+02   2.1227593515e+01     0.619622    0.2699199  66.59  0.002315845    3.479    0.713
       111  -8.2047    224.8838    212.8563   9.2015946154e+01  -5.6030174928e+00    0.1930218    0.1664184  88.52   0.00089629    1.700    0.412
       112  -8.6093    161.6456    212.5365   1.0479402283e+02   5.9621119425e+00    0.2615997     0.208069 -82.10 0.0009476584    1.525    0.344
       113  -8.1965    106.5692    212.8290   1.1652614938e+02   1.5776952291e+01    0.1901211    0.1226577 -79.45 0.0006732829    1.716    0.417
       114  -7.4880    242.6408    212.2767   8.8568568318e+01  -8.4435284914e+00    0.1177878     0.104359  75.65 0.0003746581    1.659    0.397
       115  -8.9815    204.3299    210.8657   9.5681057878e+01  -1.6389425367e+00    0.3223877    0.2202173 -63.44 0.0009441047    2.065    0.516
       116  -9.3672    175.5947    210.3184   1.0147513221e+02   3.7835093242e+00    0.4337313    0.2906839  75.72  0.001439417    2.397    0.583
       117  -9.2953      8.0333    211.5527   1.3561754214e+02   2.8990259222e+01    0.3428116    0.1324441  80.40  0.001535562    3.084    0.676
       118  -8.5431    192.3401    210.8276   9.8101406329e+01   5.6127406291e-01    0.2477481    0.2070326 -87.38  0.001049343    1.579    0.367
       119  -8.7809    148.0133    210.5279   1.0735144653e+02   8.9133157134e+00    0.2933544    0.2113849  88.91  0.001171412    1.811    0.448
       120  -8.8399    116.3854    210.5916   1.1412445065e+02   1.4594311643e+01    0.3454404    0.2067795  68.34  0.001320426    2.031    0.508
       121  -8.5525     85.4880    209.3589   1.2047214527e+02   1.9908462557e+01    0.3320355    0.1868645  84.14   0.00108838    2.303    0.566
       122  -8.1705     46.4370    209.9243   1.2840011318e+02   2.5166466054e+01    0.2590915    0.1048536  65.55  0.001027337    3.341    0.701
       123  -9.1723    236.4723    208.3844   8.8982856468e+01  -6.7969274385e+00    0.2688728    0.2249068 -55.78 0.0009260233    1.499    0.333
       124  -8.0993    126.5545    208.7209   1.1166262660e+02   1.3210778015e+01    0.1833745    0.1310765 -76.32 0.0009233917    1.548    0.354
       125  -9.4895    246.3238    207.3314   8.6966423127e+01  -8.2282157763e+00    0.2709954    0.2100703 -35.25 0.0005408298    1.259    0.206
       126  -8.0032    156.4433    208.1941   1.0515632631e+02   7.8180627992e+00    0.1879676    0.1365504 -69.39 0.0005300466    1.623    0.384
       127  -8.3854    139.0443    208.0242   1.0886287415e+02   1.1095089836e+01    0.2271815    0.1633326  77.65 0.0006291409    1.676    0.403
       128  -9.2652     99.3830    206.2551   1.1712477585e+02   1.8402060303e+01    0.3684741    0.2306276  82.60  0.001494607    1.945    0.486
       129  -8.3701     11.8041    206.8060   1.3459289808e+02   2.9623647299e+01     0.166695    0.1026344  78.82  0.001070077    1.349    0.259
       130  -8.6777     56.6187    205.5749   1.2593179456e+02   2.4834432967e+01    0.3295801    0.1552185  67.30  0.001303261    2.618    0.618
       131  -9.1530    194.8650    203.8788   9.6302778498e+01   1.4038100137e+00    0.3428431    0.2729116 -66.63  0.001119194    1.558    0.358
       132  -9.3464    192.3494    197.3967   9.5596771643e+01   3.1321764634e+00    0.4243149     0.307638 -78.30  0.001206163    2.089    0.521
       133  -8.7037    131.4437    204.2676   1.0989631866e+02   1.3290207276e+01    0.3130498    0.2067155  79.31  0.001072044    2.018    0.504
       134  -8.1485    109.0677    205.1005   1.1487958493e+02   1.7047773909e+01    0.2287929    0.1533655  77.10 0.0008281972    1.712    0.416
       135  -8.2423     24.9901    205.2347   1.3204528228e+02   2.8629080447e+01     0.177251   0.09987253  83.23 0.0006685417    1.608    0.378
       136  -9.4324    250.1147    202.1818   8.5303754499e+01  -7.9896230999e+00     0.367019    0.1790331 -39.87  0.001041868    1.945    0.486
       137  -8.9229    183.6387    203.8286   9.8618239574e+01   3.5334967564e+00    0.2887485    0.2307766  70.86  0.000928377    1.525    0.344
       138  -9.6729    163.8648    203.0947   1.0267407450e+02   7.4572406914e+00    0.4711853    0.2824108  60.40  0.001108916    2.050    0.512
       139  -8.3566    211.1175    202.2425   9.2709301820e+01  -1.2983478814e+00    0.2438054    0.1812844 -72.00 0.0006635186    2.013    0.503
       140  -8.3800     48.6926    202.5389   1.2719137403e+02   2.6511324210e+01    0.2322713    0.1292292  86.19  0.001186869    1.860    0.462
       141  -9.1923    243.0981    201.0391   8.6359557317e+01  -6.6588686755e+00    0.2987969    0.2095235 -52.70  0.001002388    1.731    0.422
       142  -8.8622    140.3334    200.9677   1.0740722440e+02   1.2364557498e+01    0.3422444    0.2277127 -89.93  0.001100213    2.148    0.535
       143  -8.6171     80.0183    201.4790   1.2059799060e+02   2.2490101879e+01     0.309811    0.1718444  75.73   0.00136946    2.315    0.568
       144  -9.4687    149.6934    198.7351   1.0497123963e+02   1.1078726534e+01    0.4531629    0.2971728  85.82  0.001320816    2.402    0.584
       145  -8.9636    123.8699    199.3199   1.1075184403e+02   1.5743131349e+01    0.3312701    0.2250732  89.01  0.001279614    1.856    0.461
       146  -9.2905    112.9031    198.4193   1.1302627305e+02   1.7878298963e+01    0.4683242    0.2667895  71.09  0.001514793    2.489    0.598
       147  -9.2152    236.8447    198.4488   8.7017800142e+01  -5.1676269773e+00     0.289491    0.2040373 -46.25  0.001121592    1.500    0.333
       148  -8.5550    176.9404    199.1485   9.9162284875e+01   5.7479792589e+00    0.2197905    0.1924145  79.62 0.0005696438    1.298    0.230
       149  -9.1504     88.5903    198.3138   1.1833145392e+02   2.1902562587e+01    0.3988721    0.2331508  89.43  0.001546433    2.165    0.538
       150  -8.3513    202.3614    198.0051   9.3658379832e+01   1.1153210801e+00    0.2503634    0.1971438  68.42 0.0009402381    1.630    0.387
       151  -9.2729     61.5736    197.1380   1.2394077568e+02   2.6070198105e+01    0.4019943    0.2089818  77.01   0.00167509    2.501    0.600
       152  -7.9267     29.4891    197.9613   1.3052076023e+02   2.9732828812e+01     0.179538   0.08245043  84.05 0.0008097747    2.557    0.609
       153  -9.0685     12.9579    197.5803   1.3363922188e+02   3.1479163194e+01    0.3255601    0.1430116  79.36  0.001566006    2.555    0.609
       154  -8.3070     36.1397    196.7557   1.2909370198e+02   2.9270686748e+01    0.2148797   0.09766717  70.79 0.0009383003    2.793    0.642
       155  -8.3015    133.0454    195.8633   1.0814586058e+02   1.4834577833e+01    0.2605596    0.1787875 -73.86 0.0006966491    1.683    0.406
       156  -8.3491    230.8344    194.5626   8.7393140583e+01  -3.4449076528e+00    0.2144952    0.1578742 -42.94 0.0004275049    1.366    0.268
       157  -8.7136    224.5099    194.0244   8.8496776883e+01  -2.2236446489e+00    0.2672194    0.2084447 -57.89 0.0008240885    1.544    0.352
       158  -7.6371    209.3286    195.6655   9.1801135348e+01   2.5409661215e-01     0.139177     0.113674  87.66 0.0007051936    1.723    0.420
       159  -8.8932    185.2418    194.9202   9.6608763297e+01   4.9925691642e+00    0.2627878    0.2292408  68.84  0.000605601    1.278    0.218
       160  -9.0211    161.1826    194.5926   1.0171154191e+02   9.7478297517e+00    0.3055444     0.228497  79.69 0.0008694227    1.716    0.417
       161  -8.9979     43.8107    193.4938   1.2720204254e+02   2.9118448558e+01    0.3998207    0.2033094  75.09  0.001876321    2.359    0.576
       162  -9.1489    245.3698    193.4226   8.4474190327e+01  -5.7396634313e+00    0.2549059    0.2127997 -55.70  0.000748886    1.444    0.308
       163  -9.4266    242.0520    189.7583   8.4362413899e+01  -4.5427285840e+00    0.3859894     0.199729 -36.81  0.001792642    1.843    0.457
       164  -8.7937     76.9403    193.8160   1.2023989383e+02   2.4683381792e+01    0.2507623    0.1755403 -81.02 0.0006302226    1.346    0.257
       165  -8.2742    205.2269    191.9466   9.1901145854e+01   1.7335980226e+00    0.1870095    0.1160533 -44.22 0.0008693762    1.632    0.387
       166  -8.1262    198.9514    191.9118   9.3174078975e+01   2.9392842967e+00     0.213816    0.1764617  87.52 0.0005505072    1.602    0.376
       167  -8.3892    178.8903    191.6125   9.7322183094e+01   6.9039462895e+00    0.2313094    0.1746882 -54.36 0.0006190568    1.407    0.289
       168  -8.4056    172.3339    191.9674   9.8798308871e+01   8.1183591532e+00    0.2594455    0.1998627  71.27 0.0009472793    1.566    0.361
       169  -9.2253    139.4384    190.4530   1.0577466775e+02   1.4834288565e+01    0.3835694    0.2640345 -87.39  0.001098952    1.953    0.488
       170  -8.8768    215.9719    195.6717   9.0482696812e+01  -9.7527875821e-01    0.2875777    0.1929985 -58.66 0.0007044683    1.911    0.477
       171 -10.4956     92.1973    188.7589   1.1614926593e+02   2.3524367914e+01    0.9606637     0.331155  51.82  0.003281193    3.446    0.710
       172  -8.0579     22.9456    192.0000   1.3123429617e+02   3.1721195276e+01    0.1642896   0.06596886  33.28 0.0007975674    2.909    0.656
       173  -8.6251    148.4753    189.4286   1.0356667156e+02   1.3328304346e+01    0.2666965    0.2079992 -69.13  0.000823453    1.387    0.279
       174  -8.3021    237.1423    188.6167   8.5042288080e+01  -3.4916121299e+00    0.2292021    0.1720713 -45.93 0.0005854554    1.368    0.269
       175  -8.9599    191.6094    187.6834   9.3865550824e+01   5.2044940463e+00     0.337495    0.2317123 -83.47 0.0009921392    2.539    0.606
       176  -9.3183    156.0175    187.6411   1.0155448130e+02   1.2248336864e+01    0.3986517    0.2386023 -63.45  0.001081683    2.010    0.502
       177  -9.0091    129.2769    188.6853   1.0775236115e+02   1.7135360866e+01    0.3027825    0.2185181  79.61 0.0009305892    1.659    0.397
       178  -9.8536    120.9352    186.8212   1.0932401340e+02   1.9084449003e+01    0.5852079    0.3048642 -74.50  0.002128534    2.958    0.662
       179  -8.6556     34.1687    188.3367   1.2862194171e+02   3.1365176012e+01    0.2490474    0.1482877  74.36  0.001068153    1.685    0.406
       180  -8.6455    216.5817    187.9679   8.8846894934e+01   3.5138815896e-01    0.2494672    0.1979658  61.12 0.0008739387    1.523    0.344
       181  -8.8911    165.0761    186.8357   9.9399173964e+01   1.0634490129e+01    0.3741048    0.2550351 -75.05 0.0009859049    2.022    0.505
       182  -9.2209    109.6801    186.2219   1.1178984698e+02   2.1211453329e+01    0.4175842     0.260427  77.01  0.001338268    2.168    0.539
       183  -9.2419     54.9070    187.2259   1.2414709107e+02   2.9190727582e+01    0.3996255    0.2044994  69.53  0.001683481    2.471    0.595
       184  -7.8742    230.5302    187.4939   8.6059228444e+01  -2.1177880764e+00    0.2055178    0.1702049 -69.52 0.0008497511    1.582    0.368
       185  -8.3717    229.9718    184.2475   8.5517953031e+01  -1.4233078639e+00    0.2317996    0.1995722 -49.66 0.0004127308    1.239    0.193
       186  -8.7886    249.1776    185.6877   8.2274534865e+01  -5.0417791428e+00    0.2287105     0.168015 -45.54 0.0006005195    1.379    0.275
       187  -8.8893    210.2274    184.4336   8.9402616151e+01   2.2298253920e+00    0.2550637    0.1903949 -41.84 0.0006313811    1.330    0.248
       188  -8.8628    202.7746    184.8561   9.0994622246e+01   3.5859741022e+00    0.2529723    0.1976326 -67.12 0.0006413513    1.584    0.369
       189  -8.9438    182.9780    184.7429   9.5108960157e+01   7.5119237443e+00    0.2816726    0.2134746 -58.32 0.0007618618    1.441    0.306
       190  -9.0567     66.7314    184.5411   1.2122503360e+02   2.8260685660e+01    0.3697248    0.2179506  67.59  0.001210606    1.914    0.478
       191  -8.4778    224.0438    183.5553   8.6511193972e+01  -2.0809179000e-01    0.2588659    0.1873641 -54.08 0.0007287699    1.550    0.355
       192  -8.8889    174.3488    183.6874   9.6759654538e+01   9.4563236235e+00    0.2995881    0.2329397  89.22 0.0009635806    1.677    0.404
       193  -9.1955    241.5393    182.1123   8.2942301064e+01  -3.0992906369e+00    0.3999565    0.2661247 -74.48    0.0016691    3.120    0.679
       194  -9.0789     44.3861    182.3701   1.2581700769e+02   3.1572942377e+01    0.3418025    0.1911647  78.66  0.001109506    2.037    0.509
       195  -8.4465     19.6546    182.8576   1.3101344270e+02   3.4062107500e+01    0.2648896    0.1153996  83.64  0.001148251    2.939    0.660
       196  -7.9657      1.8355    183.6508   1.3458189094e+02   3.5460570227e+01    0.1467442   0.08672785  51.91 0.0008497256    1.743    0.426
       197  -8.0345    235.4952    181.9855   8.4029076696e+01  -2.0054888311e+00    0.2109862    0.1283954 -42.10 0.0006098787    1.571    0.364
       198  -9.2567    147.6922    180.8716   1.0214261922e+02   1.5374875356e+01    0.3995634    0.2760909  83.99  0.001086926    2.050    0.512
       199  -9.6278     25.5523    178.7498   1.2939039209e+02   3.4408698184e+01    0.6435557    0.2584334  85.91  0.002294096    4.319    0.768
       200  -8.7514    137.6545    179.4161   1.0416138447e+02   1.7653332462e+01    0.3512463    0.2321741  77.92  0.001171846    2.149    0.535
       201  -9.3119    231.0563    177.9510   8.4045480779e+01  -4.5714111251e-01    0.4105505    0.1903781 -41.73 0.0009110935    2.056    0.514
       202  -9.3361    191.3848    178.3044   9.2032991152e+01   7.1580106811e+00    0.2971605     0.253886 -74.64 0.0005086922    1.359    0.264
       203  -8.2362    169.5602    178.8521   9.6849522259e+01   1.1451566699e+01     0.268453    0.1891054  82.98  0.001085721    2.103    0.525
       204  -9.6250    248.1655    176.4142   8.0612185149e+01  -3.2362820574e+00    0.4654619    0.2842193 -53.16  0.002185582    1.889    0.471
       205  -8.4777    250.5063    172.8975   7.9494817682e+01  -3.0151049153e+00    0.2022526    0.1224372 -39.99 0.0005310413    1.507    0.337
       206  -8.5804    217.7522    177.3756   8.6481542743e+01   2.1515909707e+00    0.3334253    0.1865345 -56.75  0.001377029    2.295    0.564
       207  -8.7281    204.9857    177.7956   8.9115250601e+01   4.5523018770e+00    0.2596241    0.2049205 -43.97 0.0006368188    1.260    0.206
       208  -8.8093    129.0079    177.4660   1.0579762567e+02   1.9742866296e+01    0.3390503     0.231466  84.56 0.0009988406    1.976    0.494
       209 -10.9218    101.7429    175.7379   1.1187201941e+02   2.5005589162e+01    0.4536041    0.3106646  34.20            0    1.646    0.392
       210  -9.1070     89.2682    177.1129   1.1501425955e+02   2.6702962170e+01    0.3419078    0.2058148  84.56 0.0008648964    2.278    0.561
       211  -9.0312     35.7146    176.5772   1.2700135729e+02   3.3859018443e+01    0.4307181    0.1947408  82.00  0.001677011    3.499    0.714
       212  -9.2743    183.2997    176.3905   9.3361948272e+01   9.1893510287e+00    0.2999951    0.2529774  83.08 0.0006555524    1.407    0.289
       213  -9.3746    158.9486    175.2441   9.8495963857e+01   1.4383994939e+01    0.4572502    0.2981609  79.58  0.001178654    2.501    0.600
       214 -10.0116     57.2668    173.1205   1.2179498528e+02   3.2158210780e+01    0.8018818    0.3742725  85.51  0.002658604    4.433    0.774
       215  -9.0197     12.6691    176.4321   1.3180534825e+02   3.6121473090e+01    0.3092985    0.1498987  73.94  0.001495936    2.371    0.578
       216  -8.2193    211.4892    176.0149   8.7440800009e+01   3.6283836776e+00     0.221954    0.1391324 -43.60  0.001024385    1.568    0.362
       217 -10.7733     75.8354    170.2705   1.1707976802e+02   3.0331647322e+01     1.232021    0.4562373 -73.29  0.003621899    4.722    0.788
       218  -8.3794    224.4893    174.4971   8.4587340067e+01   1.4193744046e+00     0.241039    0.1294391 -52.16 0.0006778563    2.100    0.524
       219  -9.4341    175.7554    172.0619   9.4111318622e+01   1.1650877665e+01    0.4074489    0.2525016 -47.69 0.0008671688    1.628    0.386
       220  -8.4531    142.9980    172.9689   1.0169301411e+02   1.8079025578e+01    0.2419716    0.1807635  84.00 0.0006343612    1.666    0.400
       221  -8.3673    134.8457    172.0716   1.0341680284e+02   1.9872967002e+01    0.2402075    0.1956307  84.02 0.0008713462    1.351    0.260
       222  -9.7158    121.3787    170.3939   1.0627329863e+02   2.2802703667e+01    0.4350262     0.280762 -74.03  0.001117833    1.856    0.461
       223  -9.1324     44.9932    170.7817   1.2425725914e+02   3.4169706415e+01    0.4164596    0.2123716 -82.69  0.001412035    2.109    0.526
       224  -8.9859    230.2342    170.4166   8.2660527394e+01   1.1092429331e+00    0.2593527    0.1840761 -39.89 0.0006559907    1.334    0.250
       225  -8.3803    205.9452    170.4536   8.7404123708e+01   5.8313149944e+00    0.2786441    0.2009398 -61.62  0.000843099    1.640    0.390
       226  -8.8330    198.5148    170.7926   8.8996037321e+01   7.2603455125e+00    0.2803573    0.2372554 -67.02  0.001115099    1.325    0.246
       227  -8.3352    237.1173    169.6725   8.1234138103e+01  -3.2725950528e-02    0.2425319    0.1764503 -49.54 0.0005963006    1.394    0.283
       228  -9.0864    167.2553    168.7005   9.5299392528e+01   1.4130998910e+01    0.3429891    0.2497499 -89.00 0.0009636194    1.918    0.479
       229  -8.8437    149.8802    169.6366   9.9440792922e+01   1.7465234738e+01     0.293152    0.2004191 -73.40 0.0008319383    1.848    0.459
       230  -8.5101    244.4804    169.0609   7.9781806308e+01  -1.2590951916e+00    0.2068221    0.1256241 -42.19 0.0004764044    1.525    0.344
       231  -8.3647     88.6999    168.9986   1.1382519251e+02   2.8708054486e+01     0.258644    0.1796331  69.29 0.0007884706    1.612    0.379
       232  -8.4251    218.8131    168.2102   8.4382338911e+01   3.7263798137e+00    0.2159373    0.1935099 -66.22 0.0005643107    1.236    0.191
       233  -7.9647    211.4114    168.1834   8.5832233622e+01   5.1934788154e+00    0.2093259     0.133852 -55.06 0.0005540887    1.741    0.426
       234  -9.0900    111.5602    167.3000   1.0804307855e+02   2.5302328925e+01    0.3958202    0.2786067 -77.54  0.001648591    1.588    0.370
       235  -8.3250     13.4716    167.9521   1.3079941897e+02   3.7934118248e+01    0.1666783   0.08095134  83.72 0.0006447674    2.339    0.572
       236  -8.7802    191.9068    166.6532   8.9507858312e+01   9.4685263474e+00    0.2828112    0.2127807 -55.89 0.0006315472    1.401    0.286
       237  -8.8800    185.0673    166.6976   9.0972711615e+01   1.0874257021e+01    0.2599918    0.2026909 -60.37 0.0006025878    1.384    0.277
       238 -10.0101     94.9806    162.6743   1.1121887932e+02   2.9211024748e+01     0.926411    0.5325993 -87.46  0.003061536    2.809    0.644
       239  -9.0614     20.6018    166.2458   1.2909602378e+02   3.7690727507e+01    0.3424566    0.1524322  61.50  0.001186436    2.890    0.654
       240  -9.9981    136.8518    164.5665   1.0146716216e+02   2.1212925268e+01    0.6806214     0.319277  57.53  0.002318204    2.931    0.659
       241  -8.7962    233.9608    164.9887   8.0847649695e+01   1.4335538936e+00    0.2165896    0.1945258 -44.05 0.0006152316    1.086    0.080
       242  -8.7212    159.4330    164.3358   9.6160708098e+01   1.6711162914e+01    0.3123766    0.2420113  87.70 0.0008806788    1.612    0.379
       243  -9.1909     33.6831    163.5107   1.2588416391e+02   3.7060452406e+01    0.5169396    0.2073368  56.79  0.002113346    3.440    0.709
       244  -8.1213    240.1969    164.4126   7.9595692482e+01   3.7785451676e-01    0.1778019    0.1347788  58.84 0.0003733621    1.586    0.369
       245  -8.6100    213.0249    163.5712   8.4541780312e+01   5.7902324249e+00    0.2676355    0.1977464 -58.43 0.0007576827    1.501    0.334
       246  -8.4984     57.3539    163.9884   1.2048526611e+02   3.4285895283e+01    0.3649597    0.1913852  12.83  0.001358808    4.393    0.772
       247  -8.7425     60.6812    160.4825   1.1917326172e+02   3.4692741363e+01    0.3152328    0.1888837  73.89  0.001197535    2.154    0.536
       248  -9.6844    246.0582    162.9912   7.8264041055e+01  -4.3212724238e-01    0.2658147    0.1862848 -34.93 0.0006990817    1.330    0.248
       249  -8.5946    204.8622    162.9208   8.6036866627e+01   7.5756237469e+00     0.258299    0.1961554 -50.64 0.0004960587    1.325    0.245
       250  -9.3504      3.3342    162.3677   1.3237208415e+02   3.9982013341e+01    0.3463911    0.1709411  62.77  0.001701717    2.333    0.571
       251  -9.0595    151.7278    161.1595   9.7272845227e+01   1.9009294831e+01    0.3529665    0.2616066  89.69  0.001142605    1.766    0.434
       252  -7.4834    222.2822    161.6991   8.2348370118e+01   4.3180279962e+00    0.1394566    0.1135351 -77.28 0.0002174418    1.549    0.354
       253  -9.2573    177.4218    160.7651   9.1372518045e+01   1.3744095986e+01     0.287286    0.2565785 -78.42 0.0007994508    1.202    0.168
       254  -9.8284    250.2253    157.9425   7.6508280026e+01  -2.6129320755e-01    0.3659957    0.1756441 -42.87 0.0008039709    1.888    0.470
       255  -8.8687    237.2429    158.8012   7.8964309936e+01   1.9822736276e+00    0.3083731    0.1838648 -46.26 0.0009604987    1.597    0.374
       256  -8.4077    227.4817    159.4399   8.0889646703e+01   3.7374966171e+00    0.2973657    0.2053589 -74.81  0.001002909    2.260    0.558
       257  -9.7711    105.6673    157.9468   1.0772358425e+02   2.8544905026e+01    0.5142573    0.3345904  77.96  0.001018967    2.163    0.538
       258  -9.2076    167.6362    157.3902   9.2824349540e+01   1.6544504695e+01    0.3792885    0.2758466 -83.12 0.0009920021    1.877    0.467
       259  -8.1372    128.0778    159.0482   1.0245590787e+02   2.4195663011e+01    0.2444066    0.1804013  83.93 0.0007866901    1.693    0.409
       260  -8.4231    196.7947    158.0683   8.6651486871e+01   1.0244468263e+01    0.2347262    0.1989074 -80.30 0.0008234261    1.374    0.272
       261  -8.2534    187.9847    157.9998   8.8490362478e+01   1.2110681809e+01    0.2351253    0.1851694 -82.38  0.000552096    1.602    0.376
       262  -8.5405     78.9331    158.6340   1.1444382092e+02   3.2642819241e+01    0.3704484    0.2047825  17.82  0.001450143    3.268    0.694
       263  -8.5245     84.4877    157.5342   1.1288558260e+02   3.2078939891e+01    0.2484302    0.2142604  79.45 0.0006566285    1.158    0.137
       264  -9.3518     81.0393    154.5023   1.1320808404e+02   3.3315529857e+01    0.4101365     0.244037 -70.47  0.001473619    1.729    0.422
       265  -8.4366    217.9669    156.5579   8.2085304517e+01   6.1913444571e+00    0.2821155    0.1906043 -56.04  0.000693712    1.614    0.380
       266  -9.0383    157.6963    156.1292   9.4821623017e+01   1.8911313314e+01    0.3952698    0.2337152 -54.46  0.001289823    1.751    0.429
       267  -9.3795    119.4630    155.1301   1.0376710459e+02   2.6738519135e+01    0.4414563    0.2791531 -74.67  0.001503027    2.036    0.509
       268  -8.6585    144.6363    155.2619   9.7696359066e+01   2.1800047057e+01    0.3259811    0.2425636  84.26 0.0009669809    1.730    0.422
       269  -9.1213     49.6653    155.1686   1.2102331456e+02   3.7271102293e+01    0.3996053    0.2299251  79.30  0.001758999    2.340    0.573
       270  -9.3196    242.6345    154.8416   7.7181847866e+01   1.7101419883e+00    0.2021164    0.1672855 -43.53 0.0003515921    1.118    0.106
       271  -7.8538    239.7117    153.3103   7.7376798827e+01   2.5499878600e+00    0.2121927    0.1347387  56.73 0.0002590163    1.878    0.468
       272  -7.6843    204.5826    155.5462   8.4510874381e+01   9.1402104863e+00    0.1475474    0.1417024 -54.43  0.000124234    1.030    0.029
       273 -10.1140    133.2541    151.9384   9.9728627459e+01   2.4845455588e+01    0.7344151    0.3845093 -54.78  0.002109816    1.929    0.482
       274  -9.6524     67.6927    153.5196   1.1635806435e+02   3.5424463691e+01    0.4542503    0.2637488 -86.17  0.001688745    2.272    0.560
       275  -8.5835    151.6559    152.5508   9.5456312803e+01   2.0976497821e+01    0.2702314    0.1434272 -49.74 0.0007386174    1.875    0.467
       276 -10.3301    149.0255    145.1267   9.4447723540e+01   2.3207613141e+01    0.6320011    0.4141574  88.20  0.001813855    2.608    0.617
       277 -10.8030     54.8691    143.4173   1.1790285304e+02   3.9412782424e+01     1.065676    0.5764734 -76.90  0.003328014    2.084    0.520
       278  -9.0592     20.1305    152.8077   1.2765161809e+02   4.0765806563e+01    0.1833539    0.1369833  85.03 0.0006227965    1.272    0.214
       279  -9.6699     29.2413    150.4266   1.2523322325e+02   4.0491133387e+01    0.4959261    0.2454153  81.61  0.002108673    3.103    0.678
       280  -9.8040    248.8212    149.5075   7.5009247820e+01   1.5474818635e+00    0.3735259    0.2067494 -41.36 0.0007502558    1.632    0.387
       281  -9.5983    246.9859    143.6000   7.4089977826e+01   2.9884140879e+00    0.3341873    0.1847183 -44.86 0.0006733129    1.645    0.392
       282  -8.9584    189.5152    150.4571   8.6515627162e+01   1.3386063297e+01    0.3224566    0.2343386 -70.57 0.0009752066    1.721    0.419
       283  -8.1175    182.3952    151.2402   8.8214488750e+01   1.4744682904e+01    0.2127521    0.1431591 -56.35 0.0003903319    1.581    0.367
       284  -8.8803     98.2156    150.5002   1.0815307621e+02   3.1572989149e+01    0.3416278    0.2161596 -74.80  0.001023317    1.875    0.467
       285  -8.7457    243.3092    150.0859   7.6072951191e+01   2.4732878227e+00    0.2587509    0.1588137 -45.96  0.000900169    1.513    0.339
       286  -9.3575    238.1929    150.0234   7.6955328071e+01   3.4628238019e+00    0.3902724    0.1717179  39.48  0.001515407    2.721    0.632
       287  -8.1652    212.9642    149.9432   8.1629526500e+01   8.5377557636e+00    0.2260719    0.1789336 -83.76 0.0004608078    1.614    0.381
       288  -8.0499    162.4088    150.3121   9.2469718319e+01   1.9221949721e+01    0.2129621    0.1457798 -59.57 0.0006124328    1.575    0.365
       289  -9.8718     39.7448    147.8067   1.2234950894e+02   4.0062431279e+01    0.5050348    0.2751565  69.27  0.002175609    2.601    0.616
       290  -8.7488      2.8781    150.0796   1.3122188051e+02   4.2718839194e+01    0.1995742    0.1052247  80.47  0.001073738    2.130    0.530
       291  -8.3188    198.8552    149.0906   8.4266264033e+01   1.1678490292e+01    0.2302138    0.1968943 -73.90  0.000438494    1.295    0.228
       292 -10.1147     89.1972    146.2771   1.0963228011e+02   3.4027333108e+01    0.6739066    0.3876773 -87.36  0.002498065    3.095    0.677
       293  -9.8859    234.1150    146.3549   7.6903344985e+01   4.9583690239e+00    0.5680175    0.2571667 -30.68  0.002027112    2.947    0.661
       294  -8.9586     78.1563    147.0641   1.1260276544e+02   3.5500664456e+01     0.349374    0.2199807 -85.99 0.0009943784    2.084    0.520
       295  -8.4550    223.2978    146.9661   7.9010587322e+01   7.0075680253e+00    0.2092302     0.177459 -45.98 0.0004433811    1.116    0.104
       296  -9.6134    139.1913    145.0554   9.6797881970e+01   2.5247474157e+01    0.4778222     0.304653 -71.58  0.001199462    2.104    0.525
       297  -9.5336    139.3926    138.2354   9.5225147301e+01   2.6765339113e+01    0.4896597    0.3470552 -13.28  0.002021527    2.239    0.553
       298 -10.2956    106.6381    144.2394   1.0476063244e+02   3.1617322371e+01    0.7817385    0.4894354 -89.66  0.002219619    2.670    0.625
       299  -9.2213     13.3162    146.0943   1.2841159014e+02   4.2831134293e+01    0.3589256    0.1988009  71.35  0.001663847    2.228    0.551
       300  -8.2460    206.7402    146.5712   8.2117506425e+01   1.0525101088e+01    0.2014294    0.1445414  60.85 0.0006804395    1.573    0.364
       301  -8.2978    175.5047    146.1932   8.8600528943e+01   1.7320884445e+01    0.2457409    0.2095804  83.03 0.0007786805    1.316    0.240
       302  -8.9028    240.4635    145.4642   7.5596389674e+01   3.8879053858e+00    0.2472148    0.2114654 -62.08 0.0006406308    1.221    0.181
       303  -9.6224    242.6946    143.3404   7.4764031731e+01   3.8576744274e+00    0.4068881    0.2127812 -32.08  0.001714196    2.119    0.528
       304 -10.7252     68.8157    140.0499   1.1373102219e+02   3.8449896642e+01    0.8633516    0.4238809 -62.74  0.003147348    1.895    0.472
       305  -7.8738    194.3644    144.1494   8.4095418517e+01   1.3673088972e+01    0.2231793    0.1371276 -54.84 0.0007309756    1.741    0.426
       306  -8.9574    165.4993    143.7934   9.0308179530e+01   2.0008164218e+01    0.3244606    0.2640481 -52.48 0.0008677076    1.220    0.180
       307  -9.2821      2.7221    141.8740   1.3036013846e+02   4.4533562060e+01    0.3299743    0.1697721  84.21  0.001616479    2.247    0.555
       308  -8.5099    182.0045    142.0105   8.6234669969e+01   1.6812223514e+01    0.2447775    0.1878736 -82.54  0.000571222    1.653    0.395
       309  -8.3604    250.4767    140.9599   7.2958576211e+01   2.8186218306e+00    0.2147722    0.1242456 -43.03 0.0005977773    1.549    0.354
       310  -9.8581     23.4032    138.1856   1.2498602677e+02   4.3791187792e+01    0.4766627     0.257538  76.92  0.002071648    2.645    0.622
       311  -7.8732    218.5149    138.9343   7.8155675186e+01   9.5847962994e+00    0.2249644     0.139632 -42.86 0.0005784562    1.531    0.347
       312  -8.6879    172.2029    138.5171   8.7593471866e+01   1.9709297556e+01    0.3201357    0.2299704 -72.69 0.0008538375    1.761    0.432
       313  -9.9311    125.1115    142.8592   9.9791943439e+01   2.8540818417e+01    0.5149411    0.3443249 -86.04  0.001432695    2.249    0.555
       314  -8.0401    207.4996    138.0090   8.0066428247e+01   1.2109329410e+01     0.226066    0.1425501 -47.33 0.0005170364    1.534    0.348
       315  -8.5139    197.4962    137.5982   8.1975952531e+01   1.4359739511e+01    0.2853376    0.2289698 -67.01 0.0007893178    1.361    0.265
       316  -8.5129     80.9819    137.7659   1.1011525538e+02   3.7280758976e+01    0.1910335    0.1880711  89.00  0.001161444    1.102    0.093
       317 -10.3508     83.3994    132.8860   1.0850108029e+02   3.8062257868e+01    0.5850763     0.308287 -66.08  0.001300871    2.115    0.527
       318  -8.6276    162.6860    136.5313   8.9294256341e+01   2.2218989772e+01    0.2556022    0.1875722 -71.83 0.0005885752    1.656    0.396
       319  -8.8860    150.6158    136.3881   9.2089689014e+01   2.4842718875e+01    0.4334222    0.2630761  21.70  0.001564581    2.782    0.641
       320  -9.4487     39.1312    136.4299   1.2078473128e+02   4.2743720359e+01    0.2425545    0.1774258  80.43  0.001025868    1.538    0.350
       321  -8.5612    246.9020    130.3412   7.1321012259e+01   5.4742776984e+00    0.2605465    0.1756735 -55.16  0.000601519    1.473    0.321
       322  -9.0261    248.2899    135.3947   7.2156216935e+01   4.2659778343e+00    0.3190423    0.1917508 -44.83 0.0007862656    1.498    0.332
       323  -9.3908    250.6639    129.9504   7.0631995517e+01   4.8165107634e+00    0.4870871    0.1270724 -41.06  0.001459755    3.487    0.713
       324  -8.3598    187.7206    135.9794   8.3637058788e+01   1.6841935289e+01    0.2195697    0.1929523 -49.47   0.00051391    1.114    0.102
       325  -7.9960    237.5337    133.7451   7.3610093532e+01   6.6890986873e+00    0.2022018    0.1248563 -53.04 0.0009316028    1.620    0.383
       326  -8.6623    231.5430    133.7574   7.4653249122e+01   7.8997081037e+00     0.275961    0.1346627 -37.94 0.0007157821    2.026    0.507
       327  -8.6804    179.4703    133.8878   8.4923622748e+01   1.9107743740e+01      0.29199    0.2342311 -83.55 0.0007277621    1.485    0.327
       328 -10.1388    132.4015    131.4382   9.5400550692e+01   2.9727910644e+01    0.6617426    0.4101814 -66.11  0.001823468    2.023    0.506
       329 -10.1982    133.6618    109.4886   8.9768626588e+01   3.4298311776e+01    0.7308225    0.3406576 -46.71  0.002265198    2.126    0.530
       330  -9.9981    130.7443    118.5543   9.2759125752e+01   3.2938237694e+01    0.4649355    0.3274893 -81.40  0.001428076    2.063    0.515
       331  -9.1934    112.7146    133.3899   1.0087211148e+02   3.3062786076e+01    0.3484734    0.2570759 -85.43 0.0009918198    1.745    0.427
       332  -9.1931    143.1693    131.9055   9.2846236233e+01   2.7414580262e+01    0.3560495    0.2540372 -73.81 0.0008767622    1.776    0.437
       333 -10.4239     98.2748    130.2046   1.0396832928e+02   3.6325797988e+01    0.6755575    0.3026477 -55.98  0.001818833    2.184    0.542
       334 -10.5326     60.1728    125.4478   1.1329860665e+02   4.2936943105e+01    0.8391588    0.4877838  84.11  0.003334415    3.320    0.699
       335  -8.9133     59.5578    115.1585   1.1142028348e+02   4.5336895069e+01    0.4613582    0.2465986 -23.22  0.001805853    3.406    0.706
       336  -9.7084    153.0240    128.1871   8.9598938436e+01   2.6147802239e+01    0.7280294    0.2825119 -49.90  0.001952553    2.654    0.623
       337  -9.9055     73.1941    128.8312   1.1042456072e+02   4.0469859905e+01    0.5316496    0.2738648 -61.04  0.001677752    1.848    0.459
       338  -9.8824     13.0154    129.6648   1.2638908198e+02   4.6507515042e+01    0.3648155    0.2140913  70.92  0.001618921    2.230    0.551
       339  -8.0014    220.6333    130.1860   7.5829406749e+01   1.0868136100e+01    0.2036044    0.1340489 -34.78 0.0005317777    1.576    0.366
       340  -8.5449    211.8352    129.4700   7.7311418206e+01   1.2896499711e+01    0.3055905     0.181925 -58.38 0.0008213964    1.930    0.482
       341  -7.8854    204.5416    130.5055   7.8955219765e+01   1.4276156040e+01    0.1525515    0.1415471 -70.44 0.0001942236    1.067    0.063
       342  -8.1582    192.7201    130.1814   8.1259519475e+01   1.6949774965e+01    0.2421941    0.1833207 -63.09 0.0005245464    1.433    0.302
       343  -9.2833    168.3999    129.5022   8.6350586828e+01   2.2499307977e+01    0.3261876    0.2518212 -78.22 0.0008408891    1.577    0.366
       344  -7.7690      1.6394    130.2876   1.2925597133e+02   4.7137100434e+01    0.1121546   0.07521185  73.77 0.0007023753    1.687    0.407
       345  -7.9630    186.2922    129.6894   8.2486311178e+01   1.8481568376e+01    0.1552931    0.1203253 -81.89 0.0004577292    1.587    0.370
       346 -10.7422     44.9873    123.6826   1.1710388017e+02   4.5051620083e+01     1.016546    0.5511514  84.04  0.003887367    3.886    0.743
       347 -10.0802    118.1595    125.2211   9.7595669173e+01   3.3917988994e+01    0.6140041    0.4258595 -86.52  0.001991314    2.168    0.539
       348  -7.8290    228.6779    125.3441   7.3320947954e+01   1.0113467909e+01    0.1523029    0.1097486 -74.41  0.000252368    1.731    0.422
       349  -8.9815    179.2151    124.8930   8.2872097885e+01   2.1071088354e+01    0.2823319    0.2460565  83.83 0.0006309475    1.236    0.191
       350 -10.3664     28.2277    122.1672   1.2135341591e+02   4.6975357131e+01     0.732966    0.3980846 -89.34  0.003410646    2.686    0.628
       351  -8.2204    188.5313    124.0891   8.0707973868e+01   1.9146957215e+01    0.2300718    0.1476866 -46.90 0.0006483971    1.527    0.345
       352  -8.7502     85.1691    122.6557   1.0586618220e+02   4.0152529308e+01     0.501622     0.283404  11.44  0.001838967    3.556    0.719
       353  -7.8716    203.3621    122.1865   7.7280955646e+01   1.6217061824e+01    0.2220043    0.1321042 -53.59 0.0003789298    1.746    0.427
       354  -8.0601    195.1756    122.1434   7.8892090094e+01   1.8054666413e+01    0.2140402    0.1740113 -72.01 0.0004051204    1.344    0.256
       355  -8.8156    172.0150    121.5382   8.3646950620e+01   2.3393176848e+01    0.2816975    0.2101029 -62.26 0.0004595493    1.460    0.315
       356  -9.1386    158.4438    121.3808   8.6692037894e+01   2.6445885620e+01    0.3465651    0.2506605 -66.32  0.001057025    1.614    0.380
       357  -8.9458    100.5142    119.8959   1.0105230514e+02   3.8299888026e+01    0.5308019    0.2919823  11.85  0.001576039    5.051    0.802
       358  -9.6207     70.9330    119.6167   1.0915391627e+02   4.2884368835e+01    0.4333875    0.2133096 -66.24  0.001477606    2.396    0.583
       359  -9.8893    141.6993    118.6395   9.0036298453e+01   3.0653896608e+01    0.5007733    0.3245895 -70.26  0.001290172    2.161    0.537
       360  -8.2444    141.8176    112.7766   8.8557697513e+01   3.1889893995e+01    0.3171875    0.1994518   9.94  0.001055244    3.527    0.716
       361  -9.4572      2.9898    117.3801   1.2725069650e+02   4.9845567455e+01    0.4139156     0.215146  79.16  0.002041975    2.934    0.659
       362 -10.0255    109.2597    114.3237   9.7363919959e+01   3.8000553233e+01    0.5069647    0.3424067 -72.53  0.001451122    2.005    0.501
       363  -9.2044    109.3059    107.6619   9.5711458633e+01   3.9440521119e+01    0.3547348     0.226406 -24.57  0.001099817    2.112    0.526
       364  -8.3470    193.0892    115.6119   7.7776749693e+01   1.9847900281e+01    0.2558244    0.1996668 -61.17 0.0005591708    1.327    0.246
       365  -8.2505    185.5380    116.0180   7.9417741107e+01   2.1480480910e+01    0.2290565    0.1482764 -44.76   0.00044694    1.521    0.343
       366 -10.6725    248.6504    107.8448   6.6301760168e+01   9.2558466975e+00    0.4852634    0.3050558 -40.96  0.002429012    1.482    0.325
       367  -9.9255     78.8343    112.5299   1.0538116640e+02   4.3368689570e+01     0.509016    0.3547879  88.98   0.00176859    2.210    0.547
       368  -8.6842     77.8730    106.0720   1.0416418286e+02   4.4922653169e+01    0.4399636    0.2677659  -9.25  0.001787553    2.997    0.666
       369  -8.1625    167.3664    114.2575   8.2915255712e+01   2.5963147950e+01    0.2148834    0.1409863 -54.13 0.0004690378    1.595    0.373
       370 -10.2232     92.7417    112.4591   1.0145102532e+02   4.1250955501e+01    0.6068954    0.3570674 -68.66  0.001426921    2.345    0.574
       371  -8.9938     93.4360    104.7221   9.9385500994e+01   4.2820263862e+01      0.26509    0.1853309   0.08   0.00103917    2.061    0.515
       372  -8.5375    174.9067    112.3493   8.0787192884e+01   2.4648865311e+01    0.2940369     0.206657 -61.93 0.0006807436    1.599    0.375
       373 -10.1091    121.9762    112.1191   9.3439639702e+01   3.6084972800e+01     0.460624    0.3152212 -47.33  0.001636097    1.427    0.299
       374  -9.7841     14.2122    111.2901   1.2338271458e+02   5.0435183450e+01    0.3650319    0.2158048  84.57  0.001422733    2.361    0.577
       375  -8.5586    159.1727    111.7459   8.4158214943e+01   2.8322363925e+01    0.2667232    0.2023716 -57.30 0.0005740474    1.378    0.274
       376 -10.2774     66.3471    109.9440   1.0837130461e+02   4.5647085147e+01    0.5663607    0.3027061 -60.24   0.00218607    1.843    0.457
       377  -7.8107    149.7548    110.0299   8.5942493931e+01   3.0759241386e+01    0.1990678    0.1288282 -45.71 0.0004157938    1.540    0.351
       378  -7.7898    182.7408    109.3720   7.8397942172e+01   2.3462490481e+01    0.1580133    0.1158869 -72.62 0.0003951424    1.652    0.395
       379  -8.8213     43.0821    109.4791   1.1497081677e+02   4.8407051911e+01    0.2591601    0.1305989  15.30  0.001202873    2.832    0.647
       380  -8.0944    189.1851    108.1971   7.6793232508e+01   2.2219105868e+01    0.2133924    0.1708384 -68.13 0.0005477901    1.336    0.251
       381  -9.7372    118.9137    106.6292   9.2868801930e+01   3.7856350700e+01    0.4058214    0.2994544 -64.97  0.001663471    1.579    0.367
       382 -10.8140    109.0373     98.8972   9.3548878694e+01   4.1336704210e+01    0.8376964    0.4882937  66.15  0.001326347    3.205    0.688
       383  -9.2168    107.6371     92.8797   9.2349927210e+01   4.2818766749e+01    0.5467147    0.2923368  24.79   0.00210939    2.746    0.636
       384  -8.2882    162.2317    105.7833   8.1967317216e+01   2.8861909042e+01    0.2056196    0.1819086  -8.55 0.0006758065    1.333    0.250
       385  -9.5578    139.9687    104.5749   8.6938242227e+01   3.4003835933e+01    0.4750354    0.2949783 -55.66    0.0014018    1.784    0.440
       386 -10.5853     45.5789    102.3490   1.1279501702e+02   4.9698484787e+01    0.6841657    0.4278158  79.88  0.003095139    3.100    0.677
       387  -9.3075     45.4542     92.7903   1.1075215247e+02   5.1726564178e+01    0.3709207    0.2034965  -1.58  0.001676334    3.017    0.669
       388 -10.6725     22.7123    102.6171   1.1952951173e+02   5.1676630990e+01    0.6396607    0.3757403  84.91  0.002710775    2.883    0.653
       389  -9.5469    150.6152    103.2891   8.4028080274e+01   3.1960426832e+01    0.4354283    0.2823363 -63.60  0.001165653    1.957    0.489
       390  -8.5305    166.6391    104.1215   8.0561722733e+01   2.8198514009e+01     0.245204    0.2092106  79.81 0.0004767613    1.268    0.211
       391  -9.2489      6.5285    102.7683   1.2414190645e+02   5.2738841641e+01    0.2898684    0.1621063 -82.71  0.001278952    2.077    0.518
       392 -10.2573    127.6704    102.3264   8.9470360001e+01   3.7024907018e+01    0.5722834    0.3265108  42.64  0.002467761    1.779    0.438
       393  -8.4692    130.0149     97.4976   8.7605905998e+01   3.7532685893e+01    0.2618718    0.1714767   1.06 0.0008951799    2.896    0.655
       394  -8.1587    175.4561    102.2412   7.8177685063e+01   2.6553933630e+01    0.2121706    0.1410562 -55.22 0.0005900096    1.598    0.374
       395  -8.4139    159.8041    101.1266   8.1339979828e+01   3.0346368688e+01    0.2294955    0.1993247 -74.66 0.0004441989    1.241    0.194
       396  -9.2195     82.0351     99.9401   1.0147800226e+02   4.5624449236e+01    0.3396911    0.2400617 -72.07 0.0007769388    1.863    0.463
       397  -8.8814     63.9940    101.4721   1.0715012844e+02   4.7784441326e+01     0.183279    0.1712445 -28.78  0.000850682    1.076    0.070
       398 -10.1919     63.7787     95.8402   1.0589232834e+02   4.9002043673e+01    0.5114271     0.339576 -83.63  0.001690597    2.608    0.617
       399  -9.0500     65.5078     87.6033   1.0333707587e+02   5.0471847524e+01    0.5587749    0.2829704   6.39  0.001884291    4.865    0.794
       400  -7.8737    218.9389    100.0508   6.9351416695e+01   1.7021223369e+01    0.1735029    0.1597343 -78.84 0.0003729044    1.026    0.025
       401 -10.6744    123.9388     91.8280   8.7672022995e+01   3.9897661668e+01    0.6581444    0.4839583 -35.18  0.001987844    1.392    0.282
       402  -9.4374     94.9316     96.9621   9.7000768994e+01   4.4207322960e+01    0.3461287    0.2327828 -59.85 0.0006247258    1.688    0.408
       403  -8.7517    150.7261     95.8899   8.2090993226e+01   3.3414774623e+01    0.3752268    0.2392717  -5.53  0.001310648    3.339    0.701
       404  -8.1477    164.8216     94.1740   7.8439368616e+01   3.0567840069e+01    0.2276527    0.1975073 -79.62 0.0005250222    1.246    0.197
       405  -7.5199    188.3681     93.6750   7.3426717043e+01   2.5210319055e+01    0.1606825    0.1143445 -81.83 0.0007035754    1.805    0.446
       406  -8.2689    176.1029     93.0876   7.5752109786e+01   2.8173128340e+01    0.2408526    0.1769503 -75.56 0.0007836955    1.682    0.406
       407  -9.4817    138.9867     91.7704   8.3831632578e+01   3.6781654361e+01    0.4960205    0.2858145 -46.40  0.001290535    1.771    0.435
       408  -9.6965      5.2026     91.7702   1.2269174605e+02   5.5091452293e+01    0.3844406    0.2234782 -81.62  0.001554091    2.072    0.517
       409  -7.9995    157.7992     91.7816   7.9387820513e+01   3.2625305797e+01    0.2062047    0.1737569 -78.38  0.000399183    1.340    0.254
       410  -9.6630     34.8477     90.0686   1.1340919611e+02   5.3302053846e+01     0.408655    0.2461173 -76.56  0.001769176    2.342    0.573
       411  -8.5694    249.4729     91.5202   6.2757227300e+01   1.1977315090e+01    0.1355877    0.1211535 -61.76 3.249028e-05    1.062    0.059
       412  -9.0241     22.7574     90.3167   1.1716784627e+02   5.4241195799e+01    0.2595319    0.1600467 -31.51  0.001020716    1.620    0.383
       413  -8.0877    150.9960     89.3054   8.0299526223e+01   3.4625990085e+01    0.2083935    0.1918075  58.66  0.000431838    1.072    0.067
       414 -10.1541     86.3220     86.0612   9.6634629510e+01   4.7801128455e+01    0.5362645    0.3407261 -56.19   0.00168966    1.763    0.433
       415  -9.7372     48.4424     84.3255   1.0784132510e+02   5.3137769934e+01     0.408372    0.2918629  83.01  0.001823331    2.519    0.603
       416  -9.7925    104.9703     83.4508   9.0529822207e+01   4.5149539378e+01    0.4310686    0.3150069 -69.18 0.0009223467    1.926    0.481
       417  -8.8738    105.4668     77.0158   8.8583817614e+01   4.6260897896e+01    0.3827548    0.1838101  32.21   0.00139084    2.471    0.595
       418  -8.3456    157.8930     84.1184   7.7357858394e+01   3.4038583564e+01    0.2221094    0.1963566 -81.60 0.0004371682    1.224    0.183
       419  -9.1419    140.8801     82.6843   8.0922529871e+01   3.8091784334e+01    0.3908779    0.2035904 -47.90 0.0009711978    2.055    0.513
       420  -9.7098     24.6729     80.5770   1.1452257084e+02   5.6057103445e+01    0.3840671    0.2444161 -80.07  0.001416267    2.335    0.572
       421  -9.4738      9.8850     81.2272   1.1932458772e+02   5.6938703829e+01    0.2462969     0.165005  53.72  0.001301471    2.241    0.554
       422  -8.5954    150.2351     80.7200   7.8185700360e+01   3.6385534004e+01    0.3043762    0.2174019 -67.21 0.0009387116    1.794    0.443
       423  -9.1237    119.5437     80.2437   8.5653926961e+01   4.2983786213e+01    0.3690624    0.2273438 -50.49  0.001285807    1.784    0.439
       424  -8.8591     74.4870     80.5007   9.8706659342e+01   5.0654173218e+01    0.2873235    0.2113432 -61.65  0.001102864    1.651    0.394
       425  -8.2714    166.6977     79.9081   7.4344855135e+01   3.2775873290e+01    0.2010135    0.1837818 -54.48 0.0004874713    1.114    0.103
       426  -8.2912    184.0000     78.0854   7.0409058271e+01   2.9054071106e+01    0.2305783   0.08288861 -39.10 0.0005352739    2.854    0.650
       427  -7.6167    174.7224     78.3347   7.2287552341e+01   3.1185481761e+01    0.1494489    0.1113782 -74.91 0.0003346982    1.608    0.378
       428 -10.0107     63.5372     74.2459   1.0042982653e+02   5.3322547366e+01    0.5511569    0.2800927 -59.85  0.002249833    2.782    0.641
       429  -9.5499    128.0453     75.5203   8.2120004930e+01   4.2113147955e+01    0.3595383    0.2625302 -66.67 0.0007782272    1.844    0.458
       430  -8.8492    140.3356     75.4374   7.9066406141e+01   3.9513108671e+01    0.2460697    0.1680929 -58.75 0.0006377251    1.792    0.442
       431  -9.7512     82.4440     72.7806   9.4113577895e+01   5.0921355485e+01    0.3909008    0.2629907 -62.38  0.001054169    2.106    0.525
       432  -8.2266    163.4809     73.5041   7.3341961003e+01   3.4636677238e+01    0.2443485    0.1307584 -50.11 0.0008846378    2.074    0.518
       433  -8.7123    115.6548     72.7808   8.4576067961e+01   4.5092864817e+01    0.3532095    0.1591457 -42.73  0.000888391    2.262    0.558
       434  -7.9552    151.4579     73.5325   7.5964955093e+01   3.7377981030e+01     0.143746     0.137263  73.26 0.0002471241    1.048    0.046
       435  -8.2058     42.6861     73.0773   1.0688261143e+02   5.5922365195e+01    0.1838505     0.138824 -60.42 0.0006962513    1.484    0.326
       436  -7.7812    175.4658     72.5391   7.0654540544e+01   3.2009149780e+01     0.145114    0.1355651  80.82 0.0001279484    1.017    0.016
       437  -8.9896    105.8848     71.7278   8.6948606409e+01   4.7133289018e+01     0.250313    0.1979855 -48.65 0.0006872511    1.372    0.271
       438  -9.6518     94.9036     69.9479   8.9570886564e+01   4.9399621375e+01    0.6129858    0.2559936 -47.17  0.002247344    2.581    0.613
       439  -9.4374     51.3842     69.5614   1.0308689908e+02   5.5655883798e+01    0.3931759    0.2102419 -60.25  0.001518668    2.475    0.596
       440  -9.0600     28.6756     70.6512   1.1091281434e+02   5.7658873467e+01    0.2390711    0.1330651 -29.75 0.0009329804    1.746    0.427
       441  -7.7736    156.9837     69.9902   7.3789710620e+01   3.6724895859e+01     0.169636     0.166309  78.18 0.0003906745    1.035    0.034
       442  -8.9097    147.0368     68.2530   7.5518447113e+01   3.9262575729e+01    0.2937701    0.2011823 -46.03 0.0006192306    1.550    0.355
       443  -9.0674     16.6625     70.2525   1.1481307597e+02   5.8634486917e+01    0.2360171    0.1707191 -70.70  0.001105139    1.639    0.390
       444  -9.0207    138.5011     66.6219   7.7043017332e+01   4.1413312704e+01    0.2681628    0.2296621 -59.79 0.0008724806    1.313    0.239
       445  -9.3640    121.1959     65.0155   8.0868015789e+01   4.5314223465e+01    0.4406028    0.2408956 -51.16  0.001916218    2.273    0.560
       446  -8.8528     65.4014     62.4092   9.6457433805e+01   5.5213867898e+01    0.2596659    0.1516914   6.36  0.001237129    2.406    0.584
       447  -8.1117    250.4774     65.5048   5.7261573007e+01   1.6089438660e+01    0.1331485    0.1118122 -71.86 0.0008102386    1.003    0.003
       448  -8.6940     37.2941     64.5300   1.0644250159e+02   5.8033255252e+01    0.2184243    0.1898965  89.61  0.001018748    1.753    0.429
       449  -8.9808    110.2008     63.7935   8.3428728467e+01   4.7677394149e+01    0.2513773    0.2285381 -78.28 0.0007226084    1.388    0.280
       450  -7.6499    187.4907     63.5184   6.6135937341e+01   3.0660400127e+01    0.1420964    0.1308699  80.50 0.0002371914    1.014    0.014
       451  -7.8889    158.1796     62.1165   7.1411452479e+01   3.7732759956e+01    0.1897547    0.1602595 -73.02 0.0003892876    1.323    0.244
       452  -9.4590     97.8446     60.2607   8.5832083080e+01   5.0528469723e+01    0.4163091    0.2897997 -25.59  0.001694721    1.474    0.321
       453  -9.7262     73.2559     59.4830   9.3055568381e+01   5.4619344402e+01    0.3941361    0.2113793 -49.81  0.001397849    2.143    0.533
       454  -8.6677    130.9251     58.4075   7.6508813684e+01   4.4354791290e+01    0.2567655    0.1872884 -54.41 0.0008101905    1.641    0.391
       455  -8.0808     88.8731     59.6082   8.8268898392e+01   5.2171971895e+01      0.17069    0.1202136  47.97 0.0006758207    1.603    0.376
       456  -9.9194     23.5338     56.7081   1.0911667209e+02   6.0616659153e+01    0.3802935    0.2583618 -77.27  0.002160396    2.675    0.626
       457  -9.4628      7.4804     57.0429   1.1484804695e+02   6.1645492306e+01    0.2292749    0.1733577 -82.96 0.0009398623    2.004    0.501
       458  -9.4731    119.1615     55.4014   7.8555402258e+01   4.7250784574e+01    0.4169525    0.2206699 -43.72  0.001323937    2.084    0.520
       459  -9.4954     54.3384     55.7348   9.8135094729e+01   5.7750442157e+01    0.3031999    0.1990532 -53.41  0.001275025    1.826    0.452
       460  -8.6421    139.8676     56.1681   7.3762200112e+01   4.2769164698e+01    0.2034643    0.1854143 -79.39 0.0004927941    1.243    0.195
       461  -8.9911     44.1597     55.4709   1.0154293915e+02   5.8941968284e+01    0.2708457    0.1961159 -56.30  0.001150924    1.698    0.411
       462  -8.5531    105.6704     53.0669   8.1431305091e+01   5.0231554111e+01     0.212158    0.1879422  78.52  0.000697491    1.489    0.328
       463  -9.4911     92.4168     50.6346   8.4437883767e+01   5.2984443184e+01    0.3546768    0.2115793 -48.09  0.001260424    2.053    0.513
       464  -8.0206    216.4694     50.4881   5.8508740993e+01   2.5894409257e+01    0.1371174    0.1170282 -83.99 2.633823e-05    1.030    0.029
       465  -8.5402    144.4781     49.2470   7.0770630785e+01   4.2767952838e+01    0.1861499    0.1273487 -48.80 0.0007173371    1.660    0.397
       466  -8.4072    129.8404     49.3204   7.4112747446e+01   4.5940130832e+01    0.1789196    0.1712843 -58.91 0.0004683974    1.179    0.152
       467  -8.9911    120.9105     47.5174   7.5745705287e+01   4.8054917474e+01    0.2366103    0.1946553 -29.13 0.0004899472    1.286    0.222
       468  -8.5913    112.1579     46.8144   7.7765693091e+01   4.9904398977e+01    0.2119138    0.1750862 -44.69 0.0006328187    1.390    0.281
       469  -8.8720     82.0189     46.4600   8.6231343988e+01   5.5335076029e+01    0.2095087    0.1702966 -46.66 0.0006098573    1.505    0.336
       470  -8.6532     44.9840     44.5852   9.7938295623e+01   6.0632587246e+01    0.1979346    0.1513184 -48.46  0.000612134    1.564    0.361
       471  -8.8445     16.7365     44.7039   1.0827339653e+02   6.3175568579e+01    0.1970126    0.1290073 -53.06 0.0006282738    1.573    0.364
       472  -8.9622    132.8976     43.6787   7.1741991552e+01   4.6074339749e+01    0.2431532    0.1933483 -46.36 0.0006784462    1.424    0.298
       473  -8.7540     92.7725     43.0929   8.1934926908e+01   5.4019694400e+01    0.2422827    0.1661946  -7.51  0.001335772    1.642    0.391
       474  -9.0425     58.1814     42.6562   9.2724497694e+01   5.9349885523e+01    0.2594573    0.1533987 -52.20   0.00121264    2.384    0.580
       475  -9.4752     69.5481     41.6761   8.8616619040e+01   5.7936134772e+01    0.3056386    0.2468575 -67.66  0.001042511    2.157    0.536
       476  -7.8402     33.0181     44.0000   1.0206370280e+02   6.1944235738e+01    0.1666243   0.06033598  26.82 0.0008016303    2.937    0.660
       477  -9.5187      5.1922     42.0797   1.1185440849e+02   6.4358345356e+01    0.2638378     0.168949 -65.93  0.001276106    2.121    0.528
       478  -8.6533    105.9797     41.4909   7.7742018243e+01   5.1832433492e+01    0.2228758    0.1772298 -47.59 0.0006857652    1.530    0.346
       479  -7.8779    140.4598     41.4958   6.9429739717e+01   4.4723064897e+01    0.1332529    0.1221532  52.88  0.000148689    1.033    0.031
       480  -8.6075     36.8042     40.8924   9.9711915487e+01   6.2066652423e+01    0.1872769    0.1478424 -49.71 0.0007078465    1.589    0.371
       481  -8.9410     95.4817     38.3198   7.9617049280e+01   5.4192749282e+01    0.2640767    0.1922773 -49.18  0.000944453    1.791    0.442
       482  -7.2260    119.3293     38.6315   7.3433416764e+01   4.9582258264e+01    0.1291235     0.102852 -77.14 0.0007033385    1.819    0.450
       483  -8.2289     80.6829     36.6053   8.3413027336e+01   5.6937708993e+01    0.1833622    0.1410656 -46.84 0.0005098701    1.680    0.405
       484  -9.4495     26.2120     35.3800   1.0189766440e+02   6.3904154897e+01    0.2903398    0.1610626 -45.23 0.0007852268    1.701    0.412
       485  -7.9886    133.5084     36.0518   6.9363019810e+01   4.6938629012e+01    0.1836004    0.1301266 -32.50 0.0008525315    1.551    0.355
       486  -8.1823    125.8161     35.7760   7.1020586418e+01   4.8606736849e+01     0.164878    0.1503214  81.93 0.0004249659    1.283    0.220
       487  -8.8002    111.8354     34.7726   7.4100046553e+01   5.1574344401e+01    0.2274822    0.1712784 -42.97  0.000591004    1.562    0.360
       488  -8.5373    119.1572     33.2355   7.1816801133e+01   5.0297243738e+01    0.2634475    0.1541531 -42.54 0.0007412426    2.008    0.502
       489  -7.9993     88.7887     34.6052   8.0322098545e+01   5.5851825629e+01    0.1635399    0.1117764  50.53 0.0004558689    1.621    0.383
       490  -8.8135     48.4862     33.4432   9.3034325614e+01   6.1890268664e+01    0.2206116    0.1636234 -38.16 0.0006858839    1.459    0.315
       491  -8.8360     60.6053     32.4393   8.8476020514e+01   6.0482810315e+01    0.2359945    0.1309789 -39.08 0.0008710955    1.869    0.465
       492  -9.0651     72.0427     31.4219   8.4363410440e+01   5.8971650119e+01    0.2036463    0.1598669 -41.82 0.0007541709    1.591    0.371
       493  -7.7663    139.3004     31.6741   6.6846298767e+01   4.6217791514e+01    0.1272002     0.099999 -77.76 0.0007029093    1.636    0.389
       494  -8.9083    175.6433    247.4833   1.0756064596e+02  -2.9724069052e+00    0.3183338    0.2256432  84.10   0.00107645    2.315    0.568
       495  -8.0494     42.3484     30.1364   9.4120927863e+01   6.3061160849e+01     0.147292   0.09420347 -42.01 0.0004146594    1.696    0.410
       496  -8.8181     81.6112     27.5196   8.0060895871e+01   5.7945485349e+01    0.2162834    0.1962641 -55.83 0.0007516399    1.597    0.374
       497  -8.7316      3.6611     27.5237   1.0824180548e+02   6.6756914228e+01    0.2208441    0.1231521 -53.89  0.001353242    1.956    0.489
       498  -7.9853    110.1926     27.2696   7.2139577035e+01   5.2798374417e+01    0.1803567   0.08728519 -39.24 0.0005668768    2.386    0.581
       499  -8.8795     91.9098     26.5200   7.6731756302e+01   5.6302399534e+01    0.2055122    0.1644077 -42.00 0.0006504009    1.562    0.360
       500  -8.3497    104.4169     22.7854   7.2150839990e+01   5.4420391531e+01    0.1564856    0.1121171  -4.85 0.0004369069    1.533    0.348
       501  -8.1612     34.3964     23.2846   9.4695438927e+01   6.4850347424e+01    0.1614137    0.1255248  36.31  0.000804249    1.756    0.431
       502  -9.0665     63.6128     21.0478   8.3461386170e+01   6.1500417904e+01    0.2721809    0.1729746 -43.08  0.001013043    2.082    0.520
       503  -8.8480     48.2493     21.7553   8.9016696844e+01   6.3473360751e+01    0.1940745    0.1711671 -19.30 0.0007150767    1.379    0.275
       504  -8.0045    120.6229     20.8547   6.7657457411e+01   5.1409348395e+01    0.1660767    0.1115554 -40.91 0.0009410008    1.769    0.435
       505  -9.1120     74.1186     19.8791   7.9683849297e+01   6.0046301276e+01    0.2416456    0.1739118 -36.80 0.0008802975    1.661    0.398
       506  -7.9983     19.5148     21.5153   9.9890871046e+01   6.6486283463e+01    0.1047276   0.08060877 -15.84 -3.768504e-07    1.091    0.083
       507  -8.1513     87.8621     17.6103   7.4840917018e+01   5.8005471871e+01    0.1775543     0.130629 -25.65 0.0004233189    1.461    0.316
       508  -8.0314     38.5649     18.5145   9.1395110317e+01   6.5017386601e+01    0.1098247   0.08409692  -5.29 8.240335e-05    1.021    0.021
       509  -7.9559    112.6414     16.7959   6.8217676041e+01   5.3444742558e+01    0.1500549     0.111647 -34.82 0.0003628394    1.563    0.360
       510  -8.2644     30.2113     16.2141   9.3751016987e+01   6.6195451371e+01    0.1328111    0.1134509 -15.63 0.0004986724    1.357    0.263
       511  -8.6395    101.3110     29.4416   7.5127169785e+01   5.4245588943e+01    0.1902212    0.1459747 -49.67 0.0008409254    1.724    0.420
       512  -8.6463    156.3831    248.4112   1.1145883270e+02   1.8118224025e-01    0.2684155    0.1727418  72.61 0.0005268683    2.246    0.555
       513  -8.9592    132.3917    248.1311   1.1608594848e+02   4.3305996797e+00     0.299769    0.1999339  70.14 0.0007677409    1.682    0.405
       514  -8.4554    113.0397    248.5260   1.1984471137e+02   7.4692784991e+00    0.2305661    0.1585691 -88.09 0.0007703238    1.621    0.383
       515  -9.2858    103.8791    247.0677   1.2140749079e+02   9.2205321332e+00    0.4234492    0.2176211 -81.19  0.001723421    2.736    0.635
       516  -8.3586    218.4464    247.8764   9.9384207907e+01  -1.0124869126e+01    0.2072171    0.1202577 -44.09 0.0009581519    1.996    0.499
       517  -7.6144     83.6260     11.3036   7.3838694054e+01   5.9379183139e+01    0.1044324   0.09300301  86.27 0.0007030175    1.761    0.432
       518  -7.8812     63.4898    248.5262   1.2891811186e+02   1.4946495522e+01    0.1202504    0.0929822  73.76 0.0008099522    1.019    0.018
       519  -7.6867     21.3148    248.6546   1.3597239741e+02   2.0178904151e+01     0.119993   0.05933522  71.31  0.000704761    1.715    0.417
       520  -8.8686    232.3688    247.0563   9.6647062805e+01  -1.2156489930e+01    0.1653954     0.141532 -13.71 0.0008161605    1.169    0.145
       521  -9.9506    223.9001    244.1242   9.7733704471e+01  -1.0426313203e+01    0.4602024    0.2346366 -49.33  0.002160533    2.610    0.617
       522  -9.1954    147.1575    246.1448   1.1294401060e+02   2.1706859123e+00    0.3141716    0.2107864  82.59  0.001389042    2.124    0.529
       523  -8.0275    190.3503    246.2661   1.0450762745e+02  -5.2760600432e+00    0.1290859   0.09196075  15.05 0.0004615053    1.618    0.382
