#   1 NUMBER                 Running object number                                     
#   2 MAG_AUTO               Kron-like elliptical aperture magnitude                    [mag]
#   3 X_IMAGE                Object position along x                                    [pixel]
#   4 Y_IMAGE                Object position along y                                    [pixel]
#   5 X_WORLD                Barycenter position along world x axis                     [deg]
#   6 Y_WORLD                Barycenter position along world y axis                     [deg]
#   7 A_WORLD                Profile RMS along major axis (world units)                 [deg]
#   8 B_WORLD                Profile RMS along minor axis (world units)                 [deg]
#   9 THETA_WORLD            Position angle (CCW/world-x)                               [deg]
#  10 FWHM_WORLD             FWHM assuming a gaussian core                              [deg]
#  11 ELONGATION             A_IMAGE/B_IMAGE                                           
#  12 ELLIPTICITY            1 - B_IMAGE/A_IMAGE                                       
         1 -11.5874     70.7964     41.9386   1.0832107598e+02   6.1647800559e+01    0.6368487    0.4017946  64.55  0.002692292    2.409    0.585
         2 -11.7976     42.4801     19.7547   1.1207236031e+02   7.0693201830e+01    0.6705238    0.4926528  46.09  0.002970733    1.599    0.375
         3 -12.3207    217.0654     16.4211   6.7510517958e+01   2.7784036877e+01    0.5302643    0.4140745  79.38  0.001787266    1.297    0.229
         4 -12.7371    189.4173      8.6385   6.7676886747e+01   3.5640850750e+01     0.528705    0.2397482 -57.79  0.002063312    2.422    0.587
         5 -11.7129     43.8124      8.4665   1.0466201027e+02   7.2490224225e+01    0.2937148    0.2638297  22.83  0.001131192    1.151    0.131
         6 -11.3050     60.0264      8.0000   9.5712301357e+01   6.9607916402e+01    0.3236392    0.1681969  40.25  0.001376248    1.908    0.476
         7  -9.2927     25.3239      3.2854   1.1391698708e+02   7.6012451877e+01    0.1272638      0.08531 -14.68 0.0002101429    1.601    0.375
         8 -11.8653    166.8303      1.9389   6.7729900590e+01   4.2419975662e+01        0.679    0.1400824  72.70  0.001906717    4.167    0.760
         9 -11.0896    149.7590    223.4639   1.2543654999e+02   1.1545604306e+01     0.224861    0.1655713 -86.20  0.001388323    2.446    0.591
        10 -10.3824    226.3329    221.6564   1.1158822536e+02   6.8782871837e-01   0.09469551   0.08137532  42.34 0.0007050525    1.758    0.431
        11 -10.1891    211.4027    218.2316   1.1355601452e+02   3.1057757346e+00     0.132378    0.1040767 -34.60 0.0009265934    1.760    0.432
        12 -10.5780    116.3370    209.9135   1.3054026841e+02   1.8533081401e+01    0.2005351    0.1158874 -70.98  0.001095659    2.527    0.604
        13 -10.5784     49.1624    201.9992   1.4421683556e+02   2.8881520413e+01    0.2033151    0.0946857  64.30  0.001091785    2.034    0.508
        14 -10.5084    149.3972    198.6212   1.2228167372e+02   1.5154022628e+01    0.2052452    0.1183479 -66.88  0.000959571    3.316    0.698
        15 -10.1592      5.2805    199.4598   1.5340053379e+02   3.3694874263e+01    0.1525223   0.06611703  44.43 0.0009360868    1.618    0.382
        16 -10.4628    112.5040    197.9963   1.2999035550e+02   2.1082222063e+01    0.1655972    0.1012382  80.55 0.0008106304    2.630    0.620
        17  -9.8997     12.4860    197.4617   1.5184447730e+02   3.3445604265e+01    0.1133879   0.07639997  58.03 0.0004219984    1.066    0.062
        18 -12.2026    159.5607    191.5210   1.1917538219e+02   1.4557235577e+01    0.5263384      0.41472 -76.85  0.003139043    2.016    0.504
        19  -9.8271    133.3057    195.6725   1.2522773608e+02   1.8211229725e+01    0.1260146   0.08700284  60.43 0.0003374074    1.651    0.394
        20  -9.8654    215.3236    194.0047   1.0912213702e+02   5.2161008593e+00    0.1597407   0.09200331 -53.07 0.0007044878    4.250    0.765
        21 -10.5045    183.4852    183.4979   1.1315530628e+02   1.1697788514e+01    0.2383014     0.124806 -37.43  0.001222882    2.208    0.547
        22 -10.1098    210.3907    182.9965   1.0811697833e+02   7.3075678839e+00    0.1908078    0.1119767 -28.96  0.001082657    1.829    0.453
        23 -11.6200     34.9680    173.9774   1.4567921603e+02   3.5919134571e+01    0.3366272    0.1144398  57.93  0.001477841    2.713    0.631
        24 -11.5621    120.7039    167.9936   1.2407223455e+02   2.5163405788e+01    0.3253773    0.1717679 -64.68  0.001457265    2.581    0.613
        25  -9.7710     88.3221    167.9812   1.3193247422e+02   3.0389690714e+01    0.2058606    0.1006331  87.63 0.0007050537    4.349    0.770
        26 -10.0109     55.3144    167.6740   1.4017533263e+02   3.4948924897e+01    0.1365917   0.07572302  60.80  0.000467761    1.668    0.400
        27 -10.4572     99.2181    166.4059   1.2902763274e+02   2.9025067184e+01     0.202274    0.1036601  46.74 0.0009478953    1.690    0.408
        28 -10.5103     79.4761    163.9581   1.3365618556e+02   3.2521493500e+01    0.1904856    0.1019587  79.91 0.0008096916    2.697    0.629
        29 -11.5844    106.4819    158.0676   1.2599900493e+02   2.9521882820e+01    0.5680256    0.3020723  59.53  0.002443172    2.283    0.562
        30 -10.8929    167.6763    157.6841   1.1172745391e+02   1.8445785343e+01     0.263903    0.1999687  76.49  0.001335211    2.062    0.515
        31 -10.7107    218.3855    157.1609   1.0196437744e+02   9.2430029837e+00    0.1719871    0.1122278 -38.27 0.0009512362    1.757    0.431
        32 -10.9237    119.5154    156.7040   1.2254667566e+02   2.7546875572e+01    0.3054904    0.1925318  58.95  0.001467218    1.746    0.427
        33 -10.3217     28.7586    156.1624   1.4607023802e+02   4.0324167868e+01    0.2282004   0.07849158  59.66 0.0009525943    2.835    0.647
        34 -10.1924      6.7793    155.9644   1.5169808145e+02   4.2246790968e+01    0.1500795   0.07984078 -87.30 0.0005823076    1.663    0.399
        35 -10.0604     67.9933    154.4941   1.3550887480e+02   3.6154548921e+01    0.2042935   0.07866661  51.75 0.0008104954    2.552    0.608
        36 -10.4452    190.2977    150.7942   1.0580635850e+02   1.5240435272e+01    0.2395568    0.2156882 -76.31  0.001424319    1.573    0.364
        37 -10.8638    107.0035    145.2476   1.2377007338e+02   3.2083231785e+01    0.4066935    0.2248556  76.48  0.001383953    3.921    0.745
        38 -10.7396     55.8169    145.9977   1.3784581844e+02   3.9625670106e+01    0.2315388    0.1250419  70.31  0.001084289    2.050    0.512
        39 -10.4272    148.3177    144.6531   1.1345151238e+02   2.4449974070e+01    0.1428255    0.1112758  77.38 0.0002811509    1.727    0.421
        40  -9.9878    181.3676    141.6822   1.0569159213e+02   1.8389913018e+01     0.136179    0.1119004  82.02 0.0007037677    1.782    0.439
        41 -10.4256     23.0038    138.0038   1.4637812271e+02   4.4911662025e+01     0.282351   0.07577637  58.33 0.0009631503    4.167    0.760
        42 -12.0338     83.0415    129.0760   1.2761939206e+02   3.9662735328e+01    0.7834383    0.2330261 -62.71  0.002543439    3.777    0.735
        43 -10.2834    131.6745    131.0256   1.1466126151e+02   3.0385762398e+01     0.233025    0.1218083 -69.80 0.0007048253    4.433    0.774
        44 -12.0140     98.6904    128.0324   1.2290726401e+02   3.7276365761e+01    0.6456222    0.3725047  89.38  0.002344368    3.284    0.695
        45 -12.0276     28.1896    122.2608   1.4352772128e+02   4.8125866496e+01    0.8283986    0.2666251  69.66  0.002387897    5.831    0.828
        46 -10.0484    117.3338    125.6550   1.1726130670e+02   3.4332596884e+01     0.155364    0.1124656  75.49 0.0007049803    1.765    0.433
        47 -11.5070     43.6768    123.3168   1.3878169100e+02   4.6328612819e+01    0.5848554    0.2579672  73.39  0.002215861    3.202    0.688
        48 -10.9349     58.6096    123.8974   1.3418874261e+02   4.4403533067e+01    0.2795891    0.1650912 -89.33  0.001312536    1.908    0.476
        49 -11.1059     13.3300    121.6382   1.4809543348e+02   4.9471950450e+01    0.3374519    0.1427211 -48.91   0.00150653    2.998    0.666
        50 -11.5352    193.4053    118.7933   9.8230464093e+01   1.9549286736e+01    0.5161182    0.4032249 -66.85  0.002258629    1.814    0.449
        51 -10.6970     71.3658    120.3188   1.2964430957e+02   4.3489637874e+01    0.3749986    0.2039533  72.96  0.001473522    2.711    0.631
        52 -10.8903     37.8084    121.0993   1.4037264551e+02   4.7480495514e+01    0.1993283    0.1682372  53.93 0.0003175257    1.132    0.117
        53 -11.6759    141.2851    114.5393   1.0850959648e+02   3.1669651248e+01    0.6422169    0.2601482 -35.92  0.002150989    3.151    0.683
        54 -10.7525    108.4245    113.0432   1.1697108799e+02   3.8803190057e+01    0.5040233    0.2537547 -69.69  0.001654031    3.566    0.720
        55 -11.0335     78.9206    112.6835   1.2585967148e+02   4.4136909000e+01    0.4456628    0.2491215  89.07  0.001652264    3.018    0.669
        56 -11.0198    122.0227    112.4410   1.1301559547e+02   3.6197494780e+01     0.373559     0.200994 -60.84  0.001395122    2.427    0.588
        57 -10.7956    174.5828    111.4673   1.0017860065e+02   2.4847801873e+01    0.3172888    0.2589783 -50.15  0.001028462    1.369    0.270
        58 -12.1747    160.0030    111.0862   1.0323285236e+02   2.8182412725e+01    0.5206723    0.4030418 -59.86  0.002547114    1.555    0.357
        59 -10.5739     91.7009    111.2218   1.2155495661e+02   4.2326991406e+01    0.3032901    0.1350995 -63.82  0.001096186    2.730    0.634
        60 -11.7654     14.7814    109.7777   1.4674858464e+02   5.2179423806e+01      0.62884    0.2955278  79.53  0.003013872    2.084    0.520
        61 -10.0392     59.5671    109.7841   1.3164373119e+02   4.7666742541e+01    0.1908705    0.1257682 -85.23 0.0005289619    1.618    0.382
        62 -12.4293    141.1050    105.0950   1.0619280792e+02   3.3571082456e+01    0.4392832    0.3135984  63.96  0.002001259    1.595    0.373
        63 -12.1744     44.4761    100.6971   1.3535441485e+02   5.1730934193e+01     0.793964    0.3964143  84.86  0.003190693    2.720    0.632
        64 -10.6802      6.6632    103.3253   1.4899340597e+02   5.4240432771e+01    0.2077537     0.111286  61.27  0.001109994    1.744    0.427
        65 -12.3099    112.1069    101.2337   1.1304683172e+02   4.0659329162e+01    0.6249698    0.2649623  53.65  0.002063795    2.811    0.644
        66 -11.4999    107.2809     98.2488   1.1370987440e+02   4.2302308898e+01    0.5495924    0.3073159 -66.23  0.002074127    2.512    0.602
        67 -12.0769    128.0135    101.1031   1.0854863217e+02   3.7290196158e+01    0.5218196    0.2592122 -53.68  0.001955028    2.361    0.576
        68 -10.5268     81.6465    100.3586   1.2236175373e+02   4.6601288756e+01    0.2352223    0.1681406  73.87 0.0009533893    1.674    0.403
        69 -10.7803     19.8516     98.0573   1.4389160404e+02   5.4650479196e+01    0.4129784    0.1430142  88.84  0.001479833    3.533    0.717
        70 -11.3487     62.8979     95.5524   1.2778535635e+02   5.0666424661e+01    0.3890945    0.2007646 -82.08  0.001467591    2.820    0.645
        71 -12.9457    170.0534     90.8126   9.5728794763e+01   2.9437190820e+01    0.4362005    0.3635303  83.81 0.0008072243    1.435    0.303
        72 -10.7585    173.1249     86.4686   9.3899453125e+01   2.9430207448e+01    0.2483318    0.2256761 -16.45 0.0004422815    1.130    0.115
        73 -11.0292     34.3562     87.9717   1.3707761391e+02   5.5913573951e+01    0.5372707    0.1719472 -73.29  0.001938373    3.092    0.677
        74 -11.2756     86.4491     86.6896   1.1734853608e+02   4.8951941105e+01    0.4563482    0.2998048 -87.06  0.001872129    2.317    0.568
        75 -11.1517     41.5845     87.8804   1.3424571206e+02   5.5204928952e+01    0.2821236    0.2039467   8.00  0.001152206    1.758    0.431
        76 -11.2954     47.2134     82.6435   1.3100536148e+02   5.5861014368e+01    0.6786974    0.3760766  87.50  0.002822319    2.518    0.603
        77 -11.1489    104.3448     83.1467   1.1044929683e+02   4.6223334735e+01    0.4077921     0.261167 -76.85  0.001560068    2.530    0.605
        78 -10.0227    140.6931     83.3415   1.0026381987e+02   3.7892252740e+01    0.1604001    0.1236448 -79.23 0.0007042636    1.687    0.407
        79 -10.9310     23.8184     79.7361   1.4001675940e+02   5.8853459183e+01    0.4096172    0.1599606 -88.91  0.001500216    3.322    0.699
        80 -10.7083     63.1934     75.9407   1.2303841420e+02   5.5353762915e+01     0.389396    0.2050245 -80.43  0.001354563    3.368    0.703
        81 -11.3602     82.0308     72.7068   1.1490190245e+02   5.2958719192e+01    0.4476075    0.2491491 -72.06  0.001590319    3.023    0.669
        82 -10.0619    115.6732     72.3437   1.0363836474e+02   4.5987271297e+01    0.1622373    0.1237383 -84.76  0.000705085    1.742    0.426
        83 -10.7293     51.4453     69.7299   1.2622796697e+02   5.8478412758e+01    0.2620142    0.1324127 -65.70 0.0009134177    1.994    0.499
        84 -10.5356    195.3832     68.8840   8.4945412713e+01   2.6720447638e+01    0.2465165    0.2033484  80.44 0.0005759908    1.352    0.260
        85 -10.2047    219.5327     65.9490   8.0653697783e+01   2.1399405132e+01    0.2751764    0.1854544  39.06  0.001371589    1.661    0.398
        86 -11.6065     19.4561     59.3827   1.3852165907e+02   6.4156375670e+01    0.3610651    0.2138805 -53.30  0.001545942    1.507    0.336
        87 -12.3159     36.8811     63.9573   1.3124090329e+02   6.1561013625e+01     1.045589    0.4184407 -75.71  0.003755126    3.268    0.694
        88 -11.1911    232.4924     60.5068   7.7657116047e+01   1.9184353811e+01    0.2447875    0.1078371  50.33   0.00104202    2.437    0.590
        89 -11.5642      9.0369     56.7747   1.4318843180e+02   6.5393258276e+01    0.6068349    0.3196258  68.77  0.002985047    2.226    0.551
        90 -11.2510    223.6160     71.1020   8.1454720044e+01   1.9807709787e+01    0.2596802    0.2311608 -37.57 0.0004289431    1.077    0.071
        91 -10.0814     39.4512     52.9968   1.2708750342e+02   6.3902484950e+01    0.2023704      0.12047 -58.84  0.001000304    1.515    0.340
        92 -11.7027     20.9420     51.0790   1.3603927567e+02   6.6055215579e+01    0.5578479    0.2535397 -68.01  0.002613044    1.909    0.476
        93 -10.8042    149.7652     52.6132   8.8286603166e+01   4.0960347804e+01    0.2263572    0.1489189  72.30 0.0009519476    1.690    0.408
        94 -12.9908     27.5385     59.9002   1.3470960200e+02   6.3415349450e+01    0.7780247    0.4465015  44.91   0.00394085    1.940    0.485
        95 -10.9578     93.9820     49.8949   1.0259530599e+02   5.5346918488e+01    0.4014594    0.2228469  43.18  0.001670606    1.813    0.448
        96 -11.2265     82.4759     44.8597   1.0478801951e+02   5.8777173267e+01    0.3355191    0.2501391 -37.09 0.0007934668    1.343    0.255
        97  -9.8690    157.1465     44.8496   8.4147095185e+01   4.0149657389e+01     0.212303    0.1764131  37.04 0.0004442226    1.279    0.218
        98 -11.0867      5.4016     43.0664   1.4285054011e+02   6.8834498736e+01    0.4256777    0.2073504 -81.25  0.002135604    1.898    0.473
        99 -11.7680    221.5636    248.8460   1.1608246515e+02  -1.2116703514e+00    0.4564045    0.1429892  43.63  0.002089333    3.760    0.734
       100 -11.1251     30.8032     35.9038   1.2617946130e+02   6.8747332234e+01    0.2104719    0.1594641 -34.60 0.0005811074    1.274    0.215
       101 -10.6853    119.5520     33.7286   8.8248213610e+01   5.1885026549e+01    0.3059797    0.2515387 -59.25  0.001081226    1.348    0.258
       102 -11.1012     42.9781     38.9969   1.2052901022e+02   6.6667350521e+01    0.2844509    0.2545224  84.35 0.0008263701    1.330    0.248
       103 -11.1762    103.4721     30.1823   9.1181973007e+01   5.6530761246e+01    0.5480988     0.374887  79.04  0.002046474    1.912    0.477
       104 -12.0019     24.4773    241.3131   1.5088197550e+02   2.4782760007e+01    0.3795142   0.07343533  53.98  0.001840304    3.090    0.676
       105 -10.5679     40.9404     26.2028   1.1621122315e+02   6.9639967964e+01    0.2531313    0.2022403 -78.50 0.0005441667    1.687    0.407
       106 -10.4348    239.9161     20.9254   6.6915393190e+01   2.1977982883e+01    0.1972006    0.1701789 -47.37 0.0005441826    1.004    0.004
       107 -10.8770      8.5382    240.4832   1.5371176104e+02   2.6407616148e+01    0.1948841   0.07279041  33.01  0.001102558    2.119    0.528
       108 -11.3444     29.7134    233.1183   1.4964505679e+02   2.5569441869e+01    0.4111263    0.1198375  54.41  0.002208121    2.377    0.579
       109 -10.6363     12.8052    227.1856   1.5262985439e+02   2.8169770380e+01    0.1586784   0.09284781  56.28 0.0005452576    1.168    0.144
       110 -10.2121    103.6153    225.1999   1.3468079400e+02   1.7952517226e+01    0.1319971    0.1085017 -47.15 0.0009510423    1.686    0.407
       111 -10.9867     95.9497    224.8634   1.3618362866e+02   1.9051370029e+01    0.3210139    0.1189926  47.68  0.001599211    2.131    0.531
