#   1 NUMBER                 Running object number                                     
#   2 MAG_AUTO               Kron-like elliptical aperture magnitude                    [mag]
#   3 X_IMAGE                Object position along x                                    [pixel]
#   4 Y_IMAGE                Object position along y                                    [pixel]
#   5 X_WORLD                Barycenter position along world x axis                     [deg]
#   6 Y_WORLD                Barycenter position along world y axis                     [deg]
#   7 A_WORLD                Profile RMS along major axis (world units)                 [deg]
#   8 B_WORLD                Profile RMS along minor axis (world units)                 [deg]
#   9 THETA_WORLD            Position angle (CCW/world-x)                               [deg]
#  10 FWHM_WORLD             FWHM assuming a gaussian core                              [deg]
#  11 ELONGATION             A_IMAGE/B_IMAGE                                           
#  12 ELLIPTICITY            1 - B_IMAGE/A_IMAGE                                       
         1 -13.4305    214.7783     55.6444   1.6423656605e+00   2.5127904662e+01     1.186646      1.08685   3.65  0.005984344    1.460    0.315
         2 -13.5418    228.7595     46.4967   3.5836003817e+02   2.3617379466e+01    0.9081943    0.8453844  41.70  0.004694366    1.479    0.324
         3 -10.9819      2.3859     22.7854   5.6309867347e+01   7.5580902162e+01    0.3744908    0.1980283 -54.93   0.00195987    1.713    0.416
         4 -10.1655      2.3192      8.5435   4.8663472413e+01   7.8401464497e+01    0.2154261    0.1026871 -51.78  0.001090686    2.034    0.508
         5  -9.4109    148.5109      8.4863   3.5540493776e+02   4.5888905501e+01    0.1351161    0.1135319 -75.86 0.0008104228    1.008    0.008
         6  -9.9589    188.6157      2.3894   3.5067181167e+02   3.6945554105e+01     0.370054    0.1243384 -55.44  0.001600043    2.524    0.604
         7  -9.6916      2.4529      2.0118   4.3852179218e+01   7.9541265710e+01    0.1877328    0.1441667  15.00 0.0009166219    1.209    0.173
         8  -9.3776    185.2755    237.4519   4.1779111362e+01   1.8841995444e+00    0.1558099    0.1391197 -54.00 0.0006492197    1.791    0.442
         9  -9.9878     75.0981    248.2722   6.5356202413e+01   1.3517624366e+01    0.4347051    0.1656656 -50.88  0.002038497    3.402    0.706
        10  -9.9482     40.4640    249.8176   7.2941738415e+01   1.7082524070e+01    0.3413459    0.1273305  42.11  0.001751817    1.891    0.471
        11 -11.0564     42.6708    245.5199   7.2227990129e+01   1.7638576824e+01    0.2929139    0.2392752  52.84 0.0006810652    1.101    0.092
        12 -12.7230     57.9741    159.3750   6.0589378184e+01   3.4941616767e+01     2.660176     1.375141 -15.32  0.006307744    8.139    0.877
        13 -14.2006     57.2933    233.5392   6.8183291736e+01   1.8291644233e+01     4.882068     2.131938 -58.03   0.02422446    2.701    0.630
        14 -14.8262     70.3788    148.0184   5.5069203202e+01   3.6065216445e+01     7.897317     4.034937  74.20  0.008357485    3.773    0.735
        15 -10.3801    114.5236    226.0068   5.4473835443e+01   1.2544416977e+01    0.3109001    0.2098148 -23.34  0.001732831    1.911    0.477
        16 -12.1142     87.1895    222.4117   6.0278160453e+01   1.6796440798e+01     1.122944    0.5085503  41.70  0.005373109    1.865    0.464
        17 -10.8094     97.6717    223.6760   5.7994349654e+01   1.5191279400e+01    0.5414717    0.2677687 -63.46  0.002413969    2.496    0.599
        18 -10.4338     71.9728    225.9489   6.4171279623e+01   1.8025260654e+01    0.3792481    0.2033999  44.42  0.001961862    1.572    0.364
        19  -9.3822     67.1243    221.6443   6.4927761094e+01   1.9473528369e+01    0.1897526    0.1691851  74.63  0.000332394    1.196    0.164
        20 -10.7610    173.6075    224.2940   4.2073566088e+01   5.1251123351e+00    0.3723127    0.1795901  16.84  0.001517516    2.408    0.585
        21  -8.6169    118.4508    221.9806   5.3113812932e+01   1.2738508985e+01    0.1596204    0.1264436 -52.92 0.0003928151    1.488    0.328
        22  -9.1886     96.1486    211.8498   5.6993461297e+01   1.7677910324e+01     0.301322    0.1809242 -77.96  0.001475584    2.340    0.573
        23  -9.8529    103.7252    204.0851   5.4217287674e+01   1.8175951238e+01    0.2256556    0.1620335  41.81 0.0005881693    1.261    0.207
        24  -9.1355    211.0407    199.0362   3.1472043940e+01   4.0997706185e+00    0.1757281    0.1378977  -9.01 0.0004880457    1.030    0.029
        25 -11.2576     96.7571    196.2399   5.4883549723e+01   2.0791168058e+01    0.3945066     0.304462  44.23  0.001658411    1.188    0.158
        26 -12.5692    102.2827    194.4410   5.3270078603e+01   2.0365393690e+01     1.359781    0.7073544   7.62  0.004493367    4.341    0.770
        27 -10.8671    112.6925    196.4417   5.1021823451e+01   1.8417318245e+01    0.3624921    0.2353754  -1.79  0.001670735    2.278    0.561
        28 -10.9085    115.1307    191.8724   4.9768211105e+01   1.8980677530e+01    0.3265076    0.2540202  47.94  0.001229389    1.286    0.223
        29 -12.9004     57.9133    144.9948   5.8539740750e+01   3.8657545829e+01     0.822799      0.65958  -7.88   0.00120481    1.608    0.378
        30 -10.3590    123.8655    189.9103   4.7391346535e+01   1.8046641185e+01    0.2762566    0.1785105 -46.80  0.001416457    1.658    0.397
        31  -9.0109     73.0988    190.0666   6.0178939477e+01   2.5475041323e+01    0.2028176    0.1880336  -0.50  0.000704826    1.242    0.195
        32 -15.1348      8.2440    241.3088   7.9503700262e+01   2.1823778359e+01     2.057987     1.240328  31.20   0.01093224    1.412    0.292
        33  -8.8033    207.5319    189.9958   3.0543355122e+01   5.8430519619e+00    0.1772437    0.1017153 -33.66  0.001021022    1.569    0.363
        34 -10.1969    101.0490    183.8705   5.2063528152e+01   2.2812137934e+01    0.2737297    0.2195312 -83.08  0.001360222    1.472    0.321
        35 -11.1352    115.8991    181.8630   4.8034110886e+01   2.0937615424e+01     0.367394    0.2829661  -2.10  0.001921785    1.573    0.364
        36  -9.2584     81.9213    180.7442   5.6635670505e+01   2.6369270782e+01    0.2827716    0.2121724   0.81 0.0009455399    1.726    0.421
        37 -15.6182      5.7166    216.3215   7.9250604890e+01   2.7097793719e+01     3.668766     1.467952  14.84    0.0157442    3.279    0.695
        38  -9.9080    176.5208    169.9498   3.2548225187e+01   1.3510482092e+01    0.2004697    0.1210805 -40.40  0.001032768    1.592    0.372
        39  -9.3477    101.4071    168.2975   4.9522719630e+01   2.6235095022e+01    0.4366094    0.1792751 -43.66  0.001308339    2.957    0.662
        40  -9.6298    180.5349    168.0079   3.1416183979e+01   1.3216513572e+01    0.3130345    0.1198247 -44.70  0.000980128    2.588    0.614
        41  -9.7950    178.5675    163.8931   3.1008596253e+01   1.4243430578e+01    0.2843782    0.2272297  63.47  0.001609017    1.749    0.428
        42  -9.2950    110.7777    167.5517   4.6940773488e+01   2.4866508390e+01    0.2542685    0.2074969 -67.87 0.0007728991    1.356    0.263
        43 -10.0793    238.8904    161.8210   2.0757173172e+01   5.7990190768e+00    0.1763167      0.13099 -12.28 0.0005929797    1.212    0.175
        44 -14.5732     10.2243    206.6682   7.7795748600e+01   2.8794334954e+01     1.249671    0.7662694  22.52  0.007085005    1.668    0.401
        45  -8.8544     54.0082    155.7105   6.1317347569e+01   3.6406831138e+01    0.2021307    0.1772003  48.79 0.0003111993    1.076    0.070
        46 -15.3231     24.4577    180.1681   7.2573733343e+01   3.3627441195e+01     7.687307     2.449496  81.30    0.0143396    5.326    0.812
        47  -9.8570    134.3516    148.8995   3.7498867608e+01   2.4813874115e+01    0.5140952    0.2466616 -58.14  0.001935395    2.622    0.619
        48  -8.4736    112.5495    151.0373   4.3437908429e+01   2.8290951339e+01    0.2095668    0.1461091 -54.37  0.000384298    1.477    0.323
        49  -8.5580     86.0593    149.6823   5.0607469774e+01   3.3169705983e+01    0.1993565    0.1788196  46.15 0.0002277513    1.069    0.064
        50 -10.5082     36.9521    142.9767   6.5183095263e+01   4.1843287481e+01    0.4471528    0.2641455  81.06  0.000776067    1.867    0.465
        51 -10.2545    236.1798    146.0130   1.8211861635e+01   8.3915561852e+00    0.1973316    0.1170586 -14.72  0.001079561    1.979    0.495
        52 -10.2418    109.0433    145.4386   4.3270222819e+01   3.0210205941e+01    0.2931017    0.2815834  20.46 0.0006757875    1.077    0.072
        53  -9.6959    110.7550    140.9622   4.1887510277e+01   3.0937843263e+01    0.3443369    0.2440917 -77.76  0.001539055    1.818    0.450
        54  -8.7942    238.0153    235.4762   3.2823382204e+01  -3.4271586147e+00    0.1467742   0.06826376   7.70 0.0008101007    2.581    0.613
        55  -7.9913    118.3054    142.6245   4.0219648101e+01   2.9157508087e+01    0.1560073    0.1176936  82.42  0.000702948    1.770    0.435
        56 -13.8289      6.9108    188.3605   7.7840332083e+01   3.3267650027e+01     1.808273     1.130955  59.35  0.006055971    1.340    0.254
        57 -10.0742     50.8426    136.9392   5.9638533880e+01   4.1741237432e+01    0.2749614    0.1998272  38.71 0.0002899633    1.336    0.251
        58 -10.2458     72.9753    233.7804   6.4629384608e+01   1.6399392301e+01    0.3222615    0.2212509 -83.80 0.0008996879    1.791    0.442
        59 -10.4245     96.3056    134.2657   4.4577064413e+01   3.5180581759e+01    0.5600203    0.3870199  -8.59  0.002257266    2.411    0.585
        60 -11.2482     44.1983    133.4269   6.1391355166e+01   4.3534052820e+01     0.586746    0.4097814 -52.25  0.001402718    1.492    0.330
        61  -9.8237     36.0834    134.7292   6.4417585593e+01   4.4148991961e+01    0.3321464    0.2185623  32.53  0.001070883    1.507    0.336
        62 -11.5766     82.8054    132.2877   4.8280042237e+01   3.8058254231e+01    0.3127662    0.2806285 -57.16 0.0004591506    1.136    0.120
        63 -10.0080    105.2521    130.5835   4.1186915253e+01   3.4403815220e+01    0.3960041    0.3300732 -63.93  0.001166338    1.231    0.188
        64  -9.3499    107.4792    126.5186   3.9638258483e+01   3.4936054358e+01    0.2915012    0.2511554   7.73 0.0008151339    1.386    0.279
        65  -9.2026    135.5186    130.0474   3.3127744858e+01   2.8617107899e+01    0.2276942    0.1441403 -45.99 0.0005640129    1.557    0.358
        66  -8.7435     33.4807    128.9382   6.4559289556e+01   4.6001087378e+01    0.2149641    0.1104078  75.19 0.0008078906    2.472    0.595
        67  -9.5332    242.3258    126.3269   1.3648947652e+01   1.0329192908e+01    0.1172555   0.08168879  -8.38 0.0007049781    1.697    0.411
        68  -9.9773     35.9103    125.0815   6.3120261566e+01   4.6772765124e+01    0.4700384    0.2018065  50.51  0.001554027    2.525    0.604
        69 -10.5558     93.9822    121.8379   4.2533983369e+01   3.8641438914e+01    0.3345215    0.2858028   2.61 0.0006924577    1.441    0.306
        70 -11.7241    132.1877    229.6805   5.1113260636e+01   9.5943923726e+00     0.469409    0.2930622  21.29  0.002702488    1.449    0.310
        71 -14.0918     37.3489    173.6779   6.8359793679e+01   3.3869923157e+01     3.180055     1.442183  77.59   0.01219933    2.843    0.648
        72  -9.2814    114.6390    121.6991   3.6518952984e+01   3.4640844090e+01    0.2373171    0.1879025  -8.52  0.001093534    1.705    0.413
        73  -8.9526     86.1571    121.8418   4.4980153538e+01   4.0087948429e+01    0.2450302    0.2107687  75.16  0.001226715    1.219    0.180
        74  -9.2930     22.7934    120.1389   6.7367339784e+01   4.9477507900e+01    0.3837655    0.1843594 -88.46  0.001512353    2.289    0.563
        75 -11.3264     27.6724    118.4279   6.5260073096e+01   4.9466499943e+01    0.5234922    0.2505825  40.76  0.001882494    2.025    0.506
        76  -8.8986    222.9044    119.1137   1.4689772187e+01   1.4371932956e+01    0.1890336    0.1435485 -46.04 0.0005115551    1.221    0.181
        77 -11.1469    243.8188    114.2564   1.1107725733e+01   1.1815400791e+01    0.3029378    0.1972045 -55.51  0.001839739    1.732    0.423
        78  -9.4810    105.0048    116.2133   3.7900072034e+01   3.7845185302e+01    0.2464297    0.2169847 -56.19 0.0003108954    1.131    0.116
        79  -9.9332    234.9479    112.1321   1.1726842130e+01   1.3481226404e+01    0.3959965    0.1235315 -44.34  0.001625756    2.856    0.650
        80 -10.9101     32.5234    111.4721   6.2285654211e+01   5.0841207667e+01    0.4036353    0.2649797  60.28 0.0007909571    1.634    0.388
        81 -10.4621    246.6932    110.0196   9.9471493689e+00   1.1978011972e+01     0.176248    0.1225718 -35.82 0.0007565003    1.114    0.103
        82  -8.6857     20.0000    108.9880   6.6977466505e+01   5.2763025646e+01    0.2309401    0.1498495  58.23 0.0004637751    1.605    0.377
        83  -9.0546    134.5673    106.5823   2.7623501950e+01   3.3779113173e+01    0.2820465    0.1355774 -54.34 0.0008985865    2.360    0.576
        84 -10.5849     24.0911    105.1221   6.4704968303e+01   5.3433077876e+01     0.322508    0.2996952 -47.13 0.0007225589    1.131    0.116
        85  -9.0425     13.8533     99.8295   6.8292051051e+01   5.5754244441e+01      0.19372    0.1511756  59.14 0.0003755966    1.305    0.234
        86 -10.5120     53.2680     97.5090   5.1064783920e+01   5.1853353104e+01     0.357127    0.1843184 -65.55  0.001408873    2.011    0.503
        87  -8.7575     37.9875     97.6795   5.7448638604e+01   5.3909383581e+01    0.1987674    0.1853812  38.26 0.0003486001    1.114    0.102
        88  -9.7916    148.4323    229.6966   4.7758751773e+01   7.4926647781e+00    0.2044412    0.1203137 -53.07  0.001016611    2.162    0.537
        89  -9.2840     57.0135     94.4874   4.8807840652e+01   5.2049289283e+01    0.2245948    0.1488506  35.50 0.0005237493    1.529    0.346
        90  -8.7310     21.4784     90.9399   6.3441633825e+01   5.7492603880e+01    0.2128484    0.1319744 -70.14 0.0003770217    1.500    0.333
        91 -10.7900     53.6546     87.9008   4.8453953108e+01   5.4251477214e+01    0.3865983     0.264731 -68.66  0.001777672    1.539    0.350
        92  -8.2547    164.3051     89.2804   1.6858903807e+01   3.0585160150e+01    0.1358191    0.1143755  10.98 0.0003530938    1.554    0.356
        93 -10.0604     32.8545     87.1468   5.7422849085e+01   5.7303361288e+01    0.2259937    0.2105816 -82.83  0.001277066    1.050    0.048
        94 -10.3655     29.6749     84.9905   5.8414205672e+01   5.8229351501e+01    0.2448913    0.2071469  31.29 0.0003206264    1.234    0.190
        95  -8.4835     17.5899     83.8103   6.3954972650e+01   5.9729153547e+01    0.1867966    0.1278692 -87.42  0.000294573    1.522    0.343
        96  -9.6872     46.8244     79.4605   4.9077851784e+01   5.7411129811e+01    0.2798571    0.2317946 -77.47 0.0006517668    1.279    0.218
        97  -9.0982     43.1574     77.1617   5.0097356254e+01   5.8517927534e+01    0.2111251    0.1932298 -22.59 0.0003503929    1.155    0.134
        98  -8.4806     71.6815     77.3177   3.8046177628e+01   5.3633738703e+01    0.1564299    0.1196702  81.04 0.0002345331    1.658    0.397
        99  -9.6735     50.4679     70.0349   4.4545735046e+01   5.9129181782e+01    0.2704103    0.1956768  52.69 0.0006687401    1.513    0.339
       100  -8.7127      1.6655     70.3029   6.9765041471e+01   6.4353212876e+01     0.138366   0.09303955  57.02 0.0005264563    1.661    0.398
       101 -12.1735    204.7200     61.8815   4.1443825753e+00   2.6290602240e+01    0.4778264     0.455848 -65.04  0.001123926    1.181    0.153
       102  -9.1959    150.9956    249.2034   4.9719985496e+01   4.2602109013e+00     0.165691    0.1118837 -13.67  0.001062698    1.623    0.384
       103  -9.5413    137.9779    247.4481   5.2075753059e+01   6.0706068766e+00    0.1637949    0.1434916   4.98 0.0005482219    1.152    0.132
       104 -11.4564     13.3016     60.2520   6.1076969446e+01   6.6120741544e+01    0.5430924    0.4037127 -15.22  0.001569669    1.459    0.315
       105 -11.3038      7.2196     59.3897   6.4473697137e+01   6.6789115209e+01    0.3850197     0.325007 -69.88  0.001565475    1.131    0.116
       106 -10.6924      2.1385     57.1456   6.7063436306e+01   6.7656876667e+01    0.3717975    0.2620567 -70.71 0.0008854703    1.315    0.239
       107  -8.7623     86.2189     62.2210   2.7589543795e+01   5.3816909035e+01    0.2123085    0.1761121 -89.44 0.0007176785    1.383    0.277
       108 -10.6905     16.1163     50.8425   5.6692636226e+01   6.8148620977e+01     0.440466    0.2044352  36.93  0.001935579    2.274    0.560
       109  -9.3952     46.2959     50.8002   3.9529713805e+01   6.4130112155e+01    0.3107232     0.188735  36.86  0.001450624    1.644    0.392
       110  -9.1701     90.5054     66.0510   2.7557319871e+01   5.2091858604e+01    0.2833214    0.2110186  71.65 0.0007026918    1.544    0.352
       111 -11.2547      3.5737     40.9753   6.2044961184e+01   7.1465427368e+01    0.4957021    0.3078441 -39.33  0.002398488    1.491    0.329
       112  -9.1346     17.6791     36.6640   5.0477255232e+01   7.1194356055e+01    0.1419569   0.09133726 -25.51 0.0007050014    1.707    0.414
       113 -10.1172     64.0832     63.7455   3.6420880767e+01   5.8133376966e+01    0.2570215    0.2125111 -44.47 0.0002650966    1.221    0.181
       114 -10.7716     45.4271    230.2506   7.0678535818e+01   2.0270138965e+01    0.5090374    0.3035997   9.35  0.001966781    2.246    0.555
       115 -10.5840     21.5704     25.9431   4.2643251355e+01   7.2901897572e+01    0.4911906    0.1544928 -52.34  0.001691494    3.390    0.705
       116 -10.6593      3.3678     26.9573   5.7263279962e+01   7.4620426990e+01    0.3196702    0.2083343  33.49  0.001193573    1.675    0.403
       117 -10.0977    185.0967    245.5713   4.2910050806e+01   8.3938197615e-01    0.1989661    0.1508362 -24.46  0.001124095    1.353    0.261
       118  -9.4675     60.7691     21.5461   1.8888686247e+01   6.6407671197e+01     0.241381    0.2165102 -66.76 0.0006857351    1.279    0.218
       119  -9.1910    189.3073     15.0300   3.5387094545e+02   3.5510180227e+01    0.1818282    0.1416447 -50.26  0.000599793    1.122    0.109
       120 -10.3886    118.6928    231.6999   5.4238997941e+01   1.1007311798e+01    0.2216592    0.1729893   8.44  0.001412919    1.280    0.219
       121  -8.9953     97.0898    241.2998   5.9962263982e+01   1.2090420664e+01    0.1774282    0.1560377 -43.31  0.001243548    1.389    0.280
       122  -9.6652    103.8570    237.9482   5.8150903362e+01   1.1826816089e+01    0.2176249    0.1786153 -56.02 0.0007930066    1.492    0.330
