#   1 NUMBER                 Running object number                                     
#   2 MAG_AUTO               Kron-like elliptical aperture magnitude                    [mag]
#   3 X_IMAGE                Object position along x                                    [pixel]
#   4 Y_IMAGE                Object position along y                                    [pixel]
#   5 X_WORLD                Barycenter position along world x axis                     [deg]
#   6 Y_WORLD                Barycenter position along world y axis                     [deg]
#   7 A_WORLD                Profile RMS along major axis (world units)                 [deg]
#   8 B_WORLD                Profile RMS along minor axis (world units)                 [deg]
#   9 THETA_WORLD            Position angle (CCW/world-x)                               [deg]
#  10 FWHM_WORLD             FWHM assuming a gaussian core                              [deg]
#  11 ELONGATION             A_IMAGE/B_IMAGE                                           
#  12 ELLIPTICITY            1 - B_IMAGE/A_IMAGE                                       
         1 -12.8794    171.7577     29.2896   7.7996418125e+01   3.8840460440e+01     1.205142    0.8789052  15.39  0.004516061    1.642    0.391
         2 -11.6392    175.5826     22.4057   7.5145562430e+01   3.8649105661e+01    0.5117404    0.4361277   6.50  0.001254388    1.291    0.225
         3  -9.7369     20.5654    214.4031   1.5018302648e+02   2.9059349268e+01    0.3237222    0.1394509  50.78   0.00183049    1.828    0.453
         4 -19.4056     50.4168    138.5535   1.3757112622e+02   4.1169743416e+01     18.67887     2.232675 -65.85   0.04593644    7.741    0.871
         5  -9.2341    115.4898    214.5214   1.3360132504e+02   1.6731002063e+01    0.1191802   0.09893291  57.39 -4.136351e-05    1.061    0.057
         6  -9.3319    166.2996    210.0529   1.2363915743e+02   8.9434475690e+00    0.1692649    0.1512885  46.33 0.0003748388    1.073    0.068
         7  -8.4185    123.6700    209.2893   1.3145389555e+02   1.6313878296e+01    0.1258253   0.08160531  67.33  0.000377794    1.622    0.383
         8 -10.8517     16.0096    206.4684   1.5049395907e+02   3.0936026132e+01    0.2142095    0.1560047  82.16 0.0009627466    1.101    0.092
         9 -11.2819     11.6644    206.0481   1.5118925179e+02   3.1427014950e+01    0.3557749    0.2626534  47.82  0.002241316    1.496    0.332
        10  -9.1200    130.0671    205.7193   1.2979026655e+02   1.5870734493e+01    0.1760066    0.1361178  50.36 0.0004571476    1.101    0.092
        11  -8.5325     22.3636    205.2345   1.4935951061e+02   3.0534603895e+01   0.08260509   0.07745542 -81.37 0.0003059542    1.591    0.372
        12 -10.5526    168.2824    233.2826   1.2653499332e+02   5.2773126889e+00    0.2476186    0.1172825  56.85  0.001178645    2.551    0.608
        13 -10.3910    110.8743    197.6881   1.3241504680e+02   2.0431148116e+01    0.1916792    0.1512771  34.70  0.001195121    1.452    0.311
        14 -10.0418    192.6237    194.1051   1.1619334366e+02   6.6053055844e+00    0.3973563    0.2097282 -62.98  0.001310575    5.743    0.826
        15 -11.1633    157.8216    230.9564   1.2804823276e+02   7.3167082805e+00    0.2286751    0.1601675 -61.42  0.001463315    1.882    0.469
        16  -9.1166    124.7091    186.3280   1.2811891110e+02   2.0247694893e+01    0.1316129    0.0923413  75.66 0.0004145905    1.620    0.383
        17 -12.2813     96.3319    176.6177   1.3255251027e+02   2.6778171716e+01    0.6917268    0.3563809 -48.86  0.002767446    2.314    0.568
        18 -11.2692    101.4628    165.4197   1.2984033192e+02   2.8254666586e+01    0.4171049    0.3174454 -12.02 0.0009658745    2.376    0.579
        19  -9.2633    227.6318    170.8701   1.0545083349e+02   3.4352502809e+00    0.1821622    0.1186311 -41.33 0.0009431265    1.760    0.432
        20  -9.8096    113.4934    169.4670   1.2787490138e+02   2.5437781245e+01    0.1336748    0.1173563  72.36 -2.081295e-05    1.025    0.024
        21 -12.2354    106.1639    157.0229   1.2746214440e+02   2.9235997818e+01    0.5777447    0.3524701 -42.23  0.002806816    2.029    0.507
        22 -11.9717    145.0080    229.0746   1.3005412384e+02   9.6823295269e+00    0.3785688    0.2548451  44.17  0.002425428    1.210    0.173
        23 -10.1106     93.7374    148.5820   1.2888581461e+02   3.3058926717e+01    0.1891806    0.1163738  53.47 0.0009511105    1.630    0.387
        24  -8.4834      1.3370    219.6728   1.5346465271e+02   2.9969851897e+01    0.1075229   0.04639092  66.29 0.0002559726    1.726    0.420
        25 -11.1036    114.3582    141.5523   1.2279777911e+02   3.1109905298e+01    0.4604456    0.1795407 -47.82  0.001752019    2.640    0.621
        26 -11.1292    103.7722    141.9497   1.2536838041e+02   3.2862872420e+01    0.2902415    0.2695591  64.25 0.0005707654    1.093    0.085
        27 -10.8735    106.8394    129.2082   1.2213922869e+02   3.5120429559e+01    0.4912658    0.2787743 -41.71  0.001947021    1.986    0.497
        28  -9.6974    119.1449    131.1288   1.1954280743e+02   3.2476751062e+01    0.2217068    0.1983768 -24.54  0.001227848    1.315    0.239
        29 -11.1651     89.7591    122.7887   1.2512695222e+02   3.9389853659e+01    0.2951316    0.2305685   3.91   0.00151365    1.913    0.477
        30  -9.1306    113.4678    120.4157   1.1859192916e+02   3.5853443262e+01    0.1421013    0.1349818 -82.06 -6.218391e-05    1.015    0.014
        31 -11.1703    159.6812     44.5476   8.5260836273e+01   3.9935445307e+01    0.3712412    0.3126625  65.34  0.001061253    1.221    0.181
        32  -9.5341    139.9588    217.9859   1.2956231902e+02   1.2207502236e+01    0.1873309    0.1516477  55.43 0.0005063622    1.046    0.044
        33 -11.6050    148.5301    237.4611   1.3045554891e+02   7.9049590398e+00    0.3919818     0.249668  80.45  0.002187624    2.516    0.602
