#   1 NUMBER                 Running object number                                     
#   2 MAG_AUTO               Kron-like elliptical aperture magnitude                    [mag]
#   3 X_IMAGE                Object position along x                                    [pixel]
#   4 Y_IMAGE                Object position along y                                    [pixel]
#   5 X_WORLD                Barycenter position along world x axis                     [deg]
#   6 Y_WORLD                Barycenter position along world y axis                     [deg]
#   7 A_WORLD                Profile RMS along major axis (world units)                 [deg]
#   8 B_WORLD                Profile RMS along minor axis (world units)                 [deg]
#   9 THETA_WORLD            Position angle (CCW/world-x)                               [deg]
#  10 FWHM_WORLD             FWHM assuming a gaussian core                              [deg]
#  11 ELONGATION             A_IMAGE/B_IMAGE                                           
#  12 ELLIPTICITY            1 - B_IMAGE/A_IMAGE                                       
         1 -11.6220    159.3163     51.9641   7.5034720472e+01   3.8818546418e+01     1.106449    0.9081342  -6.34  0.004626348    1.292    0.226
         2  -8.1246    171.9993     12.9880   5.9280465598e+01   4.0561107432e+01    0.3110538    0.1688482  31.02 0.0004122625    2.193    0.544
         3 -10.8140    174.3871     22.5994   6.2244485436e+01   3.8872808884e+01    0.9392718    0.6587637 -28.05  0.004489424    1.420    0.296
         4 -10.0464    168.0315     21.6592   6.2967060955e+01   4.0669058590e+01    0.6953448    0.4036193 -24.94  0.003026521    1.715    0.417
         5  -8.7344    120.6253      8.8395   6.7289876544e+01   5.4165936500e+01    0.2970884    0.2528156  21.23   0.00165626    1.106    0.096
         6  -8.1369      2.8075    244.9465   1.3676640644e+02   2.7546551553e+01    0.1586583    0.1096117  27.01  0.001362554    2.476    0.596
         7 -13.2902     49.4037    244.8265   1.3020934006e+02   2.2990290636e+01    0.3163351     0.283423  82.29 0.0009804309    1.552    0.356
         8 -18.1497     74.3612    225.8214   1.2526652075e+02   2.2835524836e+01       3.7876     2.695034  68.70   0.01313415    1.124    0.111
         9  -9.2124    186.3494    172.8334   9.9140076692e+01   1.3333276570e+01    0.2861272    0.1884378 -34.24    0.0015141    1.763    0.433
        10  -8.9634    187.4338    167.1351   9.7940812552e+01   1.3933468917e+01    0.4132163    0.1714534 -44.69  0.001800498    2.956    0.662
        11  -7.2682    232.3050    205.6618   9.6822975214e+01   1.5091839300e+00   0.09835666   0.08765672  60.48 0.0007040276    1.674    0.403
        12  -7.9119    216.8043    201.9937   9.8717774377e+01   4.4109543941e+00     0.152957    0.1232101  26.50  0.001085828    1.059    0.056
        13  -8.0519      5.2527    173.0491   1.3379977450e+02   3.8775798075e+01    0.1781752   0.07820696 -62.63  0.001118308    2.503    0.600
        14  -9.0139    193.9809    172.4496   9.7702387297e+01   1.1982963699e+01    0.2122867    0.1839528 -61.33  0.001215408    1.559    0.359
        15  -9.3334    142.9707    171.5719   1.0707784451e+02   2.1323632185e+01    0.2207366    0.1721589 -84.04 0.0006604622    1.586    0.369
        16  -8.5707      9.8987    168.7144   1.3274049878e+02   3.9176820004e+01    0.1776261    0.1270657 -75.36 0.0007269993    1.409    0.290
        17  -8.5927    175.6595    167.6754   1.0020933059e+02   1.6048584380e+01    0.2178743     0.149953 -65.99  0.001136186    2.242    0.554
        18  -8.7061    152.1834    163.5988   1.0400248453e+02   2.0995584905e+01    0.1999187    0.1733068 -74.16 0.0003964826    1.344    0.256
        19  -9.1352    139.9047    163.2851   1.0637678490e+02   2.3237549019e+01    0.2709551    0.1864576  65.92 0.0005469927    1.619    0.382
        20  -8.8557    249.1283    161.1216   8.6316026785e+01   3.3054375004e+00    0.1967032    0.1599513  15.61 0.0003048064    1.024    0.023
        21 -10.9102    145.8956    156.8597   1.0410803833e+02   2.3260531446e+01    0.6558376    0.3720423  53.03   0.00230726    1.692    0.409
        22 -10.8939    134.0374    147.4716   1.0491610317e+02   2.7054006019e+01    0.8594547    0.4339752 -64.62  0.003604814    2.950    0.661
        23  -9.0214    250.0099    156.3837   8.5244905016e+01   3.6682859251e+00    0.2147187    0.1637976  -8.10 0.0001906456    1.228    0.185
        24  -9.3192    189.0592    154.5026   9.5293307715e+01   1.5447286025e+01    0.4523816    0.3243994  16.35  0.002089695    1.606    0.377
        25  -8.5287    165.8185    227.4728   1.1054039327e+02   9.7188075892e+00     0.197456    0.1478882  63.02  0.001067153    1.478    0.323
        26  -8.5711    171.4572    155.0333   9.8731263074e+01   1.8773441069e+01     0.224747    0.1623167  34.08  0.001248673    1.326    0.246
        27  -8.7263      2.8010    152.6878   1.3322635582e+02   4.2717774957e+01    0.2941768    0.1261147  59.73  0.001848992    1.966    0.491
        28  -8.3703    139.9357    155.1732   1.0502762787e+02   2.4626946619e+01    0.2620442    0.1813388  73.41 0.0008492932    1.832    0.454
        29  -7.6739    155.4862    153.5170   1.0159344591e+02   2.2053731352e+01    0.1320287    0.1177829  52.17 0.0008099117    1.043    0.041
        30  -8.4068    250.1248    151.3127   8.4207943690e+01   4.2114199506e+00    0.2036081    0.1487481   0.58 0.0003418936    1.262    0.207
        31 -10.1063    218.2044    149.7805   8.9128494783e+01   1.0412146671e+01    0.2398367    0.1991883  36.21  0.000345325    1.118    0.105
        32 -10.3904    181.3541    196.8017   1.0386830925e+02   1.0999255347e+01     0.536494    0.2818644 -50.41  0.002874133    2.665    0.625
        33  -8.3282     15.3158    149.3493   1.3053268224e+02   4.2364488083e+01    0.1589847    0.1300921 -81.76 0.0005873771    1.252    0.201
        34 -11.6585    184.6793    212.5327   1.0554595471e+02   8.5035328511e+00    0.8006493    0.4862072 -50.02  0.004324122    2.330    0.571
        35  -9.0173     27.3309    145.8430   1.2778388648e+02   4.1997625956e+01    0.2146946    0.1463689  66.27  0.001536823    1.253    0.202
        36  -9.1734     10.4911    144.8487   1.3121810407e+02   4.3629626472e+01    0.2453116     0.174575 -46.47  0.001785501    2.007    0.502
        37 -11.0650    156.7116    191.0354   1.0738634450e+02   1.5974664883e+01     1.003604    0.5553802 -77.25  0.003399706    6.853    0.854
        38  -8.0666    106.0240    137.0113   1.0921154212e+02   3.3842895984e+01    0.1801399    0.1655015  81.15 0.0006896078    1.029    0.028
        39 -10.5140    117.8681    135.4845   1.0628303928e+02   3.2155814525e+01    0.5603456    0.3630833 -52.04  0.001293079    1.605    0.377
        40  -9.9536     99.3059    126.2971   1.0889513143e+02   3.7069962193e+01    0.6057326    0.2553105  39.43  0.001927437    2.460    0.593
        41 -10.9537    110.1029    133.7805   1.0772798358e+02   3.3808352303e+01     0.712155    0.3755003  57.55  0.001616474    2.135    0.532
        42 -10.1706    103.5124    130.1864   1.0860330309e+02   3.5607948119e+01    0.4195338    0.2513188  54.30  0.002148692    1.683    0.406
        43 -10.5485    153.2744    185.8937   1.0727360654e+02   1.7313564050e+01    0.5195546    0.3511277  88.22  0.001345173    2.458    0.593
        44  -7.9416     23.1792    139.0853   1.2811291562e+02   4.3713250567e+01    0.1515472    0.1230011 -79.05 0.0004521874    1.209    0.173
        45  -7.4865    147.5327    137.4890   1.0020234498e+02   2.6341147137e+01    0.1348228     0.125318  49.55 -4.825156e-05    1.011    0.011
        46 -10.9639    192.3647    194.2153   1.0158008506e+02   9.4429910285e+00    0.8391106    0.3905521 -53.86  0.003581089    4.332    0.769
        47  -8.8230    132.8640    191.1305   1.1174438862e+02   1.9890187782e+01    0.1703163     0.151292  68.63 0.0003578629    1.128    0.114
        48  -8.8899    237.0626    131.7010   8.2134460407e+01   9.0221071897e+00    0.2185167    0.1742767  -5.72 0.0002783579    1.176    0.149
        49  -8.6554    165.2043    132.1210   9.5420644551e+01   2.3773564435e+01    0.2024949    0.1790541  20.92 0.0004716192    1.171    0.146
        50  -8.8105    153.1521    129.9334   9.7472451617e+01   2.6589191018e+01    0.2123413     0.189718  83.61  0.001152901    1.242    0.195
        51  -8.8917    168.8808    188.6569   1.0484843282e+02   1.4234221539e+01     0.185201    0.1732902 -69.35 0.0003856586    1.322    0.243
        52 -13.3037     64.6034    207.3833   1.2554587145e+02   2.6862892992e+01    0.2920698    0.1848684  83.05  0.001185838    1.461    0.315
        53  -8.2866    222.8474    130.3133   8.4185949627e+01   1.2071685585e+01     0.326368    0.1745202 -10.86  0.001358203    2.559    0.609
        54  -8.7513    122.6224    127.1928   1.0364307359e+02   3.2927638801e+01     0.292167    0.1862963  50.27 0.0009291725    1.519    0.342
        55  -9.1088    180.9790    184.7785   1.0208622058e+02   1.2655508399e+01    0.3715558    0.1349571 -40.65  0.001644056    3.305    0.697
        56  -8.3487     90.4537    124.5383   1.1069284871e+02   3.8803208249e+01    0.2510726     0.121456  41.18  0.000718916    2.089    0.521
        57  -8.3692    111.0062    122.2054   1.0536139756e+02   3.5961281691e+01    0.2239481    0.1870886 -59.68 0.0005843534    1.193    0.162
        58  -7.9401     30.0098    122.4950   1.2500279871e+02   4.6497165949e+01    0.1430386    0.1087572  38.65 0.0004374259    1.525    0.344
        59  -9.3928    165.9793    216.8343   1.0922233827e+02   1.0986214660e+01    0.2096745    0.1922575  23.59 0.0006812774    1.250    0.200
        60  -8.6444    129.0094    115.4046   9.9716311082e+01   3.4042633278e+01    0.2496926    0.1923881 -72.14  0.001035481    1.500    0.333
        61  -8.9515    176.0163    208.1994   1.0640511323e+02   1.0444598866e+01     0.189043    0.1663497 -34.67 0.0006101191    1.441    0.306
        62  -9.2955    142.9146    183.4310   1.0883998838e+02   1.9440629945e+01    0.2509405    0.1953925  78.77 0.0009916126    1.495    0.331
        63  -8.9640    122.8780    112.6906   1.0056297004e+02   3.5734901253e+01    0.2365847     0.219288 -75.04 0.0004116679    1.075    0.070
        64  -9.8883     60.5163    109.1285   1.1557700089e+02   4.6136892412e+01    0.3356994    0.3168357 -51.99  0.001484222    1.248    0.199
        65 -10.9963     65.6419    102.7688   1.1312301456e+02   4.6872369125e+01    0.7563767    0.4410864 -57.17   0.00383945    1.543    0.352
        66  -7.9290    184.0885    108.8795   8.6263184713e+01   2.3624902087e+01    0.2196792    0.2028402 -85.51  0.001002717    1.283    0.221
        67 -10.0844    111.5796    107.7993   1.0222747232e+02   3.8780345239e+01    0.5830829    0.2827553  56.55  0.002053989    2.580    0.612
        68  -7.8835    192.2102    108.4079   8.4572513266e+01   2.1881155151e+01     0.225521     0.166439 -36.38 0.0002685315    1.400    0.286
        69  -7.2237      1.3650    107.2812   1.3051096108e+02   5.1847439766e+01    0.1019696   0.06732661 -52.64 0.0006631396    1.683    0.406
        70  -8.2107      1.3340    183.9822   1.3496192681e+02   3.7171664869e+01    0.1278071   0.06780355 -87.11            0    1.510    0.338
        71  -8.4600     99.1791     96.9599   1.0294760006e+02   4.3165527440e+01    0.2167309    0.1932113  51.56 0.0003390791    1.164    0.141
        72  -8.7348    177.1528     85.8083   8.1611323395e+01   2.9017373707e+01    0.2332451    0.2063017  -2.71 0.0002960532    1.165    0.142
        73  -8.2789    139.9323     86.1536   8.9879923361e+01   3.7452527049e+01    0.2102538    0.1918756 -86.33 0.0002538298    1.218    0.179
        74  -9.7923    161.4534    176.2585   1.0429314026e+02   1.7341096215e+01    0.3735692    0.2617489 -70.63  0.001376041    2.091    0.522
        75  -7.6672     17.6602     83.9416   1.2359663634e+02   5.5717424447e+01    0.1599997    0.1173711 -78.05  0.000468637    1.083    0.076
        76  -9.8912    233.2070     76.2844   6.9279869632e+01   1.7068530462e+01     0.329178    0.2554011  -1.01 0.0003132153    1.311    0.237
        77  -9.0747    237.5036     72.0262   6.7537940022e+01   1.6624223647e+01    0.3110754    0.2267553  21.91 0.0008278545    1.482    0.325
        78  -9.0816    149.0659    180.0804   1.0720153896e+02   1.8918348486e+01    0.1877238     0.136252  71.51  0.000565828    1.642    0.391
        79  -8.6708    119.4331     69.0557   9.0046022388e+01   4.5009268407e+01      0.24803    0.2094881  60.88 0.0003594653    1.301    0.232
        80 -10.8110    148.7623     65.1990   8.1616690323e+01   3.9226981502e+01    0.4868917    0.4385404 -64.70  0.001655989    1.240    0.194
        81  -7.5393    235.6354     65.2686   6.6002535909e+01   1.7915136769e+01    0.1429791    0.1086738 -63.87 0.0006994506    1.655    0.396
        82  -9.5782    149.4870     49.6610   7.6376142113e+01   4.1601245776e+01    0.4302106    0.3125633  26.39  0.001022193    1.550    0.355
        83  -9.4769     30.0965    246.9692   1.3306732140e+02   2.4704338287e+01    0.2794886    0.1163704  70.97   0.00181172    2.017    0.504
        84 -10.2394    163.7048     42.1260   7.0852354689e+01   3.9162392782e+01    0.5126838    0.4323314  23.95 0.0008398577    1.221    0.181
        85  -7.6369    176.1138     58.8809   7.3885207733e+01   3.3547363328e+01    0.2028515    0.1714947  14.00            0    1.251    0.201
        86  -9.0657    144.0115     59.0557   8.0745939253e+01   4.1385828301e+01    0.2333376    0.2271677 -21.98 0.0009651841    1.035    0.034
        87 -10.2601    131.7150     46.7584   7.9514061449e+01   4.6288200242e+01    0.2606537    0.2481586  21.83 0.0002535557    1.044    0.042
        88  -7.7949    142.8643     43.1297   7.5596473292e+01   4.4222563267e+01    0.2043178    0.1701432  16.01 0.0003511628    1.268    0.212
        89  -9.1616    226.7965     27.5126   5.6631056684e+01   2.4566056177e+01    0.3795517    0.2262087 -25.35  0.001009857    1.596    0.373
        90  -8.4803    164.4312    244.2535   1.1263389827e+02   8.0148341135e+00    0.3050507    0.1178166  49.68   0.00132671    2.112    0.526
        91 -10.1940    187.9221    177.1784   9.9599935871e+01   1.2447657321e+01    0.5311783    0.2345148  40.77  0.002460585    1.947    0.486
        92  -7.5025     11.6776     23.3149   1.1324282353e+02   6.8916147509e+01    0.1040095   0.08167747  87.13 0.0003862363    1.660    0.398
        93  -7.7633    199.9939     21.4576   5.8121162797e+01   3.2176048879e+01    0.2103156    0.1425666  65.51  5.75698e-05    1.467    0.318
        94 -11.9161    244.4154    239.1653   9.9908195250e+01  -3.2711149601e+00     0.210612    0.1574983  23.90 0.0002623076    1.119    0.106
