#   1 NUMBER                 Running object number                                     
#   2 MAG_AUTO               Kron-like elliptical aperture magnitude                    [mag]
#   3 X_IMAGE                Object position along x                                    [pixel]
#   4 Y_IMAGE                Object position along y                                    [pixel]
#   5 X_WORLD                Barycenter position along world x axis                     [deg]
#   6 Y_WORLD                Barycenter position along world y axis                     [deg]
#   7 A_WORLD                Profile RMS along major axis (world units)                 [deg]
#   8 B_WORLD                Profile RMS along minor axis (world units)                 [deg]
#   9 THETA_WORLD            Position angle (CCW/world-x)                               [deg]
#  10 FWHM_WORLD             FWHM assuming a gaussian core                              [deg]
#  11 ELONGATION             A_IMAGE/B_IMAGE                                           
#  12 ELLIPTICITY            1 - B_IMAGE/A_IMAGE                                       
         1 -12.9515    196.0030     32.2820   6.5698030143e+01   3.2652665718e+01     1.129902    0.7786028  56.45  0.006209422    1.453    0.312
         2 -13.8276    210.3185     14.7628   5.9970061293e+01   3.1366988221e+01      1.22706    0.9464422  35.89  0.007361128    1.857    0.462
         3 -12.1928      2.2440      4.7482   1.0957092208e+02   7.2132211323e+01    0.6394064    0.2951971 -33.83  0.004168549    1.725    0.420
         4 -11.8358    176.8762    242.4583   1.1626129548e+02  -2.1896650401e+00    0.5033765    0.3002419  44.71   0.00170825    1.516    0.340
         5 -10.3211    205.5318    250.3946   1.1197500042e+02  -8.1228167301e+00    0.3040486    0.1022105  35.13 0.0009301895    2.754    0.637
         6 -11.6523    199.4235    246.6440   1.1253562066e+02  -6.5941310682e+00    0.4815698    0.2876263  47.33   0.00247687    1.738    0.425
         7 -10.0027    193.0535    249.9617   1.1428343973e+02  -6.0654435307e+00    0.2169962    0.1878632   5.29 0.0003149746    1.147    0.128
         8 -10.1402    193.8742    245.2824   1.1338499254e+02  -5.4832034845e+00    0.1893741    0.1733055 -44.55   0.00030085    1.332    0.249
         9 -10.4046    184.2875    250.4006   1.1604012511e+02  -4.7007360765e+00    0.2294112    0.1448972  34.97  0.001280444    1.361    0.265
        10 -10.6677    169.7761    248.4641   1.1857385270e+02  -1.9740414715e+00    0.3542973    0.2393724   3.54 0.0007776889    2.253    0.556
        11 -11.5544    149.7000    248.1657   1.2248357927e+02   1.4778732063e+00    0.4104104    0.3157677 -71.65  0.002447136    1.623    0.384
        12 -10.3969    152.5186    243.5171   1.2126389487e+02   1.8051317625e+00    0.2210843    0.1747785 -71.94  0.001305659    1.562    0.360
        13 -12.3439    133.7803    248.8011   1.2570845752e+02   4.0576198591e+00      1.19047    0.3133529  40.31  0.004234487    3.298    0.697
        14 -11.3900    121.6587    244.6762   1.2756993829e+02   6.8401602056e+00    0.4539144    0.2622217 -77.26  0.002189374    2.421    0.587
        15 -12.7441    125.0174    240.4258   1.2635034531e+02   7.0741655767e+00     1.041035    0.4826567  30.95  0.004261511    2.800    0.643
        16 -11.2137    109.7542    247.0183   1.3019714701e+02   8.3586140904e+00    0.5056162    0.3020967 -75.42  0.002031682    2.019    0.505
        17 -10.1965    102.9390    247.3307   1.3155778063e+02   9.3946664295e+00    0.3423124     0.193083  64.66  0.001564182    1.872    0.466
        18 -11.1448     98.8238    246.9265   1.3230781260e+02   1.0123718782e+01    0.5279224     0.337279  71.54  0.002790395    1.614    0.380
        19 -11.1408     87.2761    248.0035   1.3463361913e+02   1.1705430191e+01    0.3549309    0.2938457  43.74  0.001068438    1.319    0.242
        20 -12.1812     16.2192    168.8128   1.4109174131e+02   3.8121522822e+01     1.135815    0.5292034  78.15  0.005181306    2.594    0.615
        21 -14.1899      3.5730    164.5591   1.4349837897e+02   4.0165748849e+01     4.333157    0.6507753 -74.03   0.01250215    5.861    0.829
        22 -14.0750      9.7385    146.0950   1.4014936731e+02   4.3944609887e+01     1.536973    0.8834101 -73.96  0.003619632    1.369    0.269
        23 -12.8865     14.1794    238.7788   1.4706448074e+02   2.3095626242e+01    0.6200345    0.4524814  68.28  0.001659114    1.126    0.112
        24 -13.0559     34.6579    227.7091   1.4265689150e+02   2.3030840772e+01    0.5195765    0.4176143 -68.40  0.001605384    1.446    0.308
        25 -14.1900     41.4116    218.7210   1.4061254286e+02   2.4120296325e+01     1.489978     1.127125  46.75   0.00974485    1.403    0.287
        26 -11.6583     96.8950    239.7257   1.3186887352e+02   1.1827450475e+01    0.5026037    0.3810697 -52.25  0.003024982    1.630    0.386
        27 -10.5059     85.0516    234.6535   1.3363560957e+02   1.4690360019e+01    0.4193051    0.2432845  57.28  0.001543861    1.533    0.348
        28 -11.0902     99.2447    223.3588   1.2940230272e+02   1.4788930680e+01    0.5247346    0.2968085  59.45  0.001168188    1.762    0.432
        29 -10.7546    113.3444    230.4124   1.2740113854e+02   1.0998638263e+01     0.312516    0.2722901  84.04  0.001199228    1.124    0.110
        30 -11.8933    105.5509    228.4302   1.2874750020e+02   1.2700644940e+01    0.8019474    0.4194602  62.97  0.003579848    2.224    0.550
        31 -10.6291     91.0383    241.6923   1.3323740451e+02   1.2357159009e+01    0.3430742    0.2337832  73.90  0.001497557    1.417    0.294
        32 -10.2357     89.8339    238.2026   1.3308673813e+02   1.3236941148e+01    0.3002636    0.1752303 -63.00 0.0008778404    1.815    0.449
        33 -10.8928    166.1024    242.2665   1.1836916469e+02  -3.1505342574e-01     0.351563    0.1875888  44.40  0.001736548    1.649    0.393
        34 -10.1982    157.9335    242.5218   1.2003699778e+02   1.0469419649e+00    0.2244228    0.1995538 -52.90 0.0006452297    1.305    0.233
        35 -12.5386    135.6767    241.0274   1.2428883988e+02   5.1470338273e+00    0.5358346    0.4752413  26.05  0.002375833    1.264    0.209
        36 -11.8077    134.0000    232.9312   1.2349613984e+02   6.9606487125e+00    0.5912825    0.2742925 -39.56  0.002359488    3.305    0.697
        37 -12.2745    135.3685    236.3681   1.2370312082e+02   6.0691373678e+00    0.5228465    0.3971451 -23.47  0.001885429    1.932    0.482
        38 -11.2729    245.1673    240.8922   1.0309399917e+02  -1.2723952075e+01    0.2289184    0.1576995  15.80  0.001437473    1.298    0.230
        39 -10.7069    116.6504    238.5826   1.2779242605e+02   8.8329648413e+00    0.3811428    0.2696509 -33.84  0.001939037    2.145    0.534
        40  -9.1320     61.1428    238.9469   1.3868260836e+02   1.7296703732e+01    0.1931637    0.1307748  67.32 0.0008933361    1.222    0.181
        41 -10.1177    105.0624    237.8528   1.3002548135e+02   1.0886340951e+01    0.2977586    0.1621343  36.05  0.001442302    1.901    0.474
        42 -11.1141    250.0000    235.0184   1.0121462961e+02  -1.2604697043e+01    0.4000782    0.1061348 -37.67  0.001565202    3.707    0.730
        43  -9.5626    173.0200    235.9906   1.1601063935e+02  -4.3646923731e-01    0.1915947    0.1718349  40.43  0.001198562    1.060    0.056
        44 -11.5351    122.6033    233.6040   1.2592801034e+02   8.7958422043e+00    0.4008912    0.3424339  51.14   0.00132514    1.065    0.061
        45 -11.6137    115.3343    250.4640   1.2952095914e+02   6.8115888824e+00    0.6025316    0.2958649  38.52 0.0008725948    1.892    0.471
        46 -10.0913    165.6824    234.6250   1.1727425793e+02   1.0836172352e+00    0.1996318    0.1527001   6.04 0.0006909308    1.656    0.396
        47 -10.8969    156.7680    231.7577   1.1864255553e+02   3.1723320991e+00     0.245956    0.2328202 -31.86 0.0003936123    1.200    0.166
        48 -10.2055     62.9715    232.9623   1.3777092381e+02   1.8267975570e+01    0.1815048    0.1482605  74.73 0.0003223133    1.058    0.055
        49  -8.9487     78.0180    233.1436   1.3485955124e+02   1.6061415770e+01    0.2313175    0.1476765 -85.30  0.001286509    1.579    0.367
        50 -10.7163    142.2269    229.4919   1.2129477203e+02   6.1756513638e+00    0.4067329     0.252987 -34.30  0.001941101    2.250    0.556
        51  -8.6016     57.4578    231.0181   1.3864467942e+02   1.9429640018e+01    0.1716848    0.1071327 -77.07 0.0009953949    1.491    0.329
        52  -9.1725     45.4794    230.4927   1.4087052305e+02   2.1114119422e+01    0.3371039    0.1459551 -89.63  0.001509028    2.723    0.633
        53  -8.9964    180.6706    229.3324   1.1338540112e+02  -6.2230008748e-01    0.1322074    0.1037445  71.38 0.0003161931    1.719    0.418
        54  -9.9545    128.2399    228.9514   1.2411904050e+02   8.7386756582e+00    0.2112007    0.1570576 -23.49  0.001079114    2.078    0.519
        55 -10.6544     79.3822    225.6902   1.3376824905e+02   1.7412826877e+01    0.4520852    0.2953619 -74.42  0.001586628    1.504    0.335
        56  -9.6203     77.2677    220.9313   1.3365756512e+02   1.8745726219e+01    0.2299034     0.161663  63.85 0.0004654874    1.257    0.204
        57  -8.4673     55.2673    227.2863   1.3871460651e+02   2.0507559449e+01    0.1051505   0.09307135 -59.45 0.0002019241    1.497    0.332
        58 -10.3038     92.4162    225.9063   1.3113441856e+02   1.5351977364e+01    0.2878706    0.1657928  51.89 0.0008554765    1.541    0.351
        59 -10.3684     84.5140    240.8683   1.3441456619e+02   1.3521057923e+01    0.4341941    0.2855144  78.20  0.002486621    1.509    0.338
        60  -8.5980    147.2655    225.3225   1.1960879271e+02   6.0786297266e+00    0.1280629    0.1068028  -3.04 0.0001995712    1.561    0.359
        61 -10.4010    132.2385    224.1623   1.2258598070e+02   8.9885063594e+00    0.3134989    0.2118325  52.71  0.001636473    1.365    0.267
        62 -10.1751    117.3507    224.2589   1.2573188197e+02   1.1567379645e+01    0.2441363    0.2130692  63.09 0.0002313847    1.004    0.004
        63  -9.8000     64.7609    224.2641   1.3655078782e+02   1.9845432820e+01    0.2841391    0.1996186 -77.12  0.001018156    1.331    0.249
        64 -10.6635    160.6244    223.5327   1.1653508434e+02   4.0091993276e+00    0.2677263    0.2225497  -0.51 0.0007714576    1.468    0.319
        65 -11.1024    142.2968    221.6270   1.2007701382e+02   7.6950107209e+00    0.4040641    0.2644668  41.66    0.0010168    1.391    0.281
        66 -10.2882    137.3473    214.4482   1.2000066811e+02   1.0041344525e+01    0.2799422    0.2125897 -83.31  0.001317394    1.570    0.363
        67 -10.7480     69.7962    217.5536   1.3481013562e+02   2.0575777162e+01    0.7326415    0.3243903 -80.55  0.003019319    2.848    0.649
        68  -9.2393    111.0000    220.5818   1.2656023531e+02   1.3415135114e+01    0.2792709   0.07655711 -57.88 0.0009287845    3.887    0.743
        69  -9.0723    104.9112    218.6816   1.2759124865e+02   1.4843096909e+01    0.1890612     0.156452  56.65 0.0002577046    1.085    0.078
        70  -9.1820     99.5606    218.1696   1.2865822434e+02   1.5839251629e+01    0.1760516    0.1234816 -52.39 0.0004315151    1.623    0.384
        71  -9.8375     88.5636    214.4558   1.3051013385e+02   1.8416368078e+01    0.6159402    0.2380288 -70.23  0.002302769    3.209    0.688
        72  -9.2168     62.2117    218.1259   1.3642116677e+02   2.1524685101e+01    0.1736713    0.1568982  87.65 0.0004311948    1.217    0.178
        73  -8.7472    119.2719    217.3595   1.2433753800e+02   1.2665922167e+01    0.1295155    0.1098249 -19.37 0.0002614745    1.650    0.394
        74  -9.2753    160.0683    213.7881   1.1502180217e+02   5.9830255929e+00    0.2025258    0.1789401  61.72 0.0004283983    1.160    0.138
        75  -9.4793    102.3409    212.1174   1.2723794573e+02   1.6687886753e+01    0.4138137      0.18021  63.16  0.001354898    3.908    0.744
        76 -10.3368     84.7618    229.4360   1.3310737001e+02   1.5809133901e+01    0.2349473    0.2260979  59.61 7.795078e-05    1.316    0.240
        77  -9.7449    107.0601    209.5163   1.2583975325e+02   1.6459868689e+01    0.2053361    0.1922152 -47.13 0.0005699399    1.294    0.227
        78 -10.1584     73.4559    209.5212   1.3311204883e+02   2.1816107544e+01    0.3750025    0.2539892  14.25  0.001782118    2.697    0.629
        79  -9.7880    112.6314    208.3629   1.2444686320e+02   1.5752227691e+01    0.2613697    0.2197686  64.80 0.0008009209    1.084    0.077
        80 -10.0367     96.6695    206.6511   1.2771009342e+02   1.8835773386e+01    0.4103092    0.2285741 -86.81  0.001541927    2.526    0.604
        81 -10.3123     91.3035    204.6944   1.2861881750e+02   2.0148383087e+01    0.4488837      0.37874  44.31  0.001336921    1.254    0.203
        82  -9.0897     29.2398    208.4104   1.4208292232e+02   2.7801662252e+01    0.1664999   0.09258112  53.16 0.0009435817    1.644    0.392
        83  -9.5130     32.8774    206.9141   1.4122914054e+02   2.7719042277e+01    0.1767345    0.1562769 -60.77 0.0003448185    1.455    0.313
        84 -11.6197    246.8796    205.9628   9.6438822566e+01  -7.8738427643e+00    0.5257598    0.3116311 -15.25  0.002626136    1.978    0.495
        85  -8.9437    149.0568    204.4638   1.1578669998e+02   9.9324634580e+00    0.2880303    0.1812271 -14.57  0.001042483    3.499    0.714
        86  -8.3905    125.6644    205.7157   1.2115684206e+02   1.4011068362e+01    0.1356409    0.1144688   1.41 0.0002971843    1.623    0.384
        87 -10.1918    102.9286    202.8037   1.2576829408e+02   1.8652240468e+01    0.4063887    0.2412874  57.61  0.001384377    1.704    0.413
        88  -9.4950     74.7973    203.7857   1.3211593953e+02   2.2910438150e+01    0.2686068    0.2101782  14.33 0.0006560889    1.950    0.487
        89 -10.8696     84.2082    201.5653   1.2975870196e+02   2.1983180385e+01    0.3376254    0.2365014 -44.92   0.00174895    1.798    0.444
        90  -9.1681     86.1497    195.6199   1.2849836451e+02   2.3044752600e+01    0.2151356    0.1752433  83.26 0.0004376034    1.129    0.114
        91 -13.6158     28.5812    247.0592   1.4515586648e+02   1.9841038044e+01     1.366305    0.7885119  57.46  0.008019071    1.384    0.277
        92  -8.4770    182.7362    200.3138   1.0778912636e+02   4.3414824865e+00    0.1346599    0.1134165  87.58 0.0001878947    1.541    0.351
        93  -9.1534    168.7792    199.9922   1.1069375929e+02   7.0784374032e+00    0.1828693    0.1191253 -46.99 0.0006472763    1.617    0.382
        94  -9.3609    127.8826    199.7837   1.1968937536e+02   1.4899150107e+01    0.1957095    0.1917485  45.44 0.0004612431    1.134    0.118
        95  -8.7223    134.4804    208.4615   1.1965810210e+02   1.1813900707e+01    0.1406708    0.1319417  47.96  0.000243919    1.083    0.077
        96  -9.4880     44.2008    198.9773   1.3812870220e+02   2.8159179854e+01    0.2733617    0.2279739 -27.48  0.001676577    1.877    0.467
        97 -11.6071     98.8629    232.6804   1.3064396123e+02   1.2924136557e+01      1.19382    0.4519362 -73.79  0.003826353    5.077    0.803
        98  -8.7599    119.7322    199.3342   1.2145220860e+02   1.6485998438e+01    0.1460177     0.106038  79.74 0.0001975625    1.588    0.370
        99  -9.1949     57.6327    198.8114   1.3523873829e+02   2.6473954412e+01    0.2222432     0.138706  88.09 8.762246e-05    1.576    0.365
       100 -10.0219     54.1273    198.1407   1.3591878885e+02   2.7092316601e+01    0.3961056    0.1934462  47.30  0.001938223    1.947    0.486
       101 -11.6040     60.9286    194.4600   1.3399795833e+02   2.7032784927e+01    0.5228308    0.3614497  44.21  0.001550281    1.478    0.324
       102  -9.5755    102.3278    196.3204   1.2492472675e+02   2.0224733044e+01    0.3874773    0.2633239 -23.97  0.001347024    2.718    0.632
       103  -9.4425     97.5705    196.1769   1.2598613775e+02   2.1059828584e+01    0.3099135    0.1861665  37.77  0.000660258    1.731    0.422
       104 -12.9973     52.4755    208.9126   1.3744344953e+02   2.4869338603e+01     1.542416    0.7521001  43.21  0.007807745    1.955    0.489
       105  -9.2873     38.8316    196.0231   1.3895572946e+02   2.9477473181e+01    0.2806505     0.140359  89.82  0.001330895    2.095    0.523
       106  -9.5462     38.6321    192.2073   1.3860161607e+02   3.0375385001e+01    0.2601408    0.1525597 -57.93 0.0009670463    1.722    0.419
       107  -9.8234     41.4349    189.2122   1.3767298191e+02   3.0738067737e+01    0.3323238    0.1903574  84.17  0.001324785    1.771    0.435
       108  -8.6542    154.2443    196.3602   1.1319415120e+02   1.0637083967e+01    0.1421048     0.114025 -16.17 0.0003567977    1.600    0.375
       109 -11.1428    249.6642    194.1043   9.3660836998e+01  -6.4203832518e+00    0.3818834    0.2523719 -26.03  0.002109068    1.407    0.289
       110 -10.7456    249.9847    187.8783   9.2380403563e+01  -5.4534345432e+00    0.3952716    0.2134677 -29.88  0.001924351    1.782    0.439
       111  -9.0673     31.6106    195.2090   1.4039045385e+02   3.0488604465e+01    0.2779727   0.09399351  49.74  0.001194907    2.853    0.649
       112  -9.4234     72.5875    192.9715   1.3120093227e+02   2.5728537920e+01    0.1951559    0.1824296  53.75  0.000356933    1.241    0.194
       113  -9.3509     25.6703    192.4800   1.4136752602e+02   3.1752223913e+01    0.2250406     0.159237  84.87 0.0007723565    1.157    0.136
       114 -13.4675     40.7257    243.3407   1.4277947225e+02   1.9099524959e+01     1.061703    0.7985665  79.06  0.005327444    1.053    0.050
       115  -9.8119    191.5141    191.4505   1.0423978050e+02   4.3810060293e+00    0.2442675    0.2344406  -1.29 0.0006275565    1.021    0.021
       116  -9.2655    113.1456    191.8091   1.2172089545e+02   1.9369720428e+01    0.1866058    0.1720767 -30.65 0.0002864835    1.324    0.245
       117  -9.8624     51.0638    189.4379   1.3557876095e+02   2.9503405335e+01    0.2323215     0.159706 -79.46  0.001313809    1.268    0.211
       118  -9.7238     32.1466    189.7128   1.3973189132e+02   3.1684943323e+01    0.3272336    0.2084027  37.17  0.001906361    1.773    0.436
       119 -13.6518      4.9619    245.2870   1.4896198827e+02   2.2791738244e+01     1.182177    0.6822355  87.86  0.008137841    1.324    0.245
       120  -9.9072     76.7453    188.7916   1.2967869687e+02   2.6091406815e+01      0.25971    0.2356914   6.24 0.0007882341    1.514    0.339
       121 -11.6436     67.5785    187.2176   1.3156856328e+02   2.7803157600e+01    0.3199016    0.2396833 -52.85 0.0005907971    1.467    0.318
       122 -10.0590     28.7593    184.2750   1.3990668290e+02   3.3304710953e+01    0.2742961    0.2343878   7.38  0.001793255    1.757    0.431
       123  -9.7921     24.1981    184.2018   1.4088318516e+02   3.3796310008e+01    0.2130628    0.1625599  49.64  0.000637635    1.401    0.286
       124  -8.6250     45.2808    186.9520   1.3657205463e+02   3.0803036201e+01    0.2109006   0.08784655  89.56 0.0007000875    4.013    0.751
       125  -9.2716     37.2983    183.7517   1.3797999192e+02   3.2488679663e+01    0.2312872    0.1324245  49.19   0.00124642    1.740    0.425
       126  -9.4109    140.1172    183.1549   1.1392436673e+02   1.6271500840e+01    0.2102704    0.2024423   9.47 0.0002840678    1.160    0.138
       127 -12.9067    247.8928    101.2939   7.4515844112e+01   1.0149004661e+01     1.058206    0.5418275 -40.08  0.004865397    1.749    0.428
       128 -13.6536    244.9868    157.9828   8.7134133507e+01   5.5884304156e-01      2.71572    0.8471193 -47.88  0.008823603    3.684    0.729
       129 -11.9910    247.8938    142.2353   8.3325929604e+01   2.8521115979e+00    0.6934742    0.6707695 -11.58  0.004350227    1.119    0.106
       130 -12.4431    248.7916    132.7047   8.1150354752e+01   4.3965554138e+00     1.216084    0.6163052 -36.75  0.005457801    1.814    0.449
       131  -8.7346    107.5798    182.4926   1.2145563505e+02   2.2523159879e+01    0.1468659    0.1336235  85.63 7.846999e-05    1.016    0.016
       132  -8.8521     65.8323    182.1407   1.3128048921e+02   2.9253840587e+01     0.167085    0.1531655 -59.75 0.0002739808    1.255    0.203
       133  -9.5305    115.7508    178.2007   1.1874794916e+02   2.2056866029e+01    0.3272873      0.19881 -44.23  0.001011629    1.839    0.456
       134 -12.8822    248.3582    114.1998   7.7236753353e+01   7.7888892389e+00     1.248129    0.6452037 -32.28  0.005447058    2.074    0.518
       135  -9.1604     47.5624    179.7213   1.3519457797e+02   3.2226537667e+01    0.2023703    0.1137424  36.61 0.0006759836    1.951    0.488
       136  -9.9182     19.9291    179.0500   1.4129829580e+02   3.5406772511e+01    0.1829669    0.1547729  85.08            0    1.121    0.108
       137  -8.9333     92.7565    178.2010   1.2428320867e+02   2.6082001658e+01    0.1768595     0.164565 -40.63 0.0002414109    1.279    0.218
       138 -11.1318     77.4447    175.0662   1.2748163592e+02   2.9260382120e+01     0.296682    0.2346465 -54.09 0.0004100128    1.315    0.240
       139  -8.9744     68.6214    175.7821   1.2971597992e+02   3.0382841272e+01    0.2776223    0.1257308 -68.84   0.00069936    2.168    0.539
       140 -11.8139     64.2311    173.3359   1.3041404603e+02   3.1587595201e+01    0.4079991    0.2446163 -51.07 0.0005628245    1.740    0.425
       141 -10.4580     68.5039    166.5858   1.2835146783e+02   3.2625267896e+01    0.2773581    0.2427599 -61.00  0.001625207    1.166    0.143
       142 -11.8731    107.8368    172.8708   1.1969579535e+02   2.4757472163e+01    0.2738817    0.2551469  79.71 0.0002964746    1.025    0.024
       143  -9.0055     85.1326    174.1743   1.2547161529e+02   2.8284963932e+01    0.1978187    0.1512794  69.25 0.0003750683    1.323    0.244
       144 -10.0331     44.9409    164.8741   1.3389628930e+02   3.6086667307e+01    0.2467306    0.1597812 -69.14 0.0003349261    1.317    0.241
       145 -10.2064     45.9881    172.3239   1.3462798869e+02   3.4177116056e+01    0.2349314    0.1656931 -75.06 0.0002941924    1.211    0.174
       146 -10.8914     43.6978    169.0711   1.3475055217e+02   3.5225082687e+01    0.3034412    0.2792365 -53.07  0.001016115    1.297    0.229
       147  -9.9983     28.4436    170.7844   1.3852664238e+02   3.6484546449e+01    0.3621705    0.1626702 -60.67  0.001620615    1.902    0.474
       148  -8.7549     52.6182    170.8613   1.3285696359e+02   3.3714875355e+01    0.1744123    0.1124219 -79.95 0.0002551201    1.437    0.304
       149  -8.3689    166.7331    170.6716   1.0533545701e+02   1.3646640993e+01    0.1501924    0.1209256 -10.02 0.0002003459    1.575    0.365
       150  -8.4092    150.7197    170.2885   1.0891101592e+02   1.7039869670e+01    0.1505952    0.1195168  84.10            0    1.523    0.343
       151 -11.7985     85.2681    166.6198   1.2417600554e+02   3.0093803942e+01    0.6098157    0.5242911  42.54  0.003402011    1.257    0.204
       152  -8.5441     58.4550    167.4687   1.3096327079e+02   3.3783137082e+01    0.1380519    0.1173745 -84.70 0.0001119736    1.016    0.016
       153  -8.4663    118.6754    162.7192   1.1508312341e+02   2.5177751943e+01    0.1467249    0.1230082  -9.38 0.0002680543    1.593    0.372
       154  -8.5067     36.5391    162.5193   1.3562202043e+02   3.7595206833e+01    0.1324768    0.1068151 -86.22 0.0002390495    1.058    0.055
       155 -10.0468     89.7979    160.0971   1.2187531315e+02   3.0950494772e+01    0.2336684    0.2069005  52.04  0.000353268    1.170    0.145
       156  -8.8247     73.5040    159.5282   1.2594331339e+02   3.3624963939e+01    0.1436794    0.1263069 -84.43 0.0001156523    1.033    0.032
       157  -8.6578     52.4506    158.4610   1.3112502108e+02   3.6732878423e+01    0.1362853    0.1162149 -76.78 0.0004466225    1.018    0.018
       158  -8.7161     47.3586    158.2937   1.3238052128e+02   3.7389201615e+01    0.1316893   0.09613903 -38.20 0.0007030854    1.697    0.411
       159 -11.2252     31.7006    155.8299   1.3593751594e+02   3.9698277209e+01    0.3848967    0.2328992 -48.03  0.001087955    1.762    0.432
       160 -12.5855     61.7884    245.9838   1.3919731743e+02   1.5802504262e+01     1.642059    0.7107084  38.91  0.008185388    2.275    0.560
       161  -8.3653    112.2979    157.6853   1.1567186411e+02   2.7585105622e+01     0.155497    0.1160257  82.16 0.0003261351    1.607    0.378
       162  -9.3731     72.0369    156.4510   1.2579625475e+02   3.4591560551e+01    0.3123709    0.2138218  -2.47  0.001368734    2.649    0.622
       163 -12.2837     23.5271    154.9228   1.3782635003e+02   4.0706641881e+01    0.4516152    0.4080706  87.54  0.003125373    1.160    0.138
       164  -9.1167    228.2069    155.2358   8.9475036632e+01   4.2061004765e+00    0.1950595    0.1580685 -57.01 0.0005443845    1.332    0.249
       165  -8.7964    104.7765    153.5781   1.1676637276e+02   2.9955750901e+01    0.2014821    0.1374366  54.99 0.0003834108    1.558    0.358
       166 -10.2433     97.7859    151.1224   1.1808971088e+02   3.1788727020e+01     0.379429    0.2817577 -56.98  0.001081601    1.277    0.217
       167  -9.3183    101.0478    146.6306   1.1631511093e+02   3.2306173802e+01    0.3174011    0.1697623 -34.77  0.001150186    2.737    0.635
       168  -9.8355    113.9910    150.5581   1.1376567919e+02   2.8979762321e+01    0.3240114    0.2153261 -56.66 0.0003196976    1.469    0.319
       169  -9.3013     86.4421    149.9643   1.2084635555e+02   3.3971581810e+01    0.2234473     0.135251 -59.59 0.0003501972    1.543    0.352
       170  -9.9454     55.3976    150.2251   1.2908428938e+02   3.8366937367e+01    0.1953867    0.1494877  82.47 0.0006463873    1.351    0.260
       171 -12.1800     68.3292    144.4084   1.2464110426e+02   3.8064671603e+01    0.6714519    0.4817447  82.20  0.002279138    1.626    0.385
       172 -10.5022     23.7907    149.4152   1.3707273793e+02   4.1984539308e+01    0.2090295    0.1728821 -51.35 0.0006746665    1.298    0.229
       173 -10.3831    236.2716    145.9133   8.6041849378e+01   4.3847654978e+00    0.2599155     0.209097  34.47 0.0008008074    1.396    0.284
       174 -10.4858     84.1493    155.4514   1.2247942156e+02   3.2996975682e+01    0.3976828    0.2574215  17.00 0.0007396878    2.357    0.576
       175 -10.2669    133.3132    141.3820   1.0680580194e+02   2.7307551808e+01    0.6004968    0.2635404 -52.31  0.002121601    2.316    0.568
       176  -9.0886     36.9726    140.4744   1.3241114923e+02   4.2832750287e+01    0.1743611   0.09420238  57.89 0.0005521454    2.326    0.570
       177  -9.4595     56.0133    138.7059   1.2696191524e+02   4.1086867377e+01    0.1965118    0.1699032 -47.13 0.0002850969    1.191    0.160
       178 -11.0255     60.5436    136.8033   1.2536770131e+02   4.0968033442e+01    0.3360116    0.2579681 -82.42 -4.518323e-05    1.329    0.247
       179 -14.1091     10.6138    208.8742   1.4569924042e+02   2.9659905273e+01     2.276734     1.128712 -69.84   0.01323634    1.719    0.418
       180  -8.9029     50.8391    138.1655   1.2828507740e+02   4.1849033155e+01    0.1814341    0.1464676 -43.84 0.0004524533    1.294    0.227
       181  -9.9440     46.1118    138.1363   1.2957152241e+02   4.2404973050e+01    0.2154866    0.1634385 -50.05  0.001072429    1.271    0.213
       182  -9.9763    109.8113    136.0523   1.1167991849e+02   3.3242098861e+01     0.389941    0.2669978 -26.84  0.001302656    1.975    0.494
       183 -11.6304     67.6304    128.6110   1.2177523829e+02   4.1986152500e+01    0.4852072    0.3600814 -75.71   0.00253572    1.406    0.289
       184 -12.4433      2.7818    130.1770   1.4001772835e+02   4.8106092280e+01    0.7921271    0.2938097 -72.01  0.003741365    2.129    0.530
       185 -11.0085     44.8458    130.9244   1.2868524006e+02   4.4275728950e+01    0.3606691    0.2837414  85.75  0.002095457    1.361    0.265
       186 -11.2082     33.1683    131.2040   1.3198722350e+02   4.5421423607e+01    0.3961134    0.1679804 -63.56 0.0009148809    1.918    0.479
       187  -8.8681     80.4564    129.4846   1.1830968162e+02   3.9886388477e+01    0.1455986    0.1329891 -65.82 0.0001253551    1.023    0.023
       188 -10.6397     59.7828    127.6641   1.2383188491e+02   4.3265403080e+01    0.3539805    0.2104916 -34.33  0.001139008    2.092    0.522
       189 -10.7676     23.6410    127.0480   1.3397166010e+02   4.7267709705e+01    0.2787597    0.1722604 -86.54 0.0008542198    1.726    0.420
       190 -10.3638    209.9864    125.7728   8.6185865416e+01   1.3676991575e+01    0.2963934    0.2380659 -45.16 0.0004830104    1.171    0.146
       191 -10.8967     32.7913    140.7185   1.3355836301e+02   4.3196468513e+01    0.2789656    0.1868035  83.79  0.001382862    1.623    0.384
       192  -8.4048     87.7292    125.2444   1.1530568398e+02   3.9730162558e+01    0.1362611    0.1111822  80.46            0    1.438    0.305
       193 -10.1559    238.8096    121.7266   8.0332845804e+01   8.3456582303e+00    0.2726681    0.1851069 -19.43  0.001271181    1.949    0.487
       194 -11.6446     22.1765    121.3002   1.3348182235e+02   4.8727818700e+01    0.2663425     0.234299  -5.84  0.001805459    1.412    0.292
       195  -9.9937     54.5078    120.5906   1.2394911540e+02   4.5606244203e+01    0.2872382    0.1851683  14.77  0.001412916    2.077    0.519
       196 -11.7530      9.6286    120.6126   1.3690810378e+02   4.9833796322e+01    0.3587147    0.1939879   6.70  0.001909862    2.725    0.633
       197 -11.3148     29.8836    119.1089   1.3089863697e+02   4.8568465049e+01    0.3357424    0.2260935  12.74  0.001907815    1.935    0.483
       198  -9.7642    231.8215    116.3862   8.0259378504e+01   1.0767093889e+01    0.2062545    0.1692604 -54.85 0.0006134779    1.131    0.116
       199 -10.4905     66.8933    115.4556   1.1916846905e+02   4.5197370273e+01    0.3661686    0.2215189  40.29  0.001170382    1.821    0.451
       200 -12.3798     10.6710    114.6391   1.3573115947e+02   5.1121365228e+01    0.4182585    0.2421227 -85.21   0.00227239    1.852    0.460
       201 -10.5321    167.9821    113.2129   9.1597931439e+01   2.5833365821e+01    0.3629167    0.3004695 -84.99 0.0008332215    1.375    0.273
       202 -11.0178    249.5148    150.8637   8.4888159485e+01   1.0111398851e+00    0.5534506    0.3041334 -45.44  0.002467699    1.677    0.404
       203  -8.7562     29.3163    109.3278   1.2930028544e+02   5.0869897204e+01    0.1343067   0.08038197 -39.09  0.000361597    1.676    0.403
       204  -9.1776    203.4763    111.4972   8.4001675400e+01   1.7921827145e+01    0.1503329    0.1429635 -57.07 3.478511e-05    1.038    0.036
       205  -9.2009     44.7269    105.2986   1.2371741173e+02   5.0267707544e+01    0.1977505    0.1593316  29.98 0.0005319086    1.431    0.301
       206 -11.4130     14.7210    104.4043   1.3286235424e+02   5.3142897403e+01    0.2799782    0.1847705  12.76  0.001702979    1.922    0.480
       207  -8.4035     71.7118    100.2806   1.1405347396e+02   4.7954835247e+01    0.1302601    0.1090405  85.40 0.0002120935    1.523    0.343
       208 -12.0645    248.3487    171.7967   8.9425271745e+01  -2.4621431144e+00    0.6403649    0.4717174 -21.67  0.003569099    1.325    0.245
       209 -10.3245     81.4061    246.3635   1.3557785110e+02   1.2907225888e+01    0.3907581    0.2258389  87.89  0.002074664    1.958    0.489
       210  -9.8279    223.4706    244.5077   1.0764988718e+02  -1.0049393836e+01    0.1232396    0.1026273  13.23 7.330151e-05    1.017    0.017
