#   1 NUMBER                 Running object number                                     
#   2 MAG_AUTO               Kron-like elliptical aperture magnitude                    [mag]
#   3 X_IMAGE                Object position along x                                    [pixel]
#   4 Y_IMAGE                Object position along y                                    [pixel]
#   5 X_WORLD                Barycenter position along world x axis                     [deg]
#   6 Y_WORLD                Barycenter position along world y axis                     [deg]
#   7 A_WORLD                Profile RMS along major axis (world units)                 [deg]
#   8 B_WORLD                Profile RMS along minor axis (world units)                 [deg]
#   9 THETA_WORLD            Position angle (CCW/world-x)                               [deg]
#  10 FWHM_WORLD             FWHM assuming a gaussian core                              [deg]
#  11 ELONGATION             A_IMAGE/B_IMAGE                                           
#  12 ELLIPTICITY            1 - B_IMAGE/A_IMAGE                                       
         1 -10.4375     10.3218     18.7580   9.9101819910e+01   7.4179549565e+01     1.398024    0.4444783 -30.82  0.004054082    6.270    0.841
         2 -11.0059      4.7251      6.6316   9.7861372326e+01   7.7082021915e+01     1.113381    0.4466515 -47.11  0.003737249    1.994    0.499
         3 -10.8397     37.2703      9.6402   7.5359718945e+01   7.2642275445e+01     1.279199    0.4575588 -46.20  0.004894027    3.293    0.696
         4 -10.7803     23.1990     34.3309   9.6692097206e+01   6.9695389295e+01    0.6640775    0.5156702 -12.73   0.00268033    1.356    0.263
         5 -10.1416     25.4883     25.5332   9.1577463292e+01   7.1331807161e+01     1.290994    0.4212319 -37.32  0.004318541    4.051    0.753
         6 -10.4963     26.5932     11.1894   8.3227850140e+01   7.3958242480e+01    0.9387859    0.4466885  34.80  0.004560868    2.182    0.542
         7 -10.2864      4.6396     41.9326   1.1031452433e+02   6.9308428371e+01    0.7513124    0.3271428 -72.86   0.00350698    2.077    0.519
         8  -9.7610     60.7743     31.4425   7.5204338952e+01   6.4830055794e+01    0.9048482    0.4461153 -30.15  0.003648329    2.397    0.583
         9 -10.1053     69.3953     40.5969   7.5671214099e+01   6.1487075963e+01     1.072772    0.4405415 -40.26  0.003331994    2.428    0.588
        10 -10.3354     73.5317     17.6409   6.2946707954e+01   6.4413859396e+01     1.312886    0.4454959 -23.68  0.004016969    4.347    0.770
        11  -8.2510     72.1798      8.2283   5.8286387417e+01   6.5924233863e+01    0.2547334    0.1819273 -36.31 0.0004993208    1.489    0.328
        12  -9.0804     78.5626      3.0209   5.3304023191e+01   6.5000855487e+01     0.403154     0.333367   6.13  0.001591844    1.250    0.200
        13 -10.2535     51.1486     15.2879   7.1225958590e+01   6.9340406107e+01     1.373779    0.7820035  -0.43  0.005221818    3.433    0.709
        14 -10.1811     46.2337     29.3932   8.1295506868e+01   6.7736945518e+01    0.6103115    0.3449789 -44.59   0.00144451    1.696    0.410
        15  -8.9269    111.6708     21.4908   5.3641892658e+01   5.4653136075e+01    0.7178113    0.3114492 -16.49  0.002488734    3.192    0.687
        16 -10.9546    133.9952     31.0015   5.2698777792e+01   4.7584261981e+01    0.4291878    0.3059131  -4.27            0    1.771    0.435
        17  -9.5533     91.4251     26.2707   6.1196116651e+01   5.9065328665e+01    0.7086908    0.2410791 -42.09  0.002230614    3.199    0.687
        18  -8.6557     96.7662     12.8123   5.3337322209e+01   5.9488405858e+01    0.3249974    0.2095518  27.83  0.001506165    1.806    0.446
        19  -9.1775    144.1777     25.9874   4.9013396201e+01   4.5523622378e+01    0.3161063    0.1817074 -37.34 0.0008291535    1.712    0.416
        20  -9.0974    128.6519     25.1171   5.1504731621e+01   4.9753926222e+01     0.551786    0.2692065 -24.56  0.001433869    2.217    0.549
        21  -9.5432    118.8484     20.9617   5.1834761354e+01   5.2848287359e+01    0.6293992    0.3147889 -17.00  0.002471932    2.458    0.593
        22  -9.1639    124.9608     13.1003   4.7422722699e+01   5.2119468536e+01    0.4263348    0.2332536  46.57  0.001656548    1.856    0.461
        23  -8.4697    126.8290      9.1365   4.5497375441e+01   5.2024317947e+01    0.2504666    0.1954501  22.41 0.0005613068    1.477    0.323
        24  -9.3630    125.7238      5.3624   4.4147763214e+01   5.2678697868e+01    0.3059379    0.2640295  10.06  0.001421839    1.306    0.235
        25 -10.0540     62.9611      3.0351   5.8585994800e+01   6.8577088805e+01    0.4560055    0.4212166  81.95  0.001707691    1.294    0.227
        26  -9.6450     63.1141     21.0237   6.8893572621e+01   6.6127927012e+01    0.4943006    0.3239121 -57.12  0.001843554    2.136    0.532
        27  -9.9271     64.5651     12.8430   6.3774892668e+01   6.7018897519e+01    0.4462543    0.3331303 -29.73  0.001456801    1.354    0.261
        28  -9.4927    133.5171     12.1157   4.5586172095e+01   4.9934569596e+01     0.527554    0.1913995 -31.82  0.001973297    2.605    0.616
        29  -9.4554    132.2216      4.9829   4.3007012460e+01   5.0972004164e+01    0.5330477    0.2512129  45.33  0.001822196    2.266    0.559
        30  -9.2358    114.2551      9.9132   4.8089819715e+01   5.5286822410e+01    0.3905054    0.2568157  40.62 0.0003618027    1.580    0.367
        31  -8.7511    109.7085      7.6797   4.8008827978e+01   5.6704100935e+01    0.2338063    0.1772314 -28.03 0.0007222826    1.391    0.281
        32  -9.2046    110.8381      4.4192   4.6328472223e+01   5.6717986823e+01    0.4012806    0.2764511 -53.78  0.001996211    1.614    0.381
        33  -8.7221    234.9207     14.1783   3.6001400602e+01   2.4566306929e+01    0.2008896    0.1535097 -38.66 0.0003974553    1.138    0.121
        34  -9.4704     85.2954     13.0575   5.6640590607e+01   6.2282126375e+01    0.4704318    0.2723853 -56.39  0.001595304    2.456    0.593
        35  -9.1339    140.1913     11.0963   4.4180644405e+01   4.8248157713e+01    0.5097763    0.2868098 -70.03  0.002142712    2.161    0.537
        36  -7.8769     80.4959     12.5267   5.7854225715e+01   6.3486743045e+01    0.2516365    0.1139439 -39.58  0.001021732    2.367    0.578
        37 -10.1534     18.5204      5.0266   8.5273584559e+01   7.6061687109e+01    0.6112298    0.4609717 -71.33  0.003096675    2.127    0.530
        38  -8.7148    246.9769      8.5439   3.3990151754e+01   2.2637256774e+01    0.1954117    0.1556781 -14.79 0.0005137453    1.443    0.307
        39  -7.9198    156.5640      8.7417   4.1193616704e+01   4.4105530759e+01    0.2615175    0.1439314 -13.40  0.001138426    2.174    0.540
        40  -9.1008    103.0236     20.4981   5.5303738931e+01   5.6989480724e+01    0.4904372    0.1991736 -33.87  0.001340778    2.434    0.589
        41  -8.8145    101.8681      8.1610   4.9902741372e+01   5.8690293677e+01    0.2158946    0.1842192 -66.28  0.000649492    1.293    0.226
        42  -8.4987     97.6049      6.1648   4.9926923171e+01   5.9981026355e+01    0.3204243    0.1824758  36.11 0.0008689218    1.910    0.476
        43  -8.4141     96.2351      2.9731   4.8680411266e+01   6.0635103804e+01    0.3373885    0.1985536 -21.76  0.001352902    1.803    0.445
        44  -8.4889     85.0183      6.2845   5.3207099445e+01   6.3109005285e+01    0.3798177    0.2295953  19.32  0.001713192    2.077    0.519
        45  -8.3858     88.8740      2.3715   5.0134994886e+01   6.2546139711e+01    0.3580109    0.2744391  23.56  0.001641095    1.368    0.269
        46  -8.2031    143.0376      5.0112   4.1535824349e+01   4.8066616972e+01    0.2372659    0.1466005 -59.21 0.0005550463    1.715    0.417
        47  -8.9551    115.4021      4.1419   4.5368592902e+01   5.5538836635e+01    0.3362478    0.2240995 -39.29  0.001284557    1.571    0.364
        48  -8.2813    104.3384      2.2994   4.6626252924e+01   5.8609479152e+01    0.3083261    0.1956997  36.10  0.001343832    1.669    0.401
        49 -10.3291     12.1671     45.7396   1.0683527258e+02   6.7974540590e+01    0.9957642    0.4474513 -13.42  0.003532346    3.370    0.703
        50  -9.8698    204.3981    248.5471   8.8213213704e+01  -3.7970750287e-01    0.3410896    0.2071278  13.28  0.002388227    1.404    0.288
        51 -10.8168    188.5235    246.3460   9.0619471167e+01   1.8187124604e+00    0.3975249    0.2208348  28.82  0.002628795    1.350    0.259
        52 -10.4046    108.7297     99.4971   8.1929249382e+01   4.1024492850e+01     1.113139    0.5028664  58.43  0.003465798    3.485    0.713
        53 -10.1453    108.8989    114.7031   8.5695563011e+01   3.7584096980e+01    0.8325968    0.5204417  85.75  0.002952175    3.168    0.684
        54  -9.5239    109.0484    105.7924   8.3472037964e+01   3.9555485849e+01    0.6048033    0.5461407 -57.05  0.003202825    1.120    0.107
        55 -10.6716    131.5623    119.4940   8.0731416747e+01   3.1974887678e+01    0.8460222    0.5126004  69.69  0.003150787    2.782    0.641
        56 -11.0354    133.2803    109.6060   7.7867231850e+01   3.3671980441e+01     1.123079    0.5613767 -47.20  0.002884278    2.056    0.514
        57 -11.2304    121.0986    110.3410   8.1244198725e+01   3.6087330642e+01     1.407157    0.6945564 -50.02  0.003315895    2.102    0.524
        58  -7.9409    160.4032    128.7955   7.6104024819e+01   2.4194531649e+01    0.2087389    0.1357498 -28.85 0.0009540992    1.712    0.416
        59  -7.8210    200.2079    126.4016   6.7730752001e+01   1.6675441812e+01    0.1720647       0.1316  55.97 0.0004302611    1.531    0.347
        60  -6.9139    153.6409    126.6805   7.7121964786e+01   2.5976814842e+01    0.1539859    0.1140243   7.39 0.0007043966    1.764    0.433
        61  -9.8567     41.8094    122.4657   1.0824316579e+02   4.6181374834e+01    0.6477467    0.3011995  83.83  0.002406711    3.079    0.675
        62 -10.0724     27.4522    123.0746   1.1301587677e+02   4.7495066522e+01    0.6375061    0.2762508  63.62  0.002506024    2.730    0.634
        63  -9.9300    127.4680    102.6584   7.7566040205e+01   3.6372394989e+01    0.6168737    0.3576096 -42.30   0.00141318    1.764    0.433
        64  -7.8041    157.9128    121.7566   7.5015994469e+01   2.6029679156e+01    0.2286448    0.1696078  75.01 0.0007819255    1.885    0.469
        65  -8.4191     98.6318    119.7361   8.9813820980e+01   3.8377870892e+01    0.2306769    0.1771345 -17.97 0.0007732396    1.778    0.437
        66  -8.6678      1.4371    116.7417   1.2097252648e+02   5.1022231501e+01    0.3447683    0.1075711 -84.92  0.001354478    2.873    0.652
        67 -10.3574     92.2943    113.1347   9.0243628819e+01   4.1070266751e+01    0.6659375    0.4617446  74.41  0.001693283    1.892    0.471
        68  -8.8302     93.1814    103.4534   8.7673948340e+01   4.3178973465e+01    0.6861625    0.4111803  24.12  0.002751455    2.258    0.557
        69 -10.5117     62.8909     95.6886   9.6072481705e+01   5.0167281678e+01    0.8878614    0.5144575 -87.80  0.001648566    2.670    0.626
        70 -10.4874     65.7895    109.8972   9.8102586525e+01   4.6219327345e+01    0.9688667    0.8439689 -39.76  0.001557128    1.272    0.214
        71  -9.5506     59.0172    109.5093   1.0033451541e+02   4.7283637896e+01    0.6663491    0.3287701 -68.59  0.002040165    2.078    0.519
        72  -8.3638    243.4904    125.4888   6.0779947736e+01   9.0667503759e+00    0.1247732    0.1035081 -14.98 0.0008105117    1.002    0.002
        73  -8.0675    153.1629    115.3888   7.4544130579e+01   2.8248781797e+01    0.2050372    0.1869685 -11.96 0.0005898217    1.143    0.125
        74 -10.2624     78.3035    113.0642   9.4627247978e+01   4.3493848551e+01    0.5604843    0.3492239 -86.34  0.001917926    2.246    0.555
        75  -7.9508     78.2811    105.2823   9.2925493748e+01   4.5383938370e+01    0.3451395    0.2037807 -19.54  0.001134407    3.876    0.742
        76  -9.6169     81.7693    100.5211   9.0644143492e+01   4.5935510937e+01    0.4427117    0.3177875  82.58  0.001258386    1.810    0.447
        77  -7.7669    167.3874    114.1679   7.1148609622e+01   2.5433140173e+01    0.2073971    0.1330825 -49.18 0.0005211836    1.687    0.407
        78  -9.6799     35.3704    111.1539   1.0884016384e+02   4.9716445128e+01    0.3090748    0.2273665 -79.47  0.001578715    1.252    0.201
        79 -10.3479     14.3043    110.3024   1.1610676761e+02   5.1777247208e+01    0.8074574    0.3173613 -79.16  0.003026886    2.280    0.561
        80 -10.8889     21.4904    102.0625   1.1260209263e+02   5.3299439258e+01     1.327202    0.5007949  70.46   0.00307439    4.658    0.785
        81  -7.7103    158.6953    111.9734   7.2465261971e+01   2.7707923132e+01    0.2078698    0.1818191 -35.78 0.0004290336    1.144    0.126
        82 -10.1861     19.8921     87.3238   1.1118635413e+02   5.7160390405e+01     1.080176    0.2111647 -65.76  0.003348368    3.547    0.718
        83 -10.8375     44.5973    102.2162   1.0409967856e+02   5.0963500683e+01    0.9371141     0.446938  65.62  0.002735546    3.301    0.697
        84  -8.9299     39.9338    107.0893   1.0661140858e+02   5.0259904742e+01    0.2174382    0.1698101  71.89 0.0005217665    1.277    0.217
        85  -9.5454      6.4782    103.9250   1.1827215396e+02   5.3894335616e+01    0.4167745    0.2323972  63.60  0.001321697    1.775    0.436
        86 -10.0314    149.5765    102.3860   7.2051829855e+01   3.1541667260e+01    0.7284008     0.336737 -39.45  0.001346218    2.187    0.543
        87  -8.0194    166.0676    104.0536   6.8883067751e+01   2.7554988829e+01    0.2216689    0.1767312 -71.84 0.0004748675    1.581    0.367
        88  -8.2956     73.9401    102.6918   9.3791591731e+01   4.6728293207e+01    0.2882225    0.2089049 -72.14 0.0006610468    1.455    0.313
        89  -8.7435    158.9447    101.5392   6.9738888379e+01   2.9603084767e+01    0.2802329    0.2130598 -48.29 0.0005835728    1.354    0.261
        90  -8.8884    247.3962     98.2017   5.4410273158e+01   1.1986441851e+01    0.1760025   0.09723736 -37.72 0.0001318902    1.566    0.361
        91  -9.3620     94.3034     97.1338   8.5705707240e+01   4.4434677213e+01    0.3582999    0.2589815 -67.35 0.0007400003    1.544    0.353
        92  -8.7482     96.0221     90.9659   8.3487449442e+01   4.5512010272e+01    0.4931069    0.3334264   5.33   0.00191019    2.636    0.621
        93  -9.1491    239.2858     97.0063   5.5150493423e+01   1.3595353548e+01    0.1789221    0.1418035 -24.40            0    1.090    0.082
        94  -8.9531    164.4559     93.9744   6.6559048035e+01   2.9733063205e+01    0.4193625     0.239118 -37.14  0.001260232    1.727    0.421
        95  -8.4533    163.4246     86.6331   6.4754917303e+01   3.1276003579e+01    0.3884384    0.1893065 -33.78  0.001509289    2.093    0.522
        96  -7.8822     81.8577     94.2688   8.9045496413e+01   4.7411000319e+01    0.2952699    0.1868729 -30.69  0.001220007    2.148    0.534
        97 -10.5466     48.3526     82.3518   9.8538714635e+01   5.5491156565e+01     1.374764    0.4868696 -58.73    0.0032587    2.510    0.602
        98  -9.5563     42.1645     53.5132   9.3168079937e+01   6.3209540294e+01    0.5999674    0.4185099  48.42  0.001276315    1.653    0.395
        99 -10.5693     25.8428     77.9797   1.0709075646e+02   5.9026675357e+01     0.901117    0.4637368  80.91  0.003663086    2.754    0.637
       100 -10.6716     32.0469     64.6177   1.0131383999e+02   6.1749397818e+01     1.389353    0.5628566 -32.91  0.004443835    4.413    0.773
       101 -10.4288     60.9527     61.5749   8.7328996827e+01   5.8614245285e+01     1.386941     0.490913  28.25  0.003818252    4.499    0.778
       102 -10.1973     49.9234     53.8836   8.9586222434e+01   6.2054146608e+01    0.8023248    0.3970298 -60.86  0.002360997    2.241    0.554
       103  -8.9769     56.3005     43.4202   8.2609844190e+01   6.3309269872e+01    0.8015091    0.6398743 -21.95  0.003876314    1.327    0.246
       104  -9.9511     34.3884     90.3754   1.0585045548e+02   5.5084895886e+01    0.6231349    0.3020975 -88.55  0.001796521    2.782    0.641
       105  -9.9773     36.8069     81.1724   1.0304495922e+02   5.7150929873e+01    0.9494222    0.4619061 -21.94  0.003069283    4.622    0.784
       106 -10.1853      4.5083     89.5762   1.1765399804e+02   5.7597365728e+01    0.7631541     0.297604  80.64  0.002146503    2.972    0.664
       107  -9.4658      6.5439     78.6129   1.1557285590e+02   6.0234395420e+01    0.5577559    0.2132161 -39.38  0.002252516    3.113    0.679
       108  -8.9274    157.3934     91.5499   6.7381803848e+01   3.1798488235e+01    0.2710422    0.2286423 -49.83 0.0006101184    1.206    0.171
       109  -9.2197    150.4247     90.1147   6.8513123352e+01   3.3682451775e+01    0.4595069     0.243528 -27.29  0.001701535    2.377    0.579
       110  -9.1766     74.3224     79.4345   8.7640117559e+01   5.2239908459e+01    0.6574906    0.3096186 -54.85  0.001343337    2.113    0.527
       111  -9.8829     81.6663     72.5047   8.2836178204e+01   5.2477601148e+01     0.475826    0.3693317  88.34 0.0009720418    1.682    0.405
       112  -9.2424     83.2138     64.8488   7.9729928143e+01   5.3848806933e+01    0.6218696    0.4114591  -1.06   0.00237285    2.816    0.645
       113 -10.1807     85.3188     86.4917   8.5762118945e+01   4.8603293189e+01    0.5397688    0.3806697  81.01 0.0008280205    2.025    0.506
       114  -9.6623     87.2391     78.7994   8.2843962159e+01   4.9991608908e+01    0.6944681    0.4284908  19.96   0.00152478    2.497    0.600
       115  -7.6369     78.3412     89.2459   8.8936393100e+01   4.9224396352e+01    0.2151672    0.1374719 -64.20 0.0006894427    1.688    0.407
       116  -8.2611     63.5912     81.8402   9.2369122849e+01   5.3446174407e+01    0.2403655    0.1801241 -79.88 0.0004007129    1.523    0.343
       117 -10.6909    103.3912     82.6501   7.8754914418e+01   4.5844641187e+01    0.5770172    0.4164063 -54.25  0.001384349    1.430    0.301
       118  -9.4769    105.5563     71.1272   7.4444599936e+01   4.7802703548e+01    0.8702972    0.4569468 -34.68  0.002783981    2.161    0.537
       119  -9.3946    109.7456     63.8324   7.0721871366e+01   4.8301446585e+01      0.39482    0.2938855 -59.39  0.000676616    1.513    0.339
       120  -8.8223    110.5345     58.3148   6.8545954101e+01   4.9162724300e+01     0.380846     0.282469   4.12 0.0009661983    1.900    0.474
       121  -8.7553     64.9782     85.7722   9.2879898754e+01   5.2278786889e+01    0.5116162    0.3292014   1.43  0.002055761    2.678    0.627
       122  -9.1106    198.2124     82.4257   5.7401562572e+01   2.3994933153e+01    0.3755051     0.238216 -27.51 0.0009926618    1.547    0.354
       123  -8.9778    157.7091     82.7933   6.4848597802e+01   3.3304753090e+01    0.4520014    0.2284867 -31.09  0.001709931    2.144    0.534
       124  -9.2747    140.4583     82.0477   6.8483641366e+01   3.7544599082e+01    0.7651683    0.3322358 -33.28  0.002653596    2.614    0.617
       125  -8.7387    139.9145     75.6966   6.6691021290e+01   3.8862819068e+01    0.4705658     0.213888 -36.93  0.001402941    2.229    0.551
       126  -7.8169    170.7683     83.0353   6.2304865268e+01   3.0174993512e+01    0.2053616    0.1203262 -36.15 0.0008830432    1.654    0.395
       127  -8.6534    150.0302     79.8164   6.5631411679e+01   3.5673464224e+01    0.5284171    0.2120392 -35.18  0.001636988    2.575    0.612
       128  -8.6135    118.9754     80.5393   7.3546766957e+01   4.2851945386e+01    0.3583119    0.2085875 -52.96 0.0008252905    1.889    0.471
       129  -8.3892    119.8994     75.8598   7.1831749655e+01   4.3581511054e+01    0.3001417    0.2241933  42.20 0.0006700567    1.366    0.268
       130  -8.5002     68.7621     79.1449   8.9640957109e+01   5.3257219049e+01    0.3005692    0.1679848 -52.17  0.001296247    1.715    0.417
       131  -8.1348    166.5586     78.7324   6.1900385689e+01   3.1900821728e+01    0.2590603    0.1722595 -43.37 0.0005935837    1.476    0.323
       132  -8.1114    184.4507     78.0418   5.8468644826e+01   2.7796702335e+01    0.2087212    0.2001957  65.96 0.0006882562    1.091    0.084
       133  -7.3766    174.4940     78.5743   6.0364001716e+01   3.0042363131e+01    0.1457548    0.1408051 -55.69 0.0001408806    1.027    0.026
       134  -8.6538    156.9973     76.5396   6.3176662573e+01   3.4576243549e+01    0.3038935    0.1883436 -49.23 0.0006272625    1.694    0.410
       135 -10.5923     54.7878     70.8507   9.2842474455e+01   5.7409794740e+01    0.7728658    0.4722959  60.37  0.002263051    2.234    0.552
       136  -8.7581    130.6666     64.0036   6.5171307272e+01   4.3249930455e+01    0.4973591    0.3051048 -40.20  0.001488822    1.626    0.385
       137  -9.5722    127.7491     73.8814   6.9117825657e+01   4.2122841230e+01    0.8132499    0.3907852 -31.01  0.001682795    2.518    0.603
       138  -9.4011    137.9390     65.3120   6.3869058013e+01   4.1221781532e+01    0.5851819    0.4679882 -12.12  0.001630258    1.488    0.328
       139  -8.6246    130.0833     57.8960   6.3248076446e+01   4.4469715884e+01    0.3162364    0.2301006 -57.18 0.0004697827    1.523    0.343
       140  -8.2279    130.9714     53.5183   6.1520313704e+01   4.4989104996e+01    0.2546841    0.2139922  12.68  0.001000268    1.416    0.294
       141  -9.5718     15.8767     70.8965   1.1024961013e+02   6.1588256435e+01    0.5889751    0.2606063 -48.94  0.001190401    2.103    0.524
       142  -8.7252    225.8893    248.6493   8.4750075784e+01  -2.9182557337e+00    0.1723029    0.1323099 -12.09 0.0006460351    1.398    0.285
       143  -9.7264     17.1825     61.2531   1.0775389864e+02   6.3882362463e+01    0.6961641    0.2855892 -68.05  0.003027799    2.114    0.527
       144 -10.1439    117.0087    125.4029   8.5899535426e+01   3.3625528829e+01    0.7291936    0.4423259  75.37  0.001542495    3.213    0.689
       145 -10.9420    165.2611    248.2243   9.4948769710e+01   4.5765771129e+00    0.5188121    0.2166343  30.23   0.00284984    1.901    0.474
       146  -8.7257    102.0119    242.0323   1.0624614533e+02   1.3711466739e+01    0.1735416    0.1299012  39.50  0.000378416    1.008    0.008
       147  -9.0518    242.2832    246.7112   8.1959667957e+01  -4.5682028429e+00    0.1552452    0.1166502  11.00 0.0005119739    1.226    0.184
       148  -8.4952    213.0776    236.0790   8.5103564792e+01  -1.3079401531e-01    0.1572827    0.1150265  15.43  0.001189994    1.031    0.030
       149  -8.7809    187.9719    233.5348   8.9045885091e+01   3.3659325267e+00     0.167455    0.1606838 -36.51 0.0008448818    1.606    0.377
       150  -9.7097      6.9070     32.5127   1.0644690772e+02   7.1377187724e+01     0.290811    0.2200958 -11.58 0.0008679854    1.408    0.290
       151 -10.0870      7.2476     28.1300   1.0485624947e+02   7.2348357059e+01    0.3547086    0.2849315  57.27  0.001072645    1.556    0.357
       152  -9.1953    115.3283     72.0888   7.1892658110e+01   4.5389154789e+01    0.6093234    0.3370706 -33.82  0.001813709    2.007    0.502
       153  -8.3528    162.7566     72.8285   6.0925427027e+01   3.3812987802e+01    0.3006372    0.1899485 -45.47 0.0007950006    1.581    0.367
       154  -8.9181    173.8429     72.2239   5.8682992309e+01   3.1230586966e+01    0.3751795    0.2048849  63.79  0.001557769    2.026    0.506
       155  -9.5552    146.9487     68.5525   6.2880498568e+01   3.8424915893e+01    0.6345913    0.3007722 -40.97  0.001355794    2.069    0.517
       156  -8.4799    156.8872     69.5016   6.1093069329e+01   3.5809376230e+01     0.392432    0.2121674 -31.07   0.00158863    1.926    0.481
       157  -9.7853     94.8539     68.3506   7.6909500340e+01   5.0709840233e+01    0.4830027    0.2916582 -54.52 0.0008547622    1.812    0.448
       158  -9.3087     97.3505     58.4461   7.2608974124e+01   5.2172076806e+01    0.7958629    0.5166987 -28.66  0.003474641    1.774    0.436
       159  -9.1210    121.3030     66.1503   6.8284673958e+01   4.5130616046e+01    0.4245628    0.2901697 -62.95  0.001190773    1.821    0.451
       160  -8.0683    122.0431     61.4636   6.6496421760e+01   4.5819340801e+01    0.2419262    0.2113302  11.32 0.0006196437    1.319    0.242
       161  -8.3261    170.5381     64.9963   5.7167015259e+01   3.3182645807e+01    0.2243227     0.142364 -33.75 0.0003776701    1.535    0.349
       162  -8.3939    157.5249     63.0675   5.8994121133e+01   3.6716314860e+01    0.3120301    0.2148269 -54.14 0.0007531731    1.557    0.358
       163  -9.8026     73.0923     59.2182   8.1551869220e+01   5.7008239020e+01    0.5340434    0.3221081 -61.50  0.001090919    2.034    0.508
       164  -9.4518     74.8197     51.1302   7.7838124464e+01   5.8363068352e+01    0.6034736    0.3977045  -5.47  0.002426988    2.589    0.614
       165 -10.9069     21.7596     53.3018   1.0352166509e+02   6.5450660440e+01    0.8763199    0.4737461  79.30   0.00295975    3.166    0.684
       166  -8.0795    164.5746     60.2772   5.6814018298e+01   3.5398863288e+01    0.2797664    0.1343698 -37.86 0.0006828026    1.978    0.495
       167  -7.7531    152.5717     59.8204   5.8950400191e+01   3.8486505589e+01    0.2920335    0.1500957 -30.35  0.001144694    2.036    0.509
       168  -9.3616    149.7597     46.7488   5.5228620418e+01   4.1237052786e+01    0.5667948     0.182817 -34.79   0.00144488    2.891    0.654
       169  -8.3875    146.7778     59.2555   5.9952551567e+01   4.0041128010e+01    0.2992729    0.1986588 -51.41 0.0007339066    1.598    0.374
       170  -8.5351    147.5047     54.1422   5.8128833537e+01   4.0682092617e+01    0.5476877    0.2582349 -22.89  0.001703643    2.776    0.640
       171  -9.2664     87.8477     56.4723   7.5068692379e+01   5.4629704828e+01    0.8238714    0.4082854 -38.54  0.002312084    2.089    0.521
       172 -10.1954     85.1071     48.1254   7.2801301951e+01   5.6838041808e+01    0.4431261     0.314258 -60.99 0.0009616427    1.731    0.422
       173  -8.8804    142.0419     47.6075   5.7039359134e+01   4.3102944677e+01     0.604988    0.2515719 -29.27  0.001244538    2.578    0.612
       174  -8.7908    138.8918     56.7090   6.0808681064e+01   4.2455999997e+01    0.3474567    0.2246013 -48.94 0.0006308212    1.618    0.382
       175  -8.1835    138.7253     51.9892   5.9242768806e+01   4.3268474263e+01    0.3126674    0.2232077 -22.65  0.001002144    1.563    0.360
       176  -8.3828    123.1518     40.5284   5.8631114688e+01   4.9052495666e+01    0.5279572    0.3006771  20.16  0.001786109    3.378    0.704
       177  -9.4491    118.1842     54.9023   6.5204390371e+01   4.7936843234e+01    0.5622848    0.3430487 -42.75  0.001432387    1.655    0.396
       178  -9.1532    121.0823     47.0831   6.1595661339e+01   4.8544300853e+01    0.4583693    0.2492504 -39.08 0.0004100408    1.839    0.456
       179  -8.8341    162.7727     53.6882   5.5098447287e+01   3.6863054331e+01    0.4059336    0.2397979 -29.36  0.001331835    1.730    0.422
       180  -8.9087    105.3553     52.5624   6.7943779697e+01   5.1442807022e+01    0.5323218    0.2369115 -40.14  0.001650209    2.245    0.555
       181  -7.4003    153.2475     53.6708   5.6843710149e+01   3.9289683290e+01     0.153296    0.1099368 -60.34 0.0003059331    1.544    0.352
       182  -8.0075    172.6701     50.0445   5.2323425383e+01   3.4897494104e+01    0.3172339    0.1914685 -20.30 0.0007970896    1.904    0.475
       183  -8.5438    157.4991     49.4736   5.4697485599e+01   3.8838080597e+01    0.3920002    0.2016761 -53.35  0.001408269    2.285    0.562
       184  -7.1909    167.2749     49.6798   5.3080842646e+01   3.6312637520e+01    0.1531131    0.1066195 -61.12  0.000232799    1.573    0.364
       185  -9.1962    130.0694     47.8730   5.9730354890e+01   4.6138289948e+01    0.4664025    0.2334374 -32.88  0.001558823    2.040    0.510
       186  -8.1166    131.6807     41.6676   5.7121807812e+01   4.6683143626e+01    0.3529169     0.236031  17.14  0.001468295    2.187    0.543
       187  -8.8405    111.9457     47.0048   6.3953923861e+01   5.0828557256e+01    0.3483882    0.2441153 -54.89  0.001589336    1.608    0.378
       188  -8.5499    114.5009     40.5013   6.0754899144e+01   5.1251915807e+01    0.6222983    0.3894803  12.57  0.002358016    2.732    0.634
       189 -10.3033     90.1345     38.1895   6.6932473878e+01   5.7501300818e+01     1.192523    0.3868284  40.97  0.003071253    3.949    0.747
       190  -7.6540    162.1980     46.1737   5.2821508506e+01   3.8112283990e+01    0.2090299    0.1645991 -65.01 0.0004181781    1.331    0.249
       191  -8.7782    211.8839    218.5194   8.2764753015e+01   1.9688317637e+00    0.2200634    0.1908883  50.59  0.001125696    1.864    0.464
       192  -8.9018     69.8919     26.3303   6.8812778006e+01   6.3894025285e+01    0.3292892    0.2763038 -43.03  0.001058109    1.260    0.206
       193  -7.6423     56.0000    216.0270   1.1361337144e+02   2.3830815264e+01    0.1699618   0.06441369 -72.89 0.0008118413    3.008    0.668
       194  -9.9429     76.1252     32.2076   6.9214278083e+01   6.1610061522e+01    0.5280301    0.3884138  65.76 0.0008678779    1.645    0.392
       195  -7.2117    101.0000    215.0036   1.0383882900e+02   1.8224773183e+01    0.1538285   0.07072072 -61.07            0    2.672    0.626
       196 -10.3808    231.6920    212.0464   7.8520008060e+01   1.3268443065e-01    0.2005924    0.1524752  13.56 0.0004685144    1.102    0.093
       197  -8.9351    200.1455    213.0540   8.3960931269e+01   4.2099678645e+00     0.191967    0.1365912  29.26            0    1.213    0.175
       198  -9.7167     79.4571     23.8974   6.4003853139e+01   6.2191451417e+01    0.5974753    0.2944568  33.97  0.001664752    2.597    0.615
       199  -9.0666     84.7961     21.7697   6.1152720350e+01   6.1270645628e+01    0.2644185    0.2611385  -6.88 0.0006688241    1.065    0.061
       200  -8.9499    201.2122    208.4885   8.3070404144e+01   4.6320644093e+00    0.1982715    0.1620494   5.64 0.0003152992    1.089    0.082
       201 -10.2715     10.8095    206.7337   1.2280114053e+02   3.0281996104e+01    0.5761037    0.3458401  31.79  0.003765606    1.566    0.361
       202 -10.0469     37.8350     42.0192   9.1263670199e+01   6.6345822259e+01    0.4387532    0.3290753  83.28  0.001669868    1.958    0.489
       203 -10.3567     35.9090     38.0207   9.0736405337e+01   6.7458501264e+01    0.5636351    0.3293641 -28.28 0.0003796123    2.037    0.509
       204  -8.1882    202.0080    203.7805   8.2188299559e+01   5.1172259630e+00    0.1763612     0.143915  -5.45 0.0003251063    1.158    0.137
       205  -9.1437    110.3462     33.0439   5.8827855235e+01   5.3427582126e+01    0.4706346    0.2792818 -40.12  0.001005987    1.722    0.419
       206  -8.9367    104.9776     40.8469   6.3478149662e+01   5.3552268236e+01    0.4095216    0.2278302 -46.28   0.00105038    1.935    0.483
       207  -8.4116    106.2267     36.2059   6.1230544841e+01   5.3981721612e+01    0.3026787    0.1964292  39.84 0.0009044447    1.633    0.388
       208  -9.2801    153.4119     40.5951   5.2502057531e+01   4.1174058412e+01    0.3622577    0.2488017 -33.20  0.001366321    1.453    0.312
       209  -9.3776    144.5222     36.8461   5.2812868332e+01   4.4021126167e+01      0.47017    0.2457891 -56.53  0.001337474    2.396    0.583
       210  -7.7380    159.9843     39.3008   5.0967011530e+01   3.9641212367e+01     0.204683    0.1908596 -85.61    0.0005317    1.035    0.034
       211  -9.0788    132.3754     36.1125   5.4928653787e+01   4.7310162587e+01    0.3912059    0.3094745  30.19 0.0009772405    1.440    0.306
       212  -7.2542    228.5910    200.2264   7.7119054770e+01   1.8701621061e+00   0.09946658   0.08204851  41.07 0.0006151938    1.670    0.401
       213  -9.2665    101.1289     31.9345   6.0854542004e+01   5.5884962452e+01    0.4172577      0.22958 -40.74   0.00119275    1.871    0.466
       214  -8.5257    118.8173     34.6345   5.7374691513e+01   5.1039324295e+01    0.2772192    0.1997964 -35.88 0.0006709238    1.412    0.292
       215  -8.4585     42.0301     28.0309   8.2892719984e+01   6.8650360212e+01    0.2307059     0.178822 -22.63  0.001297821    1.287    0.223
       216  -9.0852    139.0779     39.6518   5.4851444552e+01   4.5053678756e+01     0.484583    0.3305202 -56.89  0.001678021    1.621    0.383
       217  -7.9069    168.8910     31.1171   4.6990854809e+01   3.8390752237e+01    0.2705894     0.178235 -10.11  0.000836605    1.895    0.472
       218  -9.1468    191.9814    194.3835   8.2471406778e+01   7.8429099653e+00     0.705342    0.3738196 -58.71  0.002446993    6.438    0.845
       219  -8.8240     92.3709     20.8018   5.8351833686e+01   5.9594544832e+01    0.3324483    0.2377975  -4.64  0.001491241    1.662    0.398
       220  -8.5734     95.8782     17.0142   5.5570892105e+01   5.9214956183e+01    0.2651392    0.2446906 -26.80  0.000413402    1.132    0.117
       221 -10.3166    169.3034    198.6706   8.7477991340e+01   1.0697133568e+01    0.2166734    0.1980997   6.31 0.0004353529    1.153    0.133
       222  -9.9101    153.1041     28.6349   4.8495510773e+01   4.2830791064e+01    0.5148035    0.2799639  31.16  0.001953603    2.768    0.639
       223  -7.8530    161.7817     29.5573   4.7493921789e+01   4.0433827566e+01     0.200459    0.1348049  89.07 0.0004666059    1.612    0.380
       224  -7.1149    132.9403    198.9999   9.5010542111e+01   1.6289070663e+01    0.1441402    0.1237702  33.41 0.0009252772    1.025    0.024
       225  -8.3465    121.4037    197.0653   9.7253964422e+01   1.8399645308e+01     0.192192    0.1516138  29.85   0.00029507    1.147    0.128
       226  -9.3924     53.8457    189.1764   1.1203498235e+02   2.9346771180e+01    0.1939058    0.1769005  65.85  0.001335913    1.148    0.129
       227  -6.7986    223.2188    188.0038   7.5935495710e+01   4.0806635618e+00    0.1331967   0.08545071 -25.58 -0.000430966    1.487    0.327
       228  -8.6639    191.0435    183.4797   8.0796491379e+01   9.5323803191e+00    0.1890136    0.1651978 -18.65 9.229717e-05    1.214    0.176
       229 -10.4469    100.9759    175.9891   9.9090128426e+01   2.5579757830e+01    0.1924963    0.1674417  47.59            0    1.008    0.008
       230  -8.5640     55.0423    173.5015   1.1031497480e+02   3.2545601567e+01    0.1919503    0.1680488 -65.89 0.0003471502    1.300    0.231
       231  -7.3458    118.5633    173.5896   9.4504579501e+01   2.3241244788e+01    0.1348983    0.1197352  32.67 0.0002312614    1.068    0.063
       232  -7.0392    123.6912    170.2913   9.2764541023e+01   2.3032105255e+01     0.136106    0.1006083  63.81 0.0002791752    1.582    0.368
       233  -8.0762    105.3317     14.3142   5.1949586813e+01   5.7139721352e+01    0.3216837    0.1430212  32.55  0.001066037    3.457    0.711
       234  -8.1963    155.4901     17.0054   4.4157063588e+01   4.3545953633e+01    0.2176593    0.1403697 -26.54  0.001037045    1.603    0.376
       235  -8.8142    132.7306     17.0475   4.7623800005e+01   4.9619408853e+01    0.2268227    0.1891071 -66.75 0.0005803337    1.235    0.191
       236  -7.6476    230.0009    167.0200   7.1058448281e+01   5.7482629290e+00     0.166871     0.149979 -52.66  0.001127944    1.686    0.407
       237  -7.3559    149.4025    154.4673   8.3976030556e+01   2.1515736104e+01    0.1380049    0.1280577  20.01 0.0001424132    1.026    0.025
       238  -8.5800    112.2577     15.4664   5.0912322516e+01   5.5215126627e+01    0.2694505    0.2136972 -50.42 0.0006455724    1.349    0.259
       239  -8.6852    133.7307    146.1083   8.5985257415e+01   2.6060335686e+01    0.5523406    0.1830107 -51.44  0.001846171    3.446    0.710
       240  -9.5546    237.0810    146.3975   6.5977154160e+01   7.3459619109e+00    0.3646061    0.2024182  52.12  0.001908439    2.374    0.579
       241  -9.4067     66.8836    144.2513   1.0360249141e+02   3.7692882110e+01    0.6057705    0.2509419  50.51   0.00236118    2.520    0.603
       242  -7.6536     95.8917    135.8724   9.3888810183e+01   3.5139740491e+01    0.2033493     0.165774  75.94 0.0004482325    1.326    0.246
       243 -10.1363     71.2323    125.7578   9.9334715612e+01   4.1512342197e+01    0.6610448    0.4039704 -76.81  0.001423327    1.837    0.456
       244  -9.8852     65.7080    129.4066   1.0167258036e+02   4.1428002634e+01    0.5614019    0.4210992 -31.45   0.00285164    1.734    0.423
       245 -10.2502     58.2407    124.5859   1.0323552172e+02   4.3639073450e+01      1.14258    0.5329795  73.41  0.002204174    4.448    0.775
       246  -8.6908    112.0528    133.7318   8.9011735020e+01   3.2734325195e+01    0.2983443    0.2346361  86.47  0.001240864    1.555    0.357
       247  -9.2980     83.7770    132.0478   9.6670233896e+01   3.8049295095e+01    0.7375777    0.3855744  66.79  0.002607946    3.193    0.687
       248  -9.3834    135.6006    132.2417   8.2631376757e+01   2.8519604707e+01    0.4579842    0.2226305 -42.53  0.001837011    2.183    0.542
       249  -9.3272    131.7852    130.9834   8.3300147528e+01   2.9534117480e+01    0.3459238    0.2562604  88.82  0.001063548    1.962    0.490
       250  -9.7100    195.1488    129.7892   6.9391989193e+01   1.7107867586e+01    0.2539615    0.2203176 -22.60 0.0002845062    1.093    0.085
       251  -9.9184     98.8316    128.7651   9.1662129938e+01   3.6258373555e+01    0.7278732    0.3882588  63.79  0.002563353    3.001    0.667
       252  -8.6309    125.8899    129.3982   8.4446321037e+01   3.1028725167e+01    0.2470576    0.2027423 -65.09 0.0005924091    1.352    0.260
       253  -9.9727    138.7541     91.7886   7.1720046924e+01   3.6061288497e+01    0.8960321    0.4387262 -37.83  0.002713706    2.117    0.528
       254 -10.0798    111.7123     89.5367   7.8295456543e+01   4.2576684193e+01     2.317354    0.9349898  30.56  0.005345797    6.474    0.846
       255 -10.1655    140.5770    118.3200   7.8212047193e+01   3.0340152916e+01    0.7184864    0.4169774 -57.74  0.001994421    2.152    0.535
       256  -9.7063    139.4797    104.2331   7.4934366245e+01   3.3420836995e+01    0.7728317    0.3617927 -52.90  0.002717778    2.575    0.612
       257 -10.8928    122.7160     91.9435   7.5893308121e+01   3.9657681414e+01    0.9571415     0.906098 -88.59  0.003216728    1.092    0.084
