#   1 NUMBER                 Running object number                                     
#   2 MAG_AUTO               Kron-like elliptical aperture magnitude                    [mag]
#   3 X_IMAGE                Object position along x                                    [pixel]
#   4 Y_IMAGE                Object position along y                                    [pixel]
#   5 X_WORLD                Barycenter position along world x axis                     [deg]
#   6 Y_WORLD                Barycenter position along world y axis                     [deg]
#   7 A_WORLD                Profile RMS along major axis (world units)                 [deg]
#   8 B_WORLD                Profile RMS along minor axis (world units)                 [deg]
#   9 THETA_WORLD            Position angle (CCW/world-x)                               [deg]
#  10 FWHM_WORLD             FWHM assuming a gaussian core                              [deg]
#  11 ELONGATION             A_IMAGE/B_IMAGE                                           
#  12 ELLIPTICITY            1 - B_IMAGE/A_IMAGE                                       
         1  -8.4860     55.5686     10.0741   7.0911209987e+01   6.6842077597e+01    0.1945089    0.1717951  45.70 0.0006593982    1.501    0.334
         2  -8.3601     90.9497      9.0344   5.8641803047e+01   6.0286104321e+01     0.189986    0.1561999 -61.25  0.000588007    1.703    0.413
         3  -7.6226     28.2701      9.7106   8.2995704280e+01   7.0707593754e+01   0.09724069   0.08739673 -29.58  0.000265949    1.507    0.337
         4  -7.8354    101.3764      8.2480   5.5592831204e+01   5.8099036826e+01    0.1702217    0.1168812 -31.74 0.0004239077    1.603    0.376
         5  -7.9881      6.0252      8.5120   9.4421277325e+01   7.3004589662e+01    0.1296672   0.08810421  42.70 0.0008101019    2.529    0.605
         6  -8.6595     33.2010      4.9033   7.8039014753e+01   7.0744986500e+01    0.2595195    0.1342784 -45.59  0.001296915    2.880    0.653
         7  -8.6146     78.9603      4.5645   6.0071931362e+01   6.3170922430e+01    0.2289403     0.171176 -20.01 0.0007186158    1.378    0.274
         8  -7.8239     44.6781      3.3256   7.1929094679e+01   6.9327009912e+01    0.1030594    0.0941777 -42.10   0.00070476    1.684    0.406
         9  -7.9035    238.4735      2.4754   3.5287160140e+01   2.5435389998e+01    0.1234762    0.1032464 -72.05 0.0004872835    1.041    0.039
        10  -8.2984     62.4059      1.4598   6.3980017916e+01   6.6595015808e+01    0.1760058     0.116086  58.38  0.000511133    1.929    0.482
        11  -9.0130    120.3629    245.6893   1.0952667420e+02   8.2109421536e+00    0.3302373     0.196773  73.40  0.001675388    2.351    0.575
        12  -8.4063    248.5710    249.5415   8.6837687719e+01  -1.1595229072e+01    0.2781268    0.1594863  -0.80  0.001704971    1.788    0.441
        13  -9.3394    248.5414    242.5642   8.5725557754e+01  -1.0834927711e+01    0.2485221    0.1897628 -36.09  0.001043689    1.815    0.449
        14  -9.0969    211.4690    247.5845   9.2926591146e+01  -6.1933925565e+00    0.3315714    0.2308235 -64.66  0.001531359    3.486    0.713
        15  -8.1137    191.5093    249.9762   9.6862812561e+01  -3.5009863590e+00    0.1339308    0.1062528 -81.47 0.0008076354    2.404    0.584
        16  -7.9946    183.2079    250.6223   9.8463010339e+01  -2.3160263967e+00    0.1707628   0.09052271  31.22 0.0003733944    1.627    0.385
        17  -9.7489    111.7280    249.1694   1.1150195086e+02   8.9468581348e+00    0.2606978     0.182533  40.07 0.0006291704    1.262    0.208
        18  -8.4945     94.0795    249.7551   1.1478592147e+02   1.1431067261e+01    0.2437557    0.1311812  63.48  0.001300287    1.881    0.468
        19  -7.4066     86.2706    250.6370   1.1627208219e+02   1.2384891494e+01    0.1188754   0.06993213  67.45 0.0006570955    1.655    0.396
        20  -8.5484    139.9331    244.2763   1.0568073531e+02   5.3939199598e+00    0.2245755    0.1452936  84.35  0.001033103    2.642    0.622
        21  -8.5062     67.5268    244.9472   1.1915413833e+02   1.5915135040e+01    0.1548131    0.1016963 -78.52  0.001025528    1.573    0.364
        22  -8.7139      9.6068    243.9101   1.2891381669e+02   2.2814162443e+01    0.2333626   0.07337237  88.69  0.001126415    3.287    0.696
        23  -8.5641    201.9769    243.4951   9.4014312618e+01  -4.2544548442e+00    0.1928637    0.1659971 -53.27 0.0008195649    1.710    0.415
        24  -8.8020    168.8766    243.2934   1.0009954147e+02   9.4638799375e-01    0.1768059    0.1661614 -82.59 0.0005943241    1.395    0.283
        25  -9.3778     77.6496    242.7901   1.1715278788e+02   1.4938127647e+01    0.3077751    0.1861603  80.97  0.001498979    1.746    0.427
        26  -7.7381     34.6386    244.3008   1.2482179214e+02   2.0069740411e+01    0.1195929   0.05606024  62.74 0.0004233804    1.721    0.419
        27  -8.8247    212.9687    242.3503   9.1859298305e+01  -5.7666823777e+00    0.2204373    0.1623974  17.38  0.001467901    1.130    0.115
        28  -8.4325    194.7640    243.4091   9.5315605107e+01  -3.1363892173e+00    0.2143873    0.1254247  30.24  0.000729634    1.442    0.306
        29  -8.4159    194.0123    239.6877   9.4897485929e+01  -2.5188411971e+00    0.1766288    0.1458937  40.80 0.0003621285    1.258    0.205
        30  -9.8488    160.2039    240.6283   1.0137046573e+02   2.7276980165e+00    0.3475675    0.2458767 -87.89  0.001549733    2.509    0.601
        31  -8.8223    132.3453    248.3261   1.0758614503e+02   5.9423322262e+00    0.2504047    0.1641269  63.03  0.000819333    1.675    0.403
        32  -8.1609     88.1917    242.2554   1.1517039029e+02   1.3560924987e+01    0.1644195    0.1100479  67.59 0.0006947857    1.367    0.269
        33  -9.0051    241.7963    237.2107   8.5991036676e+01  -9.3092294057e+00    0.1987876    0.1117324  -2.17 0.0008989656    2.040    0.510
        34  -8.3548    146.0396    239.9618   1.0397878431e+02   5.1044587553e+00    0.1853299    0.1320888  63.94 0.0005082964    1.618    0.382
        35  -7.9196    209.4231    238.9058   9.1961196116e+01  -4.7938456408e+00    0.1378867    0.1074146 -66.75 0.0007102229    2.469    0.595
        36  -9.0031    135.7671    239.1103   1.0583655311e+02   6.8819824220e+00    0.2609749    0.1392531  50.63  0.001244358    1.693    0.409
        37  -7.9148    129.1728    238.7779   1.0706000790e+02   7.9818244582e+00    0.2064618    0.1125483  66.89 0.0009420884    2.787    0.641
        38  -9.0553    231.0739    236.9384   8.7797215284e+01  -7.7586738185e+00    0.2626121     0.192743 -38.42  0.001389153    1.766    0.434
        39  -9.2574    247.9462    235.1874   8.4612514213e+01  -9.9231202306e+00    0.3088555    0.2075198 -36.56  0.001528405    1.861    0.463
        40  -9.2005    246.4596    229.1000   8.3838573489e+01  -9.0047290951e+00    0.3238569    0.1784522 -27.77  0.001382406    1.793    0.442
        41  -7.8897     25.6811    237.3645   1.2594528164e+02   2.2325822117e+01    0.1208323   0.05594708  65.96 0.0007040146    1.777    0.437
        42  -9.8902    214.8421    233.2398   9.0080216977e+01  -4.8832569777e+00    0.4560247    0.3490967 -83.96  0.002327936    3.500    0.714
        43  -8.8987    203.2384    234.8772   9.2457044567e+01  -3.3086219512e+00    0.2404077    0.1994293 -71.62  0.001029276    2.100    0.524
        44  -7.9537    197.3723    235.7037   9.3667954256e+01  -2.5016491009e+00    0.1438322     0.128319 -53.72  0.000974132    1.574    0.365
        45  -8.3139    194.5409    232.8015   9.3743388311e+01  -1.6495696343e+00    0.1908456    0.1623296  45.88 0.0007235967    1.333    0.250
        46  -9.7127    175.7430    233.3981   9.7385167648e+01   1.2999652810e+00     0.421962    0.2258065 -55.93  0.002065462    2.826    0.646
        47  -8.0781    170.3437    236.1421   9.8815407737e+01   1.7669462323e+00    0.1502997    0.1173999 -61.02 0.0006147854    1.741    0.426
        48  -9.3610    109.2462    234.7032   1.1042198763e+02   1.1783681103e+01    0.5171145    0.1973938  53.02  0.001371289    2.646    0.622
        49  -8.0478     57.7512    236.7888   1.2028095911e+02   1.8656082539e+01    0.1848911   0.05803767  46.87 0.0008701017    2.413    0.586
        50  -8.3888    152.7863    235.2132   1.0205398619e+02   4.7680817913e+00    0.1995167    0.1211902  68.00 0.0007550161    2.705    0.630
        51  -8.5634     99.6714    234.4917   1.1224098104e+02   1.3268719647e+01    0.2415418    0.1514093  72.78  0.001040983    1.767    0.434
        52  -9.1279     78.5561    234.2860   1.1623327717e+02   1.6350744152e+01    0.2647327    0.1500966  76.25 0.0009491281    1.945    0.486
        53  -9.3638      8.2734    234.5996   1.2871775139e+02   2.4631863901e+01    0.1670593    0.1049949 -68.45   0.00119327    1.793    0.442
        54  -8.3172    122.8321    234.1069   1.0772234023e+02   9.7740430886e+00    0.1946939    0.1442514  63.57 0.0007626668    1.329    0.248
        55  -9.2932     68.4470    232.7276   1.1798906519e+02   1.8017177188e+01    0.4024478    0.1698337  65.09  0.001831157    2.804    0.643
        56  -8.2327    144.5057    233.0070   1.0336262180e+02   6.4749682206e+00    0.3496226    0.1618404  59.76  0.001327043    3.735    0.732
        57  -8.3139    139.8768    230.1407   1.0388669710e+02   7.7090221585e+00    0.1964604    0.1477559  57.94 0.0006679958    1.311    0.237
        58  -8.5162    132.8056    233.0026   1.0564377567e+02   8.3722627777e+00    0.2008819    0.1332541  75.31  0.001072025    2.069    0.517
        59  -9.3072    186.5483    230.9728   9.4963031401e+01  -1.0040401565e-01    0.2936254    0.2276295  83.73  0.001485047    2.333    0.571
        60  -9.1277    183.1557    240.2375   9.6993811508e+01  -8.8467323555e-01    0.3799509    0.2433098  63.30  0.001930385    2.656    0.623
        61  -8.4414     92.2640    231.7712   1.1338241465e+02   1.4857745582e+01    0.2413513    0.1498344  68.92 0.0009192717    1.640    0.390
        62  -8.8442    236.1559    230.9210   8.5917261277e+01  -7.7596477349e+00    0.1953495    0.1690413   0.75 0.0007017909    1.235    0.191
        63  -8.8029      1.7269    230.8827   1.2963142062e+02   2.5946593126e+01    0.1981692   0.09701018  75.39 0.0006628355    1.575    0.365
        64  -8.1507    205.7354    230.4434   9.1291010132e+01  -3.0972444579e+00    0.1718427    0.0989904  28.25  0.000452194    1.543    0.352
        65  -9.2261    151.3486    229.0332   1.0148046007e+02   6.0045504165e+00    0.3011687     0.202962 -88.76  0.001487338    2.641    0.621
        66  -9.4076    148.8358    224.7252   1.0136868587e+02   7.1423314928e+00    0.4180039    0.2795396  79.14  0.001440401    2.473    0.596
        67  -8.0549    229.9592    229.0079   8.6680935164e+01  -6.6152270187e+00    0.1575393     0.148552  53.52 0.0006975448    1.657    0.396
        68  -8.7456    162.5050    228.1669   9.9170193738e+01   4.2919143342e+00     0.291342    0.1717054  57.71  0.001103012    2.129    0.530
        69  -9.0133    127.8450    227.1544   1.0587449393e+02   1.0184898366e+01    0.3086387    0.2061761  70.32  0.001025647    1.823    0.452
        70  -8.6253    119.9906    227.7426   1.0750656986e+02   1.1342639100e+01    0.2111347    0.1548615  82.94 0.0009723165    1.604    0.377
        71  -8.1107    223.4283    227.0182   8.7507772945e+01  -5.3791150066e+00    0.2211105    0.1115714 -28.05 0.0007874926    2.136    0.532
        72  -9.0225    225.3761    221.9610   8.6298261168e+01  -5.0100295883e+00    0.2322691    0.2113468  19.57 0.0009126419    1.295    0.228
        73  -8.5114    206.1594    226.2706   9.0532710124e+01  -2.5877712478e+00    0.1873606    0.1630728 -75.13 0.0004935213    1.901    0.474
        74  -8.0825     49.3012    226.9849   1.2108524051e+02   2.1559577031e+01    0.2518594    0.0896511  57.06  0.001167185    2.596    0.615
        75  -8.0153    200.1114    226.1979   9.1648141503e+01  -1.6080200081e+00    0.1543163    0.1426604  43.49 0.0004790202    1.333    0.250
        76  -8.6717    180.4935    224.4438   9.5103965143e+01   1.8750816138e+00    0.2243161    0.1840675  55.19 0.0006308525    1.407    0.289
        77  -8.8255    104.7684    223.7749   1.1005955367e+02   1.4459709416e+01    0.3223584    0.2003003  83.79  0.001684427    2.079    0.519
        78  -8.8040     94.2785    224.3271   1.1220633072e+02   1.5948493032e+01    0.3502724    0.1729046  64.32  0.001618321    2.446    0.591
        79  -8.0876     38.1796    224.9417   1.2298137460e+02   2.3275781465e+01    0.1728452   0.09079577  61.58 0.0007033381    1.569    0.363
        80  -8.7170    216.3601    223.5253   8.8197197434e+01  -3.8214947657e+00    0.2125899    0.2092037 -75.48 0.0007159392    1.526    0.345
        81  -8.7302    172.9923    223.4078   9.6401320949e+01   3.2940428468e+00    0.2117015    0.1803436 -72.73 0.0006355609    1.606    0.377
        82  -7.8851    114.1064    224.1714   1.0824052070e+02   1.2925157580e+01    0.1771231    0.1282115  63.54 0.0004782542    1.332    0.249
        83  -8.0382     59.7748    223.9500   1.1887895859e+02   2.0831007071e+01    0.1993821    0.1040457  72.22 0.0008919871    1.968    0.492
        84  -9.2979    192.5046    221.4349   9.2309198354e+01   3.3292057123e-01    0.2902724    0.2440847  77.22  0.001067926    1.828    0.453
        85  -9.3185    160.2698    221.2352   9.8580005910e+01   5.7998663853e+00    0.5622547    0.2538119  56.78  0.002075652    3.647    0.726
        86  -8.2096    140.5459    222.8190   1.0275696477e+02   8.8561914513e+00    0.1625201    0.1231306 -78.16 0.0006625782    1.700    0.412
        87  -9.0517    238.7723    221.5757   8.3864139225e+01  -6.9751025840e+00     0.199452    0.1754355 -13.85 0.0004801979    1.321    0.243
        88  -8.5443    202.6145    220.4700   9.0230541842e+01  -1.1898175155e+00    0.2655219    0.1850354 -14.40  0.001215434    1.591    0.371
        89  -8.2899     73.3950    221.2000   1.1600105821e+02   1.9551091416e+01    0.2666444    0.1262648  72.51  0.001181793    2.823    0.646
        90  -8.8688      7.2815    222.0388   1.2829552878e+02   2.7091298100e+01    0.2139573   0.05299295  59.73 0.0009065005    3.626    0.724
        91  -9.2143    120.2554    219.2953   1.0638572666e+02   1.2840079647e+01    0.3808431    0.2227958  70.39   0.00148647    2.390    0.582
        92  -8.6637     82.9004    220.6101   1.1406789310e+02   1.8328976424e+01    0.2991953    0.1616071  76.52  0.001338138    2.322    0.569
        93  -8.0611     27.5329    221.5187   1.2469136292e+02   2.5131661116e+01       0.1139   0.08335846  72.85 0.0002368471    1.004    0.004
        94  -8.6733    249.1741    218.5346   8.1542168579e+01  -8.1022444064e+00    0.3154939    0.2005675  57.57  0.001520015    3.540    0.717
        95  -8.0418    210.0109    219.2912   8.8647137124e+01  -2.2216282520e+00    0.1745193    0.1414955  22.95 0.0003971299    1.054    0.052
        96  -9.3795    132.9880    216.2128   1.0336655329e+02   1.1304602466e+01    0.4415871    0.2747904  78.55  0.002017927    2.648    0.622
        97  -8.4462     62.3880    217.5896   1.1782112716e+02   2.1744518221e+01    0.3411582    0.1333935  62.75    0.0014185    3.107    0.678
        98  -9.0818     51.5158    217.4563   1.1991981467e+02   2.3156390822e+01    0.2682903    0.1600342  82.62  0.001151905    1.567    0.362
        99  -7.4901    179.3404    217.7071   9.4251717870e+01   3.1250513607e+00    0.1255931   0.09785358  62.69 0.0007027788    1.652    0.395
       100  -8.7865    169.4191    216.3316   9.5994306701e+01   5.0495431182e+00    0.2517869    0.1954311  79.32 0.0007260533    1.913    0.477
       101  -8.7014    143.0165    216.5853   1.0136783115e+02   9.5408000130e+00    0.2575129    0.1889597  77.89  0.001029009    1.805    0.446
       102  -7.7368    112.0020    217.4821   1.0783719565e+02   1.4510827366e+01    0.1906429   0.08793803  56.95 0.0008089308    2.453    0.592
       103  -7.8008     55.9003    217.1279   1.1904499658e+02   2.2672906602e+01      0.13835    0.1260011  77.31 0.0009973056    1.266    0.210
       104  -8.6429    154.5396    215.2959   9.8828413912e+01   7.7926874184e+00    0.2174449    0.1836007  86.50 0.0009139445    1.487    0.328
       105  -8.6639    232.2378    214.8260   8.3823897327e+01  -5.1106756044e+00    0.1977284    0.1912065 -38.01 0.0008327835    1.537    0.349
       106  -8.3397    185.5310    214.3175   9.2478284993e+01   2.6064672266e+00    0.1987556    0.1862758 -83.94 0.0006116803    1.420    0.296
       107  -8.9516     93.1161    214.1535   1.1130293042e+02   1.8094012108e+01    0.3654249    0.1803656  64.72  0.001529073    2.541    0.607
       108  -7.9187     41.3665    215.6776   1.2172232912e+02   2.4734010068e+01     0.130449   0.06554105  64.99 0.0007037953    1.793    0.442
       109  -9.4289     73.3094    212.0926   1.1511850184e+02   2.1378269800e+01    0.6518207    0.2520372  61.47  0.002500854    3.487    0.713
       110  -9.4338    213.8696    212.1209   8.6682348079e+01  -1.8177295077e+00    0.3080239    0.2423002  52.17  0.001603849    1.633    0.388
       111  -8.5446    161.7717    212.4863   9.6920459782e+01   7.0256160076e+00    0.2385341    0.1935794  70.27 0.0008256954    1.523    0.344
       112  -8.0780    106.6203    213.0984   1.0839280753e+02   1.6212375032e+01    0.2000937    0.1446942  80.94 0.0009599237    1.514    0.339
       113  -7.8722    224.8352    212.5583   8.4747292047e+01  -3.6455376476e+00     0.160173      0.11076  43.27 0.0004863158    1.573    0.364
       114  -9.0750    204.3479    210.8969   8.8256537491e+01  -5.8488065672e-02    0.2594713    0.2259495 -56.32 0.0007444268    1.585    0.369
       115  -9.4172    175.5128    210.1443   9.3764289569e+01   5.0215100357e+00    0.3910419    0.2650953  69.01   0.00141109    2.434    0.589
       116  -8.3339    192.3216    210.7766   9.0549682486e+01   2.0022271766e+00    0.2203191    0.1982256 -83.29 0.0009545904    1.589    0.371
       117  -8.9702    147.9868    210.5216   9.9437239525e+01   9.7761209522e+00    0.3123633    0.2035245  63.84  0.001130768    1.943    0.485
       118  -8.9911    116.2188    210.4960   1.0605530431e+02   1.5172339044e+01    0.2816443    0.1831423  68.30 0.0007883179    1.770    0.435
       119  -8.2045     32.4438    210.9028   1.2307143227e+02   2.6713071943e+01    0.1683787   0.07319542  76.94 0.0008054898    2.457    0.593
       120  -9.1929      6.3716    208.7760   1.2778443712e+02   2.9781249237e+01    0.4735812    0.1412675  85.03  0.001882108    4.064    0.754
       121  -8.5386     85.7781    209.8909   1.1232731861e+02   2.0042747007e+01    0.2910784    0.1639833  65.51  0.001465282    1.891    0.471
       122  -7.9813     46.7354    210.1221   1.2024601131e+02   2.5225493566e+01     0.219236   0.08889217  66.29 0.0009515762    2.864    0.651
       123  -9.0589    236.4285    208.3437   8.1912679266e+01  -4.8799636008e+00    0.2365944    0.2112363 -31.03  0.000884645    1.430    0.301
       124  -9.2706    246.2739    207.2834   8.0005938937e+01  -6.2353440744e+00     0.247493    0.1801339 -19.71 0.0006096176    1.260    0.206
       125  -8.1780    156.6845    208.1542   9.7268217379e+01   8.6783876603e+00    0.1969436    0.1671724  88.14  0.001148798    1.481    0.325
       126  -8.3506    139.0481    208.0203   1.0091530241e+02   1.1789311022e+01    0.2084333    0.1519498  70.23 0.0005675391    1.648    0.393
       127  -8.0488    126.4535    208.5368   1.0363556057e+02   1.3847368510e+01    0.1348855    0.1149842  58.20 0.0008066036    1.074    0.069
       128  -9.2637     99.3121    206.1370   1.0904483892e+02   1.8750994404e+01    0.3644776    0.2239534  82.37  0.001428673    2.082    0.520
       129  -8.6153     56.3965    205.5366   1.1791280735e+02   2.4980123184e+01    0.3214939    0.1465268  62.75  0.001521954    2.288    0.563
       130  -7.9954     11.6963    206.6663   1.2669468610e+02   2.9707477468e+01    0.1004917   0.07632034 -61.10  0.000703736    1.661    0.398
       131  -8.8099    131.4563    204.2972   1.0195600728e+02   1.3811283248e+01    0.2886672    0.1938477  74.88 0.0008798745    2.009    0.502
       132  -8.0268    109.0747    205.3507   1.0687105419e+02   1.7355070822e+01    0.1909032    0.1517234  55.50 0.0007970553    1.109    0.098
       133  -7.9971     25.3560    205.6803   1.2406132978e+02   2.8544479815e+01    0.1276202   0.06360495  65.57 0.0007045696    1.756    0.431
       134  -9.4867    250.0992    202.0896   7.8389371711e+01  -6.1183083941e+00    0.3757073    0.1640715 -34.76  0.001359279    2.215    0.549
       135  -9.9483    245.6280    193.7164   7.7563615023e+01  -4.2888247544e+00    0.4057664    0.3214577 -74.02  0.002153603    2.779    0.640
       136  -9.2524    192.3956    197.4202   8.8153274641e+01   4.1554235722e+00    0.3752975    0.2797992 -56.41  0.001309205    1.777    0.437
       137  -8.9389    183.7156    204.0300   9.1072411506e+01   4.5985673137e+00    0.2758228    0.1768115  53.13 0.0008312084    1.794    0.443
       138  -9.6453    163.8607    203.2453   9.4977443041e+01   8.2794952781e+00    0.4176386    0.2498743  56.82 0.0009611662    2.027    0.507
       139 -10.6819    242.1552    201.4935   7.9641451727e+01  -4.8282086767e+00    0.2870674    0.2220141  -1.41 0.0003819112    1.104    0.094
       140  -9.4916    237.0371    198.8661   8.0042736400e+01  -3.6592456099e+00    0.3377533    0.1880222 -38.96   0.00113833    1.921    0.480
       141  -9.0653    210.9191    202.6164   8.5520787569e+01   9.0491982214e-02    0.2431756    0.2209191  -9.03 0.0006685873    1.156    0.135
       142  -8.3368     48.4824    202.4956   1.1924437151e+02   2.6601163305e+01    0.2201973   0.09981046 -87.54 0.0009152879    2.443    0.591
       143  -8.3740     17.5225    203.0130   1.2538118899e+02   2.9890548098e+01    0.2375549    0.1078522  80.96  0.001265427    2.041    0.510
       144  -7.9989    222.3568    202.0782   8.3289722582e+01  -1.7440539219e+00    0.1692176    0.1148579 -43.61 0.0007288606    1.770    0.435
       145  -8.8972    140.5812    201.2305   9.9539608364e+01   1.2808449927e+01    0.3581609    0.2362665  81.52  0.001199735    2.457    0.593
       146  -8.9936     79.9685    201.2969   1.1256418514e+02   2.2668469247e+01    0.3295531    0.1745982  77.63  0.001461648    2.548    0.608
       147  -8.0192     73.2841    202.6091   1.1412452620e+02   2.3341964728e+01      0.13725   0.08197531  72.55 0.0007003522    1.754    0.430
       148  -7.9770     40.5171    202.0313   1.2081271559e+02   2.7640216753e+01    0.1795537   0.08012123  79.25 0.0008102713    2.607    0.616
       149  -9.4433    149.4551    198.6246   9.7226364619e+01   1.1721583252e+01    0.4192114    0.2791943  77.94  0.001072381    2.476    0.596
       150  -8.9621    123.9288    199.3817   1.0283305563e+02   1.6075461618e+01     0.318112    0.2168894  81.06  0.001370349    1.949    0.487
       151  -9.4447    112.9533    198.6222   1.0510398767e+02   1.8084650229e+01    0.4445921    0.2610712  70.03  0.001683303    2.310    0.567
       152  -9.1647     88.7547    198.6942   1.1036795604e+02   2.1918492342e+01    0.3898018    0.2211678  82.35  0.001425949    2.373    0.579
       153  -8.3684    176.9764    198.9892   9.1543195261e+01   6.6666138207e+00    0.1991907    0.1660722  76.17 0.0004639784    1.618    0.382
       154  -8.3860    202.3439    197.8095   8.6273532991e+01   2.3262736367e+00    0.2276695    0.2031265 -68.19  0.001084206    1.571    0.363
       155  -8.7332    133.1693    196.6118   1.0040179965e+02   1.5020381666e+01    0.3281102    0.1917074 -67.75  0.001484757    2.260    0.558
       156  -9.3444     61.3701    196.7888   1.1602102304e+02   2.6193831619e+01     0.436268    0.2293128  83.82  0.001868084    2.219    0.549
       157  -7.8014     22.6706    198.2867   1.2407092179e+02   3.0361256211e+01     0.122985   0.06587169  65.96 0.0007011849    1.615    0.381
       158  -8.5620     12.9599    197.4631   1.2590451797e+02   3.1483200106e+01    0.3052349    0.1262939  76.06  0.001522937    2.367    0.578
       159  -8.8297    215.7480    195.5494   8.3290071038e+01   3.5336102261e-01    0.2774194    0.1751664 -47.08 0.0009518557    1.964    0.491
       160  -8.7077    224.4661    194.3090   8.1435858831e+01  -9.3809747283e-01    0.2829116    0.1961842 -47.73  0.001305735    1.856    0.461
       161  -7.6999    209.3051    195.6582   8.4530512061e+01   1.4508011469e+00    0.1220959    0.1093254  88.94 0.0006059618    1.683    0.406
       162  -9.0608    185.1542    194.7204   8.9107127661e+01   5.9218584499e+00    0.2525834    0.2260127 -57.99 0.0007785548    1.369    0.270
       163  -9.0339    161.2112    194.5647   9.4037717442e+01   1.0344402066e+01    0.2870782    0.2196438  74.12  0.001122195    1.756    0.431
       164  -9.1359     43.8553    193.5428   1.1939447617e+02   2.9066427496e+01    0.3950356    0.1860517  69.45  0.001878986    2.318    0.569
       165  -8.3832    230.9588    194.2719   8.0249874573e+01  -2.0126899798e+00    0.1828996    0.1510231   6.51 0.0005243674    1.033    0.032
       166  -8.7052     77.0090    194.0434   1.1235116395e+02   2.4643463983e+01    0.2433717     0.170351  72.80 0.0007186792    1.373    0.272
       167  -8.3322    198.9633    191.9431   8.5830282625e+01   3.8880085671e+00    0.1965761    0.1714301  86.46 0.0006785269    1.681    0.405
       168  -8.4452    179.2518    191.6630   8.9746422844e+01   7.5419021797e+00    0.2370928    0.1676407 -55.18 0.0006694242    1.743    0.426
       169  -8.5208    172.3355    192.0083   9.1242827045e+01   8.7605881481e+00    0.2416362    0.1895478  63.06 0.0009755577    1.544    0.353
       170  -9.2292    139.5515    190.7097   9.8043410790e+01   1.5055973764e+01    0.3734427    0.2636428  85.95  0.001058128    2.042    0.510
       171  -8.6516     21.5368    191.7705   1.2383199179e+02   3.1858961937e+01    0.2997688     0.101767  60.20  0.001294956    3.069    0.674
       172  -7.7777    205.2739    191.6682   8.4546345886e+01   2.8021740883e+00     0.121781    0.1100755 -83.95 0.0002595454    1.595    0.373
       173 -10.4816     91.9866    188.7074   1.0835249086e+02   2.3567611024e+01    0.8939959    0.2876137  50.57  0.003114725    3.388    0.705
       174  -8.5774    148.7612    189.6679   9.5851573882e+01   1.3576745460e+01    0.2520387    0.1829087 -87.23 0.0009236765    2.013    0.503
       175  -9.1060    129.3996    188.7771   9.9966637910e+01   1.7275920933e+01    0.3359943     0.225653  73.17  0.001030232    1.973    0.493
       176  -9.7648    248.0790    186.3314   7.5707650687e+01  -3.6296387817e+00    0.4051661    0.2673804   9.73  0.001731446    1.576    0.366
       177  -8.3761    237.1879    188.7119   7.8061573928e+01  -2.2178010460e+00    0.2140694    0.1586777 -34.49 0.0006246481    1.401    0.286
       178  -7.9899    210.0000    188.9476   8.3111197952e+01   2.4028789100e+00    0.2139512   0.07461902 -38.81 0.0008010961    2.933    0.659
       179  -9.0324    191.6402    187.6373   8.6463418712e+01   5.9571735346e+00    0.3236263    0.2548183  87.63  0.001214486    2.100    0.524
       180  -9.3287    156.0529    187.6257   9.3906870112e+01   1.2620431924e+01     0.359003    0.2326215 -59.35 0.0009724044    1.874    0.466
       181  -9.8369    120.8410    186.7262   1.0155106536e+02   1.9216061233e+01    0.5333695    0.2963419 -73.69  0.002201494    2.618    0.618
       182  -9.0168     33.9216    187.7450   1.2096493195e+02   3.1448318683e+01    0.3648067    0.1636734  82.20  0.001550717    2.509    0.601
       183  -9.2388    194.7787    203.5145   8.8790998008e+01   2.7342804846e+00    0.3151543    0.2532983 -31.40  0.001057347    1.324    0.245
       184  -8.0187    230.5696    187.7048   7.9043918334e+01  -9.6774132525e-01     0.166496    0.1190382 -39.87 0.0006152822    1.537    0.350
       185  -8.6780    216.6913    187.9192   8.1640849811e+01   1.3857188917e+00    0.2206867    0.1993831 -18.08 0.0007054421    1.159    0.137
       186  -8.8119    164.9284    186.8421   9.1856357057e+01   1.1104453806e+01    0.2774292     0.209317 -62.20 0.0006891261    1.630    0.387
       187  -9.2105     54.7614    186.9400   1.1641475860e+02   2.9194610088e+01    0.3813587    0.2004919  74.75  0.001775801    2.151    0.535
       188  -9.2961    109.6099    186.1595   1.0400215042e+02   2.1265572005e+01    0.3852743      0.24124  71.01  0.001146369    2.025    0.506
       189  -9.5846     65.9133    184.4545   1.1366802062e+02   2.8298691856e+01    0.3618972    0.2252305  67.69  0.001003685    1.608    0.378
       190  -8.7987    210.3530    184.4810   8.2167218210e+01   3.0683896967e+00    0.2342222    0.1958182 -28.61  0.000564713    1.211    0.174
       191  -8.9383    202.7530    184.7006   8.3684087660e+01   4.4132096847e+00    0.2530341    0.1861698 -48.54 0.0008186908    1.605    0.377
       192  -8.7018    182.7905    184.5833   8.7678020378e+01   8.1510927340e+00    0.3038515    0.1864181 -45.77 0.0007256913    1.773    0.436
       193  -8.3101    224.0934    183.6988   7.9430007823e+01   7.5817754442e-01    0.2128523    0.1716851 -34.22 0.0006173548    1.303    0.232
       194  -8.1086    197.1325    183.4947   8.4556948459e+01   5.6560814884e+00    0.2345477    0.1651119 -63.20 0.0008405381    2.188    0.543
       195  -8.8305    174.3384    183.4580   8.9223696079e+01   9.9588442149e+00    0.2969916    0.2385157 -66.09 0.0009678424    1.590    0.371
       196  -9.1130     44.3648    182.4689   1.1823374774e+02   3.1446760264e+01     0.339944    0.1809191  72.64  0.001108207    1.969    0.492
       197  -7.9566      1.7212    183.6255   1.2725401055e+02   3.5402924368e+01    0.1490896   0.08290578  50.35 0.0009085049    1.648    0.393
       198  -9.2986    147.5627    180.6962   9.4511276175e+01   1.5592474794e+01    0.3589985    0.2685264 -87.90  0.001214143    1.849    0.459
       199  -7.9875    235.2833    181.6492   7.6998938990e+01  -8.4470668761e-01    0.1203606    0.1049721 -58.62 0.0007017602    1.655    0.396
       200  -9.5275     25.4037    178.6016   1.2199823829e+02   3.4353491217e+01    0.6312846    0.2352375  78.95  0.002329482    4.004    0.750
       201  -8.6983    137.5977    179.4154   9.6517311151e+01   1.7725469954e+01    0.3014616    0.2149339  83.01 0.0009573557    1.959    0.489
       202  -9.2979    191.6472    178.5254   8.4672344910e+01   7.5613349937e+00    0.3059323    0.2447866  62.91 0.0007417502    1.587    0.370
       203  -8.7114    241.1427    181.1664   7.5873996940e+01  -1.7518284679e+00    0.4018584    0.2201176 -53.64  0.001639024    3.480    0.713
       204  -9.1355     36.1261    177.1588   1.1953042974e+02   3.3564739883e+01    0.5027578    0.2033198  81.79  0.001886765    3.681    0.728
       205  -9.5806    248.5674    176.7343   7.3710483327e+01  -2.3150663031e+00    0.4343185    0.2603962 -41.23  0.002037515    1.785    0.440
       206  -8.5403    250.4985    172.9067   7.2609007292e+01  -2.0650077009e+00    0.1931811    0.1417379 -34.55 0.0006165816    1.347    0.258
       207  -8.5294    231.3173    177.3955   7.6847049569e+01   4.8954688656e-01    0.2427412    0.1535619 -36.72 0.0006237261    1.559    0.359
       208  -8.4601    217.6730    177.3732   7.9348487004e+01   2.9128976172e+00     0.233193    0.1594384 -44.76 0.0006866142    1.640    0.390
       209  -8.6838    205.1322    177.6623   8.1810884738e+01   5.1697166101e+00    0.2333253    0.1853178 -42.86  0.000622643    1.376    0.273
       210  -8.8903    129.1747    177.4268   9.8086490180e+01   1.9701273199e+01    0.3013544    0.2094031  81.98  0.001137883    1.987    0.497
       211  -8.9120     89.0718    176.9181   1.0735625563e+02   2.6641886530e+01    0.3016599    0.2053284  85.34  0.001112836    1.647    0.393
       212  -9.2549    183.0006    176.1558   8.5975025103e+01   9.6535010408e+00    0.3045318    0.2322309 -49.85 0.0004925341    1.464    0.317
       213  -8.1683     97.9133    177.5145   1.0537400185e+02   2.5103466639e+01    0.2062848    0.1308358  40.84 0.0009003829    1.543    0.352
       214  -9.2444     58.9849    175.9849   1.1423934941e+02   3.1128687323e+01    0.4620625    0.1962638  61.28  0.001517617    3.030    0.670
       215  -9.5623     56.1895    171.5860   1.1436172660e+02   3.2496167935e+01     0.488398    0.2377109  79.46  0.001976306    2.921    0.658
       216  -8.8806     12.8968    176.7651   1.2451458121e+02   3.5936861003e+01    0.2981806       0.1448  77.50  0.001205545    1.924    0.480
       217  -7.9747    211.5368    176.4707   8.0328599003e+01   4.1839609077e+00    0.1390094    0.1244134   3.43  9.08193e-05    1.006    0.006
       218  -9.2549    158.7723    175.1485   9.0977089899e+01   1.4562647484e+01    0.3847616    0.2731816  81.72  0.001302664    2.239    0.553
       219  -9.4896    104.3134    174.7786   1.0343931786e+02   2.4660411850e+01    0.5157237     0.282858  69.87  0.001791229    2.863    0.651
       220  -9.8453     81.7006    154.9810   1.0575141747e+02   3.2883630657e+01    0.5483914    0.4138413 -62.52   0.00195781    1.254    0.203
       221 -10.6788     76.1232    171.4125   1.0962865217e+02   2.9844063938e+01    0.9966636    0.4222983 -80.76  0.003215899    4.256    0.765
       222  -9.8053     73.8370    160.7734   1.0864258546e+02   3.2663252037e+01    0.4639979    0.3113474 -12.08    0.0018007    3.054    0.673
       223  -7.8461    241.4963    174.4348   7.4449972044e+01  -7.9710071515e-01    0.1331272    0.1128315  -4.02 0.0001052561    1.009    0.009
       224  -8.0231    224.2372    174.2316   7.7484741357e+01   2.2417514518e+00    0.1720815    0.1604501 -47.37   0.00058359    1.342    0.255
       225  -9.1290    201.0080    173.9226   8.1858249562e+01   6.5950774324e+00    0.2378472    0.2184822 -38.97 0.0002827129    1.205    0.170
       226  -8.4190    198.4868    170.4911   8.1649713563e+01   7.6867830114e+00    0.2338232    0.1734599 -57.92 0.0007027503    1.750    0.429
       227  -9.3299    175.7332    172.3679   8.6741819783e+01   1.1786745870e+01    0.3085328    0.2482445 -43.31 0.0008069334    1.302    0.232
       228  -8.3407    143.1542    172.7345   9.4021051417e+01   1.8075687768e+01     0.252328    0.1941934 -65.71 0.0006416009    1.471    0.320
       229  -8.3323    194.3009    172.3514   8.2878134990e+01   8.1616950608e+00    0.1490266    0.1075982   0.59  0.000703826    1.696    0.410
       230  -8.4559    134.8526    171.7885   9.5753318541e+01   1.9854493062e+01    0.2647913    0.1884825 -88.46 0.0008485627    1.957    0.489
       231  -9.5585    121.4791    170.6125   9.8670291743e+01   2.2587078471e+01    0.3977932    0.2700792 -89.47  0.001094037    2.044    0.511
       232  -9.1463     45.0675    171.0670   1.1688630232e+02   3.3955840066e+01    0.3699926     0.193079  81.25  0.001237936    2.169    0.539
       233  -8.4478    205.8226    170.5339   8.0207847540e+01   6.2716118550e+00    0.2625727    0.1802865 -53.53 0.0008222604    1.845    0.458
       234  -8.5468     68.4944    170.5271   1.1132379494e+02   3.1123768332e+01    0.2351261    0.1197651 -80.07  0.000953783    2.237    0.553
       235  -8.2920    237.1863    169.7287   7.4229151517e+01   6.6856856279e-01    0.2295133    0.1636149 -38.22 0.0006583229    1.423    0.297
       236  -9.2318    229.9331    168.6273   7.5285245972e+01   2.1252584808e+00    0.4876232    0.1693763 -44.04  0.001742475    3.292    0.696
       237  -8.5063    149.9245    169.5275   9.1859425517e+01   1.7436168214e+01    0.2728124    0.2041906 -70.38 0.0007265875    1.654    0.395
       238  -8.1114    244.2603    169.4226   7.2944480602e+01  -5.0045058040e-01    0.1601985    0.1270908  47.40 0.0003466846    1.535    0.348
       239  -9.1216    167.1575    168.5995   8.7827576804e+01   1.4220557733e+01    0.3294337    0.2422201  70.22 0.0007844368    1.843    0.457
       240  -8.9953    111.7478    167.5711   1.0045243537e+02   2.5006851506e+01    0.4001706    0.2599957  83.42  0.001660087    2.193    0.544
       241  -8.7079     88.7426    168.9499   1.0623663894e+02   2.8516674860e+01    0.2586987    0.1791645 -87.75 0.0008828908    1.583    0.368
       242  -8.3735    218.8663    168.2452   7.7233224453e+01   4.2081392227e+00    0.1925809    0.1884575  -9.90 0.0004949605    1.208    0.172
       243  -8.9419    191.9326    166.6582   8.2171533718e+01   9.6644663486e+00    0.2696642    0.2054563 -45.64 0.0005560435    1.400    0.286
       244  -8.7769    185.0273    166.5351   8.3573502821e+01   1.1057451845e+01     0.264061     0.202014 -58.08 0.0006365665    1.586    0.370
       245  -9.1232     20.6510    166.2983   1.2198419155e+02   3.7581709783e+01    0.3618703    0.1584705  65.70  0.001430829    2.490    0.598
       246  -9.9335    136.7356    164.4604   9.3913899043e+01   2.1079044300e+01    0.6728057    0.3107656  56.54  0.002318369    2.996    0.666
       247 -10.0638     94.9432    162.7075   1.0371575977e+02   2.8976348104e+01    0.8521845    0.4713876  81.99  0.002989596    3.377    0.704
       248  -8.1094    250.5685    165.0513   7.0978106807e+01  -8.9958818205e-01    0.2033081    0.1144715 -32.41  0.001022615    1.590    0.371
       249  -8.4428    234.0053    165.0414   7.3805978757e+01   1.9727203268e+00    0.1971395    0.1665497 -62.06 0.0005829002    1.661    0.398
       250  -8.6708    159.5287    164.5752   8.8692925331e+01   1.6558241642e+01    0.2771277     0.239966 -83.80 0.0008939041    1.381    0.276
       251  -9.5740     33.5607    163.4687   1.1874892974e+02   3.6971568554e+01    0.5558643    0.2036126  56.52  0.002249448    3.205    0.688
       252  -8.0444    239.9785    164.0595   7.2557434282e+01   1.0708632932e+00    0.1898397    0.1626054 -59.33 0.0006586727    1.605    0.377
       253  -8.5852    212.9754    163.4695   7.7330672508e+01   6.1333609869e+00    0.2596057    0.1864007 -48.62 0.0007404118    1.591    0.372
       254  -9.3140     59.4716    161.7038   1.1232115073e+02   3.4390554552e+01    0.4985656    0.3508674 -34.02  0.002600784    2.043    0.510
       255  -8.4115    242.4296    160.0531   7.1290055458e+01   1.2715608590e+00     0.312523    0.1845888  25.33  0.001498021    1.972    0.493
       256  -9.5244    246.0194    162.9595   7.1298408167e+01   1.9317144148e-01    0.4056525    0.1696928 -38.21 0.0009235567    2.222    0.550
       257  -9.7592    250.1558    157.8242   6.9527784153e+01   2.7587181394e-01    0.3627937    0.1957997 -36.65 0.0008217306    1.687    0.407
       258  -8.8903    246.5553    155.5253   6.9631793206e+01   1.2590708904e+00    0.3499702    0.1717238 -22.57  0.001376215    2.314    0.568
       259  -8.5804    204.9259    162.9521   7.8776476145e+01   7.7820954126e+00    0.2131966    0.2041395 -18.21 0.0005571209    1.112    0.101
       260  -9.3730      3.3862    162.4622   1.2551178667e+02   3.9906217179e+01    0.3813455    0.1553972  55.59  0.001801435    2.389    0.581
       261  -9.1524    177.4807    160.5694   8.3903381918e+01   1.3727803961e+01    0.3422193    0.2512427 -65.18 0.0009088236    1.801    0.445
       262  -8.8892    151.7229    161.2058   8.9769888452e+01   1.8825572236e+01    0.3057412    0.2355346 -74.38 0.0008478372    1.633    0.388
       263  -8.8362    227.4265    159.0636   7.3701992599e+01   4.1500992710e+00    0.2846836    0.1910786 -49.91 0.0009279241    1.789    0.441
       264  -8.3689    236.9830    158.9823   7.1995828920e+01   2.4122148173e+00    0.2020243    0.1661672 -60.29 0.0008506318    1.670    0.401
       265  -8.3132    128.0132    158.7949   9.4880302433e+01   2.4003155369e+01    0.2641578    0.1903549 -72.22 0.0007330506    1.632    0.387
       266  -8.2761    196.6543    158.0910   7.9367788487e+01   1.0308058649e+01    0.2250713    0.1791166 -53.92 0.0007045816    1.453    0.312
       267  -8.1322    187.9890    157.6879   8.1055816635e+01   1.2141523886e+01    0.2601805    0.1831652 -52.41 0.0007064135    1.614    0.380
       268  -9.1491    167.5569    157.3184   8.5368202121e+01   1.6410991341e+01    0.3325857    0.2708541 -81.45 0.0008321079    1.604    0.377
       269  -8.4711    218.0071    156.5440   7.4880312826e+01   6.3642863318e+00    0.2659554     0.185454 -49.20 0.0007359319    1.642    0.391
       270  -9.3637    119.7147    155.4914   9.6259192519e+01   2.6314717013e+01     0.441025    0.3003671 -88.63  0.001767628    2.072    0.517
       271  -9.1646    241.8324    154.5593   7.0214723791e+01   2.2502480270e+00    0.3780481     0.284438 -83.04   0.00181113    2.615    0.618
       272  -8.6379    157.7730    155.7919   8.7240724883e+01   1.8737900978e+01    0.3349628    0.1966314 -45.74  0.001251425    1.738    0.425
       273  -7.7311    204.9846    155.4848   7.7136843266e+01   9.1128549184e+00     0.177779    0.1314179  75.49 0.0005325213    2.157    0.536
       274  -8.8053    144.5402    154.7471   9.0093001191e+01   2.1654057592e+01    0.2902935     0.250152 -85.28 0.0008459399    1.325    0.245
       275  -9.7017    132.8128    153.1221   9.2565021181e+01   2.4345467138e+01    0.4631183     0.328531  71.27  0.001439221    1.813    0.448
       276  -9.5143    133.5742    148.2477   9.1349779913e+01   2.5288438039e+01    0.3404623    0.2728619 -29.50  0.001094991    1.431    0.301
       277  -9.7925     67.8697    153.5661   1.0905584124e+02   3.5215987629e+01    0.4506231    0.2635127  83.78  0.001316851    2.202    0.546
       278  -7.9974    232.8332    154.0202   7.1646393299e+01   3.9806872202e+00     0.219721    0.1529305 -57.18 0.0008054597    2.010    0.502
       279  -9.7136    105.7687    158.1158   1.0022312211e+02   2.8221694943e+01    0.4662184    0.3078365  75.79  0.001324492    2.006    0.502
       280  -8.8854    151.7938    152.3829   8.7882988720e+01   2.0688596566e+01    0.2893833    0.1763758 -37.46  0.001230377    1.787    0.440
       281  -8.3542     60.0000    152.9885   1.1097693588e+02   3.6398480087e+01    0.2215455   0.06944148 -64.91 0.0007935376    2.881    0.653
       282  -9.1298     20.0847    152.8251   1.2086238493e+02   4.0737621455e+01    0.1914727    0.1351367  76.74 0.0006584221    1.270    0.213
       283  -9.8487     29.2056    150.3460   1.1838359382e+02   4.0480224316e+01    0.5489358    0.2462175  79.77  0.002253925    2.997    0.666
       284  -8.9015      2.8565    150.6797   1.2473273123e+02   4.2609469604e+01    0.2867364    0.1236321  89.83  0.001420622    2.094    0.522
       285  -9.7193    248.7996    149.5960   6.7987460387e+01   1.7968357711e+00    0.3426518    0.1954327 -32.27 0.0008155453    1.555    0.357
       286  -8.9697    243.0926    149.7190   6.8953851983e+01   2.7992594985e+00    0.3252437    0.1762341 -33.92  0.000922261    1.659    0.397
       287  -9.0321    238.1748    150.0208   6.9848784099e+01   3.6489981926e+00    0.3792413    0.1524062  39.33   0.00149539    2.756    0.637
       288  -9.2167    233.3772    147.6327   7.0147172079e+01   4.9384968860e+00    0.2698083    0.2072287 -39.38 0.0007900252    1.281    0.220
       289  -8.9301    189.4787    150.3328   7.9110229968e+01   1.3243698634e+01    0.3283522    0.2298379 -58.10 0.0008771589    1.776    0.437
       290  -8.1470    182.1791    151.2271   8.0844436279e+01   1.4593567119e+01    0.2029838    0.1795221 -80.92 0.0004758532    1.389    0.280
       291  -8.2676    162.8849    150.9509   8.5019499935e+01   1.8691464653e+01    0.2421292    0.1892823  86.38  0.001115426    1.755    0.430
       292  -8.6751     98.2073    150.6802   1.0076515913e+02   3.1263836837e+01    0.3013241    0.2106017  88.95  0.000842224    1.759    0.432
       293  -8.2086    212.9685    149.9297   7.4360815971e+01   8.5141882512e+00     0.209982    0.1788935 -73.75 0.0004435047    1.583    0.368
       294 -10.0330     39.6670    147.0718   1.1536303121e+02   4.0202488310e+01    0.6668574    0.3511327  88.88  0.002951028    2.129    0.530
       295  -8.4501    198.8136    149.0468   7.6917665683e+01   1.1551329643e+01    0.2187018    0.1977534 -64.16 0.0005835383    1.303    0.232
       296  -9.5290     49.8017    155.5298   1.1389518615e+02   3.7046724560e+01     0.452838     0.222062  66.11  0.001637452    2.635    0.620
       297 -10.3288     89.0787    146.3002   1.0232671316e+02   3.3812134829e+01    0.6884316     0.395222  87.32   0.00255761    2.995    0.666
       298 -10.8392     54.6457    144.6790   1.1114519926e+02   3.9071956756e+01    0.8959314    0.5320527 -78.97  0.003883528    1.655    0.396
       299  -9.2635     51.5118    138.4775   1.1104561980e+02   4.0952029856e+01    0.6149092     0.342896 -20.49  0.002204246    4.520    0.779
       300 -10.3845    106.7210    144.0656   9.7273811069e+01   3.1349095254e+01    0.8542421    0.5419894 -85.39  0.002073468    2.359    0.576
       301  -9.1871     78.3712    147.3733   1.0533134440e+02   3.5208049896e+01    0.3130185    0.1877589  74.24 0.0007185591    2.285    0.562
       302  -8.2390    223.2990    147.0101   7.1792987227e+01   6.9828068506e+00    0.2037118    0.1701767 -30.35 0.0004428885    1.122    0.109
       303 -10.2401    148.9238    144.9718   8.6919202391e+01   2.2883296093e+01    0.5706979    0.3902839 -83.38  0.001611507    2.393    0.582
       304 -10.1607    139.1516    145.1054   8.9300614104e+01   2.4868763355e+01    0.5421509     0.339578 -71.22  0.001102187    2.350    0.574
       305  -9.4866     13.2191    146.2199   1.2187929831e+02   4.2851901971e+01    0.3306679    0.1780539  68.68   0.00122359    1.906    0.475
       306  -9.7288    247.0108    143.7883   6.7012521570e+01   3.0407372899e+00    0.3788056     0.287849 -62.49  0.002004687    1.871    0.465
       307  -9.0481    240.1730    145.3997   6.8494456637e+01   4.0345877491e+00    0.2463575    0.1833356 -32.44 0.0005653913    1.215    0.177
       308  -8.1089    206.6104    146.2551   7.4747258175e+01   1.0463335549e+01    0.2031745    0.1340943 -27.53 0.0006055542    1.546    0.353
       309  -8.1799    175.6227    146.3180   8.1141954218e+01   1.6954075962e+01    0.2225953    0.1806554 -83.77 0.0006274961    1.648    0.393
       310  -8.8754    165.4864    144.2614   8.2918658197e+01   1.9535843528e+01    0.2932856    0.2494121  79.54 0.0005475488    1.419    0.295
       311  -9.9177    125.0873    142.8044   9.2289394465e+01   2.8199636696e+01    0.5803546    0.3881946 -85.98  0.001337284    2.312    0.567
       312  -7.8116    194.3683    144.1611   7.6695936462e+01   1.3400831777e+01     0.207383    0.1350811 -49.09 0.0004507538    1.653    0.395
       313 -10.7154     69.1179    141.4509   1.0677775927e+02   3.7971261650e+01    0.5776502    0.4114883 -63.27  0.002132879    1.272    0.214
       314 -10.4256     68.4315    134.4202   1.0573670502e+02   3.9778580692e+01      0.57213    0.3031731  34.55  0.002600412    2.071    0.517
       315  -9.1995    242.6939    143.3114   6.7613557537e+01   3.9082478391e+00    0.2555354    0.1793286 -26.18 0.0009013164    1.292    0.226
       316 -10.3762      2.6731    140.5512   1.2392922039e+02   4.4945711335e+01     0.656433    0.2049249 -78.00   0.00258486    2.594    0.615
       317  -8.3404    182.0888    142.0339   7.8756973471e+01   1.6429743622e+01    0.2311451    0.1880129 -79.91 0.0005378026    1.633    0.388
       318  -8.5577    250.4830    141.0535   6.5855728552e+01   2.8492429760e+00    0.2049939    0.1185449 -34.46 0.0004973406    1.518    0.341
       319  -8.9264    140.0163    137.0595   8.7264615360e+01   2.6484704886e+01    0.2994609    0.2071458 -18.59  0.001232904    2.090    0.521
       320  -9.9024     23.4549    138.2812   1.1846508059e+02   4.3868216010e+01    0.4758447    0.2335221  68.55  0.002057657    2.489    0.598
       321  -7.9865    218.5348    138.5291   7.0727852481e+01   9.4169129080e+00    0.1454904    0.1335095 -17.94 5.364817e-05    1.008    0.008
       322  -8.4100    207.6167    138.1075   7.2671368071e+01   1.1747602218e+01    0.2309624    0.1701399 -48.35 0.0006643091    1.434    0.303
       323  -8.6289    197.6127    137.5723   7.4502330738e+01   1.3965178107e+01    0.2856654    0.2096617 -54.56 0.0007839461    1.553    0.356
       324  -8.4904    171.9599    138.1022   8.0030762078e+01   1.9414314063e+01     0.235292     0.205007 -81.80  0.000522312    1.374    0.272
       325  -9.0627    151.2956    135.9474   8.4269217976e+01   2.4344603756e+01    0.4082997    0.2494227  20.98  0.001502221    2.590    0.614
       326  -7.8197     89.9853    137.3483   1.0037429113e+02   3.5820705911e+01    0.2282244    0.1290614  10.83 0.0007048322    4.505    0.778
       327 -10.3341     83.4489    133.0872   1.0132077408e+02   3.7895140407e+01    0.5868415    0.3695635 -67.28  0.001280208    1.592    0.372
       328  -9.5998     83.7053    124.1115   9.9401273410e+01   4.0030497039e+01    0.6809818    0.4312139  -5.88  0.002538696    3.347    0.701
       329  -8.9469     39.0911    136.2625   1.1407126544e+02   4.2863848589e+01    0.2458149    0.1646945  71.01 0.0007182653    1.594    0.373
       330  -8.6451    246.8781    130.1426   6.3999106118e+01   5.2694367013e+00    0.2660306    0.1793976 -40.38 0.0006103634    1.368    0.269
       331  -9.1626    248.5502    135.5106   6.4936982739e+01   4.0887782030e+00     0.323596    0.2018223 -40.53 0.0009092537    1.489    0.328
       332  -9.1495    250.7021    130.2854   6.3436224978e+01   4.5308350840e+00    0.4873953    0.1215274 -35.26  0.001513632    3.536    0.717
       333  -7.4664    192.3441    136.6939   7.5358102785e+01   1.5265424623e+01    0.1514218    0.1223575 -82.60 0.0007042328    1.691    0.409
       334  -7.9420    188.0000    135.9482   7.6074950585e+01   1.6351771260e+01    0.2439124    0.0849986 -40.26 0.0005052345    2.807    0.644
       335  -8.1664    162.3918    136.2536   8.1747035266e+01   2.1881423854e+01    0.2163076    0.1452269 -53.72 0.0004752339    1.610    0.379
       336  -8.1471    237.5757    133.7937   6.6326249151e+01   6.4462462689e+00    0.2001993    0.1193558 -44.29 0.0008184175    1.664    0.399
       337  -7.8103    231.5022    133.9872   6.7391684925e+01   7.6024953333e+00    0.2135253    0.1290412 -36.11 0.0004087159    1.507    0.336
       338  -8.6579    179.4303    133.8440   7.7380631082e+01   1.8644073939e+01    0.2858754     0.239516 -78.26 0.0007593916    1.489    0.328
       339  -9.4154    112.7495    133.2764   9.3388497087e+01   3.2786176859e+01    0.3988869     0.310948 -87.33   0.00148622    1.536    0.349
       340 -10.1276    132.2915    131.1674   8.7815246906e+01   2.9411300706e+01    0.6238775    0.4300141 -81.84   0.00168846    2.182    0.542
       341 -10.4351     98.2274    130.3980   9.6680302965e+01   3.6103654034e+01    0.6811976    0.3369823 -56.79  0.001634733    1.967    0.492
       342 -10.4700     12.7158    128.8127   1.2020400609e+02   4.6976046589e+01    0.5933521    0.2792038  82.75  0.002241199    2.457    0.593
       343  -8.0161    220.6607    130.3181   6.8430042391e+01   1.0433530209e+01     0.145592    0.1146652 -70.18 0.0007049158    1.708    0.415
       344  -7.9947    204.4405    130.2833   7.1426285180e+01   1.3868765595e+01    0.2088617    0.1359906 -47.76 0.0009323323    1.595    0.373
       345  -8.0275    192.8152    130.3230   7.3731365596e+01   1.6392058739e+01    0.2092391    0.1852305 -49.32 0.0005374614    1.166    0.142
       346  -9.1825    168.2561    129.5138   7.8780481702e+01   2.2001321677e+01    0.3123568    0.2517995 -69.10 0.0008400835    1.486    0.327
       347  -9.2915    152.7907    128.9644   8.2226835378e+01   2.5533751102e+01    0.4515359    0.2706898 -63.94  0.001113719    2.360    0.576
       348  -9.8331     72.9408    129.1694   1.0349566776e+02   4.0424598379e+01    0.4231492    0.2795431  85.70  0.001252459    1.957    0.489
       349  -7.2826    230.6811    142.7071   6.9515364311e+01   6.2816414808e+00    0.1430733     0.104542   4.30 0.0002766343    1.605    0.377
       350  -8.1478    211.6160    129.2880   6.9831738045e+01   1.2515754730e+01    0.2254499    0.1719884 -67.26 0.0007937559    1.737    0.424
       351 -10.8048     44.7665    123.4390   1.1053465891e+02   4.5375216611e+01     1.083471     0.539335  79.21  0.003896626    3.787    0.736
       352 -10.3054    118.3962    124.9897   8.9964287373e+01   3.3633604260e+01     0.722651    0.5594771 -62.36  0.002214003    1.338    0.252
       353 -10.3884     59.9466    125.0446   1.0643149147e+02   4.3194372744e+01    0.7389671    0.4175879  84.12  0.002278486    2.806    0.644
       354  -8.9657     59.2516    115.2710   1.0476195586e+02   4.5662943124e+01    0.3054859    0.1970222 -18.07  0.001107004    2.459    0.593
       355  -8.9630    234.1601    124.2221   6.4687701939e+01   8.7321934814e+00    0.2989857    0.1628861 -22.75  0.001244746    2.123    0.529
       356  -9.0875    179.2129    124.7682   7.5196048933e+01   2.0514627298e+01    0.2985046    0.2575354 -80.34 0.0006582621    1.387    0.279
       357 -10.2731     28.4392    122.5181   1.1507321884e+02   4.7205052791e+01     0.673223    0.3206374  75.84  0.002623996    3.359    0.702
       358  -7.9884    188.6149    123.8378   7.2992448271e+01   1.8582731662e+01    0.2159964     0.139155 -48.82 0.0004604074    1.614    0.381
       359  -9.3128    158.6676    121.6590   7.9008796796e+01   2.5792342105e+01    0.4226823    0.2986282 -74.82 0.0009679833    2.055    0.513
       360  -8.1302    153.8165    123.3931   8.0593356283e+01   2.6507196321e+01    0.2222715    0.1470065  34.00 0.0009323017    1.688    0.408
       361  -8.2457    202.7745    121.5283   6.9613994087e+01   1.5864137645e+01    0.3295958     0.162084 -48.22  0.000841556    2.199    0.545
       362  -7.9777    194.8076    121.9858   7.1280513730e+01   1.7551406378e+01    0.2476745    0.1673422 -61.14 0.0005693046    1.908    0.476
       363  -8.5263    172.0363    121.6668   7.5974259964e+01   2.2766191286e+01    0.2583596    0.2099587 -54.76 0.0004615129    1.297    0.229
       364  -8.7498    147.0022    122.0274   8.1892025558e+01   2.8308796165e+01    0.2295874    0.2248469 -76.03  0.001207653    1.037    0.035
       365  -9.7793     71.1787    120.0381   1.0217967140e+02   4.2900037857e+01    0.4592919    0.2879502  83.35  0.001417912    2.401    0.583
       366 -10.1326    131.1715    118.6296   8.5019244251e+01   3.2477541179e+01    0.6326188    0.4222462 -75.76  0.002006589    2.274    0.560
       367  -8.9992    143.0400    131.7338   8.5262178748e+01   2.7032310136e+01    0.3071806    0.2456697 -72.45 0.0007019902    1.466    0.318
       368  -9.8703    141.5142    118.4865   8.2344638646e+01   3.0286304140e+01    0.5043929    0.3094211 -62.76  0.001153899    2.126    0.530
       369  -9.9979      2.8425    116.9365   1.2156325857e+02   5.0424496547e+01    0.5550728    0.2412511  83.69  0.002488061    2.747    0.636
       370  -8.1817    231.4998    117.9390   6.3649386189e+01   1.0343493857e+01    0.2240995    0.1301528 -36.30 0.0007293792    1.553    0.356
       371  -9.9936    109.2300    114.1778   8.9815386296e+01   3.7926545230e+01    0.6375803    0.3882455 -69.73  0.001931908    2.289    0.563
       372  -8.9315    109.7397    107.2670   8.7887261112e+01   3.9419469445e+01    0.3424098    0.2120127  23.89  0.001370099    2.219    0.549
       373  -7.6264    219.2804    116.3373   6.5328667339e+01   1.3199598325e+01    0.1484131    0.1128306  -0.25 0.0007006844    1.619    0.382
       374  -8.1144    185.7073    116.0905   7.1632488642e+01   2.0753855739e+01     0.247962    0.1821611 -54.06 0.0005866271    1.470    0.320
       375 -11.4106    248.6886    106.2086   5.8257204304e+01   8.8051965232e+00    0.8694734    0.3295158 -33.00  0.003351297    2.418    0.586
       376 -10.2923     92.6919    111.5462   9.3911954601e+01   4.1556315584e+01    0.8837325    0.3354833 -54.73  0.002539923    2.581    0.613
       377 -10.0859     78.7652    112.2770   9.8229604740e+01   4.3652523108e+01     0.623091    0.3819214 -80.38  0.002006833    2.373    0.579
       378  -8.8652     78.6514    105.2665   9.6606138846e+01   4.5340113641e+01     0.352776    0.2123184  17.42  0.001479476    2.433    0.589
       379  -8.3495    167.4613    114.0544   7.5025500323e+01   2.5369440771e+01    0.2408854    0.1527161 -41.47 0.0005793225    1.545    0.353
       380  -8.4048     26.8870    113.6960   1.1421635074e+02   4.9459099394e+01    0.1831245    0.1506124 -32.73 0.0007750815    1.417    0.294
       381  -7.4277    208.6487    115.3246   6.6977885842e+01   1.5706760954e+01    0.1552153    0.1173619 -71.95 0.0007048192    1.757    0.431
       382  -9.6968    133.5876    109.4038   8.1974806409e+01   3.4009690923e+01     0.614096    0.3028547 -53.08  0.001633592    2.244    0.554
       383 -10.1137    121.7868    112.3403   8.5883468703e+01   3.5852147953e+01    0.5332925    0.2970868 -50.34 0.0005771326    1.776    0.437
       384  -9.8395    119.4628    106.1947   8.4883687030e+01   3.7713495651e+01    0.3548746    0.3183343  84.31   0.00171124    1.249    0.199
       385 -10.7905    108.9642     98.8548   8.5823990510e+01   4.1471135755e+01    0.8899896    0.5108702  66.16  0.001651163    3.143    0.682
       386  -9.1384    107.6368     92.6646   8.4448953469e+01   4.3100172188e+01    0.5983031    0.2884961  28.82  0.002013973    3.134    0.681
       387  -9.9236     14.2914    111.3520   1.1760389309e+02   5.0994421478e+01    0.3916064     0.200177  86.14  0.001609203    2.289    0.563
       388  -8.4450    174.7775    111.9447   7.2861151531e+01   2.4099388153e+01    0.2937567     0.208388 -58.19 0.0007427692    1.618    0.382
       389  -8.4908    159.1807    111.7790   7.6314228071e+01   2.7748597861e+01    0.2673792     0.207473 -53.69 0.0005494424    1.343    0.256
       390 -10.4737     66.5247    109.7130   1.0137753689e+02   4.6047654660e+01    0.6565294    0.3476466 -58.71   0.00218806    1.699    0.411
       391  -8.2446     43.7385    109.5113   1.0838383323e+02   4.8860895145e+01    0.2322479    0.1394568  18.08  0.001152396    2.178    0.541
       392  -8.1855    189.3683    108.1671   6.8840329343e+01   2.1435115274e+01    0.2243233    0.1360968 -47.89 0.0004969271    1.684    0.406
       393  -9.4173    139.8168    104.7058   7.9095930357e+01   3.3652380674e+01    0.3860104    0.3005344 -73.21 0.0008275404    1.598    0.374
       394 -10.5393     45.4932    102.3117   1.0641910658e+02   5.0401161913e+01    0.7079363    0.4076151  76.94  0.002933078    2.999    0.667
       395 -10.6825     22.8081    102.5858   1.1369389264e+02   5.2440893466e+01    0.7123939    0.3745295  77.13  0.002639906    2.904    0.656
       396  -8.5859    166.7802    104.2627   7.2558662651e+01   2.7510750759e+01    0.2738021    0.2068886 -52.51 0.0006796693    1.378    0.274
       397  -9.4469    150.5420    103.2438   7.6040561121e+01   3.1517364337e+01    0.4636069    0.2980543 -64.44   0.00125348    2.131    0.531
       398  -9.3334      6.5544    103.0631   1.1879223526e+02   5.3443976361e+01    0.2455139    0.1654186  82.08 0.0009707768    1.534    0.348
       399  -9.7791    128.4007    102.1293   8.1346301135e+01   3.6723557096e+01    0.3464573    0.2730606 -70.46 0.0006913637    1.516    0.341
       400  -8.0313    232.6618    102.6835   5.9815534890e+01   1.2684683173e+01    0.1450246    0.1104398   8.34 0.0007048362    1.702    0.412
       401  -7.8756    175.5303    102.0551   7.0057592191e+01   2.5873457954e+01    0.2400904    0.1513214 -39.97 0.0007805848    1.542    0.352
       402  -9.4504     82.0685    100.0081   9.4228715637e+01   4.6035115049e+01    0.4113905    0.2717527 -77.83 0.0009646846    2.143    0.533
       403 -10.3926     63.8339     95.9196   9.9022685939e+01   4.9690142094e+01    0.6147053    0.4022172  83.92  0.001696339    2.541    0.607
       404  -8.3676    159.8311    101.1531   7.3274634587e+01   2.9775516536e+01    0.2455637    0.2115357 -69.03  0.000489135    1.290    0.225
       405  -9.5604     94.4503     97.1220   8.9645154131e+01   4.4593658639e+01    0.3498687    0.3023477  51.43  0.000885662    1.260    0.207
       406  -8.3441    150.8208     95.7905   7.3875494930e+01   3.2980970306e+01    0.2711066    0.1764364   8.08  0.000949575    2.845    0.648
       407  -8.3244    192.9495    115.2074   6.9942951181e+01   1.9266315408e+01    0.2284932    0.2014916 -66.06 0.0004698763    1.253    0.202
       408  -8.1142    176.4647     93.4815   6.7507894993e+01   2.7294632712e+01      0.27383    0.1367211 -47.96 0.0006385021    2.116    0.527
       409  -8.2087    164.8438     94.1939   7.0194475259e+01   2.9961769137e+01    0.2380881    0.2088968 -68.87 0.0004464366    1.242    0.195
       410  -8.8944     45.9749     92.7554   1.0420506821e+02   5.2610175219e+01    0.4176881    0.2558277   1.96  0.001980591    2.435    0.589
       411  -7.6745    188.5183     93.5510   6.5117043007e+01   2.4374671878e+01    0.1547883    0.1467397 -59.46 0.0001508177    1.054    0.051
       412  -9.2826    139.0586     92.4361   7.5799473186e+01   3.6395683004e+01    0.3985341    0.2899624  87.78  0.001082972    2.048    0.512
       413 -10.3432    123.8937     91.4474   7.9495947526e+01   3.9986928565e+01    0.6244137    0.4490828  37.76  0.001401017    1.462    0.316
       414  -9.6573      4.9868     92.4381   1.1777962773e+02   5.5999464687e+01    0.2859209    0.1927944  72.78   0.00100526    1.725    0.420
       415  -8.1890    157.7670     91.7732   7.1096939331e+01   3.2133201660e+01    0.2172782    0.1836284 -70.27 0.0004428961    1.341    0.254
       416  -9.6406     34.7789     89.9580   1.0738801971e+02   5.4393913282e+01    0.4760356     0.257188 -80.47  0.001654893    2.436    0.589
       417 -10.2168     86.7290     85.6742   8.8807698065e+01   4.8508453049e+01    0.7422651      0.43492 -50.23  0.002128476    1.622    0.384
       418  -8.8209     65.1714     87.6154   9.6451490465e+01   5.1425694781e+01    0.3775269    0.2094612  12.05  0.001500887    2.999    0.667
       419  -9.8491     48.3158     84.1930   1.0136171071e+02   5.4331840197e+01    0.4741167    0.3108997  85.41  0.001945457    2.520    0.603
       420  -7.5044    179.3435     85.7148   6.4751977310e+01   2.8034789827e+01    0.1588511    0.1210006 -76.70 0.0005418248    1.642    0.391
       421  -8.8444    126.6417     84.0001   7.6511551920e+01   4.0920839791e+01    0.4379101    0.2751539  25.26  0.001737733    2.171    0.539
       422  -9.5128    105.9231     71.3718   7.8363269963e+01   4.7868782800e+01    0.7238632     0.289472 -49.74  0.001893755    2.955    0.662
       423  -9.8150    104.7078     83.2187   8.2497627396e+01   4.5706302995e+01    0.5029119    0.3396576 -64.45  0.001108208    1.947    0.486
       424  -8.5599    104.8217     77.4018   8.0645881309e+01   4.6887780506e+01    0.2549136    0.2059813 -14.36 0.0009085648    1.362    0.266
       425  -8.1453    158.0099     84.0142   6.8780320529e+01   3.3568877871e+01    0.2407815     0.184464 -66.28 0.0004036312    1.558    0.358
       426  -7.3637    170.6803     83.3648   6.5846408554e+01   3.0590596082e+01    0.1667269    0.1202598 -70.05 0.0007039896    1.780    0.438
       427  -9.6285      9.9248     81.1735   1.1426926220e+02   5.8299823806e+01    0.3614872    0.2011854  63.71  0.001624333    2.709    0.631
       428  -9.0268    249.0253     81.2250   5.2395798528e+01   1.2693075408e+01    0.3775664    0.2090535 -88.52    0.0014403    3.510    0.715
       429  -9.2603     23.0806     90.3772   1.1144745494e+02   5.5288800997e+01    0.3090064    0.2420246  -4.69  0.001577306    1.579    0.367
       430  -9.7546     24.5683     80.3760   1.0891199800e+02   5.7477379628e+01    0.4619395    0.2628647 -86.58  0.001528124    2.488    0.598
       431  -8.4262    150.1764     80.6879   6.9584856680e+01   3.6093376575e+01    0.2757745     0.205192 -48.35 0.0006737256    1.377    0.274
       432  -8.7835    119.1476     80.0359   7.7333527157e+01   4.3364749430e+01    0.3250848    0.2274817 -58.86 0.0009073455    1.703    0.413
       433  -7.9314    120.2949     75.6442   7.5623244631e+01   4.3983980040e+01    0.2265952    0.1429106 -32.13 0.0007368128    1.644    0.392
       434  -8.9260     74.5307     80.4548   9.1278893305e+01   5.1650205387e+01    0.3284425    0.2138736 -63.61  0.001016882    1.821    0.451
       435  -8.2158    166.7447     79.9330   6.5673862217e+01   3.2186379642e+01    0.2181596    0.1934858 -37.68 0.0005675644    1.116    0.104
       436  -8.2124    184.4541     78.4947   6.1729337851e+01   2.8063517627e+01    0.1524092     0.147277 -54.84 0.0001615268    1.004    0.004
       437  -7.7439    174.7042     78.3272   6.3571217498e+01   3.0506131968e+01    0.1598268    0.1187099 -68.63 0.0004025686    1.629    0.386
       438  -9.9818     63.3873     73.5985   9.3095371878e+01   5.4782761234e+01    0.7215014    0.3009426 -59.85   0.00253445    3.177    0.685
       439  -8.6037     64.0379     63.9430   8.9820199513e+01   5.6713858237e+01    0.3980291    0.1995581 -23.45  0.001444551    3.334    0.700
       440  -9.4333    128.1564     75.3958   7.3419478849e+01   4.2274451230e+01    0.3799307    0.2491614 -52.28 0.0006831384    1.698    0.411
       441  -8.9352    140.8742     83.0491   7.2543920291e+01   3.7853045690e+01    0.3787677    0.2119467 -48.03 0.0009974471    1.878    0.467
       442  -8.4846    140.6194     75.6080   7.0312902383e+01   3.9335155793e+01     0.293408    0.2132297 -72.93 0.0007181861    1.909    0.476
       443  -9.6949     82.5349     72.7324   8.6211645404e+01   5.1991434161e+01    0.4463479     0.298688 -67.69  0.001028645    2.179    0.541
       444  -8.9183     82.6960     66.0917   8.3975624736e+01   5.3310820283e+01    0.4201517    0.2241452 -17.03  0.001373506    3.914    0.745
       445  -8.3621    163.5336     73.3048   6.4385050032e+01   3.4168019125e+01    0.2818869    0.1441585 -41.02 0.0006586717    1.924    0.480
       446  -8.4873    204.8043     72.5847   5.6562454645e+01   2.4074999025e+01    0.2966954    0.2032749 -33.21  0.001403908    1.430    0.300
       447  -7.8626    151.2876     73.6289   6.7171931470e+01   3.7128769604e+01    0.1623119    0.1197898 -67.82 0.0007020782    1.712    0.416
       448  -8.6877    115.3089     72.5038   7.6003542950e+01   4.5677907739e+01    0.3332356    0.2012716 -37.45  0.001184418    1.629    0.386
       449  -9.6073     95.0966     69.9191   8.1208742798e+01   5.0293275744e+01    0.7590491    0.2769003 -44.89  0.002273942    2.667    0.625
       450  -8.0388     42.5918     72.8134   1.0046004703e+02   5.7514562147e+01    0.1837562    0.1157856 -66.14 0.0005493783    1.700    0.412
       451  -7.9533    175.4764     72.5293   6.1736274560e+01   3.1325887827e+01    0.1520912    0.1485234 -67.25 6.701471e-05    1.004    0.004
       452  -9.4506     51.4272     69.5608   9.6243914160e+01   5.7214747014e+01    0.4680217    0.2358071 -65.15  0.001460948    2.703    0.630
       453  -8.9502     29.4378     70.4111   1.0478671694e+02   5.9311939935e+01    0.4452959    0.2126299 -16.31  0.001753394    3.802    0.737
       454  -9.1468     16.6333     70.1144   1.0959039244e+02   6.0361165997e+01    0.2755014    0.1864785  88.51  0.001130514    1.936    0.483
       455  -8.1326    157.0000     69.9265   6.4758132896e+01   3.6381471034e+01    0.2471268   0.08749973 -35.35 0.0003995449    2.826    0.646
       456  -8.5281    147.0109     68.2743   6.6482693337e+01   3.9127380645e+01    0.2667314    0.2076253 -60.38 0.0006246753    1.470    0.320
       457  -8.6323    138.4078     66.0725   6.7816413630e+01   4.1593683038e+01    0.3250915    0.2174733 -54.29 0.0008950655    1.743    0.426
       458  -8.8569    121.7274     66.1206   7.2114305120e+01   4.5462750603e+01    0.3297778    0.2170562 -55.47 0.0009400916    1.855    0.461
       459  -8.9850    110.1613     63.8617   7.4591272961e+01   4.8408619201e+01    0.3095284    0.2280165 -54.40 0.0006321406    1.573    0.364
       460  -8.8693     37.2765     64.4456   1.0015153953e+02   5.9878130418e+01    0.2736048     0.207444 -78.03 0.0009419466    1.699    0.411
       461  -7.4768    187.3407     63.3113   5.6903706632e+01   2.9879033396e+01    0.1541202    0.1160994  25.06  0.000641238    1.695    0.410
       462  -7.9221    158.1794     62.1081   6.2085556377e+01   3.7415323497e+01    0.2093832    0.1764763 -69.59 0.0003714481    1.321    0.243
       463  -9.2108     97.7152     60.6613   7.7223623327e+01   5.1556047007e+01    0.3161794    0.2601662  65.47 0.0009339276    1.534    0.348
       464  -9.6353     73.3264     59.5692   8.4981434719e+01   5.6161151357e+01    0.3954698    0.2366398 -52.48  0.001074918    1.845    0.458
       465  -8.9543     73.5309     52.9814   8.2549205002e+01   5.7372029402e+01    0.5027215    0.2952755  -5.35  0.001998969    2.925    0.658
       466  -7.9162     88.8676     59.7849   7.9744194512e+01   5.3417330272e+01    0.1832224    0.1715808 -73.26 0.0006298235    1.314    0.239
       467  -7.8951    147.0267     59.0360   6.3523124270e+01   4.0693892471e+01    0.1845515    0.1689835 -30.81 0.0004250753    1.107    0.096
       468  -8.6018    130.5938     57.4532   6.6883711477e+01   4.4928930061e+01    0.2793251    0.1383448 -39.55 0.0005886289    2.027    0.507
       469  -9.8527     23.4062     56.3579   1.0342599021e+02   6.2833327982e+01    0.4015318    0.2631243 -89.42  0.001993485    2.645    0.622
       470  -9.4959      7.6080     57.3628   1.1021230655e+02   6.3684196610e+01    0.2679275    0.2083554  82.87 0.0008533868    1.689    0.408
       471  -9.2689    119.1529     55.5391   6.9190251236e+01   4.7895281540e+01    0.4165106    0.2148874 -46.83  0.001494335    2.198    0.545
       472  -9.3813     54.1841     55.2326   9.0604032764e+01   5.9818239428e+01     0.328625    0.2193487 -62.61 0.0009759151    1.966    0.491
       473  -7.4466    193.3440     56.6875   5.4038741989e+01   2.9405349859e+01    0.1578794    0.1081891 -68.55 0.0007046587    1.706    0.414
       474  -8.4650    140.0257     56.0677   6.4145588581e+01   4.2893442991e+01      0.23835    0.1787651 -65.58 0.0005710413    1.673    0.402
       475  -8.7807     43.9846     55.2683   9.4656308551e+01   6.1065691906e+01    0.2928531    0.1737223 -59.54  0.001275481    1.901    0.474
       476  -8.5830    105.9599     53.4539   7.2155118001e+01   5.1139725084e+01    0.2693498    0.1953156 -50.95 0.0006362647    1.597    0.374
       477  -9.5502     92.4195     50.7417   7.5307103328e+01   5.4360380681e+01    0.3896107    0.2447703 -47.02  0.001202468    1.763    0.433
       478  -7.4899    154.3057     49.7152   5.8958061680e+01   4.0339952270e+01    0.1490776    0.1147105 -72.29 0.0002587447    1.563    0.360
       479  -8.1577    144.6544     48.8719   6.0710267481e+01   4.2879299376e+01    0.2145309    0.1286945 -43.13 0.0004706162    1.748    0.428
       480  -7.9986    129.6454     48.8546   6.4161724660e+01   4.6533100296e+01    0.2092634    0.1307794 -42.49 0.0003957924    1.686    0.407
       481  -8.7219    120.9006     47.4129   6.5848949601e+01   4.8805239557e+01    0.2360584    0.1930435 -38.24 0.0004966999    1.267    0.211
       482  -8.6165    112.3780     47.2026   6.8050471316e+01   5.0767431495e+01    0.2576027    0.2069195 -59.79 0.0005362758    1.554    0.357
       483  -9.0332     82.0884     46.5523   7.7132057942e+01   5.7022091663e+01    0.2616922      0.20512 -57.12 0.0006466014    1.664    0.399
       484  -8.4231     45.0613     44.7264   9.0525192272e+01   6.2984120088e+01    0.2146845    0.1568483 -49.04 0.0006150292    1.396    0.283
       485  -8.9928     16.6551     44.6554   1.0286671939e+02   6.5736802793e+01    0.2180919    0.1649853 -68.05 0.0007360163    1.532    0.347
       486  -8.9975    132.9612     43.5313   6.1516029499e+01   4.6533657130e+01    0.2740294    0.1942324 -51.12 0.0007783928    1.622    0.384
       487  -8.8258     92.8632     42.8554   7.2164519027e+01   5.5570360827e+01    0.2908971    0.1910599 -15.68  0.001398828    1.695    0.410
       488  -9.3898     69.7583     41.8310   7.9656841407e+01   5.9958160660e+01    0.3761399    0.2677784 -61.74  0.001283092    2.223    0.550
       489  -9.3296      5.2806     42.2522   1.0729136439e+02   6.6937245497e+01    0.2740973    0.1828744 -78.40  0.001262635    1.933    0.483
       490  -8.5028    105.9498     41.4561   6.7705969988e+01   5.3059362800e+01     0.260122    0.1885826 -46.37 0.0006452122    1.572    0.364
       491  -7.9635    140.4609     41.4894   5.9131101417e+01   4.4991104478e+01    0.1446317    0.1398697  48.95 0.0001105831    1.019    0.018
       492  -8.4198     36.7750     40.8888   9.2636561686e+01   6.4649882579e+01     0.217037    0.1616487 -56.86 0.0007284214    1.582    0.368
       493  -8.6317     95.3578     38.0594   6.9511009388e+01   5.5800020255e+01    0.2276352    0.1994952 -88.05 0.0008179602    1.581    0.367
       494  -8.3349     80.5906     36.7837   7.3768390000e+01   5.8873083464e+01    0.1828433    0.1214547 -41.66 0.0004535919    1.619    0.382
       495  -7.6608    133.4742     36.4787   5.8923632759e+01   4.7393013441e+01    0.1423911    0.1373895  51.03 0.0001177798    1.044    0.042
       496  -8.0173    125.8308     35.7929   6.0429251747e+01   4.9326765413e+01    0.1838829    0.1667742 -64.45  0.000388557    1.268    0.211
       497  -8.8963     58.1672     42.6398   8.4401937001e+01   6.1617254685e+01    0.2539892    0.1971973 -60.80 0.0009360797    1.804    0.446
       498  -9.3224     26.0167     35.4619   9.5448751226e+01   6.6734099889e+01    0.2537695    0.1852043 -52.09 0.0008565389    1.423    0.297
       499  -8.6933    111.8813     34.7558   6.3524974011e+01   5.2705358145e+01    0.2540125    0.1710262 -54.22 0.0005807583    1.967    0.492
       500  -7.7982     88.7079     34.3754   7.0107156537e+01   5.7678921769e+01    0.1327617    0.1079633 -61.76  0.000702256    1.734    0.423
       501  -9.1978     48.5569     33.3400   8.4564022577e+01   6.4552074597e+01    0.2713377    0.1911095 -38.80 0.0008023254    1.347    0.258
       502  -8.7303    119.0573     32.9093   6.0998384107e+01   5.1305881077e+01    0.2526248    0.1726622 -43.94 0.0006205526    1.643    0.391
       503  -8.6612     60.6989     32.7048   7.9346501075e+01   6.2895884234e+01    0.2135051    0.1848236 -75.74 0.0006690751    1.905    0.475
       504  -8.9277     72.2499     31.1041   7.4318667251e+01   6.1228991679e+01    0.3204465     0.179731 -42.50  0.001225195    1.973    0.493
       505  -8.9424     12.9558     30.3007   9.9781764136e+01   6.8759244810e+01    0.2624287    0.1479782 -60.60  0.001112506    1.989    0.497
       506  -8.2163    101.4966     29.5590   6.4320544222e+01   5.5693141794e+01    0.2308471     0.119097 -40.07 0.0007603967    2.137    0.532
       507  -7.9879     41.9965     29.8127   8.5909255111e+01   6.5986785177e+01    0.1690306    0.1271354 -49.85 0.0005719846    1.623    0.384
       508  -8.2089    135.7552     28.8471   5.5739626267e+01   4.7809747943e+01    0.2618963    0.1328019  28.72 0.0009627235    2.898    0.655
       509  -8.8640     81.4237     27.6044   6.9647383043e+01   6.0045207673e+01    0.2511905    0.2123915 -68.28 0.0007657241    1.782    0.439
       510  -8.7604      3.7559     27.9114   1.0352795434e+02   6.9796823099e+01    0.1894091    0.1402699 -63.81 0.0007266941    1.542    0.351
       511  -8.6954     91.7509     26.3417   6.5843285006e+01   5.8164728394e+01    0.2772641    0.1967801 -45.18 0.0008170491    1.711    0.416
       512  -7.6188    118.2918     26.6766   5.8835236947e+01   5.2270315070e+01    0.1360027    0.1083657 -64.84 0.0003546267    1.613    0.380
       513  -8.9760    104.4716     23.0931   6.0907055567e+01   5.5847103793e+01    0.2048631    0.1908445  88.17 0.0006414281    1.318    0.241
       514  -8.1153     34.9504     23.4723   8.6339300609e+01   6.7866886526e+01    0.1458049     0.103804  52.75 0.0008090739    2.502    0.600
       515  -8.9135     63.5265     21.1173   7.3118155261e+01   6.4132838227e+01    0.2798302    0.1949108 -43.81 0.0009520606    1.785    0.440
       516  -8.8505     48.3100     21.9088   7.9634610410e+01   6.6378913541e+01    0.2080481    0.1824177  -7.01 0.0005206113    1.168    0.144
       517  -7.8668    120.5235     21.0322   5.6177535846e+01   5.2399683720e+01    0.1922316    0.1043347 -49.34 0.0008088676    2.443    0.591
       518  -7.9157     19.8425     21.6179   9.2885987859e+01   6.9733303543e+01    0.1406193    0.1021806  29.06 0.0005348166    1.680    0.405
       519  -8.8581     73.9963     19.4374   6.8561484063e+01   6.2504507134e+01     0.261425    0.1673624 -41.27 0.0008874249    1.861    0.463
       520  -8.1985     87.8393     17.7711   6.3363262052e+01   6.0008852030e+01    0.1648652    0.1568069 -47.17 0.0004744929    1.332    0.249
       521  -7.9997     38.8332     18.5833   8.2285151533e+01   6.8144653239e+01    0.1479484    0.1098902  37.77 0.0006243254    1.662    0.398
       522  -7.4053    112.7781     16.9784   5.6394631352e+01   5.4649892969e+01    0.1626544    0.1106326 -19.59 0.0003326653    1.554    0.357
       523  -7.9019     30.1240     16.2024   8.5284799998e+01   6.9550073814e+01    0.1473378    0.1291323 -25.49 0.0006956995    1.339    0.253
       524  -8.0157     97.3521     15.2531   5.9574870628e+01   5.8285510055e+01    0.1784716    0.1165898 -32.12 0.0005165953    1.640    0.390
       525  -7.9422      7.5276     15.5002   9.6735651452e+01   7.1755392197e+01    0.1140016   0.08447602 -28.43  0.000111906    1.020    0.020
       526  -7.9778     16.9878     14.4794   9.1173400829e+01   7.1156393276e+01    0.1506235    0.1025119  17.21 0.0005851807    1.531    0.347
       527  -7.6054    119.7069     11.3287   5.2662873943e+01   5.3593202635e+01    0.1314988    0.1021918 -63.40 0.0007021335    1.627    0.385
       528  -8.8149    218.8589    247.5964   9.1621984675e+01  -7.2744144102e+00    0.2853381    0.1521929 -32.10  0.001200411    2.101    0.524
       529  -8.6594    202.5678    248.8384   9.4703279669e+01  -5.0260502624e+00      0.32663    0.1072126  30.60  0.001279854    3.386    0.705
       530  -9.0497    175.5502    247.5641   9.9445912034e+01  -7.1270463512e-01    0.2710194    0.2155435  78.24  0.001136838    1.959    0.490
       531  -9.2424    156.2740    247.9052   1.0307030407e+02   2.2647260620e+00    0.2524379    0.2094897 -84.80   0.00102538    1.652    0.395
       532  -9.2671    103.7460    246.7593   1.1272996776e+02   1.0531722614e+01    0.3803098    0.2119663 -85.09  0.001912437    2.585    0.613
       533  -8.8206    242.8053    246.9730   8.7397045715e+01  -1.0551718773e+01    0.3056464     0.140333 -29.96  0.001476041    2.286    0.563
       534  -8.7589    232.6872    247.5890   8.9216885203e+01  -9.2360084601e+00    0.2129909    0.1788297  43.40 0.0009980588    1.659    0.397
       535  -9.9384    223.9312    244.2742   9.0217892602e+01  -7.6103332104e+00    0.4093958    0.2211501 -42.85  0.002305598    2.508    0.601
       536  -9.5781    147.0202    245.8051   1.0453555813e+02   4.0386727247e+00    0.2953173    0.2600015  72.85  0.001502373    1.310    0.237
