#   1 NUMBER                 Running object number                                     
#   2 MAG_AUTO               Kron-like elliptical aperture magnitude                    [mag]
#   3 X_IMAGE                Object position along x                                    [pixel]
#   4 Y_IMAGE                Object position along y                                    [pixel]
#   5 X_WORLD                Barycenter position along world x axis                     [deg]
#   6 Y_WORLD                Barycenter position along world y axis                     [deg]
#   7 A_WORLD                Profile RMS along major axis (world units)                 [deg]
#   8 B_WORLD                Profile RMS along minor axis (world units)                 [deg]
#   9 THETA_WORLD            Position angle (CCW/world-x)                               [deg]
#  10 FWHM_WORLD             FWHM assuming a gaussian core                              [deg]
#  11 ELONGATION             A_IMAGE/B_IMAGE                                           
#  12 ELLIPTICITY            1 - B_IMAGE/A_IMAGE                                       
         1 -14.4783    151.3925     56.1753   2.9037707468e+02   6.2453728153e+00   0.05571923   0.05169497 -25.90 0.0009600346    1.112    0.101
         2 -14.8850    163.1155     41.3671   2.9015494179e+02   6.3484237443e+00   0.06538398    0.0430926 -51.09  0.003683469    1.476    0.322
         3 -14.5196    176.3887      8.4583   2.8980680809e+02   6.6511600953e+00    0.0492269   0.04613528 -50.62  0.003619761    1.049    0.047
         4 -13.3107    193.4367      4.7653   2.8959038352e+02   6.5948244258e+00   0.05248093   0.01537598  41.82  0.003624999    3.593    0.722
         5 -11.5456    125.1128    243.5096   2.9179145808e+02   4.2317945734e+00   0.01057375  0.008084922 -60.79  0.000442331    1.274    0.215
         6 -19.9904     74.8466    173.7361   2.9194989685e+02   5.3286351377e+00    0.9107387    0.3576518 -65.37   0.07246215    2.642    0.622
         7 -10.8876     13.8069    238.6548   2.9302986154e+02   4.9286262803e+00   0.00658947  0.004460584 -43.33 0.0006156748    1.518    0.341
         8  -9.4301    126.5146    236.7601   2.9173547307e+02   4.3017635635e+00   0.01245192  0.005595973 -54.35  0.001000722    2.080    0.519
         9 -11.8465    154.4632    196.0682   2.9117572535e+02   4.6109564059e+00   0.01958817   0.01222362  82.63  0.001797242    2.292    0.564
        10 -10.6350    112.3803    196.4032   2.9165685686e+02   4.8500512387e+00   0.02424117   0.01379602 -14.21   0.00199414    2.931    0.659
        11 -10.3731    131.6527    235.7346   2.9167092021e+02   4.2839794940e+00  0.008758291  0.008181879  54.77 0.0002920291    1.100    0.091
        12 -13.6679    210.2020    187.5126   2.9049064137e+02   4.3875122034e+00   0.04584527   0.02278053  89.40  0.003036673    4.492    0.777
        13 -12.8496    206.3285    178.9753   2.9048385514e+02   4.5085902951e+00   0.02208711   0.01690915  -9.05  0.001907153    1.546    0.353
        14 -12.3856    209.7709    176.0006   2.9042698134e+02   4.5230381858e+00    0.0222371   0.01330757  84.86  0.001593983    2.514    0.602
        15  -9.7049    135.0099    234.6774   2.9162644488e+02   4.2768328771e+00  0.008121933  0.007911166  59.15   0.00041401    1.046    0.044
        16 -11.3721     25.9250    184.9256   2.9257389397e+02   5.4807104568e+00  0.009922223  0.009126812  13.54 0.0003956301    1.127    0.113
        17 -11.8362     31.2539    183.0353   2.9250194700e+02   5.4719495511e+00   0.02244432    0.0121375  25.93  0.001999651    1.905    0.475
        18 -12.2578    154.3163    185.6263   2.9111530666e+02   4.7325366742e+00   0.01433575   0.01016922  61.44  0.001044801    1.651    0.394
        19 -11.6098    108.1358    182.3227   2.9162157236e+02   5.0373904397e+00   0.01470446   0.01041836  54.19 0.0005562201    1.565    0.361
        20 -10.7994     28.4215    179.3111   2.9251216615e+02   5.5313202689e+00   0.01433142   0.00976058   8.73  0.001472414    1.735    0.424
        21 -11.2021     35.8986    177.2295   2.9241458681e+02   5.5124146949e+00     0.027058  0.009912508  15.95  0.001684468    4.729    0.789
        22 -12.0128      4.5113    178.7569   2.9278148681e+02   5.6750908069e+00    0.0184526   0.01572617   3.50   0.00168169    1.274    0.215
        23 -13.2426    177.5624    171.6222   2.9076736908e+02   4.7600308767e+00   0.02583768   0.01842469 -80.29  0.002753426    1.572    0.364
        24  99.0000     13.4400    233.5440   2.9300383740e+02   4.9898710970e+00  0.006534551  0.006241141  76.49 0.0002803867    1.073    0.068
        25 -13.9613    138.8380    171.8577   2.9120965692e+02   4.9811633754e+00   0.05668442    0.0202897  32.75  0.004525215    2.635    0.620
        26 -11.8033    203.0898    172.3431   2.9048119182e+02   4.6039818491e+00    0.0129564  0.009816248 -76.92  0.001001366    1.408    0.290
        27 -13.8220    141.4124    167.2606   2.9115299147e+02   5.0194447336e+00   0.04457181   0.01734342  35.32  0.003686171    2.452    0.592
        28 -13.4758    195.5258    170.8386   2.9055828523e+02   4.6651505338e+00    0.0395218   0.02114943 -75.61   0.00292169    2.282    0.562
        29 -10.6138     34.5888    169.7672   2.9238527594e+02   5.6062791015e+00    0.0108248  0.008882792   1.78 0.0007328673    1.354    0.261
        30 -12.0758    230.1763    166.6227   2.9013904892e+02   4.5132162427e+00   0.01645606  0.009313819 -83.70  0.001429936    2.451    0.592
        31 -11.6566    122.7638    165.9782   2.9135778463e+02   5.1419829950e+00   0.02021911   0.01010133  48.63  0.001282329    2.314    0.568
        32 -11.3171    201.0573    164.9341   2.9046017764e+02   4.7013677070e+00   0.01397604  0.009289961  85.02 0.0008765246    1.979    0.495
        33 -10.7354     25.2730    165.1536   2.9246414682e+02   5.7132121078e+00   0.01028572  0.008799254  -1.75 0.0005632768    1.278    0.218
        34 -10.9831    222.8801    162.2925   2.9019620299e+02   4.6055113349e+00   0.01501451  0.009457851 -85.85  0.001053914    2.043    0.511
        35  -9.8701      4.6208    162.6653   2.9268492501e+02   5.8606418483e+00  0.007267983  0.004778854 -27.28 0.0007014869    1.869    0.465
        36 -12.4932    164.3552    157.4357   2.9083325193e+02   5.0004054559e+00   0.01402514   0.01278562   5.15  0.000912472    1.153    0.133
        37 -14.6472    134.4742    146.7205   2.9110979667e+02   5.2970113858e+00   0.08062911   0.02720687 -68.49  0.005503645    3.677    0.728
        38 -14.0167    135.8222    127.5214   2.9098011654e+02   5.5111663700e+00   0.04498618   0.01705879 -69.02  0.003316199    3.156    0.683
        39 -12.6414    135.2534    121.0328   2.9094794507e+02   5.5894538519e+00   0.02336482   0.01090159 -71.08   0.00193945    2.504    0.601
        40 -11.2341     23.1008    155.4838   2.9243158076e+02   5.8375642252e+00   0.02014133   0.01120973 -52.33  0.001952089    1.723    0.420
        41 -12.8137    134.6511    112.5295   2.9090414347e+02   5.6912154310e+00   0.02669859  0.008596796 -61.98  0.001973427    2.974    0.664
        42 -11.1757    139.4203    249.5742   2.9166464419e+02   4.0791232843e+00   0.01523182   0.01206737 -66.78  0.001453571    1.257    0.204
        43 -12.0922    174.0079    148.9752   2.9067295798e+02   5.0423594653e+00   0.01772958    0.0145531 -74.59  0.001371724    1.254    0.203
        44 -14.0711    143.5520    143.9195   2.9098970094e+02   5.2769313312e+00   0.04656691   0.02232795 -75.34  0.003775243    2.732    0.634
        45 -11.0080     29.1092    227.3737   2.9278888821e+02   4.9712571262e+00   0.01017174  0.008073978 -47.13 0.0004222639    1.249    0.199
        46 -11.1863    174.0401    140.5195   2.9062220931e+02   5.1398979176e+00  0.009927014  0.006395656  29.97   0.00101771    1.560    0.359
        47 -11.1614     25.1734    225.1963   2.9282084053e+02   5.0190671195e+00   0.01558497  0.007490545 -51.61  0.001206242    1.989    0.497
        48 -10.4014      1.5994    140.0548   2.9258537140e+02   6.1395569287e+00  0.009068516  0.007896916 -60.08 0.0004878751    1.121    0.108
        49 -11.5515      6.7668    138.3786   2.9251646802e+02   6.1292749570e+00   0.01958957   0.01184958  35.78  0.001189713    1.645    0.392
        50  -9.9874     11.3460    138.2775   2.9246361888e+02   6.1041446457e+00   0.00680137  0.004917121 -24.28 0.0003086202    1.632    0.387
        51 -11.6879     27.2708    136.2675   2.9226999470e+02   6.0358752307e+00    0.0179883   0.01021442  11.05  0.001630689    2.256    0.557
        52 -12.6508    160.5903    128.0068   2.9070081492e+02   5.3623301165e+00   0.01801249   0.01526026 -87.10  0.001807605    1.264    0.209
        53 -10.9191    219.2534    224.3836   2.9060717854e+02   3.9090609825e+00   0.01104773  0.007906405  86.36 0.0006023556    1.707    0.414
        54 -11.5600    140.4466    120.4818   2.9088547915e+02   5.5658014122e+00   0.01714113   0.00886023  50.42  0.001020275    2.295    0.564
        55 -10.2429     23.9305    213.6087   2.9276644871e+02   5.1602884760e+00   0.01928513  0.007489896 -49.75  0.001556067    2.495    0.599
        56 -13.2669     11.7905    205.8708   2.9285899408e+02   5.3195602876e+00   0.02941875   0.01820042  11.21  0.002467398    1.958    0.489
        57 -11.5064     21.9152    243.8460   2.9296820403e+02   4.8219917060e+00   0.01156838   0.00863989 -63.74  0.001282001    1.316    0.240
        58 -11.7633    157.8609    202.6678   2.9117628726e+02   4.5150198409e+00   0.02836379   0.01360826  57.08  0.002177512    3.179    0.685
        59 -10.8107    205.2304    110.1788   2.9008616810e+02   5.3098062128e+00   0.01290445  0.009318005   8.07 0.0009517947    1.600    0.375
        60  -9.9328    180.6642    106.3587   2.9034307924e+02   5.4962691130e+00  0.007151181  0.004875328  64.97 0.0007039992    1.809    0.447
        61 -12.3359    163.7641    203.0702   2.9111149943e+02   4.4762569833e+00   0.01660483   0.01478754 -67.75 0.0004644257    1.113    0.102
        62 -12.8760    161.5958    197.7310   2.9110443123e+02   4.5505158631e+00   0.01993949   0.01527611  87.00  0.001866914    1.511    0.338
        63 -11.8811    168.8469    202.4437   2.9104993594e+02   4.4541249462e+00   0.01373882  0.009796442  74.39 0.0006189499    1.740    0.425
        64 -10.7333    137.7289    198.5674   2.9138107471e+02   4.6787165158e+00   0.02844028   0.01468855  63.36   0.00219761    3.232    0.691
        65 -10.4768    143.9797     80.2796   2.9060548913e+02   6.0098970842e+00  0.009109491  0.008690398  22.07 0.0005134933    1.071    0.067
        66 -10.0891    159.9626    247.5298   2.9141885242e+02   3.9841908331e+00   0.01050488  0.008123831 -60.83 0.0006131157    1.260    0.207
        67 -11.9668    133.7694    247.1643   2.9171463757e+02   4.1395935386e+00   0.01038909  0.008899063 -62.14 0.0004402233    1.143    0.125
        68 -12.9965    166.7070     33.0975   2.9006456270e+02   6.4230509663e+00   0.01924241   0.01597051 -38.67 0.0008627815    1.237    0.191
        69 -10.9689     13.4085     59.8827   2.9197428695e+02   6.9986448802e+00   0.01064824  0.008827931  43.70 0.0004319679    1.235    0.190
        70 -10.4288    144.8493     34.0701   2.9031963272e+02   6.5384396978e+00  0.009807483  0.008531674  63.15 0.0003104803    1.226    0.184
        71 -11.3286    189.9341     14.7022   2.8968977461e+02   6.5005652585e+00  0.009319044  0.008689045  33.75 0.0007610911    1.090    0.082
        72 -10.8333    150.8045    245.5362   2.9151118641e+02   4.0601120015e+00  0.008955135  0.008201199 -65.36  0.000384499    1.075    0.070
