#   1 NUMBER                 Running object number                                     
#   2 MAG_AUTO               Kron-like elliptical aperture magnitude                    [mag]
#   3 X_IMAGE                Object position along x                                    [pixel]
#   4 Y_IMAGE                Object position along y                                    [pixel]
#   5 X_WORLD                Barycenter position along world x axis                     [deg]
#   6 Y_WORLD                Barycenter position along world y axis                     [deg]
#   7 A_WORLD                Profile RMS along major axis (world units)                 [deg]
#   8 B_WORLD                Profile RMS along minor axis (world units)                 [deg]
#   9 THETA_WORLD            Position angle (CCW/world-x)                               [deg]
#  10 FWHM_WORLD             FWHM assuming a gaussian core                              [deg]
#  11 ELONGATION             A_IMAGE/B_IMAGE                                           
#  12 ELLIPTICITY            1 - B_IMAGE/A_IMAGE                                       
         1 -13.1226    204.8338     36.7544   4.4941615080e+01   2.9314264118e+01    0.8514413    0.6298662 -44.15  0.002580119    1.303    0.232
         2 -13.5968    212.9203     31.7580   4.2691550632e+01   2.7994172704e+01     1.126217    0.8455213 -51.85   0.00456329    1.246    0.198
         3 -12.9898    219.1399     25.1493   4.0386005107e+01   2.7324923738e+01    0.6152895    0.4947516  50.00  0.001425665    1.443    0.307
         4 -13.7321    233.1844     11.1172   3.5836684964e+01   2.5703046456e+01    0.7945489    0.6953008 -58.81   0.00261643    1.125    0.111
         5  -9.8565    122.0428      3.2060   4.7289080337e+01   5.3536226899e+01    0.2146293    0.1446848 -80.34  0.001053711    2.000    0.500
         6 -12.2519     64.1655    238.3207   1.1808154427e+02   1.7301133910e+01    0.4093418    0.2561365  49.54  0.001260543    1.295    0.228
         7 -15.2571     91.3166    246.6558   1.1370874948e+02   1.2096221930e+01     7.652538     2.013575  34.62   0.02707995    4.301    0.767
         8 -13.0799     29.2871    210.1482   1.2260621618e+02   2.7003370228e+01    0.5028945    0.3542844 -49.68 0.0009279599    1.967    0.492
         9 -15.6874     38.8719    197.6428   1.1969509115e+02   2.8600112048e+01     5.880568     2.416958  70.46   0.02448742    3.155    0.683
        10 -12.8928     39.9770    234.0257   1.2223199801e+02   2.1079215646e+01    0.7796656     0.341076  76.81  0.003034496    2.547    0.607
        11 -10.9684    193.1003    193.7832   8.5246560771e+01   4.5927202699e+00    0.6480495    0.3821207 -57.03  0.002811529    2.668    0.625
        12  -9.1078    150.0000    189.9789   9.3774060195e+01   1.3224250231e+01    0.2243103   0.08229375 -48.66 0.0008037821    2.952    0.661
        13 -15.2139      4.0050    181.2774   1.2573627801e+02   3.5536088794e+01     9.219316    0.4238831 -76.18   0.01898974   13.091    0.924
        14 -11.7306    175.1350    221.3825   9.3766667451e+01   3.1087947036e+00    0.4551206    0.2136247  47.11  0.002037948    2.174    0.540
        15 -11.8666     58.0781    181.6942   1.1386455659e+02   2.9863129987e+01    0.3769451    0.2764405 -35.24  0.001683361    1.947    0.486
        16 -11.7958     63.7524    175.8419   1.1182224433e+02   3.0477619443e+01     0.297053    0.2544821 -47.80 0.0007459231    1.380    0.275
        17 -10.6768     98.4122    171.5691   1.0275352663e+02   2.6344139086e+01    0.5794252    0.2916396  36.00  0.001797684    2.020    0.505
        18 -12.8235     57.7409    131.3064   1.0677648130e+02   4.1982307559e+01     3.265626     0.966284 -72.36  0.006113258   11.150    0.910
        19 -12.8652     81.2774    159.0593   1.0503404542e+02   3.1980057164e+01     1.081289     0.744265  70.06  0.001360785    1.651    0.394
        20 -13.4976     68.5419    144.9521   1.0608197967e+02   3.7225209280e+01     1.281281     0.708115 -88.33  0.005110148    2.646    0.622
        21 -11.2778     29.3154    156.3741   1.1790771789e+02   3.8987492677e+01    0.3510639    0.2174464  28.37   0.00187819    1.910    0.476
        22 -10.1164    134.0978    147.0910   8.9046465674e+01   2.5477827225e+01     0.350089    0.1655241 -51.32  0.001305604    2.181    0.542
        23  -9.8692     99.4545    141.0150   9.6865598954e+01   3.3398104067e+01    0.3244936    0.2269842 -11.29 0.0009818019    2.303    0.566
        24 -12.1537     84.2735    142.9474   1.0140982862e+02   3.5418368630e+01    0.3027166    0.2606813 -51.32 0.0004899994    1.160    0.138
        25 -11.9117     29.5350    143.3071   1.1635761130e+02   4.2085121447e+01    0.3514844    0.3331285  54.46  0.001777892    1.239    0.193
        26 -10.6835     96.1497    144.3083   9.8428773339e+01   3.3168418170e+01    0.3351978     0.269655 -50.11 0.0007680052    1.233    0.189
        27 -11.0575     17.8667    138.6534   1.1888725681e+02   4.4201542135e+01    0.1810218    0.1486492 -40.58 0.0007328328    1.443    0.307
        28 -11.7691     74.2327    135.3187   1.0277823785e+02   3.8786884996e+01    0.5051414    0.2864711  63.29  0.002058479    2.490    0.598
        29 -10.7057    107.1005    131.9277   9.2802316956e+01   3.4212499191e+01    0.4110089    0.3434662  48.13  0.001726203    1.230    0.187
        30 -10.2076    159.7588    129.2657   7.8538403410e+01   2.3983646246e+01    0.3869408    0.1990784 -21.15  0.001075781    4.311    0.768
        31 -11.2893     73.9890    165.7151   1.0792614217e+02   3.1455799453e+01    0.2665492    0.2329839 -68.38 0.0003681602    1.122    0.109
        32 -10.6729     95.3476    128.6024   9.5365702288e+01   3.7094249548e+01    0.2920564    0.2458965 -19.05 0.0007214687    1.398    0.285
        33 -13.3491     60.8388    162.2065   1.1073692453e+02   3.4069011314e+01    0.5073857    0.2900648 -45.41  0.001683624    2.067    0.516
        34 -10.1724    115.0326    125.9413   8.9213062327e+01   3.4129070756e+01    0.2501365     0.193107  -9.77 0.0009526032    1.711    0.416
        35 -10.5806    183.9733    216.4860   9.1177547422e+01   2.4063789906e+00    0.2102226    0.1153133  37.86  0.001014322    1.599    0.375
        36  -9.6753    105.8871    120.2037   9.0394928861e+01   3.7215014025e+01    0.2201893    0.2078397 -23.91 0.0004114686    1.095    0.086
        37  -9.7314    168.0168    113.1839   7.2491622852e+01   2.5462502941e+01    0.3724927    0.2093975 -56.62  0.001369353    2.314    0.568
        38  -9.8474    205.0120    110.5509   6.4198490625e+01   1.7476795007e+01    0.3377301    0.2459942  29.38  0.001192106    1.603    0.376
        39  -9.2137     24.9340     82.7380   1.0802157495e+02   5.6947393029e+01    0.1650571    0.1475274 -45.55 0.0003281769    1.104    0.094
        40  -9.4059    160.6733     81.6616   6.5327729481e+01   3.3351635572e+01    0.1634436    0.1228112  13.86 0.0007051618    1.728    0.421
        41  -9.8801     30.9030     61.5519   1.0044555374e+02   6.1142955148e+01     0.315963    0.2430841  35.18  0.001948048    1.598    0.374
        42 -10.7482     13.5141     60.2067   1.0727680521e+02   6.2745793900e+01    0.2242459    0.1780607 -46.06 0.0005140222    1.023    0.023
        43 -14.8935      7.5597    239.2634   1.2815785561e+02   2.3539425379e+01     1.864878     1.521194  77.51   0.01555132    1.248    0.198
        44  -9.7602     34.9697     55.9468   9.7069515764e+01   6.1926884824e+01    0.1876571    0.1626021 -30.23 0.0005068094    1.078    0.072
        45 -12.1799    196.4597     45.3443   4.8359383125e+01   3.0229566419e+01    0.9544247    0.6438783 -28.36  0.004723891    1.574    0.365
        46 -11.1750     56.3803    235.1524   1.1928654693e+02   1.8888215107e+01    0.1644223    0.1480151  59.47 0.0006026144    1.279    0.218
        47 -12.8691     19.7058    220.3964   1.2507770799e+02   2.5928037821e+01     0.774094    0.3926595  61.10  0.003207201    1.612    0.380
        48 -12.1451     52.7720    241.0069   1.2039010420e+02   1.8244854055e+01    0.3961824    0.2222726 -52.77  0.002254135    2.500    0.600
        49 -11.3469    136.3275     42.8915   5.8477629269e+01   4.5690939768e+01    0.7423144    0.4313867 -77.02  0.002420602    4.099    0.756
        50  -9.8432     95.1524     41.9565   6.9141144200e+01   5.5185967500e+01    0.2137693    0.1933948 -45.26  0.001229471    1.309    0.236
        51  -9.5660    101.7409     29.9825   6.2465548505e+01   5.5468501000e+01    0.1730153    0.1173287 -23.67 0.0008780636    1.516    0.340
        52 -14.3951      8.9067    207.8412   1.2635835898e+02   2.9497445142e+01      1.13809     1.034641 -76.58  0.006249437    1.429    0.300
        53 -10.1817    189.2861     15.0329   4.1049547008e+01   3.5698249433e+01    0.1873395    0.1705873 -67.85 0.0006657651    1.087    0.080
