#   1 NUMBER                 Running object number                                     
#   2 MAG_AUTO               Kron-like elliptical aperture magnitude                    [mag]
#   3 X_IMAGE                Object position along x                                    [pixel]
#   4 Y_IMAGE                Object position along y                                    [pixel]
#   5 X_WORLD                Barycenter position along world x axis                     [deg]
#   6 Y_WORLD                Barycenter position along world y axis                     [deg]
#   7 A_WORLD                Profile RMS along major axis (world units)                 [deg]
#   8 B_WORLD                Profile RMS along minor axis (world units)                 [deg]
#   9 THETA_WORLD            Position angle (CCW/world-x)                               [deg]
#  10 FWHM_WORLD             FWHM assuming a gaussian core                              [deg]
#  11 ELONGATION             A_IMAGE/B_IMAGE                                           
#  12 ELLIPTICITY            1 - B_IMAGE/A_IMAGE                                       
         1 -10.7645    228.6050     21.2693   3.4497399546e+01   2.6771998957e+01     0.537044    0.3305256 -33.77  0.002483752    1.768    0.435
         2 -10.8785    224.3192     20.1415   3.4621357491e+01   2.7817267576e+01    0.5864692    0.3650014 -31.53  0.002736957    1.833    0.454
         3  -9.6722    247.9742      2.5795   2.9429475717e+01   2.4968077492e+01     0.462458    0.2166837  87.22  0.002617386    1.980    0.495
         4  -8.7289    166.8584      3.3401   3.6268209621e+01   4.2671547217e+01     0.193277    0.1848331  -6.95 0.0005807579    1.343    0.255
         5  -8.1321     74.2365    237.7123   1.0979564780e+02   1.4800759663e+01    0.1479331    0.1469576 -30.06   0.00058335    1.332    0.249
         6  -8.2877    197.1418    250.0792   8.6282857787e+01  -5.5639592368e+00    0.1700204    0.1446168  12.88 0.0003847842    1.081    0.075
         7 -14.6028     39.6267    198.1462   1.1361466104e+02   2.7924235797e+01     5.075285      3.24147 -27.23    0.0176901    2.932    0.659
         8  -9.1168     63.4745    236.3143   1.1190104742e+02   1.6539484692e+01    0.4066027    0.1948231 -61.94  0.001472575    2.226    0.551
         9 -10.5314    120.4045    233.3117   9.9489327587e+01   8.8434599082e+00    0.4300176    0.3158047 -27.41  0.002362163    1.865    0.464
        10  -8.2308     97.9090    235.0000   1.0451204796e+02   1.1946327567e+01      0.21553   0.06519681  36.14 0.0004210333    2.909    0.656
        11  -8.0810    195.8465    231.8483   8.3694627272e+01  -2.6245848372e+00    0.1651726     0.145411  44.67 0.0009710434    1.388    0.280
        12  -8.5910     84.0791    231.2114   1.0705336367e+02   1.4738123901e+01    0.2972578    0.1664706  87.04  0.001385813    2.415    0.586
        13  -9.4996    216.3816    226.4884   7.8917273559e+01  -4.7564831204e+00    0.2154604     0.186142  -0.80 0.0002447579    1.082    0.076
        14  -9.6950     60.5471    225.1733   1.1149928991e+02   1.9256507439e+01     0.333453     0.247026 -55.50  0.001524642    1.607    0.378
        15  -9.7460    112.5773    224.1623   9.9996230961e+01   1.1879538373e+01    0.4390095    0.2152545  32.18   0.00117061    2.031    0.508
        16  -8.4203     48.1365    223.5710   1.1400282369e+02   2.1186311358e+01    0.2428902    0.1378976 -58.43  0.001300104    1.964    0.491
        17  -9.8688     50.0384    219.8040   1.1326906218e+02   2.1767316405e+01    0.4504663    0.2078198  44.50  0.002230118    1.856    0.461
        18  -8.0534    135.2844    221.4589   9.4625001400e+01   8.7729287816e+00    0.3163595    0.1951062 -17.06  0.001300244    3.090    0.676
        19  -7.6842     93.7785    222.4565   1.0394113984e+02   1.5131644808e+01    0.1747587    0.1230255  27.29 0.0009307807    1.562    0.360
        20  -9.1483     83.0103    218.3564   1.0585735192e+02   1.7605098105e+01    0.2154807    0.1824828 -81.19 0.0002870715    1.200    0.167
        21  -8.8471    186.8398    217.8139   8.3156345926e+01   1.0669780879e+00    0.1973482    0.1600341   0.03 0.0005478785    1.216    0.178
        22  -8.4119     55.9801    216.9298   1.1171155454e+02   2.1643533950e+01     0.190883    0.1519754  65.69            0    1.060    0.057
        23  -9.9452    153.4744    211.9364   8.9170810274e+01   7.6153970865e+00    0.3074324    0.2541504 -48.95 0.0005943759    1.317    0.241
        24  -7.0769    143.0217    216.0000   9.2103897277e+01   8.5700851186e+00     0.237671   0.07186089  37.44 0.0001058066    3.013    0.668
        25  -7.3173    104.6806    213.3507   1.0032490010e+02   1.5385908078e+01    0.1464143   0.09713376  67.76  0.000704796    1.741    0.426
        26  -8.8483     75.6341    212.2766   1.0682366025e+02   2.0004806905e+01    0.2907295     0.280719 -78.39  0.001207319    1.213    0.176
        27 -15.2468      3.0691    238.8257   1.2389319485e+02   2.2953070482e+01     1.083125    0.3596699 -76.88  0.005435582    2.665    0.625
        28 -14.2181     30.0624    247.9794   1.1937532795e+02   1.8301189829e+01     1.175368    0.7647468  38.06  0.004991804    1.515    0.340
        29  -8.6066    188.9453    210.0742   8.1401501643e+01   2.0806050297e+00    0.1954243    0.1784574   6.20 0.0003377447    1.041    0.039
        30  -9.8172    118.4668    208.3695   9.6460685352e+01   1.4222859626e+01    0.3604547    0.2504282 -54.83  0.001387234    1.544    0.352
        31  -7.5071    115.5786    203.4940   9.6399428297e+01   1.5754751227e+01    0.2079986    0.1592826  70.66 0.0001074132    1.451    0.311
        32  -7.9770     62.9645    208.4175   1.0928657185e+02   2.2628287027e+01    0.2703222    0.1668108  86.04  0.001370416    1.730    0.422
        33  -7.9052    128.2697    206.4694   9.3924916375e+01   1.2988268361e+01    0.2135203    0.1198641  47.62 0.0009615527    1.732    0.423
        34  -8.8757     59.8029    211.5720   1.1033304858e+02   2.2337341687e+01    0.3170007   0.07700887  42.00  0.001136421    3.238    0.691
        35  -7.4154     73.7866    203.9733   1.0627968608e+02   2.2143462029e+01    0.1680911    0.1046928 -68.40 0.0003075816    1.608    0.378
        36  -8.0010     78.4007    198.9025   1.0456235198e+02   2.2645986237e+01    0.3099369    0.2010185 -53.93 0.0007534253    1.662    0.398
        37  -8.8104    109.0435    198.1090   9.7124603367e+01   1.8031690577e+01    0.2141781    0.1966206 -81.63  0.000269681    1.111    0.100
        38  -7.4886    193.7169    197.9582   7.8266675404e+01   3.4667177768e+00    0.2304153    0.1526622  73.14 0.0009021778    3.605    0.723
        39  -9.3006     88.8577    197.5546   1.0187754237e+02   2.1386927206e+01    0.3658976    0.2606713  15.73 0.0002419928    1.890    0.471
        40  -7.4284     98.0954    195.8727   9.9415061537e+01   2.0323236829e+01    0.1769624    0.1665035 -13.88  0.001023719    1.281    0.219
        41 -13.9443      1.5906    207.7617   1.2261097215e+02   2.9614507331e+01     1.481627    0.5186338 -76.70  0.007107629    2.397    0.583
        42  -7.3418    176.3279    193.2834   8.0987242161e+01   7.3152973134e+00    0.1417433    0.1059017   0.49 0.0003583484    1.605    0.377
        43 -10.5910     67.2850    190.1195   1.0614116431e+02   2.6303066926e+01    0.3424209    0.2547528  28.89  0.001847629    1.511    0.338
        44  -8.2180     78.1888    182.1863   1.0235692720e+02   2.6645850802e+01    0.2322682    0.1792902 -59.90 0.0003507979    1.307    0.235
        45  -9.1431     75.8027    187.7636   1.0373132077e+02   2.5653571630e+01    0.4686867    0.2521129 -46.97  0.001209201    2.202    0.546
        46  -9.8657     80.6089    187.4136   1.0248881597e+02   2.5026002029e+01     0.286634    0.2604541  25.70 0.0002940371    1.268    0.211
        47  -8.5559     18.7295    190.3883   1.1774423554e+02   3.1968435371e+01    0.3621751    0.0857467  41.30  0.001422866    3.311    0.698
        48  -8.4363     18.4729    187.4654   1.1756970254e+02   3.2679325826e+01    0.2755889    0.1780183 -25.21  0.001399584    2.726    0.633
        49  -6.9939     90.4841    189.4456   1.0033280231e+02   2.3027464884e+01    0.1415358    0.1308859  69.82 0.0001076409    1.023    0.022
        50 -13.1229     18.5347    226.8873   1.2031853831e+02   2.3852054671e+01    0.4637863    0.2533323 -88.57  0.001515748    1.627    0.386
        51 -14.3275     20.4248    248.4685   1.2119493868e+02   1.9271172466e+01    0.5626329    0.4570249 -75.70  0.003689607    1.433    0.302
        52 -10.2752     60.5534    179.1566   1.0642605342e+02   2.9874970349e+01    0.4615395    0.4064039 -87.48  0.001386091    1.044    0.042
        53  -9.6080     65.7756    173.5010   1.0431802152e+02   3.0559672558e+01    0.2814187    0.2506911 -36.33 0.0007472275    1.353    0.261
        54  -9.6743     43.1737    179.8861   1.1089883648e+02   3.1871232366e+01    0.3380891    0.2436708 -57.31  0.001328779    1.440    0.306
        55  -8.2338     39.5211    180.5343   1.1187734821e+02   3.2134597806e+01    0.2320713    0.1944797  77.70 0.0006206356    1.043    0.041
        56  -8.8929     36.9188    179.3322   1.1239459816e+02   3.2719258731e+01    0.3039008    0.1922251 -38.00  0.001302188    2.234    0.552
        57  -8.2349    146.4942    179.0337   8.4951333061e+01   1.5671596132e+01    0.3220016    0.1845518  69.34  0.001057822    3.712    0.731
        58 -15.9213     12.3052    242.6426   1.2238392275e+02   2.1272561427e+01     2.018334     1.067722  28.17  0.009239822    2.280    0.561
        59  -8.1723     22.9862    177.7516   1.1566270606e+02   3.4556912820e+01    0.2036816    0.1407796  69.11 0.0005883253    1.324    0.245
        60  -9.5637    100.9987    175.9809   9.5574772818e+01   2.4529164484e+01    0.2103763    0.1946914  75.80  0.001166413    1.029    0.028
        61 -14.6400     14.2574    232.5538   1.2148141731e+02   2.3113239670e+01    0.6946358    0.2939337  49.48  0.003803974    1.872    0.466
        62  -8.7498     10.8840    168.0516   1.1777200293e+02   3.7999958989e+01    0.2509283     0.183733  74.48 0.0008123384    1.212    0.175
        63  -9.8527     11.6277    162.0711   1.1705850413e+02   3.9388040975e+01    0.4091032    0.2249051 -24.37  0.001837108    3.314    0.698
        64  -9.2762      4.1663    166.1705   1.1927164528e+02   3.8994423026e+01    0.3006391     0.246298 -46.35 0.0009211909    1.476    0.323
        65  -9.0378     46.4190    171.1899   1.0905806440e+02   3.3627356599e+01    0.4104723    0.2266584 -85.03  0.001395209    1.897    0.473
        66  -8.4115     43.3947    169.1810   1.0960091817e+02   3.4481522192e+01    0.2405036    0.1945465  44.50 0.0002088459    1.283    0.221
        67  -9.3922    175.3465    172.3312   7.7145385502e+01   1.1677962207e+01    0.3080331    0.2724693  23.54 0.0007156686    1.139    0.122
        68  -8.2589    137.2712    172.7279   8.5935471705e+01   1.8797628078e+01    0.3188872    0.1826643  26.99  0.001274193    2.156    0.536
        69  -7.5763    117.4837    173.4413   9.0948463290e+01   2.2268567933e+01      0.14737    0.1427117  63.10 0.0002445771    1.023    0.022
        70  -9.4311     17.5859    170.8742   1.1636116399e+02   3.6730440646e+01    0.3867133    0.2157246  89.50  0.001998695    1.649    0.394
        71  -7.3883    123.8086    172.6121   8.9214075561e+01   2.1318268553e+01    0.2094543    0.1333671  50.02 0.0006340794    1.602    0.376
        72  -8.0393     37.5231    169.6199   1.1117781682e+02   3.5036055361e+01    0.3372339    0.1218872 -72.61  0.001311558    2.585    0.613
        73  -9.7298     24.0115    170.5283   1.1472294347e+02   3.6210647258e+01    0.3827109    0.2784002  11.50  0.002089407    1.874    0.466
        74  -9.6569     24.7791    165.8047   1.1405212138e+02   3.7294653715e+01       0.3913    0.2910657  75.47  0.002312164    1.235    0.190
        75  -9.4539     20.3608    163.3097   1.1493757033e+02   3.8323890496e+01    0.3415025    0.2040059  27.87  0.001832484    1.917    0.478
        76  -8.9695     92.2736    163.8659   9.5773979631e+01   2.8935796590e+01    0.2804617    0.2102838  37.43 0.0004589656    1.364    0.267
        77  -8.9647     75.6960    163.9826   1.0025260127e+02   3.1506584981e+01    0.2479375    0.2328993  77.69 0.0003592944    1.045    0.043
        78  -7.2131    124.3549    164.7458   8.7576065632e+01   2.3059496503e+01    0.1549287    0.1143918  67.66  0.000359402    1.606    0.377
        79 -14.2430      9.0018    225.5705   1.2211270187e+02   2.5092757957e+01    0.4066759    0.3005808  30.51  0.001570763    1.644    0.392
        80  -7.4191    106.5302    163.5948   9.1947771725e+01   2.6572456323e+01    0.1498459    0.1408774  72.26 -4.371832e-05    1.030    0.029
        81 -14.6730      3.6462    222.0033   1.2296462301e+02   2.6357110056e+01    0.5483583    0.4394464 -62.59  0.003796992    1.556    0.357
        82  -7.6850     53.5300    162.9628   1.0610079794e+02   3.4811047461e+01    0.3392411    0.1357786  42.88  0.001259497    2.454    0.593
        83  -9.1250     61.3261    160.3784   1.0360542100e+02   3.4447868447e+01    0.4808789    0.3496895   7.26  0.002373888    1.928    0.481
        84  -8.3972     28.8702    161.7066   1.1254608579e+02   3.7906183186e+01     0.318751    0.1542752 -74.38  0.001481288    1.828    0.453
        85 -10.1245     83.4174    157.1230   9.6992233601e+01   3.2041663179e+01    0.6342236    0.4448515 -14.28  0.001981933    2.283    0.562
        86  -7.5550    236.6435    159.6984   6.2909627816e+01   3.1455098216e+00    0.1345817   0.09642785  -4.20 0.0007038107    1.711    0.415
        87  -7.5137    172.0048    159.0756   7.5127418268e+01   1.5074048262e+01    0.1814375    0.1608576 -41.34  0.000371304    1.105    0.095
        88  -8.1405     35.4230    157.3994   1.1028420696e+02   3.8307533799e+01     0.470259    0.2444538 -77.36  0.001470865    1.806    0.446
        89 -10.3340      6.7411    169.9922   1.1894720463e+02   3.7874992298e+01    0.6263318    0.3741599 -33.31 0.0002535253    2.547    0.607
        90  -7.6510     23.1616    157.7138   1.1362116051e+02   3.9446709819e+01    0.2050758    0.1366548  57.71 0.0006346665    1.509    0.337
        91  -8.0054    167.1544    157.1281   7.5782089103e+01   1.6445082326e+01    0.2140381     0.194423  -5.59            0    1.177    0.150
        92  -8.6385     51.8753    156.8330   1.0568914532e+02   3.6562416094e+01    0.3117453    0.2206066 -16.16    0.0010249    2.137    0.532
        93  -9.2169      8.8152    154.9526   1.1713056530e+02   4.1349844941e+01     0.192438    0.1652246  68.99 0.0002646873    1.164    0.141
        94  -8.4169     69.5475    151.8006   9.9946371035e+01   3.5474643297e+01    0.3353748    0.2517302 -52.67  0.001718951    1.321    0.243
        95 -10.7763     68.6707    144.9681   9.9014408646e+01   3.7331560393e+01      0.77317    0.4784904  63.36  0.002803294    1.984    0.496
        96  -9.2062     15.7600    151.9973   1.1499615256e+02   4.1515116143e+01     0.279372    0.2329773  14.03  0.001648812    1.525    0.344
        97  -8.4259     80.8619    151.1135   9.6630742637e+01   3.3951994669e+01    0.2444977    0.1785451 -27.45  0.001135545    1.812    0.448
        98  -7.1745     56.5403    151.4989   1.0358482081e+02   3.7323832058e+01    0.1423954    0.1279344 -80.75 2.869055e-05    1.008    0.008
        99  -9.5451    111.1509    149.4650   8.7947899940e+01   2.9176850077e+01    0.2664316    0.2426201 -64.52 0.0002702124    1.078    0.073
       100  -8.5802    249.0285    148.2740   5.8672503807e+01   3.0833319227e+00    0.1778252    0.1631119 -21.23  0.001171941    1.109    0.099
       101  -8.4706     88.6173    146.1879   9.3513883629e+01   3.3942365997e+01     0.343006    0.1946266 -46.70  0.001443837    1.818    0.450
       102  -7.3869     85.3011    146.2958   9.4475909086e+01   3.4457643900e+01    0.1549151    0.1420482  87.17 0.0001911683    1.067    0.063
       103  -9.5119     85.1985    142.2691   9.3722316383e+01   3.5484379785e+01    0.4323413    0.2899371  36.32  0.001219707    1.554    0.357
       104  -7.9942    118.7545    145.5141   8.5084004288e+01   2.8699344093e+01    0.2740465    0.2077862 -53.96 0.0005263436    1.303    0.233
       105  -8.9869    182.2006    144.1985   6.9712769032e+01   1.6136464223e+01    0.2468515    0.2343663 -14.24 0.0002711057    1.075    0.069
       106  -8.0792    242.5006    145.0000   5.9012109359e+01   4.7097704603e+00    0.2603832   0.07646143  47.11 0.0009398486    3.976    0.748
       107  -9.1743     98.2535    142.6981   9.0093097220e+01   3.3166257772e+01    0.4512828    0.3083673 -22.53  0.001024241    2.169    0.539
       108  -7.9365     16.7898    142.3433   1.1365602700e+02   4.3820617925e+01    0.2195122    0.1188403  27.96  0.001116736    2.091    0.522
       109  -7.2726    142.7094    141.3241   7.8019890652e+01   2.4903467793e+01      0.15657    0.1230465 -89.96 0.0004042641    1.612    0.380
       110  -8.4993     82.9052    137.8833   9.3514335925e+01   3.6954743050e+01    0.2625749    0.2160795  76.13  0.001334232    1.325    0.246
       111  -9.6744     12.5735    137.0660   1.1425399071e+02   4.5460634981e+01     0.363061    0.2314841 -48.76  0.001644078    1.583    0.368
       112  -7.3984     52.5846    137.4800   1.0246836462e+02   4.1382436372e+01    0.1420675    0.1261778 -68.39 0.0008039988    1.031    0.030
       113  -7.5250    146.4569    152.5966   7.9602200469e+01   2.1581713899e+01    0.1495074    0.1482055  43.65 6.277965e-05    1.019    0.019
       114  -8.3659     29.0484    134.0028   1.0901136020e+02   4.4825626137e+01    0.1940872    0.1726887 -79.43 0.0003787293    1.040    0.038
       115  -8.5123     10.0366    132.4244   1.1445697436e+02   4.6792695096e+01    0.2190681    0.1923816  33.20 0.0007303228    1.349    0.259
       116  -7.2612     72.6570    132.3248   9.5450222119e+01   3.9942175550e+01    0.1555308    0.1106164  72.81 0.0004387243    1.735    0.424
       117  -8.3425    108.9388    132.0630   8.4779271725e+01   3.3813462326e+01    0.2444636    0.1895285 -18.46 0.0006865137    1.677    0.404
       118  -7.3144     20.3174    127.2738   1.1072242664e+02   4.7275733473e+01    0.1306061   0.08769072 -42.46 0.0003436952    1.566    0.361
       119  -8.3705      1.4855    125.3925   1.1618953031e+02   4.9076737140e+01     0.269029    0.1015136 -73.21  0.001198663    2.125    0.529
       120  -8.3892     66.1850    125.1514   9.5992249736e+01   4.2684454683e+01    0.2107031    0.1868214 -44.90 0.0003580814    1.129    0.114
       121  -8.0875     64.3321    120.8943   9.5697298068e+01   4.4006447886e+01    0.2256785    0.1918545  50.89 0.0003971676    1.259    0.206
       122  -8.3851    109.0240    119.8738   8.1873606900e+01   3.6705869549e+01    0.2236297    0.2184869 -73.63 0.0003792536    1.008    0.008
       123  -8.3038      5.9470    119.6527   1.1416290307e+02   5.0195932109e+01     0.162932    0.1478592 -75.81 0.0003818583    1.108    0.098
       124  -7.2691     66.4190    116.4322   9.4073088334e+01   4.4812416144e+01    0.1437978    0.1336454 -65.47 4.945335e-05    1.030    0.029
       125  -8.2988     59.5832    110.4980   9.5003759364e+01   4.7217054084e+01    0.2397795    0.2206438 -58.31 0.0005785307    1.017    0.017
       126  -7.6334     50.5884    110.4837   9.8011796285e+01   4.8375925991e+01     0.140967    0.1249937 -55.09 -2.927653e-05    1.022    0.021
       127 -10.3674    248.5791    106.4443   5.0221280079e+01   1.0202958791e+01    0.4427171    0.2880452 -34.23  0.002426705    1.447    0.309
       128  -7.2050     58.2848    102.2751   9.3560574377e+01   4.9370901035e+01    0.1395604    0.1028782 -27.78 0.0002072725    1.508    0.337
       129  -8.0117     46.5609    106.7662   9.8596079102e+01   4.9760581097e+01    0.1874935    0.1270549 -72.62 0.0004954128    1.537    0.349
       130  -7.4915     35.9895     98.0316   1.0045440570e+02   5.3006599560e+01     0.163327    0.1418253 -53.15 0.0003898727    1.011    0.011
       131  -7.4558    188.3966     97.2419   5.7428749455e+01   2.4120172853e+01    0.2145224    0.1287433 -50.15 0.0009474206    1.620    0.383
       132  -8.2283     99.7673     96.8039   7.8586096069e+01   4.3782302052e+01     0.232961    0.2009539  25.27 0.0004602289    1.233    0.189
       133  -8.7469     91.8981     93.1835   8.0010490236e+01   4.6068617678e+01    0.2305561    0.2239053 -53.26 0.0002714859    1.045    0.043
       134  -7.4568    103.9266     92.6401   7.6167641947e+01   4.3870456238e+01    0.2643541    0.1680487 -82.71 0.0009136889    3.299    0.697
       135  -9.4638     42.9189     92.6853   9.6749007691e+01   5.3525617973e+01    0.2370291    0.2284413 -88.76 0.0003551428    1.159    0.137
       136  -8.4725      8.3481    106.1515   1.1156788053e+02   5.3308027363e+01    0.2069459    0.1668003 -28.05  0.001317689    1.370    0.270
       137  -7.5434     75.5473     88.4471   8.4038851806e+01   4.9970341399e+01    0.1424153    0.1354636 -31.38 9.978292e-05    1.011    0.011
       138  -7.1108    163.6953     85.3205   5.9131760168e+01   3.2018424282e+01    0.1549717    0.1140205 -75.77 0.0007029846    1.633    0.388
       139  -8.0384     38.3191     82.8301   9.6084137731e+01   5.6284721295e+01    0.2020514     0.173242  32.99 0.0005596915    1.314    0.239
       140  -7.8438     81.0391     77.8680   7.9069706177e+01   5.1288612874e+01    0.3446486    0.1927277  15.64  0.001243369    3.205    0.688
       141  -7.5416    101.8923     77.3189   7.2246592140e+01   4.7433286414e+01    0.2038805    0.1299903  34.94 0.0004154228    1.667    0.400
       142  -7.6313     17.8552     73.7756   1.0200760949e+02   6.0159643984e+01    0.1570508    0.1416935  80.75 0.0003900496    1.363    0.266
       143  -7.5712     22.9241     69.5134   9.8875584118e+01   6.0684305309e+01    0.1674535    0.1221091  11.90 0.0003163158    1.500    0.333
       144  -7.2489     46.7174     73.7134   9.0375962061e+01   5.7318719589e+01    0.1345295   0.09328923 -24.31  0.000694008    1.524    0.344
       145 -10.2487    217.4948     29.3654   3.7237305129e+01   2.8162597553e+01    0.3820202    0.3204998  28.86  0.001075636    1.814    0.449
       146 -11.4022    201.9789     41.7575   4.1771164460e+01   3.0008806421e+01    0.7197319    0.5130821  59.53  0.003672891    1.469    0.319
       147 -11.4869    210.9326     37.4969   3.9743857506e+01   2.8560628500e+01     0.669098    0.5839075  55.34  0.003557922    1.395    0.283
       148 -10.4921    207.1949     33.1723   3.9157502604e+01   2.9964466913e+01    0.4796002    0.4150629 -13.29  0.002994694    1.594    0.372
       149  -7.9892     23.2029     31.1877   8.6506056353e+01   6.8050543437e+01     0.142276    0.1319636 -17.72 0.0003701245    1.290    0.225
       150  -8.4268    236.7218    245.1473   7.8323984200e+01  -1.0059116769e+01    0.1855724    0.1364349  28.29 0.0006501712    1.388    0.279
       151  -9.0773     95.0094    241.4988   1.0584505705e+02   1.1098272920e+01    0.2777654    0.1705108  32.59  0.001172138    1.580    0.367
       152  -9.4230     98.3051    239.5765   1.0494360897e+02   1.0987866710e+01    0.3183042    0.1851256  64.67   0.00159217    1.996    0.499
