#   1 NUMBER                 Running object number                                     
#   2 MAG_AUTO               Kron-like elliptical aperture magnitude                    [mag]
#   3 X_IMAGE                Object position along x                                    [pixel]
#   4 Y_IMAGE                Object position along y                                    [pixel]
#   5 X_WORLD                Barycenter position along world x axis                     [deg]
#   6 Y_WORLD                Barycenter position along world y axis                     [deg]
#   7 A_WORLD                Profile RMS along major axis (world units)                 [deg]
#   8 B_WORLD                Profile RMS along minor axis (world units)                 [deg]
#   9 THETA_WORLD            Position angle (CCW/world-x)                               [deg]
#  10 FWHM_WORLD             FWHM assuming a gaussian core                              [deg]
#  11 ELONGATION             A_IMAGE/B_IMAGE                                           
#  12 ELLIPTICITY            1 - B_IMAGE/A_IMAGE                                       
         1 -13.4642    204.6216     33.4780   6.0254944229e+01   3.0594340046e+01     1.170003    0.9553323 -66.08    0.0061779    1.137    0.121
         2 -13.5454    222.4407     15.1154   5.4727076626e+01   2.8966112777e+01    0.8129147    0.6810908  79.61  0.002681964    1.260    0.206
         3 -11.2871     13.9515     12.4283   1.0092241334e+02   6.9844052842e+01    0.2484714    0.1747187  44.02  0.001645178    2.477    0.596
         4 -12.2121    107.0100    243.3101   1.2483856899e+02   8.2271745133e+00    0.3660125    0.2851541 -78.55  0.001575814    1.389    0.280
         5 -13.3055    125.8952    247.8480   1.2144730773e+02   4.2693578824e+00     1.043598    0.4931967  30.23  0.004448884    2.361    0.577
         6 -13.9855    161.7298    248.5023   1.1402799378e+02  -1.7045733928e+00     2.031129    0.3923399  38.56  0.006059045    4.510    0.778
         7 -15.2994      6.4618    121.6842   1.3300088695e+02   4.9840429611e+01     13.24649     1.874471 -69.70   0.02834546    9.693    0.897
         8 -12.1032     57.5187    241.2280   1.3487383688e+02   1.6035642156e+01    0.4381818    0.1800846  50.76  0.002009308    2.176    0.540
         9 -13.2268      9.7669    207.4744   1.4158614623e+02   2.9192270386e+01    0.8158744     0.648881  35.06  0.003101101    1.546    0.353
        10  -9.5150    180.2343    232.9714   1.0766097047e+02  -1.9139334719e+00    0.1687374    0.1118312 -44.30 0.0005630016    1.599    0.374
        11 -12.0877    125.9894    232.2000   1.1920562593e+02   7.4022262608e+00    0.4822159    0.2223216  33.28  0.001986921    2.238    0.553
        12 -12.1050    115.0151    231.7985   1.2155653231e+02   9.3226195196e+00    0.3408646    0.3091991  78.62   0.00205086    1.093    0.085
        13 -12.3687     93.4256    228.1084   1.2580271991e+02   1.3623672740e+01    0.9175745    0.1401429  44.27  0.002424329    5.450    0.817
        14 -12.3706     57.5493    211.9509   1.3176619074e+02   2.2616601020e+01    0.9818769    0.2671565  51.21  0.003049492    4.459    0.776
        15  -8.8076    152.5952    213.2262   1.1021359137e+02   6.7511982810e+00    0.1829094    0.1354226 -38.01 0.0002800944    1.454    0.312
        16 -11.6799     51.8042    193.9056   1.3090847194e+02   2.7706038098e+01     0.280918    0.2530358 -58.46  0.000512906    1.244    0.196
        17  -8.5784    112.6585    193.6720   1.1612332652e+02   1.8367086144e+01    0.1510068    0.1189838 -16.65 0.0007051361    1.739    0.425
        18 -14.9888     12.1084    240.3236   1.4352151877e+02   2.1724595104e+01     2.915979     1.733122  54.86    0.0184343    1.437    0.304
        19  -9.0041    120.0002    188.4769   1.1341027999e+02   1.8293204916e+01     0.212365    0.1379101  10.80 0.0008097925    2.613    0.617
        20 -11.8278     59.0679    185.8842   1.2809577919e+02   2.8724640145e+01    0.2800603    0.2459816 -61.15  0.000426481    1.177    0.150
        21 -13.1427     38.4932    208.5698   1.3560484058e+02   2.5839454207e+01    0.8974395      0.64626 -65.18  0.003850143    1.347    0.257
        22 -10.6982     70.7997    173.6033   1.2328191177e+02   3.0153982758e+01    0.2618466    0.2250077 -65.69 0.0003057404    1.090    0.083
        23 -13.1942     56.5614    171.5263   1.2664699326e+02   3.2647317704e+01    0.5691758    0.2922754 -44.88  0.001818606    2.226    0.551
        24 -11.8537     78.9919    165.3870   1.1972805116e+02   3.0998314893e+01    0.6190538    0.5687014 -18.78  0.003432445    1.283    0.221
        25 -10.2319     93.3204    150.3895   1.1294431518e+02   3.2440067266e+01    0.3029615    0.2771999 -47.58 0.0007855838    1.091    0.083
        26 -11.8345     81.4560    148.9222   1.1594373685e+02   3.4758814942e+01     0.328544    0.2529085 -47.64 0.0006612529    1.263    0.209
        27 -11.6725     81.1857    248.7696   1.3085560964e+02   1.1086834188e+01    0.3479022    0.2418983  25.44  0.001909086    1.823    0.451
        28  -9.0441     96.8986    146.2738   1.1108931171e+02   3.2842864955e+01    0.2005869    0.1982757  -5.82 0.0003590142    1.085    0.078
        29 -11.5824     68.4700    143.4653   1.1854622182e+02   3.8081185076e+01    0.5327964    0.3770647  89.68  0.001588341    1.760    0.432
        30 -11.2388     64.7634    142.1862   1.1936335830e+02   3.8922552954e+01    0.3827794    0.3137582 -56.59   0.00104516    1.108    0.097
        31  -9.7028    106.6910    136.1727   1.0612460193e+02   3.3535389698e+01    0.3985729    0.2503819 -18.84  0.001449865    2.788    0.641
        32 -10.1244     93.5358    133.0358   1.0910643847e+02   3.6669810155e+01     0.241914    0.2176762  12.88 0.0003994011    1.232    0.189
        33  -9.5182     50.0221    129.9628   1.2132995610e+02   4.3841905761e+01    0.2086224    0.1923736 -74.12 0.0005768252    1.095    0.087
        34  -9.1239    104.8487    122.8621   1.0346091837e+02   3.7030775110e+01    0.1916092    0.1738879  84.60 0.0002493264    1.219    0.180
        35 -12.5507    100.4079    248.6526   1.2688865768e+02   8.1845375329e+00    0.7101076     0.278053  42.55  0.003059243    2.186    0.543
        36  -9.3068    161.4814     79.4740   7.8025939138e+01   3.3662763861e+01    0.1454671     0.135987  86.29 5.961415e-05    1.014    0.013
        37 -14.6017     25.8507    221.3112   1.3945534335e+02   2.4368156548e+01     1.184355    0.9999296 -50.52  0.007866387    1.562    0.360
        38 -11.3364    249.3660    249.3571   9.7133523006e+01  -1.4534897672e+01    0.2716399    0.2642473  -4.70  0.002041651    1.584    0.369
        39 -12.0526    227.1289    248.1982   1.0098253654e+02  -1.1506017180e+01    0.4821945     0.208047  23.80  0.002158064    2.671    0.626
