#   1 NUMBER                 Running object number                                     
#   2 MAG_AUTO               Kron-like elliptical aperture magnitude                    [mag]
#   3 X_IMAGE                Object position along x                                    [pixel]
#   4 Y_IMAGE                Object position along y                                    [pixel]
#   5 X_WORLD                Barycenter position along world x axis                     [deg]
#   6 Y_WORLD                Barycenter position along world y axis                     [deg]
#   7 A_WORLD                Profile RMS along major axis (world units)                 [deg]
#   8 B_WORLD                Profile RMS along minor axis (world units)                 [deg]
#   9 THETA_WORLD            Position angle (CCW/world-x)                               [deg]
#  10 FWHM_WORLD             FWHM assuming a gaussian core                              [deg]
#  11 ELONGATION             A_IMAGE/B_IMAGE                                           
#  12 ELLIPTICITY            1 - B_IMAGE/A_IMAGE                                       
         1 -13.3207    222.5854      6.6471   3.5859841340e+01   2.8945206555e+01     1.186713    0.8643846  58.57  0.004848764    1.517    0.341
         2 -14.2800    195.7585     37.5260   4.6460527437e+01   3.1668548337e+01     2.770588     1.699866  20.79   0.01140365    2.944    0.660
         3  -9.8635    189.6434     14.7165   4.1041463844e+01   3.5872436046e+01    0.2221955    0.1938057  50.38 0.0007605901    1.261    0.207
         4 -10.9511     75.8363     13.7941   6.2899206786e+01   6.2498383889e+01    0.5996932    0.3000961  66.44  0.002303167    4.003    0.750
         5 -10.9585    194.5951      3.2662   3.7498989079e+01   3.5828056922e+01    0.2987136    0.2491703  79.37  0.001833792    1.097    0.089
         6 -19.4653     12.1365    145.4608   1.2010044924e+02   4.2970993512e+01     19.15649     4.427737 -76.20   0.06458413    4.035    0.752
         7 -10.2641    249.5139    248.0383   8.4339762010e+01  -1.1633738225e+01    0.3286859     0.132504 -27.09  0.001734662    2.539    0.606
         8 -10.8819    249.1440    243.0831   8.3599023237e+01  -1.1027694248e+01    0.3440504    0.1717678 -10.06  0.001800348    2.449    0.592
         9  -8.8930     48.7922    217.3842   1.1862484641e+02   2.3067618055e+01     0.229113    0.1697813  19.31  0.001259754    2.023    0.506
        10 -11.0982    184.8646    210.4969   8.9818161079e+01   3.1689238266e+00    0.4891601    0.3644303   2.60  0.002735793    1.504    0.335
        11 -11.7428    195.7069    205.4502   8.6793718684e+01   2.1581209271e+00     0.727296     0.319691  25.99    0.0027328    3.164    0.684
        12 -10.7518    193.3684    195.3780   8.5401264595e+01   4.2502583337e+00      1.00434    0.5183994 -62.32   0.00297994    6.165    0.838
        13 -10.8235    172.1186    212.3587   9.2682618905e+01   5.0281828244e+00    0.6590402    0.2330411  29.46  0.002012865    4.621    0.784
        14  -9.8657    158.3972    235.5257   9.8973504521e+01   3.4559847705e+00    0.2389478     0.162935  37.82  0.001005142    1.241    0.194
        15  -9.1054     56.6881    209.4272   1.1634614013e+02   2.3736440465e+01    0.4258182    0.2171008 -85.86  0.001633027    2.099    0.524
        16  -8.5082     58.9905    206.2520   1.1556782350e+02   2.4113832541e+01    0.1605949     0.117891  73.24            0    1.183    0.155
        17  -9.7124     42.5021    208.8060   1.1914868192e+02   2.5595019039e+01    0.2374216    0.1314755  67.25 0.0008655777    1.669    0.401
        18 -11.0628     65.3827    205.0960   1.1412037051e+02   2.3523915570e+01    0.4134448    0.1956574 -77.44  0.001287125    2.271    0.560
        19  -8.9344     35.5593    208.5568   1.2050374805e+02   2.6440871371e+01    0.1237442   0.08848029  72.51 0.0002180853    1.130    0.115
        20  -8.6520    224.1820    206.6358   8.1635742838e+01  -2.6996399772e+00    0.1766392    0.1049194  26.21 0.0002812794    1.624    0.384
        21  -8.3801     93.3319    205.3263   1.0821445883e+02   1.9486591496e+01    0.1231211    0.1043029 -17.86 0.0007051187    1.710    0.415
        22  -9.5226     96.2369    201.4377   1.0708478422e+02   1.9860171629e+01    0.2843892    0.1859219 -55.00  0.001188492    1.642    0.391
        23 -12.7517     53.3976    198.4708   1.1596772928e+02   2.6497784041e+01    0.4708802    0.2912604 -52.58  0.002423463    1.916    0.478
        24  -9.2173     38.8267    199.4150   1.1909519499e+02   2.8022576488e+01    0.1842366    0.1268186  76.88 0.0004109014    1.235    0.190
        25 -11.6893    133.7436    196.6315   9.8157595454e+01   1.4657341612e+01    0.4271496    0.2964856 -70.97  0.001484768    1.774    0.436
        26  -8.5844     69.8589    198.2594   1.1242321717e+02   2.4394768170e+01    0.3248633    0.1412631 -53.92  0.000907218    2.512    0.602
        27  -8.8304    168.1861    233.4947   9.6781159854e+01   2.2076314181e+00    0.2489783     0.151758  59.00  0.001237101    2.296    0.564
        28 -10.4336     53.3451    230.4926   1.1882138820e+02   1.9899157121e+01    0.3218517    0.1644575 -88.48   0.00175455    2.057    0.514
        29  -9.1961     81.8687    194.4159   1.0933148910e+02   2.3537943305e+01    0.2783073     0.202455  70.29  0.001567452    1.334    0.250
        30 -11.4931    127.1713    191.5155   9.8776355387e+01   1.6856308930e+01    0.4169087    0.2504015 -53.23  0.002004205    1.754    0.430
        31 -11.2985     74.4313    189.0057   1.1030986443e+02   2.5807627761e+01     0.431938    0.2391811  71.15  0.001383688    2.218    0.549
        32  -8.7065     96.5368    190.5008   1.0551806285e+02   2.2173439882e+01    0.1376244    0.1207078  72.70 0.0001726433    1.040    0.039
        33 -10.3516    148.9934    187.7242   9.3285494073e+01   1.3728582487e+01    0.3414039    0.2435815  54.26  0.001721464    1.475    0.322
        34  -9.4234     93.8186    186.1571   1.0551358698e+02   2.3562306388e+01     0.203949    0.1678306  76.90 0.0003449486    1.171    0.146
        35  -9.6611    238.3767    185.2189   7.4998901462e+01  -1.7409590016e+00    0.1811632    0.1115349 -40.87 0.0009457463    1.701    0.412
        36 -11.2169    115.7188    183.0013   9.9977274376e+01   2.0663746157e+01    0.4093721    0.2494217 -33.32  0.001770585    2.388    0.581
        37 -10.8047     98.7015    181.3525   1.0366639731e+02   2.3866052604e+01    0.4127766    0.3187087 -11.62  0.001553899    2.008    0.502
        38 -10.2650    189.1266    177.3822   8.2744291178e+01   8.2297020888e+00    0.4981067    0.3479971 -57.74  0.002412429    1.847    0.458
        39 -10.8462    144.0979    178.1537   9.2621458880e+01   1.6601516799e+01    0.4129915    0.2639959 -47.06   0.00135659    1.622    0.384
        40  -9.7410    149.7400    177.4296   9.1213888868e+01   1.5693972405e+01    0.2619036    0.2174139 -87.13 0.0007816554    1.485    0.327
        41  -9.8503     54.8591    173.7498   1.1292436158e+02   3.1915024790e+01    0.2696555     0.190923  72.12 0.0009090693    1.358    0.264
        42 -10.0202     46.0274    172.9803   1.1489934166e+02   3.3156981191e+01    0.3414232    0.2946591  51.22  0.001291338    1.250    0.200
        43 -10.4977    138.9958    170.7161   9.2376199158e+01   1.9144728406e+01    0.3685625    0.2675088  40.45 0.0009715369    1.350    0.259
        44  -9.3798    240.4307    169.4988   7.1456380314e+01   3.7177591061e-01    0.1342615    0.1138523 -14.34 0.0001052678    1.019    0.018
        45 -10.1520     58.8918    229.6296   1.1770861237e+02   1.9368511908e+01    0.1812716    0.1402462 -88.96 0.0003481136    1.209    0.173
        46  -8.8187    187.6222    162.8498   8.0017988935e+01   1.1260188932e+01    0.2124753     0.133723 -51.13  0.000946818    1.783    0.439
        47 -11.6648     93.7473    151.6664   9.9870947230e+01   3.1614180723e+01    0.7522502    0.5212901 -38.15  0.003592138    1.703    0.413
        48 -10.7403    133.8772    145.6172   8.8416230134e+01   2.5723407905e+01     1.253918    0.3335777 -55.05  0.002940792    5.746    0.826
        49  -9.6014    187.3264    151.9107   7.7671388311e+01   1.3443712863e+01     0.216828    0.1905287 -30.39  0.001153779    1.099    0.090
        50  -9.0586    112.5724    150.7070   9.4844304499e+01   2.8593975682e+01    0.2064517    0.1415219 -65.72 0.0008412083    1.550    0.355
        51  -9.3899    174.6836    149.1287   7.9726592860e+01   1.6599960231e+01    0.2582464    0.2109233  56.60 0.0007430942    1.352    0.260
        52  -9.3267     44.5054    230.3311   1.2044838684e+02   2.1004892641e+01    0.1391677    0.0885708  79.25 0.0008826374    1.365    0.267
        53 -10.0528     40.0905    223.8488   1.2079230680e+02   2.2797407789e+01    0.2022419    0.1337453  76.35 0.0006533697    1.258    0.205
        54 -10.7268    105.8829    137.9076   9.3918580880e+01   3.2838435125e+01    0.5704631    0.3754233 -31.17  0.002463895    1.960    0.490
        55 -10.4322    105.9187    130.6828   9.2314062161e+01   3.4557687861e+01    0.4117343     0.326015 -60.14  0.001250076    1.230    0.187
        56 -11.6345     93.7663    137.8512   9.7167206374e+01   3.4950204302e+01    0.2846014    0.2538705 -47.56 0.0004392952    1.134    0.118
        57 -10.1294    135.9307    128.9095   8.4022017939e+01   2.9098699556e+01    0.4868779    0.1987674 -48.24  0.001677185    2.411    0.585
        58 -10.2259    114.0412    129.0309   8.9741635716e+01   3.3438143307e+01    0.3709862    0.3076998  -0.60  0.001335307    1.522    0.343
        59  -9.1053    160.6411    127.7728   7.7789344087e+01   2.4061348819e+01    0.2951951    0.2040023 -51.12  0.001308916    1.482    0.325
        60 -10.3682    101.3067    124.9545   9.2269699600e+01   3.6756473758e+01    0.3085096    0.2352853 -31.35 0.0006582488    1.487    0.327
        61 -10.7825    120.1487    122.7637   8.6601191564e+01   3.3714298938e+01    0.5554705    0.3859791  -4.07  0.002213755    2.397    0.583
        62  -9.7934    135.1111    121.1828   8.2306030410e+01   3.1009106468e+01    0.5153919   0.09342113 -44.54  0.001164648    5.442    0.816
        63 -10.4834     72.1563    250.2806   1.1697091147e+02   1.3816127659e+01    0.1840009    0.1212527  53.92 0.0003908493    1.190    0.159
        64  -9.3874    109.2707    118.3929   8.8477773735e+01   3.6843030176e+01    0.2612513    0.1984148 -49.65 0.0003881069    1.253    0.202
        65 -10.0309    231.3975    113.6351   6.0549335261e+01   1.1448709967e+01    0.2780536    0.2518752 -30.21 0.0007643265    1.029    0.028
        66  -9.2836    167.6955    112.4645   7.2274110137e+01   2.5680537252e+01     0.328232    0.2354913 -66.97  0.001414414    1.787    0.440
        67 -11.4020    118.5880    109.8379   8.3708155848e+01   3.6987058465e+01    0.6204856    0.4779365  77.89   0.00232316    1.716    0.417
        68  -9.5477    205.1947    110.2411   6.4174543421e+01   1.7627655407e+01    0.3182154    0.2444999  55.12 0.0009636221    1.416    0.294
        69 -10.0045    134.5856    104.9972   7.8150729415e+01   3.4690117730e+01     0.640377    0.1475124 -45.01  0.001646734    4.235    0.764
        70 -10.5171     66.7344    103.8524   9.7574285981e+01   4.7342655779e+01    0.4091686    0.2204179  23.48  0.001750623    2.398    0.583
        71 -10.3193     54.4636    221.9559   1.1790874567e+02   2.1443097272e+01    0.2824936    0.1360354  53.37 0.0005240534    1.784    0.439
        72 -11.0411     51.7783     89.7663   9.9067690824e+01   5.2587626325e+01    0.3386742    0.2709806  80.08 0.0009058893    1.617    0.381
        73  99.0000     57.4928    219.3859   1.1709622066e+02   2.1578912064e+01    0.4485897    0.2123369  62.41  0.002084827    2.116    0.527
        74  -8.8545    184.0267     77.4850   5.9389141393e+01   2.8454956751e+01    0.2285132    0.1495347  57.20  0.001026939    1.574    0.364
        75  -9.2857     65.1439     70.1897   8.8833663659e+01   5.5145115016e+01    0.2204808     0.202686  41.17 0.0005803723    1.275    0.216
        76 -10.7660    244.5975    248.2914   8.5203044511e+01  -1.1031511539e+01    0.2066118     0.194522 -72.95  0.001509918    2.187    0.543
        77 -12.7191    180.1940     51.5945   5.2709695983e+01   3.3551891703e+01    0.8388188    0.7645867  17.22 0.0008274903    1.260    0.207
        78  -9.4180     72.4804    245.4709   1.1651499820e+02   1.4628800272e+01    0.2971644    0.1239074  57.53  2.50444e-05    2.293    0.564
        79  -9.7329     80.7609    220.4059   1.1256923981e+02   1.8245666036e+01    0.2313407    0.2052505  32.22  0.001424202    1.373    0.272
        80  -8.2670    168.2548    247.9888   9.8830355917e+01   2.0899121501e-03    0.1209742    0.1047534 -36.17 0.0002086172    1.384    0.278
