#   1 NUMBER                 Running object number                                     
#   2 MAG_AUTO               Kron-like elliptical aperture magnitude                    [mag]
#   3 X_IMAGE                Object position along x                                    [pixel]
#   4 Y_IMAGE                Object position along y                                    [pixel]
#   5 X_WORLD                Barycenter position along world x axis                     [deg]
#   6 Y_WORLD                Barycenter position along world y axis                     [deg]
#   7 A_WORLD                Profile RMS along major axis (world units)                 [deg]
#   8 B_WORLD                Profile RMS along minor axis (world units)                 [deg]
#   9 THETA_WORLD            Position angle (CCW/world-x)                               [deg]
#  10 FWHM_WORLD             FWHM assuming a gaussian core                              [deg]
#  11 ELONGATION             A_IMAGE/B_IMAGE                                           
#  12 ELLIPTICITY            1 - B_IMAGE/A_IMAGE                                       
         1 -13.9700    176.9169     71.0895   2.2355832472e+01   3.0883002333e+01     4.506227     2.456713 -62.08    0.0161001    2.555    0.609
         2  99.0000    161.8295     53.5073   1.9652260053e+01   3.7206589193e+01     4.756433    0.4221144 -36.67   0.01123973    5.841    0.829
         3 -12.6366    174.1065     42.2414   1.4422758671e+01   3.5792073672e+01     2.923675     1.568476  18.81  0.008604186    5.656    0.823
         4 -11.8502    203.2767     18.6399   4.8315022326e+00   3.1764078176e+01    0.9429809    0.5404624  71.10  0.002088485    1.828    0.453
         5 -13.9496    183.8583     58.3596   1.7757518094e+01   3.1216173954e+01     2.733031     1.494829 -69.77  0.005612365    2.671    0.626
         6 -11.7699    234.9742     37.4885   7.1400619198e+00   2.3015016370e+01     1.094713    0.5324717 -66.91  0.005066542    2.445    0.591
         7 -12.8855    225.9235     22.7516   4.2955585130e+00   2.6466102584e+01    0.5127265    0.3842901 -36.75  0.001443588    1.165    0.141
         8 -10.9605    211.6033     20.9553   4.8267951038e+00   2.9675627751e+01    0.5530869    0.4078193 -41.23  0.003387357    1.151    0.131
         9 -13.3845    233.1841     48.2488   9.7840291149e+00   2.2084162372e+01      1.11435     0.811012 -78.27  0.003178969    1.521    0.343
        10 -13.7714    196.9568     36.3277   1.0114941777e+01   3.1158521123e+01     1.712706     1.183992  38.11  0.008975117    1.942    0.485
        11 -14.2999    219.3167     56.7286   1.3099999946e+01   2.3750075995e+01     3.409439     1.716826 -25.16   0.01201868    1.976    0.494
        12 -13.7909    210.4180     59.5226   1.4746864639e+01   2.5206569249e+01      1.19037    0.8659079 -77.51  0.003198975    1.569    0.363
        13 -12.6950    218.5050     31.3322   6.9155163952e+00   2.7042080844e+01    0.7641624    0.3950731 -29.77  0.001886563    1.710    0.415
        14  99.0000     30.4904     21.0175   5.0266881674e+01   7.2996051975e+01     0.980655    0.5605287 -43.24  0.004826639    1.682    0.405
        15 -11.5897     40.5144     21.6939   4.4018011023e+01   7.1254241181e+01    0.9287746    0.6008022  11.60  0.004311661    2.094    0.522
        16 -13.5552     57.0478     66.9097   5.5280725836e+01   5.8745649003e+01     2.210367    0.9240949 -45.96  0.008046155    2.413    0.586
        17 -14.1749     10.6008     69.0205   7.9468854717e+01   6.3421298984e+01     1.661067       1.5383   8.45   0.01008805    1.201    0.167
        18 -12.7150     24.6427     40.9179   6.3811165785e+01   6.9420116694e+01     1.347628    0.5961976 -51.28  0.004766214    1.996    0.499
        19 -12.9356     47.8072     31.3103   4.5124251345e+01   6.8167217879e+01     2.767408     1.060243  51.38  0.009105069    3.752    0.733
        20 -11.6612     52.8997     21.0312   3.6672561330e+01   6.9023991818e+01     2.073312     1.293243  89.28  0.006200644    5.920    0.831
        21 -14.2994     39.6884     54.7677   5.9809039061e+01   6.4293963441e+01     3.496181     1.706589  11.16   0.01194405    3.592    0.722
        22 -12.8717     64.4185     16.3305   2.8615063868e+01   6.7233589452e+01     1.169597    0.8256631  54.29  0.006022049    1.365    0.267
        23 -13.8582      9.8684     41.7949   7.4171074795e+01   7.0452424561e+01     2.312117     1.085626  74.93   0.00816362    4.026    0.752
        24 -12.8577     14.3370     34.5771   6.8688897641e+01   7.1881435051e+01    0.7702474     0.620208   0.24  0.003043556    1.291    0.226
        25 -12.8724     72.8856     25.5498   3.0393096531e+01   6.3942557151e+01    0.7712311    0.6481873  30.10  0.002108236    1.214    0.176
        26 -12.1781     80.0333     22.1250   2.6055145861e+01   6.2737492172e+01    0.8347691    0.6911262 -33.71   0.00450516    1.259    0.206
        27 -13.2323    176.2419     23.4819   8.5529081462e+00   3.7598035946e+01    0.3262795    0.3101674 -62.52 0.0006513739    1.115    0.103
        28 -10.3523    122.2351     18.2125   1.3945700491e+01   5.2251477593e+01    0.6773846    0.2140001 -47.83  0.002099966    3.753    0.734
        29 -11.8884    115.5444     10.8040   1.2023337337e+01   5.4836518315e+01    0.7810691    0.3269175 -16.23  0.001982497    2.977    0.664
        30 -10.0957    111.8260      4.4496   9.8826233031e+00   5.6435652730e+01    0.2917964    0.2174278  89.38 0.0009676899    1.301    0.231
        31  -9.6640    115.4550      2.4939   8.4738225163e+00   5.5629025528e+01    0.2120392     0.112273  59.39  0.000659448    1.719    0.418
        32 -11.5053    232.7802      3.6993   3.5945297526e+02   2.7023165771e+01    0.7751454    0.2161484 -31.44  0.002906506    2.570    0.611
        33 -13.8397    244.3376      8.2927   3.5997999709e+02   2.4337289455e+01     1.029747    0.4416764 -69.59  0.004851006    2.401    0.584
        34 -11.2863    228.4120     10.3299   1.2009499683e+00   2.7252840641e+01    0.6016143    0.2102498 -53.41  0.002131986    2.393    0.582
        35 -12.7919    221.4302      8.2337   1.0647159913e+00   2.8898081712e+01    0.8590409    0.1957485 -48.55  0.001265466    3.162    0.684
        36 -10.4937    141.8833     12.6525   8.8890617969e+00   4.7594999638e+01    0.3649173    0.2192714  15.76  0.001541388    2.589    0.614
        37 -11.0784    149.8901     12.9248   8.0221167204e+00   4.5455820034e+01     0.342693    0.2080279 -71.42   0.00124903    1.702    0.412
        38  -9.6413    146.2038      6.6282   6.2354448013e+00   4.7039534346e+01     0.410864    0.2162767  -4.44  0.001454798    2.727    0.633
        39 -10.9948    125.1508     10.3664   1.0308575785e+01   5.2297402922e+01    0.4535494     0.304264  -9.82  0.001666716    1.797    0.444
        40 -10.4241    187.0055     12.8068   4.4703519582e+00   3.6144004546e+01    0.2494606    0.1330691 -52.86 0.0006468699    1.661    0.398
        41 -10.2520    132.9908     11.4781   9.6216740030e+00   5.0083589431e+01    0.2696565    0.1760629 -68.38 0.0003403331    1.589    0.371
        42  -9.3055    131.1925      8.3593   8.6670591398e+00   5.0869797920e+01    0.3280589    0.2531821 -84.03  0.001756787    1.232    0.188
        43 -10.2402     88.0700     11.6977   1.8261344163e+01   6.2010139643e+01    0.2777812    0.2385171  78.72  0.001540819    1.161    0.139
        44 -10.3681     56.1949     12.0239   2.9514146937e+01   6.9664216205e+01    0.2371888    0.1885481  50.42 0.0005555289    1.213    0.176
        45 -10.3920    108.7799     10.1893   1.2960977982e+01   5.6712082628e+01    0.3451644    0.1877488 -31.86  0.001547347    1.868    0.465
        46 -12.3536     57.7362      4.9550   2.4201263680e+01   7.0189608653e+01    0.5268152    0.4740331 -47.32  0.002754488    1.263    0.208
        47 -12.2517     78.7016      9.9528   1.9937513866e+01   6.4583484363e+01     0.325161     0.242012  52.49 0.0003690532    1.237    0.192
        48 -11.3029     65.0127      7.3650   2.2937488410e+01   6.8217521364e+01    0.4333234     0.333474 -88.63  0.001551484    1.632    0.387
        49 -12.0359     69.4560      4.1929   1.9440018474e+01   6.7482983235e+01     0.847334    0.5385001 -74.29  0.003818218    2.312    0.567
        50 -12.9810    173.1805      6.4869   3.7032874665e+00   4.0134535097e+01    0.4566929    0.2753399 -15.72  0.002167075    1.930    0.482
        51  -9.7631    101.0495      8.3270   1.3602914491e+01   5.8957666514e+01     0.443057     0.201221 -18.82  0.001500226    2.514    0.602
        52 -10.3936     26.8934      9.4241   4.5344503046e+01   7.5655393711e+01    0.3248104    0.2263459   9.88  0.001752402    1.606    0.377
        53  -9.7607     51.3461      6.9598   2.8401471208e+01   7.1382262195e+01    0.3115521    0.1572247 -46.03  0.001328627    2.511    0.602
        54 -10.7027     47.4079      5.4895   2.9304521626e+01   7.2412911166e+01    0.2421878    0.2103593  17.33 5.192623e-05    1.091    0.084
        55 -11.2818     47.5449      1.5677   2.6352734414e+01   7.2851859861e+01    0.4023901    0.1660673  48.40  0.001469635    2.155    0.536
        56 -11.3078    193.9385      7.5133   2.4976186049e+00   3.5041119700e+01    0.2888086    0.2162394  75.62  0.001376326    1.384    0.278
        57  -8.9571    157.0213      7.4613   5.4230525101e+00   4.4137988085e+01    0.1845029    0.1259036  80.95  5.83655e-05    1.377    0.274
        58 -10.4379     91.1711      7.0534   1.5111689937e+01   6.1685825998e+01    0.2152368    0.1717968 -61.29  0.000586985    1.365    0.267
        59  -9.2255     12.6451      7.4524   5.6521164358e+01   7.7918944907e+01    0.1244485      0.10721 -25.19 0.0003476644    1.043    0.041
        60 -11.5502      2.7929      6.1193   6.6139449923e+01   7.9079082519e+01    0.2674475    0.2182116 -24.21 0.0006778575    1.072    0.067
        61 -10.4781    121.0020      4.4638   8.5063980505e+00   5.3965558544e+01    0.2187832    0.2040164  -4.24 0.0003245409    1.223    0.182
        62 -10.1847     76.8463      4.8842   1.7609668118e+01   6.5577471354e+01    0.2013905    0.1688899  31.91            0    1.201    0.168
        63  -9.6427    183.5030      3.5752   2.0900281502e+00   3.7885401882e+01    0.3089095    0.1857753 -62.61   0.00105024    1.493    0.330
        64 -10.7696    186.8301      1.3929   1.2548230005e+00   3.7290885846e+01    0.3127454     0.199173 -44.60  0.001739802    1.343    0.255
        65 -10.5062    216.9064      2.1618   3.5981481305e+02   3.0437717636e+01    0.4222969    0.1849363  74.04  0.002121056    2.367    0.577
        66  -9.9264    207.0044      2.9554   5.1466589918e-01   3.2512512401e+01    0.2113688    0.1574816 -27.01  0.001302452    1.367    0.268
        67  -9.5398    143.8606      2.8362   5.1351026737e+00   4.7999868757e+01    0.1900135     0.137011 -66.01 0.0004899803    1.306    0.234
        68 -12.1106     85.5153      1.5432   1.3518642959e+01   6.3666105038e+01    0.4334926    0.1681185  63.88   0.00107704    2.208    0.547
        69  -9.7305      7.5240      2.5141   5.8358934856e+01   7.9399224647e+01    0.1242348    0.1066982 -19.36 -3.029969e-05    1.015    0.015
        70 -10.0003    250.2929      1.4203   3.5825253165e+02   2.3886456391e+01    0.1315567    0.0868976 -64.31 0.0002779965    1.304    0.233
        71 -10.5938     70.8296     87.8709   5.5833306232e+01   5.1227779499e+01    0.3065052    0.2455041  58.89 0.0005951729    1.331    0.249
        72 -12.8039     66.9188     82.8414   5.5960814646e+01   5.3162575196e+01    0.7210316    0.5710833  67.88  0.002316278    1.439    0.305
        73 -11.5494     49.1599     95.6081   6.6491233390e+01   5.2566251865e+01    0.3785169    0.2679558 -18.10  0.001429145    1.893    0.472
        74 -11.1522    182.1213    117.5561   3.3408441640e+01   2.1966138038e+01    0.3894888    0.3564259  13.96    0.0023064    1.117    0.105
        75 -11.1373    206.4800     94.0107   2.3765855661e+01   2.1022173170e+01    0.3705899    0.1186441 -34.01  0.001366223    2.745    0.636
        76 -12.1866    116.7379     92.7812   4.1886111209e+01   4.0788285970e+01    0.3813123    0.3260193  -8.98 0.0007688527    1.408    0.290
        77  -9.7321    250.2180     93.4369   1.8196600398e+01   1.3336588796e+01     0.140429    0.1165419 -89.17 0.0009530501    1.649    0.394
        78 -11.6469    106.9074     96.3018   4.5775135510e+01   4.2135719642e+01    0.3102313    0.2660106 -43.00 0.0006861505    1.186    0.157
        79 -11.7218    107.8517     92.2126   4.4320106705e+01   4.2857314140e+01    0.5006979    0.2202958  40.35  0.001751124    2.396    0.583
        80 -11.7118    223.7922     88.5658   2.0162806172e+01   1.8538134767e+01    0.2911488    0.2353711  57.96  0.001823939    1.476    0.322
        81 -10.3633    225.7871     85.4230   1.9195046032e+01   1.8611596552e+01    0.1916585    0.1611153  40.34 0.0005492754    1.414    0.293
        82  -9.8383     72.8863    119.0688   6.2490117589e+01   4.2920769763e+01    0.2247003     0.190458  67.98 0.0002836732    1.201    0.168
        83 -12.0433     50.9048     87.9199   6.4001033117e+01   5.4357950950e+01    0.4095592    0.2614023 -35.96  0.001344864    1.857    0.462
        84 -12.1354     48.1735     85.2860   6.4545450633e+01   5.5423551827e+01    0.5359938    0.2796507  20.97  0.001950059    2.293    0.564
        85 -11.9250      4.9015     87.8217   8.4683613087e+01   5.8710204744e+01    0.4683395    0.3150192   8.92  0.001573749    1.710    0.415
        86 -11.5361    237.8167     86.5938   1.8067800539e+01   1.6303146791e+01    0.4452873    0.2875929  74.20  0.002524834    2.198    0.545
        87 -11.7088    231.2843     83.6667   1.8148731136e+01   1.7852567757e+01    0.3068686    0.2292513 -67.57  0.001107343    1.626    0.385
        88 -11.2894     91.3403     66.6557   4.1431388914e+01   5.2096405774e+01    0.4981163    0.4089179 -49.89  0.002318638    1.224    0.183
        89 -12.1607     96.9244     69.4009   4.0518060633e+01   5.0267349367e+01    0.5082177    0.4128537 -59.20 0.0005261705    1.290    0.225
        90 -11.0157    100.5658     81.4810   4.3337232588e+01   4.6837223635e+01    0.3466465    0.2822477  45.72 0.0006132273    1.230    0.187
        91 -12.1811     96.8764     76.4219   4.2907092772e+01   4.8762388824e+01    0.6365089    0.4792035 -86.62  0.001297568    1.770    0.435
        92 -11.8401    161.7250     84.1576   2.8719959338e+01   3.2187141600e+01    0.7617291    0.4881424  37.80  0.003410196    1.845    0.458
        93 -12.3092    168.5536     80.3955   2.6383781430e+01   3.1274361647e+01     0.434517    0.3909023 -81.88 0.0006013985    1.183    0.155
        94 -11.0273    168.5206     76.4658   2.5287679395e+01   3.1943385091e+01    0.3130145    0.2518569  77.44  0.001012635    1.385    0.278
        95 -12.3437    114.9496     80.6262   3.8723814023e+01   4.3786954041e+01    0.7457243    0.5217582 -33.41  0.003156316    1.559    0.358
        96 -11.2310    110.6459     86.0779   4.1660489107e+01   4.3599180472e+01    0.3832469    0.3225205  85.10 0.0009818566    1.362    0.266
        97 -10.4044    203.6548    115.8776   2.9305388260e+01   1.8165242845e+01    0.4374065    0.2312655  67.95  0.001655684    3.973    0.748
        98  -9.4050     39.0272     42.0042   5.5250863624e+01   6.7357022878e+01    0.7886431    0.6019021  33.12  0.004208828    1.347    0.258
        99 -10.9962     91.5083    115.2369   5.5474586872e+01   4.0687924469e+01    0.4741729    0.3086531  56.22  0.001208599    1.710    0.415
       100 -12.9153     37.8063     80.9319   6.8207864396e+01   5.7874590677e+01    0.9005657    0.5187792 -55.22  0.002320308    1.609    0.378
       101 -10.7585     95.6798    112.1562   5.3417035616e+01   4.0660457317e+01    0.3977626    0.2694551 -79.20  0.001654375    1.985    0.496
       102 -10.9106     65.9794    113.2680   6.3729311510e+01   4.5498917346e+01    0.3312786    0.1905134  83.24  0.001192895    2.758    0.637
       103 -13.7756     45.4614     72.8240   6.2522444905e+01   5.9019283329e+01     1.372268    0.9436343  31.90  0.006624725    1.505    0.336
       104 -11.5647    137.5612    112.6810   4.1767540986e+01   3.2032045413e+01    0.4633358    0.2411753  40.51  0.001848609    1.989    0.497
       105 -12.4684     11.8901     24.6297   6.6697588501e+01   7.4377709795e+01    0.4180278     0.337408 -48.18 0.0004728769    1.117    0.105
       106 -13.4099     79.6233     59.4196   4.3026413949e+01   5.6176105873e+01     1.840658    0.7026554  47.44  0.006262269    2.664    0.625
       107  -9.9301    173.7240    112.1536   3.3706007918e+01   2.4587444821e+01    0.2858442    0.1812756  21.63   0.00123054    2.248    0.555
       108  -9.6324    210.8253    111.7985   2.7265786219e+01   1.7492404228e+01    0.1874004     0.107433  63.37 0.0008693748    2.547    0.607
       109 -13.0827     33.0374     65.8734   6.6812657394e+01   6.2343731923e+01     1.075133    0.5028343 -48.03  0.004424132    2.043    0.511
       110 -11.6489     21.4584     65.4476   7.2911964345e+01   6.3589012653e+01    0.2664807    0.2502438  86.15 0.0003364696    1.097    0.088
       111 -11.2893    196.7607    108.3104   2.8671705287e+01   2.0666651405e+01    0.5562859    0.3783221  83.26  0.002566985    2.573    0.611
       112 -10.7825    191.6061    103.3922   2.8347296501e+01   2.2477330610e+01    0.5334492    0.1574089 -42.82  0.001790213    3.237    0.691
       113 -13.2521      4.1870     55.0166   8.0767445863e+01   6.7406170473e+01    0.9328184       0.6421 -67.51  0.005149969    1.264    0.209
       114  -9.8071    234.1766    108.8339   2.3362719307e+01   1.3884667461e+01    0.1650317    0.1327689   2.69  0.001054011    1.348    0.258
       115 -11.9737    161.9015    106.6865   3.4714890442e+01   2.8043421587e+01    0.4077932    0.2525292 -48.96  0.001836118    1.667    0.400
       116 -11.9508    156.2602    104.4993   3.5345249621e+01   2.9663098787e+01    0.3919849    0.3234946  12.22  0.001994372    1.428    0.300
       117 -12.8507    155.3223     97.1865   3.3612625722e+01   3.1253069342e+01    0.9565893    0.6381058  58.65  0.004326976    1.653    0.395
       118 -12.7445     81.1764     49.3462   3.8403760838e+01   5.7893075238e+01    0.9359412    0.6529393  31.82  0.003567111    1.626    0.385
       119 -11.8315     75.9699     52.0251   4.1527781700e+01   5.8493223848e+01    0.3175571    0.2548887 -61.31 0.0003272797    1.379    0.275
       120 -12.3817     75.2603     41.8158   3.7405438757e+01   6.0640694724e+01    0.5432656    0.4220133  49.65   0.00209683    1.274    0.215
       121 -12.7853     81.5655     40.4769   3.4405182672e+01   5.9458139012e+01    0.6142434     0.361793  49.67   0.00146868    1.653    0.395
       122 -10.3800     30.8858     85.3941   7.2366751030e+01   5.7434060984e+01    0.3022268    0.1876742 -60.03 0.0008577805    1.472    0.321
       123 -11.5330    246.6845     83.0131   1.6336883710e+01   1.5261763944e+01    0.3787211     0.255866 -73.07  0.002210813    2.101    0.524
       124 -10.3135     83.2771     83.9704   5.0014777648e+01   4.9864906699e+01    0.2642299    0.2147233  43.25 0.0006462978    1.235    0.190
       125 -10.5190    250.7024     81.6683   1.5643476855e+01   1.4766087535e+01    0.3050298     0.149414 -30.01 0.0007262455    1.649    0.394
       126 -10.5356    104.8090     86.0576   4.3420151038e+01   4.4893015076e+01    0.4539731    0.2633827 -61.49  0.001577955    2.170    0.539
       127 -11.3959     85.5395     73.7731   4.5947411383e+01   5.1777625775e+01    0.6817532    0.5708706  78.69  0.002356976    1.374    0.272
       128 -10.2336    161.8416     77.3174   2.6755870941e+01   3.3352170904e+01    0.2297245    0.1830762 -80.86  0.001143056    1.460    0.315
       129 -10.4721    155.8254     76.6507   2.7727536320e+01   3.4882872269e+01    0.3325362    0.2643663  85.12  0.001225178    1.452    0.312
       130 -12.2586     72.7067     74.2447   5.0993407122e+01   5.4214599427e+01    0.7523195    0.5558015  53.45  0.002479347    1.442    0.307
       131 -10.2292    103.8921     75.8724   4.0480434874e+01   4.7318043465e+01    0.2368036    0.2165434  -5.88 0.0006333995    1.242    0.195
       132 -10.7593     78.6663     68.2515   4.6626776412e+01   5.4437430899e+01    0.5580328    0.1894551 -44.20  0.001064395    3.030    0.670
       133 -11.3180    145.4290     53.0557   2.2408146607e+01   4.1384970171e+01    0.6731754    0.4528587  14.85  0.002339558    2.421    0.587
       134 -13.8597    117.5292     62.8180   3.2087699516e+01   4.6712391281e+01     1.458077     1.000456  66.90  0.002361676    1.604    0.376
       135 -11.0856    103.9514     66.3184   3.7205797288e+01   4.9291181562e+01    0.3816473     0.285193  15.07 0.0006252599    1.871    0.465
       136 -10.7241    141.6252     61.2495   2.5859632808e+01   4.1001993928e+01     1.296486    0.3723338  46.97   0.00367055    4.102    0.756
       137 -11.3612    135.1585     72.2861   3.0845296558e+01   4.0635436152e+01    0.5073625    0.4034003  63.93  0.001075929    1.297    0.229
       138 -12.1315    143.8089     69.2987   2.7970670688e+01   3.9068892129e+01      1.05848    0.7396284  15.10  0.003834781    2.232    0.552
       139 -11.1508    154.7627     64.7341   2.4354918664e+01   3.7170865522e+01    0.7210968    0.3604009 -36.62    0.0029312    1.906    0.475
       140 -10.7630    151.8594     59.3635   2.3228214827e+01   3.8764307384e+01    0.3516978    0.2552345 -12.13 0.0008683716    1.763    0.433
       141 -10.8457    105.9825     71.1866   3.8271388590e+01   4.7823376845e+01    0.2768918    0.2206953 -46.54 0.0006478812    1.255    0.203
       142 -11.9074    215.1370     41.8999   9.8335701211e+00   2.6492016281e+01    0.3911158    0.2649727 -89.18 0.0007420607    1.648    0.393
       143 -11.0674    127.3181     58.8357   2.8236274780e+01   4.5003321416e+01    0.5749698    0.2890748  41.01  0.002116958    2.423    0.587
       144 -11.5403    100.5725     54.8739   3.4029268172e+01   5.2328850399e+01    0.6859223    0.5940108  35.87   0.00259453    1.220    0.181
       145  -9.9692    137.0081     57.9605   2.5749695767e+01   4.2715447614e+01    0.2414772    0.2219746 -78.47  0.001282123    1.074    0.069
       146 -10.5781    174.5938     55.7849   1.8350732440e+01   3.3767581133e+01    0.3867602    0.2137334 -48.39  0.001026648    1.742    0.426
       147 -11.9566    166.3555     65.3581   2.2464772674e+01   3.4267629995e+01    0.8315656     0.544456  44.75  0.003893577    1.726    0.421
       148 -10.0652    137.0745     53.0290   2.4065208052e+01   4.3512804311e+01    0.2792305    0.2308049  84.42 0.0008496046    1.259    0.206
       149 -10.0071    133.2725     52.9609   2.4847882862e+01   4.4492844322e+01    0.3032378     0.216527  80.85 0.0008488647    1.588    0.370
       150 -11.0580     90.4626     51.1002   3.5810543569e+01   5.5436806269e+01      0.25018    0.2232848  57.00 0.0002903583    1.112    0.100
       151 -11.0680    245.5446     50.2709   9.2363933293e+00   1.9537969148e+01    0.2350159    0.1733796 -61.84 0.0004549147    1.339    0.253
       152  -9.6571    250.5603     49.2534   8.6263996371e+00   1.8762966915e+01     0.288805    0.1310262 -38.47  0.001552861    1.628    0.386
       153 -11.3686    247.3735     42.8114   7.4433555692e+00   2.0080864548e+01    0.4374888    0.2254816 -45.92    0.0019369    1.538    0.350
       154 -11.1446    134.4903     41.5811   2.0576637255e+01   4.5950228499e+01    0.8525966    0.5770313 -45.73  0.002979568    1.456    0.313
       155 -11.9563    144.0668     45.1843   2.0024387601e+01   4.2937260997e+01     0.527234    0.3459082  26.61  0.001255653    2.237    0.553
       156 -12.6949    149.0765     40.5601   1.7588998787e+01   4.2313876876e+01    0.6332399    0.3642244 -46.83  0.002238518    1.692    0.409
       157 -10.3884     99.2316     47.7394   3.1625591040e+01   5.3958475635e+01    0.2864559    0.2088273 -23.33  0.001316437    1.585    0.369
       158 -12.4544    220.9799     38.6306   8.5130268603e+00   2.5672624615e+01    0.4756919     0.288172 -42.02 0.0004858064    1.336    0.252
       159 -10.3209    108.9524     55.9309   3.1954789335e+01   5.0095845629e+01    0.4576016    0.2668136 -50.75  0.001872352    1.854    0.461
       160 -10.6552    122.8256     43.3420   2.3683289221e+01   4.8716969394e+01    0.4722228    0.3205786  48.57  0.001380021    1.508    0.337
       161 -10.3008    105.5603     43.8971   2.8230833541e+01   5.3047934511e+01    0.3265332    0.2495595 -65.21   0.00155028    1.491    0.329
       162 -10.2328     99.9547     41.5649   2.8867098269e+01   5.4839611289e+01    0.3104208    0.2319883 -34.92  0.001495534    1.379    0.275
       163 -10.3604     93.9628     41.2724   3.0558650651e+01   5.6368199849e+01    0.2825733    0.2238859 -23.83 0.0008937452    1.387    0.279
       164  -9.8007    249.6607     36.7500   5.9511185283e+00   2.0356352652e+01    0.4518111   0.02442799 -40.02  0.001517454    4.278    0.766
       165 -11.6624     95.9670     90.4617   4.7557991891e+01   4.5772708061e+01    0.6705055    0.4585409  57.85  0.001868448    1.621    0.383
       166  -9.6896    114.0393     38.2136   2.3746190506e+01   5.1781556623e+01    0.2609259    0.1701749 -79.31  0.001076912    2.080    0.519
       167 -11.6320     96.5449     36.5790   2.7736225812e+01   5.6499603627e+01     0.256517    0.2350756  87.53 0.0009555457    1.126    0.112
       168 -10.9929     92.3933     33.7483   2.7726164469e+01   5.7978701385e+01    0.4062497    0.3397312  63.98  0.001041466    1.180    0.153
       169 -11.9309    122.6097     33.5945   1.9994845991e+01   5.0210850333e+01     0.345688    0.2301461 -51.82  0.000447029    1.566    0.362
       170 -10.7889    123.7402     28.8504   1.7909990460e+01   5.0553260900e+01     0.332304    0.2734023 -52.03 0.0009459459    1.215    0.177
       171 -10.4679    131.6269     33.6710   1.8236750685e+01   4.7822516734e+01     0.321123    0.1806148 -54.60 0.0008945923    1.965    0.491
       172 -10.1101    112.3210     32.7797   2.1948798745e+01   5.3027047679e+01    0.3521705    0.2586773  49.75  0.000947098    1.358    0.263
       173 -10.6727     75.0574     33.5697   3.3611466021e+01   6.2151186202e+01    0.3476018     0.269462  34.49  0.001754142    1.336    0.251
       174 -10.1854     80.1840     30.5627   3.0247684225e+01   6.1448063519e+01    0.3432823    0.1310929  50.84  0.001067191    2.453    0.592
       175 -11.3522     86.1757     28.8041   2.7371664200e+01   6.0269561867e+01    0.3943891    0.2660768  52.35  0.001149867    1.409    0.290
       176 -10.6251    169.4121     32.3593   1.2023286137e+01   3.8231087699e+01    0.4029594     0.229447  87.50   0.00180061    1.976    0.494
       177 -10.1687    163.3567     29.9912   1.2040784048e+01   4.0047530200e+01    0.4763257    0.1626921 -50.30  0.001605756    3.174    0.685
       178  -9.4414    152.4307     33.5404   1.4706451973e+01   4.2396658748e+01    0.1463079    0.1315356 -67.78 0.0004409729    1.030    0.029
       179  -9.8433    237.7334     30.6682   5.3743863366e+00   2.3256651674e+01    0.2418747     0.198514  89.48  0.001379303    1.353    0.261
       180  -9.9321    242.0378     29.7240   4.8809192448e+00   2.2542083323e+01    0.2331361    0.1351774 -44.70  0.001151731    1.325    0.245
       181 -10.2325    104.6416     29.0394   2.2228300398e+01   5.5554637032e+01     0.463406    0.2079665 -47.04  0.001218945    2.503    0.600
       182  -9.3684    115.0326     27.8371   1.9296364471e+01   5.2992939588e+01    0.2501917     0.140469  43.01 0.0007397688    1.989    0.497
       183  -9.7397    168.8634     26.7955   1.0367530268e+01   3.9045335326e+01    0.2026361     0.143306 -57.31 0.0005587425    1.322    0.244
       184 -11.1423     21.0839     25.1941   5.9558912718e+01   7.3362127813e+01    0.4699241    0.3198153  32.82  0.002553384    1.551    0.355
       185 -10.3147     19.9661     19.4547   5.7415950087e+01   7.4699837314e+01    0.2875141    0.2057222 -66.85  0.001003828    1.715    0.417
       186 -10.5547     84.9431    108.2368   5.5983536810e+01   4.3613378381e+01    0.2566454    0.1861477  -3.72  0.001075962    2.076    0.518
       187 -10.6811    147.3515     24.9511   1.2516795583e+01   4.4790663372e+01    0.4667181     0.259456  44.63  0.002003736    2.133    0.531
       188 -10.4178    112.8583     23.9148   1.8123654927e+01   5.4074143027e+01    0.3874649    0.3182674  33.97  0.001741196    1.353    0.261
       189 -10.8127    234.1707     24.2070   4.1140864958e+00   2.4657781167e+01     0.251575    0.1665652 -36.16 0.0009433737    1.238    0.193
       190  -9.3486    153.3055     25.2564   1.1802024795e+01   4.3200784116e+01    0.1369762    0.1053738  42.26 0.0001670083    1.514    0.339
       191 -11.2146    127.7838     24.7699   1.5562057435e+01   4.9995583677e+01    0.7333137    0.1997119  63.93 0.0008879902    3.217    0.689
       192  -9.7477    209.7128    105.5820   2.6012978063e+01   1.8644040663e+01    0.2334255    0.1410733 -49.19  0.001164131    1.761    0.432
       193  -9.7776    102.7071     23.3066   2.0166741519e+01   5.6825404830e+01    0.2102555    0.1753765 -32.70 0.0004938005    1.254    0.203
       194 -10.1586     98.4699     21.7191   2.0490794521e+01   5.8132368373e+01    0.3404594    0.3144664  63.66  0.001848843    1.025    0.024
       195  -9.8905    244.1396     18.4455   2.2350498115e+00   2.3351063838e+01    0.3329561    0.1584793 -50.48 0.0009801992    1.658    0.397
       196 -11.9102    242.6116     22.6804   3.2636660581e+00   2.3195046634e+01    0.3917491    0.2065539  82.72  0.001595256    2.167    0.539
       197 -10.9632    247.1470     22.6057   2.9933624010e+00   2.2354842807e+01    0.2021617    0.1779016 -34.35 0.0009271181    1.231    0.188
       198  -9.9117    119.4904     22.0432   1.6006680052e+01   5.2539496073e+01      0.20742     0.144607 -29.27 0.0003991647    1.498    0.332
       199  -8.9254    163.3336     20.6950   9.0751219906e+00   4.1146193811e+01    0.1528996   0.09181435 -61.54 0.0004296069    1.664    0.399
       200  -8.8890    151.2701     20.3276   1.0396658576e+01   4.4300578918e+01    0.1372324    0.1073212  32.46 0.0001594475    1.579    0.367
       201 -10.8191    130.1831     19.3274   1.3052282641e+01   4.9997557643e+01    0.2601733    0.2209867  72.48 0.0003767603    1.116    0.104
       202  -9.4640     14.5121     18.7334   6.1631518524e+01   7.5435821193e+01    0.3185717    0.1276717 -61.21  0.001304203    2.688    0.628
       203 -10.9228    138.6536     18.1206   1.1315067554e+01   4.7873077180e+01    0.3247578    0.2456556  46.82  0.001020156    1.445    0.308
       204 -10.2648     15.4806    106.1695   8.2064506071e+01   5.3129368935e+01    0.2114049    0.1249616 -78.23  0.001010972    1.528    0.345
       205 -10.3704    183.0385    103.5305   2.9856545043e+01   2.4186775057e+01    0.5029305    0.2020267 -49.39  0.001768126    3.051    0.672
       206 -11.4069    144.4844    103.1803   3.7639184832e+01   3.2480275570e+01    0.4162627    0.3547811 -14.17 0.0009496132    1.314    0.239
       207 -11.5468    140.8399     96.2962   3.6629685627e+01   3.4660886126e+01    0.4469826    0.3580813 -80.29 0.0007690322    1.541    0.351
       208 -11.9426    147.6262     83.6370   3.1479704917e+01   3.5548809611e+01     0.718259     0.431073 -45.66  0.002285887    1.635    0.388
       209  -9.7790    142.9913     79.4709   3.1271732097e+01   3.7417272995e+01    0.2132104    0.1494372  50.35 7.339703e-05    1.458    0.314
       210 -14.2424    131.2622     95.7215   3.8824512333e+01   3.6926386081e+01     1.601217     1.192233  26.91  0.007346592    1.614    0.380
       211 -11.2350     94.2771     15.9134   1.8785985922e+01   5.9928383074e+01    0.2762537    0.1982009  57.28  0.001301868    1.292    0.226
       212 -10.9050    136.6899     87.8226   3.5212900028e+01   3.7289313364e+01    0.5288369    0.2720935  53.00  0.001455957    2.009    0.502
       213 -12.3789    135.7704     81.4348   3.3535324078e+01   3.8753714382e+01     0.832895    0.6762652  82.35   0.00254736    1.421    0.296
       214 -12.0365    127.2210     90.0387   3.8236977458e+01   3.9014808451e+01    0.6550903    0.3790349  33.25  0.001922765    2.201    0.546
       215 -12.9027    124.4529     84.5653   3.7334508601e+01   4.0776995552e+01    0.8866865    0.6713793  -2.04   0.00233971    1.897    0.473
       216 -10.6294    109.5052    104.0593   4.7116730140e+01   3.9820330724e+01    0.2403502    0.1536465 -48.58  0.001026133    1.570    0.363
       217 -11.5655    226.2950     99.0504   2.2228741122e+01   1.6602812752e+01    0.6580757    0.1819813 -40.56   0.00246133    3.065    0.674
       218 -10.5663    165.1849    102.1077   3.2869015758e+01   2.8187078153e+01    0.2253817    0.1990727  -6.91 0.0007523182    1.218    0.179
       219 -12.4951     86.8816     98.4301   5.2841497790e+01   4.5674157946e+01    0.7188168    0.5328209   4.41  0.003117117    1.933    0.483
       220 -11.4569     81.1460     98.8088   5.4942374693e+01   4.6650335215e+01    0.3561551     0.259589  62.90  0.001170014    1.568    0.362
       221 -10.5075     96.3283    101.0867   5.0402263692e+01   4.3194489669e+01    0.2541833    0.1978093 -32.79 0.0008394875    1.459    0.314
       222 -10.7411    170.4418     97.7253   3.0702174640e+01   2.7843581722e+01    0.3620436    0.2596548 -51.44  0.001498434    1.440    0.306
       223 -12.0504     11.7604     97.5104   8.2679071644e+01   5.5716363795e+01    0.3642264    0.3326738 -18.52    0.0013235    1.255    0.203
       224 -11.6761     14.4492     92.7528   8.0967334329e+01   5.6823311331e+01    0.3562396    0.3241742   9.15  0.002134034    1.243    0.196
       225  -9.4413    244.6373     97.7581   1.9727673468e+01   1.3671703994e+01    0.1808922   0.08852904 -38.01 0.0009477133    1.642    0.391
       226 -11.0363     36.3498    248.6737   8.5465583562e+01   1.8780626435e+01    0.1968856    0.1321163 -71.81  0.001385437    1.867    0.465
       227 -11.2679    113.6392    246.4381   6.9350340491e+01   1.0508447493e+01     0.320412    0.2156322   0.51  0.001297178    1.843    0.457
       228 -12.3851    160.8616     37.9352   1.4910911321e+01   3.9661071240e+01    0.8295066    0.5974238  57.17  0.002760323    1.446    0.308
       229 -10.5051    180.7110    243.5822   5.6089965693e+01   2.8610194949e+00    0.1457303    0.1444742  67.60  0.001193329    1.766    0.434
       230  -9.7576    218.5098    239.5472   4.9091784885e+01  -8.6514887276e-01    0.1054162   0.07489707   6.56 0.0001221914    1.030    0.029
       231 -10.6269     88.3849    238.8037   7.3917745977e+01   1.4744556487e+01    0.1347164    0.1087685 -45.65 0.0002489814    1.602    0.376
       232  -9.9515     15.8318    238.4057   8.9323053990e+01   2.2505835655e+01    0.1423715   0.09209523  20.39 0.0004740297    1.633    0.388
       233  -9.7322    236.7005    145.9997   3.0635241045e+01   8.3963320598e+00    0.1678315    0.1247974 -21.38 0.0003668639    1.085    0.078
       234  -9.6708    184.5203    134.9869   3.6907188690e+01   1.8523999444e+01    0.2037117    0.1257744 -35.98  0.000476019    1.522    0.343
       235 -13.7467    242.4664     61.1636   1.1927294221e+01   1.8768006396e+01     1.405919     0.796756 -43.15  0.002354078    1.424    0.298
       236  -9.1377    202.9372    132.0000   3.2987104645e+01   1.5753321561e+01    0.1905529    0.0745018  45.93 0.0004674333    2.797    0.642
       237 -12.7458    198.6246     49.0159   1.3351159846e+01   2.9160345708e+01     1.218773     0.580036 -24.15   0.00196806    2.262    0.558
       238 -12.4124    209.8771     46.5576   1.1514424036e+01   2.7024363790e+01    0.9668676    0.5227364 -69.33  0.004475008    2.306    0.566
       239 -10.5590    160.9964    124.4988   3.9258089425e+01   2.4875975306e+01    0.2082206    0.1220879  22.05 0.0008104947    2.551    0.608
       240  -9.3653    152.7034    124.2827   4.1029002369e+01   2.6571231239e+01    0.1394827    0.1174947 -88.23 0.0001737771    1.542    0.351
       241 -11.7173    102.4263     96.2229   4.7133413518e+01   4.3095250590e+01    0.3506038     0.314164 -78.18 0.0005876326    1.177    0.151
       242 -11.5201     72.9921     97.0329   5.7447019771e+01   4.8544007603e+01     0.351587    0.2335716  52.15  0.001547093    1.602    0.376
       243 -12.7160     55.5281     94.0490   6.3526848444e+01   5.2092893575e+01    0.4454246    0.3992255  33.71  0.001388109    1.159    0.137
       244 -12.8371     62.1095     89.8548   5.9823342158e+01   5.2181669297e+01    0.9729148    0.3695371 -65.14  0.001907309    3.191    0.687
       245 -12.0119     57.9660     88.8995   6.1272003008e+01   5.3072750209e+01    0.4218457    0.3247578 -44.43  0.001344524    1.338    0.253
