#   1 NUMBER                 Running object number                                     
#   2 MAG_AUTO               Kron-like elliptical aperture magnitude                    [mag]
#   3 X_IMAGE                Object position along x                                    [pixel]
#   4 Y_IMAGE                Object position along y                                    [pixel]
#   5 X_WORLD                Barycenter position along world x axis                     [deg]
#   6 Y_WORLD                Barycenter position along world y axis                     [deg]
#   7 A_WORLD                Profile RMS along major axis (world units)                 [deg]
#   8 B_WORLD                Profile RMS along minor axis (world units)                 [deg]
#   9 THETA_WORLD            Position angle (CCW/world-x)                               [deg]
#  10 FWHM_WORLD             FWHM assuming a gaussian core                              [deg]
#  11 ELONGATION             A_IMAGE/B_IMAGE                                           
#  12 ELLIPTICITY            1 - B_IMAGE/A_IMAGE                                       
         1 -12.1426      2.2007     43.2470   1.3261623236e+02   6.5807369200e+01     1.555742     0.166899 -62.48  0.004089886    7.992    0.875
         2 -13.4912      3.9509     10.4676   1.2089990584e+02   7.1726145665e+01     1.658421    0.8340703 -45.11   0.01043136    1.497    0.332
         3 -13.6512    203.6851      9.1564   6.5965254978e+01   3.2336738400e+01      1.54558     1.054278  43.70  0.008033969    1.601    0.375
         4 -13.3320    189.7050     27.7106   7.3044028882e+01   3.3925177874e+01     1.341303     1.295423  21.94  0.006685717    1.090    0.082
         5 -10.3017     81.4369    248.6030   1.4126636402e+02   1.5964549438e+01    0.2262462    0.1511013  66.55 0.0009716707    1.221    0.181
         6 -11.6058    139.7200    248.8465   1.3168120127e+02   7.5407310157e+00    0.3625239     0.270866 -79.74  0.002554071    1.765    0.433
         7  -9.0644     74.4904    250.4640   1.4251685409e+02   1.6586901353e+01    0.1056236   0.07672525  62.28 0.0003171179    1.006    0.006
         8  -9.1453     67.2754    250.4707   1.4365340396e+02   1.7505106576e+01    0.1447382   0.07003691  53.56 0.0009324367    1.549    0.354
         9 -12.7292      2.4444     61.4982   1.3667966603e+02   6.2073639141e+01     2.245116    0.1632562 -65.41  0.001684553    8.543    0.883
        10 -12.8645      5.2668    244.6807   1.5265193433e+02   2.5272862526e+01     1.870048    0.6161593  45.92     0.012164    2.229    0.551
        11 -14.9771     16.2221    164.8455   1.4620304622e+02   3.8890945018e+01     5.402238     1.596197 -86.01   0.01947214    4.768    0.790
        12 -10.1426     98.8058    249.3843   1.3851814655e+02   1.3478259871e+01    0.1748024    0.1401551  58.57 0.0006812529    1.099    0.090
        13 -10.3586     83.0356    243.9500   1.4063136750e+02   1.6474931625e+01    0.3876148    0.1679489  67.26  0.001932167    2.941    0.660
        14 -10.2923    198.4635    244.9989   1.2132824255e+02  -1.1609879324e+00    0.1450616    0.1114735 -27.95  0.001031995    1.596    0.373
        15  -8.8173     74.4305    243.1756   1.4197118709e+02   1.7734595603e+01    0.1384131   0.08451632  85.67 0.0009340383    1.658    0.397
        16 -13.9221     48.4329    226.6969   1.4501128755e+02   2.3699332391e+01     1.150205    0.8061554 -71.54  0.008658957    1.534    0.348
        17 -14.0396      7.0349    209.9580   1.5080327531e+02   3.1002551257e+01     2.289378    0.5478237 -70.06  0.009786051    3.393    0.705
        18 -10.2891    249.4189    243.7138   1.1286593458e+02  -8.6918203767e+00    0.1816809   0.09790275 -30.63  0.001146793    2.159    0.537
        19  -9.9484    183.7760    238.2318   1.2287164455e+02   1.9870728244e+00    0.1663868    0.1177466  24.26  0.001078885    1.383    0.277
        20 -11.2875    141.1987    230.1960   1.2924638700e+02   9.9889167321e+00     0.435825    0.1263175  44.14  0.001828594    2.766    0.639
        21 -14.3745     55.7986    212.3535   1.4265075065e+02   2.5359769295e+01     7.037156    0.3245388  47.35   0.02115551    6.963    0.856
        22 -10.5677    173.2569    221.7811   1.2237808911e+02   5.9227156552e+00    0.3354389    0.2669205  81.89  0.002102918    1.786    0.440
        23  -9.6593     46.5392    248.7358   1.4674820255e+02   2.0280733810e+01    0.2376615    0.1049188  66.97  0.001191481    2.029    0.507
        24 -13.9590      3.6556    177.5684   1.4954290927e+02   3.7407606563e+01     5.541564    0.4615354 -76.27   0.01373592   10.998    0.909
        25 -12.5572     42.1144    234.1154   1.4653587361e+02   2.3168240185e+01    0.3381135    0.2283247 -60.72 0.0007766193    1.931    0.482
        26  -8.6335    152.4941    212.9807   1.2489471016e+02   1.0768646414e+01    0.1529067    0.1247346 -53.56 0.0003706726    1.452    0.312
        27 -10.2270     32.3473    206.9763   1.4635771963e+02   2.9037113000e+01    0.3759733    0.1144976  53.28  0.001867213    2.777    0.640
        28 -12.3182     24.7678    202.2768   1.4735739297e+02   3.0701558469e+01    0.4306833    0.1894198  61.23  0.001873639    1.980    0.495
        29  -9.9515    192.6338    194.2453   1.1437501196e+02   6.5323483190e+00    0.5286673    0.2731378 -61.09  0.001746663    5.666    0.824
        30 -11.5850     72.2777    191.3817   1.3757032067e+02   2.7208725889e+01    0.2378241    0.2061295 -69.99 0.0005027592    1.294    0.227
        31 -11.3824     66.8739    199.3561   1.3944250023e+02   2.6384602717e+01    0.2919042    0.2103233 -49.84   0.00113099    1.852    0.460
        32  -8.8832    104.4802    180.4915   1.2966168448e+02   2.4615445969e+01    0.1296081    0.1121597  71.46 7.466654e-05    1.032    0.031
        33 -13.1490     68.8461    176.4195   1.3655363854e+02   3.0666717810e+01    0.4551738    0.2630877 -45.85  0.001724776    2.336    0.572
        34 -10.8289     81.5160    178.5351   1.3418038207e+02   2.8488223049e+01    0.2215014    0.1962233  82.02  0.001493936    1.071    0.066
        35  -8.7593    171.7876    173.7562   1.1463012245e+02   1.3766814251e+01    0.1794896    0.1580132  73.84 0.0005208974    1.325    0.245
        36 -11.6763     88.4430    168.9111   1.3140325646e+02   2.9451225695e+01    0.5731388    0.5106985  72.69  0.003744401    1.052    0.050
        37  -8.8094    250.5300    171.5291   9.9793546125e+01  -7.3548256376e-01    0.1303718    0.1077344   5.36 -1.675749e-05    1.009    0.009
        38 -10.4026    192.4753    156.1959   1.0697745716e+02   1.2653131084e+01    0.4427447    0.3128987 -76.15  0.001565095    2.574    0.612
        39 -11.5814     32.9235    155.7168   1.4186218437e+02   3.9225608342e+01    0.3666295    0.1597017 -67.07  0.001937855    1.911    0.477
        40  -9.9661    236.2169    156.3958   9.9020310142e+01   3.9393579236e+00    0.1838925    0.1278045  53.92 0.0009557712    1.716    0.417
        41  -9.7889    100.2941    152.5997   1.2617727929e+02   3.1036917956e+01    0.2550346    0.2335737  87.53 0.0008039781    1.005    0.005
        42 -11.8714     89.0967    152.1583   1.2868760062e+02   3.2902131920e+01    0.2614171    0.2359254 -47.03 0.0005710377    1.271    0.213
        43 -12.7625     66.2034    143.1582   1.3264291856e+02   3.8126510610e+01     1.216004    0.6506931  82.70  0.002856599    2.951    0.661
        44 -10.2053    238.7673    247.4159   1.1511031068e+02  -7.5151504708e+00    0.1662923   0.07756609  32.07 0.0009613649    1.696    0.410
        45  -9.0997    103.1124    148.3456   1.2477210185e+02   3.1481830402e+01    0.2297046    0.1788014 -45.31  0.001266304    1.392    0.282
        46  -8.5117    192.0137    144.0079   1.0439082077e+02   1.4840286254e+01     0.173865    0.1584898 -20.23 0.0005137167    1.097    0.088
        47  -8.9462    181.6981    144.4079   1.0654543430e+02   1.6953449900e+01    0.2104649    0.1718442  86.34  0.000582566    1.659    0.397
        48 -11.6923     28.2232    138.9759   1.4107728479e+02   4.3298274044e+01    0.2783863    0.1861333  67.80 0.0009397863    1.489    0.328
        49 -10.4779     98.4792    135.0242   1.2337542052e+02   3.5141584265e+01    0.2756352    0.2253227 -38.30  0.000507918    1.375    0.273
        50  -9.5627    110.8445    137.6321   1.2089212258e+02   3.2456452118e+01    0.3351402    0.2124985 -32.20   0.00143964    2.143    0.533
        51  -9.4236    166.9762    130.9517   1.0652102244e+02   2.2605606266e+01    0.2295711    0.1839698 -85.92 0.0006053739    1.668    0.400
        52 -10.0251     40.4225    128.2134   1.3673424986e+02   4.4478813434e+01    0.1814653    0.1018983 -79.51 0.0009531524    1.709    0.415
        53  -8.3379    173.6883    137.2781   1.0657664177e+02   1.9965232253e+01    0.1424835    0.1182696  88.87  0.000284542    1.562    0.360
        54  -9.3439    107.8563    124.1961   1.1879309084e+02   3.5898081594e+01    0.1954094    0.1806317  83.17 0.0002827801    1.095    0.087
        55  -9.5445     70.0618    124.1397   1.2847904066e+02   4.1857161885e+01    0.1923905    0.1737449 -72.04 0.0004028353    1.036    0.034
        56  -9.1137    154.0466    119.9746   1.0670644283e+02   2.7550114675e+01    0.2362317    0.1861147 -89.44 0.0007948626    1.694    0.410
        57 -10.6128     53.2009    119.5001   1.3207001046e+02   4.5030319447e+01    0.2550673    0.1613744 -63.90  0.001413655    1.354    0.262
        58  -9.2511    203.2437    111.5669   9.4414521432e+01   1.7966358291e+01    0.2107452     0.135937  38.42 0.0006158517    1.627    0.385
        59 -10.3866    168.0845    113.2563   1.0190102670e+02   2.5726385846e+01    0.3462856    0.2917213 -75.62 0.0008661642    1.449    0.310
        60  -9.4775     32.7242     92.1543   1.3287514852e+02   5.3285255447e+01    0.1846998    0.1597785  66.99 0.0005570933    1.334    0.250
        61  -9.2723    155.5266     75.5434   9.4050908244e+01   3.5613868389e+01    0.1516126    0.1487844  -9.54 0.0001459306    1.017    0.016
        62  -9.1304     17.7249     66.8942   1.3249557203e+02   5.9983880286e+01    0.1631885    0.1266774 -60.44 0.0004212444    1.075    0.069
        63  -9.4221     22.2764     58.1324   1.2877756495e+02   6.1470845746e+01    0.2365986    0.1409812  38.75  0.001117618    2.156    0.536
        64 -11.4468      9.8551     54.1771   1.3237734686e+02   6.3159526149e+01     0.351273    0.2163616  36.01 0.0008480844    2.113    0.527
        65  -9.8355    162.0128    249.1905   1.2798083661e+02   4.0468162777e+00     0.187375    0.1072861  58.41 0.0005558709    1.969    0.492
        66 -10.5795    121.6013    249.6087   1.3478479670e+02   1.0161130160e+01    0.2847674   0.07554978  46.19  0.001253389    2.851    0.649
        67 -10.8551    102.6689    247.9996   1.3776076268e+02   1.3141771701e+01    0.2212066    0.1712204  44.05  0.000815195    1.279    0.218
