#   1 NUMBER                 Running object number                                     
#   2 MAG_AUTO               Kron-like elliptical aperture magnitude                    [mag]
#   3 X_IMAGE                Object position along x                                    [pixel]
#   4 Y_IMAGE                Object position along y                                    [pixel]
#   5 X_WORLD                Barycenter position along world x axis                     [deg]
#   6 Y_WORLD                Barycenter position along world y axis                     [deg]
#   7 A_WORLD                Profile RMS along major axis (world units)                 [deg]
#   8 B_WORLD                Profile RMS along minor axis (world units)                 [deg]
#   9 THETA_WORLD            Position angle (CCW/world-x)                               [deg]
#  10 FWHM_WORLD             FWHM assuming a gaussian core                              [deg]
#  11 ELONGATION             A_IMAGE/B_IMAGE                                           
#  12 ELLIPTICITY            1 - B_IMAGE/A_IMAGE                                       
         1  -8.6137    102.9926      3.7405   5.9125520359e+00   5.7887291876e+01    0.1928732    0.1875394  62.01 0.0003007845    1.164    0.141
         2  -8.0089    221.0726      2.3089   3.5318101341e+02   2.9683951433e+01    0.1678651    0.1442496 -43.60 0.0005710246    1.353    0.261
         3  -9.2369    243.7991    247.6028   3.7418140796e+01  -8.0760925902e+00     0.134977   0.08258702  28.00 0.0009507778    1.700    0.412
         4  -8.8529    248.8808    250.1035   3.6973598574e+01  -8.8396618027e+00    0.2473056    0.1073854  19.50  0.001501082    2.098    0.523
         5  -8.1195     29.0532    249.8414   8.1586971317e+01   1.7584167506e+01    0.1874623    0.1477153  72.09 0.0003903016    1.238    0.192
         6  -8.2565     22.0381    247.5172   8.2976303077e+01   1.8752054079e+01    0.1800257   0.09281877  32.90 0.0009643789    1.571    0.363
         7  -8.7380    248.8576    242.3659   3.5849263231e+01  -7.9629686787e+00    0.1457855   0.07600896  13.83 0.0007196197    1.720    0.419
         8  -9.2817     13.5085    241.0253   8.4533365888e+01   2.0859397612e+01    0.2596388    0.1475131 -77.58  0.001563011    1.912    0.477
         9 -10.4121      8.9097    238.6414   8.5430524633e+01   2.1767563856e+01    0.3506277    0.1783299  80.96  0.002001108    1.905    0.475
        10  -8.5603    239.2361    238.0167   3.6740723786e+01  -6.4995362189e+00    0.1365888    0.0744153 -29.80 0.0008673773    1.635    0.388
        11  -8.2786    250.5067    237.5259   3.4872319358e+01  -7.5623124304e+00    0.1056887   0.07613356  -5.54 -3.730566e-05    1.052    0.050
        12  -7.4962     36.9567    232.4544   7.8904819157e+01   2.0169056965e+01     0.193019   0.05874617  46.41  0.000807825    2.453    0.592
        13 -10.5795      2.5401    228.2402   8.6456942061e+01   2.4453142623e+01     0.507475     0.246034  84.63  0.002796592    1.974    0.493
        14 -12.0984     10.1345    207.7492   8.3915832763e+01   2.8183259539e+01     1.421596    0.6780241  37.89  0.006909749    1.698    0.411
        15 -10.9760      7.0229    215.8829   8.4998661212e+01   2.6670205516e+01    0.7855263    0.3217747  27.66  0.003853691    2.189    0.543
        16  -9.9882     12.5426    200.3217   8.2967995598e+01   2.9650365396e+01    0.4084872    0.1823816  81.93   0.00167667    2.261    0.558
        17  -9.1795     27.1179    223.4511   8.0667214356e+01   2.3102920248e+01    0.4997235    0.0896113  45.88  0.001788967    3.493    0.714
        18  -9.7802     82.4328    220.1690   6.7018880667e+01   1.7094801136e+01    0.2770313    0.2285897 -43.38 0.0005555239    1.477    0.323
        19  -8.3127     88.7489    219.0210   6.5344945864e+01   1.6459470078e+01    0.2580172    0.1789225  23.12  0.000548579    1.396    0.284
        20  -7.7374    174.3536    208.6816   4.4086319472e+01   5.7365879510e+00    0.1634092    0.1127703 -29.05  0.000664215    1.471    0.320
        21  -7.3792     56.0000    216.0362   7.3158736220e+01   2.1424521539e+01    0.1984589    0.0748495 -71.28 0.0002203185    2.967    0.663
        22  -9.0346     47.6231    208.2079   7.4607812781e+01   2.4173351333e+01    0.1752842    0.1626853   1.01   0.00110195    1.323    0.244
        23 -10.0723    124.0050    205.9999   5.5023223443e+01   1.3901613790e+01    0.1985554    0.1728013  27.53  0.001160033    1.001    0.001
        24  -9.5888      1.6017    218.1303   8.6327875160e+01   2.6659209187e+01    0.3854975    0.1735521 -88.86  0.001519523    2.147    0.534
        25  -8.9379     26.7608    196.8519   7.9131764851e+01   2.9093382006e+01    0.2067885    0.1964364  40.08 0.0003755168    1.202    0.168
        26 -11.5766     10.3047    158.4689   8.1109744882e+01   4.0025424465e+01     1.857735    0.4987142  80.27  0.004182457    8.392    0.881
        27 -11.9253     17.5328    174.4065   8.0103333016e+01   3.5406989583e+01     1.141367    0.7210374  56.99  0.006072882    1.424    0.298
        28  -9.3713     34.4327    164.3215   7.4298631328e+01   3.6312326659e+01    0.3204937    0.2587519 -10.36 0.0006617553    1.563    0.360
        29  -7.4687     40.5718    174.4837   7.3483435673e+01   3.3056056998e+01    0.1378286    0.1268196  67.46 0.0002078497    1.048    0.046
        30  -9.3104     42.8720    159.3869   7.1171556257e+01   3.6651868152e+01    0.2686659    0.2510119  27.44 0.0004540122    1.151    0.132
        31  -8.4674    102.0003    177.9319   5.6374301190e+01   2.3520189716e+01    0.3417917    0.2426726  -9.52 0.0008611052    1.997    0.499
        32  -7.4617     82.5970    158.4328   5.8759605483e+01   3.1401721442e+01    0.1478641    0.1433535  42.42 0.0001349783    1.053    0.050
        33  -8.7282     57.0608    151.7701   6.5684747395e+01   3.6872091625e+01    0.2495587    0.2118182 -68.35 0.0003738173    1.189    0.159
        34  -8.4638     25.4331    149.9502   7.5680488407e+01   4.0942096041e+01     0.303023    0.1971724  17.71 0.0006139562    1.696    0.410
        35  -9.1004     65.4991    147.5027   6.2310499205e+01   3.6813081400e+01    0.3555591    0.2777505  89.49 0.0008981936    1.374    0.272
        36 -10.4823     68.5817    144.6059   6.0830789399e+01   3.7115194027e+01    0.7343742    0.4880162  65.54  0.002524065    1.756    0.431
        37 -10.8280     40.9055    147.0961   7.0309934912e+01   4.0097483176e+01    0.5160832    0.3311464 -12.43  0.001640121    2.267    0.559
        38 -12.1715      6.4888    179.9917   8.3494105639e+01   3.4969500519e+01     1.125044    0.7621912  72.48  0.004231343    1.296    0.228
        39  -7.9667     18.5094    141.4706   7.7119718815e+01   4.3778416214e+01    0.1373111    0.1254131  86.29 0.0004450322    1.021    0.021
        40  -7.4114     24.4858    140.4226   7.5009142819e+01   4.3537685401e+01    0.1383007    0.1281301  81.04 7.503323e-05    1.016    0.016
        41 -10.4398     13.6666    135.5041   7.8188846748e+01   4.5729362255e+01    0.2613992    0.2497023  28.98 0.0002153281    1.153    0.133
        42  -9.7981     72.0398    133.5781   5.7702337232e+01   3.9459489407e+01    0.2939216    0.2720195   3.13 0.0004128267    1.185    0.156
        43  -7.5170    162.8003    129.8926   3.1290411809e+01   2.2742053528e+01    0.1906412    0.1699179 -79.19  0.000242208    1.283    0.220
        44  -7.4397    175.9488    129.1410   2.8345998375e+01   2.0234996189e+01    0.1873578    0.1605918 -12.90  0.001003861    1.268    0.211
        45  -7.7843     87.6289    123.0155   5.0292736215e+01   3.9526492942e+01    0.2140661    0.1973549 -59.34 0.0004043219    1.109    0.098
        46  -7.3734     96.7331    119.9745   4.6632986695e+01   3.8578180690e+01    0.1896544    0.1391049 -53.00 0.0002702164    1.398    0.285
        47  -7.2148    101.0132    117.1880   4.4609302977e+01   3.8418664224e+01    0.2054121     0.120131  39.21 -0.0006383859    1.665    0.399
        48  -8.2617     90.9286    115.0720   4.7350922099e+01   4.0892997412e+01    0.2240824    0.2201129  32.57  0.000294641    1.034    0.033
        49  -7.7506     60.9719    107.9978   5.6390380102e+01   4.7814082489e+01    0.1761375    0.1720575 -69.36 0.0009556386    1.021    0.020
        50  -9.4558     39.6555    106.9285   6.4555432993e+01   5.0912019864e+01    0.4047391    0.2490176  79.06  0.001560299    2.168    0.539
        51  -8.6720     65.9524     96.4664   5.1696403321e+01   4.9947201919e+01    0.2651108     0.218619 -55.03 0.0001084217    1.220    0.180
        52  -8.0207    117.9816     84.5110   3.0638191082e+01   4.2097987966e+01    0.2192283    0.2034886 -48.44 0.0001463746    1.119    0.106
        53  -7.7225      7.6745     83.6851   7.4434714258e+01   5.9632583134e+01    0.1457335   0.08426721 -40.51 0.0002344818    1.668    0.400
        54  -7.2582     66.9722     80.0695   4.6730994157e+01   5.3705770652e+01    0.1715069    0.1681661 -19.93            0    1.030    0.029
        55  -8.5405    239.2150     74.1342   6.7047360700e+00   1.7181479017e+01    0.1727287    0.1447699 -40.21 0.0004417336    1.162    0.139
        56  -8.3479    158.0219     71.2358   1.7435763702e+01   3.4983663902e+01    0.2281013    0.1985823 -48.25 0.0003103066    1.152    0.132
        57  -8.3770    224.2075     65.6078   6.4906402544e+00   2.1222180030e+01    0.1604944    0.1139632  55.81 0.0005499651    1.657    0.396
        58 -11.6526    243.2536     50.9257   1.6204141128e+00   1.9617017278e+01    0.7671292    0.6486725  63.60  0.003939617    1.477    0.323
        59  -8.3033    199.6600     45.7326   4.6707867993e+00   2.9142619490e+01    0.1936338    0.1808475 -65.00 0.0004515068    1.175    0.149
        60  -7.8264     84.0012     31.4615   2.2352769297e+01   5.9414092991e+01    0.1942303    0.1861327  -8.88 8.296607e-05    1.144    0.126
        61  -7.3911     99.6327     21.8483   1.3893194904e+01   5.6890574768e+01    0.1865248    0.1242894 -44.30 0.0004808685    1.692    0.409
        62  -8.2321    105.1200     19.9844   1.1845599149e+01   5.5733705497e+01    0.2110287    0.1805579  61.55 0.0004021288    1.029    0.028
        63  -8.6625     89.3127     19.7398   1.5765259093e+01   5.9667085864e+01     0.237856    0.2080154  42.59 0.0001795753    1.098    0.089
        64  -9.4907      5.5557    249.1179   8.6476419017e+01   2.0042522313e+01    0.4090603    0.1623478  21.87  0.001989714    2.765    0.638
