#   1 NUMBER                 Running object number                                     
#   2 MAG_AUTO               Kron-like elliptical aperture magnitude                    [mag]
#   3 X_IMAGE                Object position along x                                    [pixel]
#   4 Y_IMAGE                Object position along y                                    [pixel]
#   5 X_WORLD                Barycenter position along world x axis                     [deg]
#   6 Y_WORLD                Barycenter position along world y axis                     [deg]
#   7 A_WORLD                Profile RMS along major axis (world units)                 [deg]
#   8 B_WORLD                Profile RMS along minor axis (world units)                 [deg]
#   9 THETA_WORLD            Position angle (CCW/world-x)                               [deg]
#  10 FWHM_WORLD             FWHM assuming a gaussian core                              [deg]
#  11 ELONGATION             A_IMAGE/B_IMAGE                                           
#  12 ELLIPTICITY            1 - B_IMAGE/A_IMAGE                                       
         1 -14.5958    147.5653     60.9449   8.9810338659e+01   4.0348904982e+01      1.48416     1.250249  -7.13  0.003851842    1.301    0.232
         2 -14.7471    158.4126     46.1419   8.2417894570e+01   3.9809902668e+01     1.406835     1.065847 -30.90  0.003684063    1.345    0.256
         3 -14.7475    170.4804     14.2008   6.9451586116e+01   4.0431202815e+01     1.333898     1.138029  -0.68  0.004204991    1.314    0.239
         4 -13.8302    186.5867     12.1491   6.6889334842e+01   3.6276808431e+01     1.263487     0.627234 -70.04  0.004906166    2.566    0.610
         5 -13.0438    197.8452      6.1434   6.3968607904e+01   3.3891186698e+01    0.6132475    0.3061481 -45.96  0.002742129    1.903    0.475
         6 -11.5584     13.2940    239.9739   1.5237852413e+02   2.4997306262e+01    0.1298659    0.1017759  57.46 0.0005911395    1.186    0.157
         7 -19.9493     92.2302    225.9046   1.3625966157e+02   1.8746034061e+01     8.199573     5.644672  43.50   0.05606001    1.086    0.079
         8 -11.0731    242.1072    184.6691   1.0109942689e+02   2.3068252876e+00    0.1670327    0.1180381  17.09 0.0004262191    1.116    0.104
         9 -19.1388     76.4438     92.3071   1.2163466716e+02   4.9136762659e+01     18.88414    0.9171482 -57.07   0.02522575   18.742    0.947
        10 -12.4461    187.9913    174.7136   1.0911294015e+02   1.2099159516e+01    0.3857968    0.2194515 -47.13  0.001892134    2.416    0.586
        11 -11.4850    218.3407    220.5769   1.1100846020e+02   1.7478113771e+00    0.2737397    0.1580868 -38.67  0.001681283    2.435    0.589
        12 -12.4896    230.5019    167.5431   9.9883416646e+01   6.0340301730e+00    0.3611475    0.2018173 -40.73  0.001879785    2.337    0.572
        13 -11.7361    190.4947    157.8900   1.0541471743e+02   1.4160295669e+01    0.4693451    0.3146369  13.07  0.002125604    1.573    0.364
        14 -10.7485    192.1902    153.0324   1.0409707760e+02   1.4588758818e+01      0.23899    0.2093856 -50.93  0.001401952    1.550    0.355
        15 -14.1557    161.5868    153.7985   1.1078607901e+02   2.0183498333e+01    0.7950691    0.5795668  56.85  0.004049994    1.674    0.403
        16 -11.1466     18.0582    151.5431   1.4827547064e+02   4.1381414309e+01    0.4937886    0.1636934 -73.49  0.002228173    2.726    0.633
        17 -12.8332    173.6965    148.5617   1.0704101077e+02   1.8780977380e+01    0.4080856    0.3776497  35.07  0.001407736    1.180    0.153
        18 -10.7540    152.0603    250.5687   1.2689580983e+02   7.3641125373e+00    0.1604672   0.07796854  33.52 0.0001298285    1.433    0.302
        19 -10.4703      8.0119    148.8344   1.5080180160e+02   4.2708270280e+01    0.2067807    0.1274153 -68.25  0.001256189    1.653    0.395
        20 -11.8383    173.4930    139.5211   1.0517239608e+02   2.0350793752e+01    0.2317351      0.20057  80.13 0.0006614127    1.644    0.392
        21 -11.3524    152.2896    237.5697   1.2543356392e+02   8.9361320053e+00    0.2810978    0.1490682  23.78 0.0006086006    1.732    0.423
        22  -9.4773     13.3146    135.2592   1.4870691909e+02   4.5409747035e+01    0.1096808   0.08654013 -46.56 0.0003394595    1.535    0.349
        23 -10.4663     24.3104    216.1350   1.4960720309e+02   2.7979853946e+01    0.1305467   0.09563824  57.97 0.0003152111    1.055    0.052
        24 -13.0270    160.5918    128.1806   1.0555933755e+02   2.4981933504e+01    0.4586009    0.4166141 -45.73  0.001633798    1.251    0.200
        25 -13.1173     11.3975    205.9917   1.5190478525e+02   3.0925346764e+01    0.4032912    0.2366338  22.04  0.001959453    1.904    0.475
        26 -11.4375    141.0410    120.6950   1.0862100500e+02   3.0496650008e+01     0.389132    0.2184106  60.95  0.001425147    2.661    0.624
        27 -11.9585     28.1872    235.5595   1.4951755250e+02   2.4346999648e+01    0.1720555    0.1225624  78.92     0.001373    1.397    0.284
        28 -13.4017    138.3445    199.5057   1.2355194433e+02   1.6445955720e+01      0.72865    0.3728288  37.65  0.001854726    1.546    0.353
        29 -10.8014    167.6632    112.6559   1.0019220183e+02   2.6295485780e+01    0.2910657     0.225358 -87.06  0.001083405    2.045    0.511
        30 -10.9308      2.8557    112.6561   1.5067768672e+02   5.1313660163e+01     0.219974    0.1398792 -72.32  0.001209445    1.414    0.293
        31 -10.7728    205.4476    110.1593   9.1914851521e+01   1.8536421518e+01    0.3040166    0.1915856  37.30 0.0009307261    1.578    0.366
        32 -12.1441     30.1023    104.8079   1.4084176087e+02   5.1486891305e+01     0.421295     0.236616  -0.37 0.0009260764    2.536    0.606
        33 -11.4469     21.6737    233.4940   1.5067407284e+02   2.5287927568e+01     0.123928   0.08874484  55.32 0.0003908098    1.060    0.057
        34 -11.5153    125.1301     95.2994   1.0646359233e+02   3.9146424032e+01    0.2938271    0.1887051  39.45  0.001261257    1.520    0.342
        35 -11.6717     42.5044     94.3540   1.3481204260e+02   5.2986820406e+01    0.2941818    0.1871912 -63.63  0.001500594    1.439    0.305
        36 -12.5388     51.2388     91.7948   1.3100476469e+02   5.2694588554e+01    0.3515702    0.2914415  14.09  0.000777249    1.355    0.262
        37 -11.5444      3.4704     89.7847   1.4913559510e+02   5.6798589303e+01    0.3606558    0.1895293 -14.96  0.001829318    2.537    0.606
        38 -10.2036    104.7582     82.0359   1.0892395626e+02   4.6352909143e+01     0.206232    0.1974845 -31.95 0.0001932581    1.060    0.057
        39 -10.9389    142.8864     81.0240   9.7416535113e+01   3.7916943251e+01    0.2433743    0.2337053  10.96 0.0005602591    1.032    0.031
        40 -11.0798    155.9208    247.3490   1.2583575589e+02   7.2351348005e+00    0.1578808    0.1255418  26.49 0.0003314615    1.155    0.134
        41 -10.5746     29.5611    200.8280   1.4790957519e+02   3.0265882283e+01    0.1516021    0.1299616  39.39 0.0008836919    1.264    0.209
        42 -13.3122    162.3542     37.2951   7.8635166727e+01   3.9972115536e+01    0.5147824    0.4661433 -23.60 0.0009061436    1.142    0.124
        43  -9.9124     21.5196     60.0388   1.3784470575e+02   6.3290624743e+01    0.1885369    0.1146384 -70.47 -1.000832e-05    1.445    0.308
        44 -11.2732     13.3432     59.7825   1.4179773573e+02   6.3795008772e+01    0.2066482    0.1747416  79.41 0.0004572736    1.217    0.178
        45 -11.1073      4.9702    232.5279   1.5373419706e+02   2.6896260907e+01    0.1255057    0.0777426  34.42 0.0004931897    1.418    0.295
        46 -11.9598    150.1362     36.0570   8.0510103461e+01   4.3465095278e+01    0.6006985    0.3265161  81.35   0.00215015    2.605    0.616
        47 -11.1414    162.6243    245.3606   1.2437100443e+02   6.5719238465e+00    0.2529252    0.1379127  33.23 0.0005805208    1.288    0.224
        48 -11.1628     20.3881    195.8613   1.4968836016e+02   3.2041481547e+01    0.1471847    0.1356485  41.02 0.0005985209    1.324    0.245
