#   1 NUMBER                 Running object number                                     
#   2 MAG_AUTO               Kron-like elliptical aperture magnitude                    [mag]
#   3 X_IMAGE                Object position along x                                    [pixel]
#   4 Y_IMAGE                Object position along y                                    [pixel]
#   5 X_WORLD                Barycenter position along world x axis                     [deg]
#   6 Y_WORLD                Barycenter position along world y axis                     [deg]
#   7 A_WORLD                Profile RMS along major axis (world units)                 [deg]
#   8 B_WORLD                Profile RMS along minor axis (world units)                 [deg]
#   9 THETA_WORLD            Position angle (CCW/world-x)                               [deg]
#  10 FWHM_WORLD             FWHM assuming a gaussian core                              [deg]
#  11 ELONGATION             A_IMAGE/B_IMAGE                                           
#  12 ELLIPTICITY            1 - B_IMAGE/A_IMAGE                                       
         1  -8.9957     12.9107     29.9998   6.3441526974e+01   6.7981555982e+01    0.3019372    0.1510023 -69.26  0.001338321    2.315    0.568
         2  -8.4138     55.8297      9.7639   3.5137309202e+01   6.6939537754e+01    0.2035255    0.1545594 -50.88   0.00072431    1.889    0.471
         3  -8.0532     90.8497      8.8052   2.2036221116e+01   6.0695580721e+01    0.1710812     0.162686 -52.49 0.0005025052    1.361    0.265
         4  -8.3863      6.1889      8.4104   5.9176616397e+01   7.2474426500e+01     0.130167   0.09876879  26.58 0.0007577537    1.716    0.417
         5  -7.4467    101.3670      7.7292   1.8511025747e+01   5.8543777779e+01    0.1292989     0.108873 -72.84 0.0005316882    1.665    0.399
         6  -8.0312     70.4063      6.1781   2.7586529975e+01   6.4984502981e+01    0.1755781    0.1100689 -34.24 0.0009024513    1.653    0.395
         7  -8.4911     33.7233      5.1966   4.2959834619e+01   7.0580245914e+01    0.2654046    0.1397439 -49.24  0.001360014    2.411    0.585
         8  -8.5600     79.0872      3.5819   2.3249394828e+01   6.3658147917e+01    0.2545567    0.1627741 -36.70  0.001348652    1.761    0.432
         9  -8.1802     98.1895      3.6080   1.7494452282e+01   5.9675725267e+01    0.1964483    0.1086411  44.04 0.0006032139    1.618    0.382
        10  -7.9564    114.9798      1.8234   1.2506944258e+01   5.5972013018e+01      0.21515    0.1572472 -78.16 0.0008392588    1.966    0.491
        11  -8.1290     62.6933      1.4932   2.8068425732e+01   6.6901939269e+01    0.1490532    0.1211391  49.17 0.0009219382    1.546    0.353
        12  -7.7494     39.4762      1.4710   3.8153730194e+01   7.0414230854e+01    0.1214371   0.09523418 -11.23 1.277248e-05    1.019    0.019
        13  -9.2849     21.8495    245.7975   8.5534171061e+01   2.3547092853e+01     0.209434    0.1668912 -48.82  0.001503457    2.405    0.584
        14  -9.3751    246.6451    228.2369   4.5729823482e+01  -6.4711214726e+00    0.3775913     0.179875 -22.61  0.002165834    2.341    0.573
        15  -8.5804    249.1277    249.1569   4.8515616656e+01  -8.7352487745e+00    0.2636662     0.146605  11.86    0.0017043    1.744    0.427
        16  -9.5529    248.6561    241.7884   4.7500310645e+01  -8.0241138802e+00    0.3154351    0.2124843 -30.50  0.001510845    1.954    0.488
        17  -8.8782    248.0051    234.5086   4.6493892389e+01  -7.2663812080e+00    0.2477299    0.1732332 -34.32  0.001530143    2.010    0.503
        18  -9.0427    233.1391    247.9232   5.0882094955e+01  -6.3500480999e+00    0.2323887    0.2050246 -61.75  0.001570781    2.282    0.562
        19  -9.4997    211.3021    247.5101   5.4392307818e+01  -3.0635335757e+00    0.3394666    0.1927456 -48.67   0.00169653    3.123    0.680
        20  -9.0640    132.7412    248.2458   6.7766852136e+01   8.9504964759e+00    0.3378315    0.1836229  69.17  0.001347732    2.787    0.641
        21  -8.5576     67.5178    244.9611   7.8369753784e+01   1.8494378907e+01    0.1339873   0.09059993 -83.51  0.000770602    1.554    0.356
        22  -8.7328    169.1725    243.2695   6.0970564414e+01   3.9663878724e+00    0.2103268    0.1573853  63.91 0.0009086916    1.627    0.386
        23  -8.5003    235.3213    243.0963   4.9833201792e+01  -6.2183478408e+00    0.2070552    0.1106124  31.54   0.00095476    1.379    0.275
        24  -8.5556    201.8588    242.6647   5.5311792171e+01  -1.1018555435e+00    0.1727906    0.1492725 -62.57 0.0008295769    1.910    0.476
        25  -9.7087     77.6754    241.9901   7.6498353276e+01   1.7653260719e+01    0.2784839    0.1254262 -76.60  0.001525748    2.685    0.628
        26  -8.1619      9.4785    242.9878   8.7260481227e+01   2.5204364173e+01    0.1404152   0.04696286  72.04 0.0008102238    2.608    0.617
        27  -9.1567    194.3844    240.2315   5.6251602139e+01   3.4086298970e-01    0.2581564    0.1900036 -63.74  0.001402632    2.478    0.596
        28  -9.4536    183.0779    240.0733   5.8171138333e+01   2.1513488486e+00    0.3542643     0.210979  59.02  0.001995683    2.251    0.556
        29  -9.6213    160.0918    240.1379   6.2164757939e+01   5.7972494431e+00    0.2982218    0.2108814  88.50  0.001616817    2.420    0.587
        30  -7.8519    153.4991    241.9934   6.3528368057e+01   6.5944032043e+00    0.1373841   0.09383912  84.70 0.0008094804    2.451    0.592
        31  -8.7335    147.3055    240.6362   6.4449954033e+01   7.7440678886e+00    0.2983959    0.1709179  75.74  0.001381652    3.850    0.740
        32  -8.1897     88.3440    242.2159   7.4735346748e+01   1.6198927352e+01     0.136602   0.08724836  88.32 0.0009080133    1.719    0.418
        33  -9.1301    241.6041    237.9572   4.8052722148e+01  -6.6555843368e+00    0.4375243    0.2005662  -3.23  0.001904574    4.225    0.763
        34  -9.5345    120.1742    245.1507   6.9601412467e+01   1.1249537301e+01    0.2989696    0.1776403  74.29   0.00171198    2.211    0.548
        35  -9.3351    135.5540    238.7308   6.6291115660e+01   9.8323084596e+00    0.2126351    0.1393003  65.33 0.0009944654    1.665    0.400
        36  -8.5422     94.3526    249.5335   7.4314302838e+01   1.4292371287e+01    0.2748732   0.09177925  58.48  0.001206701    3.553    0.719
        37  -7.9975      3.4716    240.0009   8.8040956512e+01   2.6235821972e+01    0.1372567   0.04559177  71.24 0.0008085626    2.487    0.598
        38  -9.2307    230.7876    236.3369   4.9574335257e+01  -4.8901519709e+00     0.291604    0.2255584 -11.11  0.001866847    1.425    0.298
        39  -8.3931    209.1337    238.1937   5.3462232617e+01  -1.7514746426e+00    0.1441772    0.1201039  43.15 0.0005177186    1.358    0.264
        40  -8.0244     52.6610    238.3259   8.0360202557e+01   2.1340574047e+01    0.1130758   0.05349979  63.26 0.0007051466    1.727    0.421
        41  -8.8800    216.8896    235.8158   5.1812071112e+01  -2.7060763453e+00    0.1980293    0.1393634  41.31 0.0006933606    1.309    0.236
        42  -9.3738    213.6502    231.6429   5.1747478337e+01  -1.7482295176e+00    0.2927713    0.2276829  67.67  0.001225855    2.229    0.551
        43  -9.1047    203.1412    234.4547   5.3952017746e+01  -3.9277353680e-01    0.2547348    0.1935429 -62.07   0.00117863    2.394    0.582
        44  -9.8303    175.6092    233.1034   5.8558877151e+01   4.2089508042e+00    0.3901676    0.2418688 -59.95  0.002251394    2.682    0.627
        45  -7.9973    170.1952    235.2446   5.9790421833e+01   4.8122039643e+00    0.1493599    0.1194113  58.68 0.0005330976    1.382    0.276
        46  -8.1926    153.3037    235.6487   6.2818501145e+01   7.4702865063e+00    0.1148353     0.078105  64.07 0.0007040501    1.703    0.413
        47  -9.3570    108.8220    234.1601   7.0514682833e+01   1.4537258514e+01    0.3437593    0.1579419  61.18  0.001417339    2.431    0.589
        48  -8.1966    123.0107    234.0400   6.8001095402e+01   1.2433896431e+01    0.1847363    0.1125973  64.60  0.001024571    1.725    0.420
        49  -8.3987     99.7138    233.7948   7.2075676416e+01   1.5911840388e+01    0.2074307    0.1147281  80.19  0.001161036    2.423    0.587
        50  -8.7156     78.0023    233.5394   7.5808343534e+01   1.8937922635e+01    0.1900007    0.1127889  73.17  0.001250798    1.614    0.380
        51  -9.9852     68.6188    232.5128   7.7329552174e+01   2.0319756601e+01    0.4141411    0.1505627  59.92  0.002067999    2.708    0.631
        52  -8.8955    144.0304    232.4967   6.4092654086e+01   9.3833009633e+00    0.3222112    0.1391951  57.88  0.001414448    3.100    0.677
        53  -8.3640    139.7867    229.8031   6.4539031214e+01   1.0443974740e+01    0.1884255    0.1182758  62.61 0.0005157718    1.733    0.423
        54  -8.4735    132.9591    232.9520   6.6118306081e+01   1.1061145831e+01    0.1870441    0.1153249  63.53  0.001119051    1.752    0.429
        55  -8.7123     93.0517    232.3927   7.3113993629e+01   1.7073367155e+01    0.2898153    0.1406223  67.52  0.001542564    2.426    0.588
        56  -9.5184    186.2057    230.3533   5.6319421641e+01   2.8268057533e+00    0.2954273     0.228099 -85.31  0.001443936    2.393    0.582
        57  -8.9716    236.1138    230.7698   4.7849241701e+01  -5.1407151405e+00    0.2208479    0.1759078  39.58 0.0009765524    1.436    0.304
        58  -9.1142    151.3130    228.9685   6.2363279708e+01   8.7127629765e+00    0.2717576    0.1723081  78.06  0.001141164    2.790    0.642
        59  -9.6005    148.4742    224.2976   6.2298261758e+01   9.8431229535e+00    0.3769785    0.2483385  65.51  0.001789635    1.814    0.449
        60  -8.2323      1.4363    230.2783   8.8022198176e+01   2.7976741603e+01    0.1333614   0.06156575  78.39 0.0009440123    1.664    0.399
        61  -8.3412    229.5672    228.4055   4.8569927601e+01  -3.8963019499e+00    0.1732261    0.1082062 -32.36 0.0006817299    1.971    0.493
        62  -8.8423    162.4098    227.7629   6.0211499879e+01   7.0698202247e+00    0.2872494    0.1663962  58.57  0.001570653    2.007    0.502
        63  -9.1636    127.8167    227.2027   6.6404287295e+01   1.2718078728e+01    0.2849385    0.1674957  64.79  0.001175371    1.933    0.483
        64  -8.3419    120.2231    227.7999   6.7842301902e+01   1.3802537887e+01    0.1919007   0.09991094  67.93 0.0009380561    2.710    0.631
        65  -8.0304     49.7183    226.9709   8.0148431738e+01   2.3541846939e+01    0.2079287   0.06117074  60.16 0.0009080737    3.569    0.720
        66  -8.7854    205.9917    225.4059   5.2137421319e+01   1.8877340811e-01    0.2143383    0.1627326 -42.65   0.00106181    1.815    0.449
        67  -8.3287    200.1527    225.9429   5.3237250850e+01   1.0796481820e+00    0.1700944    0.1437037 -41.50 0.0007077734    1.614    0.380
        68  -9.0324     94.4881    224.4598   7.2146270269e+01   1.8146318542e+01    0.3812644    0.1631788  65.85  0.001679252    3.380    0.704
        69  -8.8925    180.6192    224.1605   5.6446502082e+01   4.5351778542e+00    0.2511059    0.1534176  54.54 0.0008036998    1.772    0.436
        70  -8.6451    194.2469    232.5160   5.5214204512e+01   1.2583946623e+00    0.1718395    0.1559826   3.84 0.0006193988    1.289    0.224
        71  -8.8049    216.6407    223.3993   4.9987517564e+01  -1.3082055355e+00      0.23906    0.1880976  66.68  0.001320819    2.140    0.533
        72  -8.4437    173.1362    223.0302   5.7638229384e+01   5.9344872827e+00    0.2027263    0.1591693 -76.25 0.0008068977    1.977    0.494
        73  -8.1871    113.9832    223.9595   6.8566890145e+01   1.5355255644e+01    0.1865088    0.1131316  63.90 0.0006323546    1.649    0.393
        74  -8.7690    104.7186    223.4800   7.0203581997e+01   1.6820965503e+01    0.2838656    0.1682611  75.63  0.001637617    2.036    0.509
        75  -9.1825    239.0278    220.9348   4.5807564800e+01  -4.5844543323e+00    0.2836584    0.1775959 -30.63  0.001230449    1.893    0.472
        76  -9.3302    225.4286    221.4933   4.8184269002e+01  -2.5062214508e+00    0.2355568    0.1920029  48.64   0.00112062    1.557    0.358
        77  -9.2805    192.3049    221.1251   5.3913337794e+01   2.9720505090e+00    0.2598616    0.2249299 -87.08 0.0008507763    1.815    0.449
        78  -8.3053    140.4041    222.3202   6.3534054495e+01   1.1449844614e+01    0.1405739    0.1118883 -83.04 0.0008409487    1.590    0.371
        79  -8.9257    159.1161    220.3682   5.9836557039e+01   8.6507056349e+00    0.2321775    0.1537385  59.86 0.0009146216    1.663    0.399
        80  -8.7113     82.7413    220.2451   7.3880581913e+01   2.0488253756e+01    0.2401666     0.129882  86.81   0.00124814    2.264    0.558
        81  -8.5528    202.6688    219.9715   5.1897125393e+01   1.3850746199e+00    0.1595373    0.1353204  18.33 0.0004691243    1.139    0.122
        82  -9.3918    120.4014    219.0578   6.6851220410e+01   1.5147741300e+01    0.4196812    0.1919424  62.40  0.001845211    3.063    0.674
        83  -7.9352     73.2961    220.6567   7.5608792616e+01   2.1684481446e+01    0.1178381   0.06490355  66.68 0.0005357302    1.666    0.400
        84  -9.6460    248.7352    217.9043   4.3710095586e+01  -5.7622942140e+00    0.3447994    0.2143815  57.95  0.001750858    3.276    0.695
        85  -9.2813    132.9491    215.8773   6.4131143912e+01   1.3653357773e+01    0.4435532    0.2520727  74.74  0.001916993    3.109    0.678
        86  -9.0287     51.5969    217.1250   7.9179153420e+01   2.5001942510e+01    0.2184872    0.1088239  87.48 0.0009785327    2.058    0.514
        87  -8.5024    142.8463    216.4783   6.2349123256e+01   1.1936806140e+01    0.2133438     0.155136 -88.70   0.00108098    1.913    0.477
        88  -8.5861     61.8869    216.9489   7.7349861490e+01   2.3782676321e+01    0.1867244   0.09637918  66.03  0.001117932    1.749    0.428
        89  -9.0461    232.3250    214.6547   4.5903134046e+01  -2.8565696350e+00     0.218818    0.2051125 -50.97  0.001143284    1.738    0.425
        90  -7.6183    111.3672    216.6747   6.8269226847e+01   1.6932917276e+01    0.1281472   0.07449877  64.53 0.0007036491    1.803    0.445
        91  -8.3642    210.1370    218.9343   5.0422122558e+01   2.7123069107e-01    0.1701908    0.1436289  41.15 0.0005022725    1.294    0.227
        92  -8.1553    154.1204    214.8485   6.0020656881e+01   1.0298499797e+01    0.1987619    0.1199647  61.38 0.0008584944    1.982    0.495
        93  -8.5113    185.3723    213.8693   5.4080071800e+01   5.0943736372e+00    0.2036006    0.1772523  73.80 0.0008960605    1.559    0.358
        94  -8.9282     92.9778    213.6918   7.1392005745e+01   2.0168864695e+01    0.2986329    0.1426626  60.89  0.001394803    2.134    0.531
        95  -9.3589     72.3087    211.0742   7.4986389507e+01   2.3477970717e+01    0.4471917    0.1704445  63.24  0.001756982    3.320    0.699
        96  -9.4182    213.9083    211.8726   4.8631635546e+01   4.8949756612e-01    0.3310713    0.2505519  56.62  0.001508215    1.753    0.429
        97  -8.7187    161.8715    212.3881   5.8224456823e+01   9.3447636821e+00    0.2035016    0.1683229  83.88  0.000986564    1.591    0.372
        98  -7.9816    225.0208    212.2453   4.6754082269e+01  -1.3999887791e+00    0.1423639    0.1344567 -49.78 0.0005489467    1.643    0.391
        99  -9.1449    204.3761    210.8234   5.0157110918e+01   2.2336403255e+00    0.2482255    0.2093235 -66.22  0.000908879    1.917    0.478
       100  -7.9295    106.7787    212.6232   6.8689840224e+01   1.8309512789e+01    0.1753763   0.08592067  50.72 0.0009324241    1.684    0.406
       101  -7.9499     61.3568    212.2778   7.7086868820e+01   2.4668484302e+01   0.09176115   0.08722036  15.48 0.0002089696    1.656    0.396
       102  -9.4780    175.4209    209.8260   5.5310294160e+01   7.3749110556e+00    0.3892203    0.2442363  67.31  0.001896113    2.644    0.622
       103  -8.7935    148.0088    210.4061   6.0571717633e+01   1.2010431661e+01    0.2577231    0.1854362  86.12  0.001094189    2.007    0.502
       104  -8.8906    116.1908    209.9111   6.6593850048e+01   1.7311914237e+01    0.3178228    0.1856298  82.95  0.001136719    2.651    0.623
       105  -8.2356    192.2295    210.2302   5.2263688317e+01   4.3997257247e+00    0.1559657    0.1354323  54.68 0.0004662855    1.359    0.264
       106  -8.5946     85.6912    209.2676   7.2325428203e+01   2.1976380510e+01    0.2471455    0.1337146  80.75  0.001009289    2.330    0.571
       107  -8.7987    169.3670    215.9778   5.7337298592e+01   7.5445058739e+00    0.2570439    0.1943618 -89.72  0.001025539    2.133    0.531
       108  -7.9043     32.6225    210.3165   8.2056478611e+01   2.8332320912e+01    0.1182965   0.05399438  63.36 0.0007027793    1.807    0.447
       109  -9.3323    236.3409    207.8589   4.4077084819e+01  -2.7481949325e+00    0.2914502    0.2082143 -33.94  0.001230707    1.745    0.427
       110  -9.5382    246.5462    206.9792   4.2213868425e+01  -4.2831102186e+00    0.2547424    0.1875119 -15.62  0.001092984    1.385    0.278
       111  -7.9257    156.4616    207.9352   5.8615266259e+01   1.0945481089e+01    0.1517543    0.1071485 -89.41 0.0008044436    2.308    0.567
       112  -8.4222    139.0244    207.7914   6.1940482195e+01   1.3941248255e+01    0.2004101    0.1532219  86.22 0.0006632641    1.639    0.390
       113  -7.9562    126.5921    208.2740   6.4398166302e+01   1.5919488421e+01    0.1923462    0.1250117  67.88 0.0006587568    1.735    0.424
       114  -9.2448     99.3151    205.9204   6.9384775994e+01   2.0592679946e+01    0.3261934    0.1884599  77.66  0.001387663    2.193    0.544
       115  -8.5354     56.6442    205.4535   7.7416168250e+01   2.6475505595e+01      0.29811    0.1069914  59.97  0.001380244    2.874    0.652
       116  -9.1439    183.7603    203.8511   5.2823164857e+01   6.7605830306e+00       0.3131    0.2262223  69.06  0.001443293    2.055    0.513
       117  -8.0577    109.2030    205.1372   6.7383883921e+01   1.9223166013e+01    0.1703057    0.1216425  69.64 0.0008025442    1.372    0.271
       118  -9.3680    195.0085    203.3958   5.0655618333e+01   4.8349779322e+00    0.2995896    0.2820775  78.64  0.001362962    1.448    0.309
       119  -9.4437    192.4854    197.1543   5.0087662508e+01   6.1506656091e+00    0.3494217    0.2875111 -72.36  0.001377061    1.891    0.471
       120  -9.5665    163.6473    202.7966   5.6482891565e+01   1.0478644913e+01    0.3973045    0.2301948  57.42   0.00154443    1.962    0.490
       121  -8.5517    131.2072    203.7508   6.2921797037e+01   1.5913891279e+01    0.2354122    0.1633658  67.47 0.0009748081    1.571    0.364
       122  -9.4103    250.2351    201.7170   4.0678977326e+01  -4.2969730840e+00    0.3946728     0.167828 -30.28  0.001779117    2.485    0.598
       123  -9.1762    245.5402    193.2710   3.9934580978e+01  -2.5937122284e+00    0.3122088    0.2506567 -71.77  0.001635493    2.895    0.655
       124  -9.0562    243.2975    200.4285   4.1604517259e+01  -3.0419114844e+00    0.2824012    0.1747438 -30.00  0.001042691    1.786    0.440
       125  -8.5020    210.9006    201.6538   4.7463930666e+01   2.2782157155e+00    0.2043921     0.168084 -55.83  0.000868869    1.850    0.459
       126  -8.8117    140.6557    201.0205   6.0698817540e+01   1.4771513376e+01    0.3498841    0.2151647  70.68  0.001722391    2.338    0.572
       127  -8.0747     48.2953    201.9546   7.8692008486e+01   2.8110294333e+01    0.1771218   0.06733803  82.90 0.0007030895    4.160    0.760
       128  -8.2992     11.2850    202.5458   8.5328366373e+01   3.1838238369e+01     0.190491   0.07020145  42.78  0.001148418    2.205    0.546
       129  -7.8302    222.1663    201.2246   4.5382526585e+01   3.8885126124e-01     0.153641    0.1423865  38.82 0.0007146606    1.383    0.277
       130  -9.4214    113.1605    198.8357   6.5849878324e+01   1.9709471314e+01    0.4071541    0.2412382  78.04  0.002027211    2.379    0.580
       131  -8.3936     80.1516    201.1226   7.2588164692e+01   2.4214859473e+01    0.2356876    0.1130259  60.51    0.0011018    2.051    0.513
       132  -9.4199    149.4577    198.4748   5.8600835129e+01   1.3663049893e+01    0.3890943    0.2572752  85.67  0.001471311    2.626    0.619
       133  -8.8197    123.9791    199.1691   6.3743244556e+01   1.7894972755e+01    0.2762726    0.1858204 -87.69  0.001322084    1.982    0.495
       134  -9.2792    237.1205    198.3070   4.2272519119e+01  -1.7837899321e+00    0.2445884    0.1620958 -30.16 0.0009730193    1.688    0.408
       135  -8.4996    177.0926    198.7345   5.3267102168e+01   8.6949690665e+00    0.1924502    0.1766657 -75.43 0.0006330736    1.422    0.297
       136  -9.0201     88.7477    198.4687   7.0639478787e+01   2.3488918278e+01    0.2968471    0.1753923  73.94  0.001464185    1.867    0.464
       137  -8.4292    202.2979    197.6559   4.8347922097e+01   4.3220397145e+00    0.1947318    0.1557451 -47.69 0.0007199202    1.672    0.402
       138  -8.9949     61.2203    196.7712   7.5837476691e+01   2.7518286506e+01    0.3637915    0.1608979  71.65  0.001705589    2.841    0.648
       139  -7.9097     12.6808    197.3483   8.4833079641e+01   3.2657158510e+01    0.1141998   0.05280338  66.14 0.0007048614    1.734    0.423
       140  -8.8266    215.9741    195.3927   4.5462370306e+01   2.1976127317e+00     0.246343    0.2015097 -60.37  0.001060295    1.978    0.495
       141  -7.8835     53.6714    196.3587   7.7248488427e+01   2.8520478885e+01    0.1252696   0.06524231  67.31  6.26469e-05    1.788    0.441
       142  -7.8211     36.3108    195.9917   8.0486333751e+01   3.0560701628e+01    0.1778205   0.06357332  81.15 0.0007035098    4.165    0.760
       143  -8.7726    224.6097    194.0697   4.3686312896e+01   8.5608465388e-01    0.2380619    0.1422896 -40.73  0.001097398    2.117    0.528
       144  -8.9900    185.3612    194.8243   5.1043375675e+01   7.7766756948e+00    0.2307866    0.1876746  60.92 0.0007407029    1.465    0.317
       145  -8.1400    230.6723    193.8562   4.2584027224e+01  -1.6340415994e-01    0.1587728    0.1102191 -35.16 0.0006371673    1.716    0.417
       146  -9.1830    160.7072    193.9077   5.5683924908e+01   1.2400061405e+01    0.2764083    0.1859896  61.72   0.00106771    1.731    0.422
       147  -8.7391     76.9005    193.7306   7.2487050709e+01   2.6039413400e+01      0.21153    0.1469976  84.21 0.0006060778    1.377    0.274
       148  -8.6063     44.0658    193.6747   7.8865255011e+01   3.0145214417e+01    0.2677518    0.1237802  70.28  0.001440815    2.174    0.540
       149  -8.2562    198.8298    191.6879   4.7957007416e+01   5.7731023893e+00    0.2027011     0.169876 -82.48 0.0006561324    1.925    0.480
       150  -8.3820    172.1993    191.6314   5.3054982096e+01   1.0667909217e+01    0.1989231    0.1786799 -64.49 0.0006244368    1.401    0.286
       151  -9.0405    139.4204    190.4043   5.9411642370e+01   1.6787542260e+01    0.3292294    0.2288959  83.10  0.001059774    2.027    0.507
       152  -7.7885    205.4341    191.5117   4.6696505410e+01   4.5975971957e+00    0.1295564    0.1094481  28.88 0.0006117887    1.060    0.057
       153  -7.9621    179.1419    191.2031   5.1629808949e+01   9.4576790235e+00    0.1691112    0.1494148  66.61 0.0005033965    1.357    0.263
       154 -10.2826     92.4381    188.8703   6.8824600638e+01   2.4745630540e+01    0.8186222    0.1983947  48.89  0.002875042    3.867    0.741
       155  -9.0001    216.7281    187.8021   4.3957540865e+01   3.0601730103e+00    0.2500512    0.2333374  51.19  0.001267442    1.395    0.283
       156  -9.0371    191.4664    187.2149   4.8562286581e+01   7.7758198088e+00    0.3239723    0.2312391 -70.28  0.001191907    2.573    0.611
       157  -9.4092    156.1340    187.5776   5.5586351769e+01   1.4270878026e+01    0.3479058    0.2345821 -67.85   0.00106651    2.122    0.529
       158  -8.6334    148.1916    188.7421   5.7377943120e+01   1.5514315145e+01    0.2084062    0.1745403 -80.24 0.0009660532    1.451    0.311
       159  -8.9410    129.2933    188.4019   6.1186166555e+01   1.8902334991e+01    0.2635357     0.191875  76.27  0.000789836    1.609    0.379
       160  -8.5592     34.6290    188.2719   8.0265627785e+01   3.2208600040e+01    0.2494028    0.1113031  85.12  0.001325579    2.291    0.563
       161  -8.1419    237.2170    188.2278   4.0416062629e+01  -5.9752389107e-01    0.1530159    0.1417731  -7.17 0.0006019766    1.339    0.253
       162  -9.4542    120.6025    186.0049   6.2638760303e+01   2.0816508148e+01    0.4092364    0.2349241 -77.42   0.00190588    2.604    0.616
       163  -8.8556     54.9115    186.9261   7.6207399394e+01   3.0180100219e+01    0.3424746    0.1410443  67.02  0.001466654    2.991    0.666
       164  -9.0283    249.3715    185.7985   3.7902009145e+01  -2.3606123694e+00    0.2805121    0.2134881 -37.98  0.001232463    1.730    0.422
       165  -8.3418    230.6295    187.1388   4.1356727373e+01   6.7798857553e-01    0.1777288    0.1577274 -32.00 0.0007535651    1.449    0.310
       166  -8.8902    164.8313    186.3337   5.3632960501e+01   1.2875148066e+01    0.2959052    0.1963336 -53.26  0.001261788    1.862    0.463
       167  -9.1147    109.6616    186.0389   6.4916543714e+01   2.2612111088e+01    0.3438941    0.2035458  72.31   0.00120396    2.180    0.541
       168  -8.8164    202.9152    184.5110   4.5902628611e+01   6.0412487479e+00    0.2165845    0.1892427 -58.10 0.0008639097    1.587    0.370
       169  -8.6736    182.9622    184.5496   4.9735526356e+01   9.7694117979e+00    0.2256601    0.1872919 -64.88 0.0008775244    1.644    0.392
       170  -9.2321     66.6628    184.3804   7.3603540555e+01   2.9208738527e+01    0.3450389    0.1631056  66.67  0.001096509    2.414    0.586
       171  -8.5819    224.2030    183.5009   4.1811570292e+01   2.2852028400e+00    0.2173992    0.1701726 -22.18  0.000606754    1.351    0.260
       172  -9.0149    210.1687    183.6856   4.4398187537e+01   4.8156843720e+00    0.2644157    0.1817008 -20.98 0.0008657511    1.595    0.373
       173  -8.4982    197.1736    183.7315   4.6845906136e+01   7.2246812789e+00    0.1965431    0.1451633  84.47 0.0009038526    2.667    0.625
       174  -8.8923    174.2759    183.3543   5.1238280864e+01   1.1592553047e+01    0.2625843    0.2222972 -74.98 0.0008874313    1.590    0.371
       175  -8.2096    242.6564    183.2966   3.8556286929e+01  -9.2881105894e-01    0.1094633    0.1026577  67.65 0.0007033243    1.668    0.400
       176  -8.7649     44.5875    182.4439   7.7876716191e+01   3.2261803008e+01    0.2843205    0.1211374  59.39  0.001316977    2.220    0.550
       177  -7.9987      1.8117    183.5789   8.6099537160e+01   3.6172170217e+01    0.1421658   0.06874384  51.31 0.0009424207    1.704    0.413
       178  -9.2731    147.4728    180.5285   5.6211908287e+01   1.7072254600e+01    0.3078749    0.2358323  86.56  0.001040186    1.716    0.417
       179  -8.4974    235.3720    181.2352   3.9413161065e+01   5.9108560178e-01    0.1644772    0.1146761 -34.52 0.0005597314    1.644    0.392
       180  -8.0653     90.7822    181.4024   6.8272155384e+01   2.6434769049e+01    0.1715161    0.1134073  31.91 0.0009480457    1.752    0.429
       181  -9.3183     25.8886    179.1524   8.1314520810e+01   3.4873638337e+01    0.4988318    0.1757973  76.63  0.002061058    3.882    0.742
       182  -8.6107    137.5890    179.0272   5.8035285586e+01   1.9140031971e+01    0.2829584    0.1999869  75.64  0.001120367    1.808    0.447
       183  -9.3302    191.4002    178.2664   4.6950432257e+01   9.1374365582e+00    0.2751707    0.2336144  61.94 0.0005783276    1.421    0.296
       184  -9.0940     35.8409    176.3806   7.9137455917e+01   3.4417174139e+01    0.4720589    0.1696385  79.30  0.001715869    4.810    0.792
       185  -8.4964    244.6196    169.3170   3.5485737034e+01   4.6885041800e-01    0.2327174     0.192343 -50.59 0.0006329925    1.802    0.445
       186  -8.5719    250.4535    172.6674   3.5177279629e+01  -9.6984853845e-01    0.2216711    0.1418646 -26.10 0.0006474997    1.545    0.353
       187  -8.9883    248.9402    177.1394   3.6309667074e+01  -1.2558247833e+00    0.2504805    0.2180675  44.41  0.001221458    1.475    0.322
       188  -8.9470    247.3748    173.2724   3.5810971076e+01  -5.1169861373e-01    0.2667438    0.2146584 -37.47 0.0009331822    1.582    0.368
       189  -8.6810    205.0268    177.5633   4.4207812682e+01   6.6482810062e+00    0.2349474     0.187904 -50.96  0.000701244    1.662    0.398
       190  -8.1598    169.4125    178.2658   5.1319012850e+01   1.3345720170e+01    0.1708769    0.1320401 -58.72  0.000615082    1.629    0.386
       191  -8.6097    129.4044    177.3860   5.9508555805e+01   2.0902847715e+01    0.2927077    0.1834837  75.57 0.0007708685    2.350    0.575
       192  -8.6258    231.1199    176.7563   3.9291005451e+01   1.9249738746e+00    0.2051983    0.1696705 -28.39 0.0006026305    1.374    0.272
       193  -8.5093    217.4880    176.9980   4.1784603271e+01   4.3899984487e+00    0.2254965    0.1762391  51.29 0.0006503792    1.469    0.319
       194  -8.6397     88.8912    176.6241   6.8080469327e+01   2.7660784953e+01    0.2430078    0.1506477  86.72 0.0009897237    1.891    0.471
       195  -9.8592     57.6073    173.3854   7.4376920493e+01   3.2553223226e+01    0.7563179    0.3091801  78.85  0.002586275    5.084    0.803
       196  -8.1508     12.8372    176.8029   8.3687393736e+01   3.6543839688e+01     0.155024   0.09257472  70.62  0.001061558    1.328    0.247
       197  -7.7165    211.6793    176.3172   4.2723834650e+01   5.5720530559e+00    0.1222315     0.107765  77.84 0.0005659859    1.662    0.398
       198  -9.1685    183.0466    175.8153   4.8136843879e+01   1.1126944996e+01    0.2411711    0.2191802 -77.77 0.0006362966    1.429    0.300
       199  -9.2111    158.7185    174.7234   5.2887198711e+01   1.5988543935e+01    0.3356832    0.2446693  77.25  0.001144464    1.938    0.484
       200  -9.3172    104.1562    174.3986   6.4494102662e+01   2.5745419402e+01    0.4864479    0.2294662  62.48  0.001672513    2.946    0.661
       201  -8.6561    224.5369    174.2724   3.9976089652e+01   3.4580671439e+00    0.2217446    0.1241542 -35.92 0.0007007638    1.953    0.488
       202 -10.5875     75.6720    169.6404   7.0079832011e+01   3.0970523382e+01     1.108083    0.4010669 -77.29  0.003643013    5.039    0.802
       203  -9.5659    175.5798    171.8925   4.8906247307e+01   1.3217035180e+01    0.3529594    0.2414242 -42.16  0.001136694    1.653    0.395
       204  -8.1029    143.0018    172.7336   5.5852488100e+01   1.9303793762e+01     0.222045    0.1431916  66.04  0.000655095    1.946    0.486
       205  -8.4677    135.0121    171.8045   5.7409695255e+01   2.0945734470e+01    0.2168283    0.1654799  64.39  0.001071585    1.354    0.261
       206  -9.4526    121.3036    170.4178   6.0163104660e+01   2.3655336895e+01    0.3370977    0.2323099 -82.07 0.0009625122    1.836    0.455
       207  -9.0957     45.3524    171.0857   7.6733442660e+01   3.4458459175e+01    0.3400114    0.1649408  80.07  0.001529479    2.296    0.565
       208  -9.0323    230.1518    169.2507   3.7976989941e+01   3.1008900036e+00    0.3583009    0.1609355 -39.49  0.001577115    2.550    0.608
       209  -8.4799    205.8329    170.1284   4.2615103718e+01   7.5899931075e+00    0.1914482    0.1875653  72.32 0.0007118218    1.316    0.240
       210  -8.6770    198.2328    169.9532   4.4037570192e+01   9.0944612562e+00    0.1917765    0.1858046  64.23  0.000580539    1.277    0.217
       211  -8.1966    237.1282    169.3287   3.6770592221e+01   1.8118733675e+00     0.181221    0.1521064  21.47 0.0006746881    1.083    0.076
       212  -8.6962    218.7060    168.2406   3.9836807407e+01   5.3912020221e+00    0.2076555     0.198086  27.99 0.0005196532    1.247    0.198
       213  -9.1765    166.9198    168.4628   5.0044886961e+01   1.5494462098e+01    0.3393855    0.2235847  61.77 0.0008730554    1.851    0.460
       214  -8.4646    149.7925    169.1973   5.3789367293e+01   1.8675830080e+01     0.207854    0.1744701  71.52 0.0007151917    1.315    0.240
       215  -8.0153    211.5791    167.8346   4.1075822174e+01   6.8178553490e+00    0.1772178     0.127671 -43.86 0.0008699422    1.685    0.407
       216  -8.6883    111.6277    167.1865   6.1792387515e+01   2.5952350833e+01    0.2863084    0.1796977  66.15 0.0009241059    1.822    0.451
       217  -8.1117     88.8398    168.5913   6.7051624311e+01   2.9293079382e+01    0.1869471     0.100784  52.27 0.0009023906    1.730    0.422
       218  -9.3173    191.9142    166.1577   4.4526040834e+01   1.0934003354e+01    0.3621672    0.1898298 -39.19 0.0005843838    2.101    0.524
       219  -8.8095    185.0240    166.4929   4.5964892766e+01   1.2248667834e+01     0.240617    0.1932975 -58.04 0.0006537448    1.602    0.376
       220  -8.9913     20.7263    166.2004   8.1436592082e+01   3.7954324446e+01     0.303961     0.114448  57.49  0.001425671    2.481    0.597
       221  -8.3555     13.3262    167.6714   8.3031252175e+01   3.8311876720e+01    0.1178658   0.05984441  67.30 0.0007050428    1.702    0.412
       222  -8.5584    140.0378    165.5380   5.5248184350e+01   2.1202066636e+01    0.3049355     0.191743  61.38   0.00144197    1.826    0.452
       223  -9.1019    135.9780    163.9776   5.5864601953e+01   2.2259277329e+01    0.3448741    0.2071458  62.64 0.0008058028    2.033    0.508
       224 -10.0755     95.1790    162.7109   6.4813053630e+01   2.9536906758e+01    0.7966101    0.4037501  76.42  0.002812228    4.109    0.757
       225  -8.0540    234.0158    164.5444   3.6342098491e+01   3.0207286911e+00    0.2053685     0.159003 -17.70 0.0006012509    1.262    0.207
       226  -8.6021    159.6339    164.2862   5.0793239552e+01   1.7663360534e+01     0.240493      0.19979  66.85 0.0008673638    1.338    0.253
       227  -9.2172     33.9749    163.3973   7.8452567177e+01   3.7256086221e+01    0.4719701    0.1475544  53.81  0.002065782    3.182    0.686
       228  -8.1604    240.3407    164.1726   3.5170251031e+01   1.9053227737e+00    0.1772553    0.1131461 -35.95 0.0005710878    1.719    0.418
       229  -8.6890    212.9115    163.5927   3.9968186079e+01   7.1842636997e+00    0.2431956    0.1943206 -36.78 0.0006597926    1.416    0.294
       230  -8.4876    246.1108    162.7303   3.3894787574e+01   1.0472946396e+00    0.2059955    0.1646573 -24.90 0.0004658593    1.306    0.234
       231  -8.6428    204.8417    162.5112   4.1274976158e+01   8.9370706921e+00     0.242417    0.1789067 -52.33 0.0005489693    1.800    0.444
       232  -9.2126      3.2690    162.0972   8.4701322101e+01   4.0250610599e+01    0.3377791    0.1203059  58.81   0.00178822    2.531    0.605
       233  -9.0975    177.4049    160.2955   4.6290343150e+01   1.4816894301e+01    0.2754948    0.2460686 -73.51 0.0005595713    1.400    0.286
       234  -8.7583    151.6342    160.6304   5.1824636570e+01   1.9903026287e+01    0.2957638     0.204465  83.18  0.001327257    2.310    0.567
       235  -8.8680    243.2730    159.2881   3.3660927052e+01   2.0135150861e+00    0.4109617    0.1706611  32.29  0.001632136    2.668    0.625
       236  -8.9076    227.3241    158.9236   3.6363198325e+01   5.0633480992e+00    0.2961521    0.2086755 -52.43  0.001236481    2.080    0.519
       237  -8.7867     60.5753    160.0465   7.2291230816e+01   3.4960630924e+01    0.2429334    0.1380499  58.94  0.001321201    1.701    0.412
       238  -9.9367    249.6795    157.1399   3.2139521552e+01   1.1274985062e+00    0.3578051    0.3108073 -56.85  0.001331109    1.739    0.425
       239  -8.6300    237.0498    158.9673   3.4660024453e+01   3.2106736419e+00    0.1884888     0.169124 -67.59 0.0006146961    1.695    0.410
       240  -8.4439    128.0065    158.5357   5.6686002876e+01   2.4800107577e+01    0.2495272    0.1907218 -81.74 0.0007585007    1.556    0.357
       241  -9.5133    106.0545    157.9279   6.1596905916e+01   2.8774469374e+01    0.4846947    0.2688048  65.50   0.00148063    2.371    0.578
       242  -8.5340    196.6487    157.6796   4.1871623904e+01   1.1342611663e+01    0.2456095     0.198572 -89.46  0.001015661    1.925    0.480
       243  -9.2268    167.7580    157.2423   4.7699239462e+01   1.7307387516e+01      0.33594    0.2490518  78.60  0.001438836    1.965    0.491
       244  -9.4058     81.7809    154.6119   6.6728423818e+01   3.3263546728e+01    0.4371452    0.2569878  69.54  0.001508025    2.003    0.501
       245  -8.4664    217.9613    156.4000   3.7534748614e+01   7.2563868372e+00    0.2402282    0.1846745 -45.23 0.0006294857    1.592    0.372
       246  -8.4993    188.0591    157.0851   4.3461603700e+01   1.3191640959e+01    0.2094041     0.177224 -85.69 0.0006345897    1.659    0.397
       247  -9.1607    157.6598    156.1868   4.9658363433e+01   1.9536730417e+01    0.2985022    0.2317298 -83.44 0.0008732934    1.769    0.435
       248  -9.1951    119.7211    155.1068   5.7974113939e+01   2.6994175734e+01     0.367085     0.240388  80.49  0.001609688    2.175    0.540
       249  -9.3764     49.7187    155.2093   7.4197711187e+01   3.7287672914e+01    0.3790398    0.1764944  61.25  0.001647616    2.337    0.572
       250  -8.0667    242.8103    154.7814   3.2792757063e+01   2.6999896803e+00    0.1668685    0.1515514 -26.90 0.0004158525    1.308    0.236
       251  -8.1043    204.6840    155.2103   3.9788418826e+01   1.0102188530e+01    0.1955167    0.1742117 -49.36 0.0005727779    1.376    0.273
       252  -8.6721    144.3971    154.4780   5.2249370927e+01   2.2488980084e+01    0.2589722    0.2132151 -87.11 0.0009988734    1.461    0.315
       253  -9.5460     68.1880    153.6568   6.9767880185e+01   3.5350564738e+01    0.4090299    0.2098349  69.27  0.001324213    2.510    0.602
       254  -9.5991    132.8555    152.7143   5.4524356903e+01   2.5059026772e+01    0.4297697    0.2868842  70.63  0.001285737    1.957    0.489
       255  -9.1851    133.6019    148.1541   5.3484104800e+01   2.5833704734e+01     0.383118    0.2173987 -43.22  0.001722668    1.956    0.489
       256  -8.7508    239.5476    152.9958   3.2968906315e+01   3.5548292506e+00    0.1951444    0.1238444 -26.47 0.0004130076    1.538    0.350
       257  -8.2164    151.8024    152.5649   5.0227567085e+01   2.1391461521e+01    0.2192832    0.1776325 -56.03  0.001171839    1.372    0.271
       258  -9.6318     29.4833    150.5953   7.8297469581e+01   4.0389822785e+01     0.427637    0.1742451  69.45  0.001847174    3.087    0.676
       259  -8.4914     20.0367    152.0847   8.0513301004e+01   4.0935221414e+01    0.1904183    0.1019343  67.88  0.001121601    1.731    0.422
       260  -8.8947    189.5295    150.0105   4.1675944903e+01   1.4074178950e+01    0.2734258    0.2308916 -86.27 0.0007629702    1.656    0.396
       261  -8.0391    182.4638    150.9526   4.3321811214e+01   1.5388184964e+01    0.2034032    0.1428483 -41.17 0.0005906191    1.547    0.354
       262  -8.4078    162.6969    150.3435   4.7386073045e+01   1.9598092769e+01     0.244989    0.1803399 -59.24 0.0006709295    1.647    0.393
       263  -8.4771     98.3091    150.6394   6.2228882091e+01   3.1579936725e+01    0.2352769    0.1857721  79.63 0.0007343517    1.289    0.224
       264  -9.3933    248.9085    149.0810   3.0557592201e+01   2.3283391884e+00    0.3021709    0.1773829 -27.32 0.0008051212    1.624    0.384
       265  -8.7536    243.4755    149.6550   3.1586014291e+01   3.2681245379e+00    0.2680553    0.1233411 -30.59  0.001192602    2.111    0.526
       266  -8.3361    212.9810    149.5622   3.6998356231e+01   9.2907049405e+00     0.204605    0.1799171  -8.33 0.0003572175    1.112    0.101
       267  -8.5385    198.7236    148.8219   3.9582407338e+01   1.2351868480e+01    0.2389763     0.192249 -53.08 0.0005015454    1.544    0.352
       268  -9.9854     89.3766    146.2399   6.3658176071e+01   3.3935609435e+01    0.6241432    0.3361272  87.48  0.002376789    3.366    0.703
       269  -9.8020     39.8398    147.8730   7.5673140022e+01   3.9944347794e+01     0.448828     0.191277  62.71  0.001876614    2.786    0.641
       270  -9.5047    233.7843    147.6422   3.2810578496e+01   5.4106323548e+00    0.2546528    0.1874299 -29.01 0.0007994047    1.363    0.266
       271 -10.3574    148.8706    145.0036   4.9353517449e+01   2.3442260864e+01    0.5911395    0.3920224  82.88  0.001589761    2.657    0.624
       272 -10.5338     54.7999    144.4032   7.1748935228e+01   3.9040364379e+01    0.7937573    0.3749178  77.24  0.003188599    3.286    0.696
       273 -10.0921     57.5705    134.8212   6.9797149668e+01   4.0833884130e+01    0.3928237    0.1813813  20.86  0.001571182    3.840    0.740
       274  -8.3611    223.3242    146.9262   3.4513553181e+01   7.5916347328e+00     0.193996    0.1658002 -12.26 0.0003850029    1.130    0.115
       275  -9.7193    138.9502    144.7539   5.1574599299e+01   2.5477511438e+01    0.4271202    0.2756248 -72.69  0.001270907    2.269    0.559
       276  -8.9834    139.3799    137.4289   4.9960272209e+01   2.6871671579e+01    0.3996449    0.2493388 -15.86  0.001470621    3.232    0.691
       277 -10.2359    106.7108    143.9528   5.9071629640e+01   3.1611660818e+01    0.7270969    0.4488703  87.91  0.002542221    2.521    0.603
       278  -8.9652     78.0924    146.9102   6.6486142104e+01   3.5458502264e+01    0.2773584    0.1615018  72.45  0.001293584    2.152    0.535
       279  -9.0203     13.5254    146.2025   8.1480207253e+01   4.2720184843e+01    0.2778708    0.1454695  62.63  0.001255553    1.780    0.438
       280  -9.4828    242.5923    138.8909   2.9376008820e+01   4.9231692999e+00    0.3895157    0.2688758 -77.88  0.001540989    3.849    0.740
       281  -9.4813    240.4773    145.0524   3.1093497917e+01   4.4738051052e+00    0.2312984       0.1786 -38.49  0.000545375    1.467    0.318
       282  -8.4141    175.5101    145.9513   4.3707482576e+01   1.7727804712e+01    0.2389393    0.1973373 -88.41 0.0006605239    1.643    0.391
       283  -9.7785    125.0206    142.4725   5.4392254068e+01   2.8630821536e+01    0.5146645    0.3312542 -86.28  0.001583435    2.521    0.603
       284  -9.2023    247.1053    143.6527   2.9677994948e+01   3.3973998779e+00    0.2511426    0.1749158 -17.18 0.0005775482    1.353    0.261
       285  -8.1132    194.4544    143.9296   3.9358563180e+01   1.4060259063e+01    0.1901273    0.1257505 -61.34 0.0008058112    2.374    0.579
       286  -8.7279    165.7844    143.9611   4.5369658575e+01   2.0141455742e+01    0.2868508    0.2255378  70.55 0.0008940825    1.556    0.357
       287  -7.9161    206.5555    146.2376   3.7493038311e+01   1.1136305925e+01    0.1924799    0.1340425 -17.60 0.0004623958    1.571    0.363
       288  -8.3837    181.9920    141.5189   4.1373156743e+01   1.7137223527e+01    0.2649185    0.2042782 -58.97 0.0006623564    1.633    0.387
       289 -10.7885     69.5829    140.8559   6.7669488297e+01   3.7963432541e+01    0.4695999    0.3056944  82.76  0.001900321    1.698    0.411
       290  -9.1834      2.8900    141.4145   8.3479463280e+01   4.4528699908e+01    0.3392318    0.1310791  68.53  0.001495682    2.714    0.632
       291  -8.1138    250.5824    140.7326   2.8468522916e+01   3.1347683155e+00    0.1785964    0.1174921 -34.50 0.0003818809    1.544    0.352
       292  -9.9535     23.5075    138.0182   7.8497197293e+01   4.3639893699e+01    0.4842492    0.2072454  66.65   0.00207373    2.743    0.635
       293  -7.5830    218.5428    138.4832   3.3503564873e+01   9.8508602670e+00    0.1411712    0.1310739   9.79 0.0003088174    1.070    0.066
       294  -8.2259    207.4805    137.5617   3.5370691745e+01   1.2332891211e+01    0.2394216    0.1310062 -45.40 0.0009621719    2.139    0.532
       295  -8.6505    197.6646    137.4633   3.7263706572e+01   1.4457947152e+01    0.2773568    0.2165444 -63.74 0.0009316234    1.763    0.433
       296  -8.5397    172.0340    137.6442   4.2623125381e+01   1.9979546669e+01    0.2717566    0.2061016 -61.50 0.0007407289    1.658    0.397
       297  -8.8202    150.8080    135.7862   4.6945907886e+01   2.4854861879e+01    0.4685354     0.247234  28.54  0.001714743    2.724    0.633
       298  -8.7805    248.4827    134.6821   2.7465115528e+01   4.3622959588e+00    0.2860492    0.1776379 -33.26 0.0008335498    1.570    0.363
       299  -8.8566    250.7136    130.4642   2.6156462332e+01   4.5108833799e+00    0.3940708    0.1223285 -28.45  0.001376387    3.212    0.689
       300  -8.1805    162.6087    136.2726   4.4383272752e+01   2.2262496952e+01    0.2251418    0.1777431 -89.71 0.0007565674    1.735    0.424
       301  -7.8970    124.3959    135.7679   5.3200099873e+01   3.0153306654e+01    0.1989847    0.1345527 -40.56 0.0007025843    1.647    0.393
       302 -10.3808     83.5405    133.2086   6.2945715623e+01   3.7691715771e+01    0.5118399    0.3159463 -77.18  0.001501441    1.815    0.449
       303  -9.3526     39.1816    135.8879   7.4503977147e+01   4.2634465417e+01    0.2490933    0.1678275  73.28 0.0008455481    1.426    0.299
       304  -7.9886    187.5852    135.4960   3.8851586638e+01   1.6985138344e+01    0.1468014    0.1379253  19.86 6.009257e-05    1.019    0.019
       305  -8.2020     95.7184    135.1386   6.0196129942e+01   3.5363680123e+01    0.2210422     0.164432 -85.22 0.0008857867    1.475    0.322
       306  -8.3246    237.5252    133.4963   2.9013953813e+01   6.6951581804e+00    0.2333344    0.1186813 -40.84 0.0006522934    2.141    0.533
       307  -8.7792    179.4416    133.8141   4.0165349088e+01   1.9066401517e+01     0.272326    0.2349128 -88.48  0.001020985    1.486    0.327
       308  -9.1404    112.8922    133.2561   5.5525358017e+01   3.2825643829e+01    0.3441386    0.2391318  79.44 0.0008999654    1.908    0.476
       309 -10.0247    132.2924    131.2908   5.0337874442e+01   2.9553648215e+01    0.4964439    0.3321285 -80.49 0.0009709946    2.304    0.566
       310  -9.1759    142.9610    131.5072   4.7829940573e+01   2.7343414031e+01    0.3197897    0.2358261 -67.65 0.0008324566    1.661    0.398
       311 -10.0709     13.1278    129.1870   8.0151800424e+01   4.6398651936e+01     0.453594    0.1992801  75.04  0.001955622    2.559    0.609
       312  -8.3520    247.1034    129.9175   2.6612262172e+01   5.2934646142e+00    0.2022125    0.1757122 -34.65 0.0005836439    1.275    0.216
       313  -8.0137    204.5063    130.0311   3.4197306068e+01   1.4206166733e+01    0.2117221    0.1422209 -36.35 0.0005909847    1.526    0.345
       314  -7.9739    192.6462    129.8518   3.6502957457e+01   1.6852470459e+01    0.2050337    0.1354136 -45.85 0.0004559757    1.684    0.406
       315  -9.1981    168.2857    129.2724   4.1521916087e+01   2.2356624582e+01    0.2945732    0.2416908 -89.92 0.0005369839    1.604    0.376
       316  -9.5874    152.9881    128.6941   4.4846098091e+01   2.5795229759e+01     0.484454    0.2326832 -50.19  0.001658737    2.334    0.571
       317 -10.0999     99.4210    127.8664   5.7876269304e+01   3.6358042317e+01    0.5689911    0.3478456  85.57  0.001692074    2.718    0.632
       318  -9.9412     73.1369    128.9351   6.4904781240e+01   4.0146479604e+01    0.3762061    0.2183278 -81.00  0.001254087    2.028    0.507
       319  -8.9731     50.3199    128.6806   7.0785398968e+01   4.3055814705e+01    0.2817633    0.1667612  78.15  0.001227275    1.945    0.486
       320 -10.6627     44.2859    123.1545   7.1589348848e+01   4.4957231010e+01    0.9346876    0.4196971  84.21  0.003416758    4.039    0.752
       321  -8.3371    211.5108    128.9382   3.2603687645e+01   1.2854459768e+01    0.2146236    0.1399541 -35.27 0.0007942522    1.553    0.356
       322 -10.7208     60.1864    125.0376   6.7671835739e+01   4.2719267500e+01     0.674139    0.3553289  78.86  0.002801801    2.971    0.663
       323  -9.7657    118.0810    125.3079   5.2565586127e+01   3.3582576027e+01    0.5289483    0.3386795  73.52  0.001659196    2.351    0.575
       324  -9.7547     37.7173    127.0251   7.3802646364e+01   4.4753645362e+01    0.1996161      0.16915  47.16            0    1.313    0.239
       325  -8.9409    179.2475    124.6376   3.8041043637e+01   2.0773999174e+01    0.2948202    0.2427066 -83.13 0.0007207356    1.631    0.387
       326 -10.4216     28.2362    121.9770   7.5628807809e+01   4.6764112159e+01    0.7040349    0.2996224  78.48   0.00279185    3.692    0.729
       327  -7.8683    188.4776    123.5374   3.5841775368e+01   1.8888145447e+01     0.148998    0.1438241  29.53  0.000137588    1.060    0.057
       328  -9.6753    158.6354    121.3336   4.1802949608e+01   2.6011828389e+01    0.4112049    0.2800016 -78.94 0.0009163857    2.534    0.605
       329  -8.4591     83.7895    122.3378   6.0917260778e+01   4.0095416296e+01    0.2242144    0.1901885 -65.26 0.0009104594    1.109    0.099
       330  -7.6929    195.2080    121.9705   3.4094111157e+01   1.7638357173e+01    0.1940071    0.1194859 -35.07 0.0005285304    1.652    0.395
       331  -8.7806    171.9130    121.2937   3.8813173418e+01   2.3046165329e+01    0.2482962    0.2068805 -53.40 0.0004741306    1.334    0.250
       332  -7.5786    203.2966    121.7106   3.2438457505e+01   1.5857277604e+01    0.1405617    0.1201738 -76.93 0.0002032248    1.554    0.357
       333  -9.9172    141.5672    118.1563   4.5071295171e+01   3.0361522072e+01    0.5353854     0.315681 -60.79  0.001075418    2.226    0.551
       334 -10.0385    130.9640    118.4343   4.7758051051e+01   3.2515951267e+01    0.5137237    0.3456889  88.21  0.001581024    2.518    0.603
       335  -9.4597     71.1821    119.7144   6.3831618096e+01   4.2503916502e+01    0.2792938    0.1873457  85.67  0.000907279    1.775    0.437
       336  -9.7122      2.9800    117.0189   8.1567719690e+01   4.9740854001e+01    0.4674758    0.1900164  75.22  0.002210443    2.879    0.653
       337  -7.9501    185.6105    115.8246   3.4528688022e+01   2.0912538146e+01    0.2099677    0.1402662 -47.80 0.0005045086    1.663    0.399
       338  -9.7977    109.4719    113.9917   5.2284925073e+01   3.7653387302e+01    0.5195288    0.3211402 -74.80  0.001530171    2.376    0.579
       339  -8.7762    109.4677    107.0321   5.0649000512e+01   3.9180496555e+01    0.3894993    0.2466418   5.31  0.001375773    3.542    0.718
       340  -8.0476    250.2058    114.8465   2.2634548203e+01   6.7887148331e+00    0.1935968    0.1495508  11.52  0.001051694    1.318    0.241
       341  -8.0021    193.1191    115.1545   3.2824709970e+01   1.9295513019e+01    0.1979142    0.1801217 -64.08 0.0004528553    1.284    0.221
       342 -10.0413     92.7124    112.3981   5.6476908547e+01   4.0928923185e+01    0.4896464     0.305654 -73.20   0.00124088    1.965    0.491
       343  -9.8611     79.0033    112.2822   6.0262422346e+01   4.3088705064e+01    0.4817629     0.306344  88.18   0.00164876    2.218    0.549
       344 -10.3899    133.5908    109.6180   4.4947162250e+01   3.3819254846e+01    0.6740423    0.3271798 -48.11  0.002075922    2.114    0.527
       345  -9.6878    122.0097    112.4165   4.8610720635e+01   3.5597577145e+01    0.3340218    0.2711302 -88.62 0.0005959697    1.483    0.326
       346  -8.4457    174.8064    111.5591   3.5739705575e+01   2.4194982062e+01     0.293142    0.1917637 -53.84 0.0006617737    1.838    0.456
       347  -9.0434    159.2030    111.6412   3.9257857421e+01   2.7774815259e+01    0.2992399    0.2292753 -67.15 0.0008798367    1.652    0.395
       348  -9.9885     14.3863    111.2497   7.8044804712e+01   5.0252128409e+01     0.296177    0.1642497  71.20  0.001292228    1.927    0.481
       349  -9.7940     66.2745    110.3700   6.3477128451e+01   4.5292141050e+01    0.3352513    0.2567404  78.06  0.001229283    1.429    0.300
       350  -8.4108    149.9711    110.0066   4.1010451397e+01   3.0178769408e+01    0.2378049    0.1892757 -81.26 0.0005654535    1.639    0.390
       351  -7.6833    182.7239    109.3310   3.3474772033e+01   2.2749377583e+01    0.1512369    0.1225406 -71.47 0.0003031588    1.597    0.374
       352  -8.8435    248.2840    108.5678   2.1443387882e+01   8.0711065281e+00    0.2745248    0.1869283  59.31  0.001382144    1.748    0.428
       353 -10.5908    249.4631    103.7332   2.0106363255e+01   8.5116502886e+00    0.5589941    0.3712066 -24.09  0.002843932    1.399    0.285
       354  -8.1453    189.2747    107.5640   3.1663057624e+01   2.1520148845e+01     0.262702    0.1347247 -35.16 0.0006303036    1.972    0.493
       355  -7.7932    231.5281    117.4752   2.6284821105e+01   1.0306893212e+01    0.1418309    0.1326919 -10.90 0.0008081667    1.082    0.076
       356  -9.8200    117.1838    105.2540   4.8126751925e+01   3.8089731999e+01    0.4801971     0.283917 -60.30  0.002017832    1.982    0.495
       357 -10.2008    109.0048     98.7647   4.8714912212e+01   4.1070432730e+01    0.6117542    0.3795112  67.17  0.001445232    2.441    0.590
       358  -8.9536    107.7069     92.3786   4.7399209795e+01   4.2696677327e+01    0.3835202    0.2873441   3.94  0.001504718    1.865    0.464
       359 -10.5483     45.9913    102.3617   6.7889229594e+01   4.9514763086e+01    0.7532539    0.3769521  70.49  0.002975783    3.586    0.721
       360 -10.7390     22.6491    102.3132   7.4668121178e+01   5.1641824246e+01    0.6308545    0.3199323  76.63  0.002392656    2.546    0.607
       361  -9.2730    139.9315    104.3994   4.2010017162e+01   3.3533541638e+01    0.3525114    0.2677099 -89.47 0.0007183363    1.843    0.457
       362  -8.4345     78.6231    104.7067   5.8793086776e+01   4.4866869718e+01    0.2202882    0.1583361 -28.24 0.0009681032    1.791    0.442
       363  -8.3285    185.3561    104.3783   3.1632258502e+01   2.3011937246e+01    0.2354287    0.1765699  13.28 0.0007634715    1.611    0.379
       364  -8.4439    166.7917    104.0856   3.5554250628e+01   2.7467848534e+01    0.2388265    0.2092673 -73.17 0.0007100379    1.343    0.255
       365  -9.4921    150.4738    102.7661   3.8993305662e+01   3.1505635281e+01     0.435927     0.278325 -60.32  0.001278598    2.053    0.513
       366  -8.2887    167.4685    114.0365   3.7989326860e+01   2.5426065673e+01    0.2279979     0.152441 -37.27 0.0004734978    1.540    0.351
       367  -9.9381    128.6151    101.8606   4.4230983251e+01   3.6487871358e+01     0.373639    0.2778029  89.20 0.0008482585    1.925    0.481
       368  -8.8304      6.8872    103.1061   7.9189740128e+01   5.2551977796e+01    0.1802607    0.1258293  80.46   0.00058747    1.332    0.249
       369  -7.8655    175.6052    101.8274   3.3010918911e+01   2.5798134485e+01    0.2200921    0.1426178 -47.89 0.0004929042    1.686    0.407
       370  -8.3583    159.7049    100.8715   3.6305918402e+01   2.9742672934e+01    0.2163992    0.1940323 -44.34 0.0004087884    1.150    0.130
       371  -9.2641     82.1981    100.0383   5.6714809773e+01   4.5386284149e+01    0.3371205    0.2265188 -76.96 0.0008597889    1.813    0.448
       372  -9.3742     95.0207     96.9489   5.2231657761e+01   4.3993816734e+01    0.3177355    0.2180245 -64.50 0.0006743094    1.577    0.366
       373 -10.0520     64.0482     95.9354   6.1231195163e+01   4.8879258944e+01    0.4945703    0.3025493  83.04  0.001622918    2.606    0.616
       374  -8.3040    164.8103     93.8607   3.3208426056e+01   2.9858533057e+01    0.2804869    0.2048738 -43.13 0.0007260635    1.406    0.289
       375  -8.0854    151.4871     94.5329   3.6497403011e+01   3.2887673941e+01    0.1571494    0.1486939  14.55 8.869913e-05    1.068    0.064
       376  -8.2374    176.3356     92.9873   3.0437528603e+01   2.7224179551e+01    0.2243754    0.1976228 -37.63 0.0005507817    1.154    0.133
       377  -9.7418    139.0028     91.4288   3.8702079114e+01   3.6362229385e+01    0.5423884    0.2852132 -47.18  0.001640022    1.984    0.496
       378  -8.9155    120.3376     93.0124   4.4056749314e+01   4.0062867909e+01    0.2200695    0.1980087 -44.25  0.001164544    1.095    0.087
       379  -8.8647     46.2492     92.0429   6.5917850290e+01   5.1844057485e+01    0.3558951    0.2073703   8.27  0.001709163    2.738    0.635
       380  -9.2987      5.3181     91.9959   7.8376560412e+01   5.5101768189e+01    0.2619015    0.1389814  69.29  0.001088165    2.194    0.544
       381  -9.7270    124.5910     90.6810   4.2256447702e+01   3.9662431968e+01    0.4017405    0.2993284 -71.50 0.0008879121    1.750    0.428
       382  -9.5412     35.0047     89.8370   6.9018168225e+01   5.3438866612e+01     0.443699    0.2458619  89.01  0.001559664    2.378    0.579
       383  -9.1785     22.8453     89.6512   7.2770403106e+01   5.4481183861e+01    0.2638545    0.2249254 -22.46  0.001118568    1.446    0.308
       384  -8.0996    151.3188     89.1146   3.5000362960e+01   3.3973117399e+01     0.226121     0.137555 -47.84 0.0004377666    1.758    0.431
       385 -10.1008     86.5149     85.9996   5.1953210152e+01   4.7834685454e+01    0.6086336    0.4056422 -67.35  0.001694155    1.760    0.432
       386  -7.7292    164.0000     86.9892   3.1438260953e+01   3.1326292972e+01    0.2497337   0.08958238 -36.55 0.0004331297    2.817    0.645
       387  -8.3118     65.0130     87.4714   5.9036377013e+01   5.0671863544e+01    0.1822472    0.1176837  -4.26 0.0008097689    2.639    0.621
       388 -10.0218     48.4537     83.7800   6.3522816713e+01   5.3484479014e+01    0.5153339    0.3135485 -84.86  0.002168725    2.170    0.539
       389  -8.2870    158.0792     83.6784   3.1824000035e+01   3.3377461708e+01    0.2650053    0.2045761 -47.02 0.0002579443    1.359    0.264
       390  -8.2173     64.1411     82.2203   5.8055247872e+01   5.1964059587e+01    0.1856543    0.1503356 -81.74 0.0005553936    1.379    0.275
       391  -9.5394     24.7183     80.6245   7.0671145933e+01   5.6369566245e+01    0.3806101     0.213134  85.23  0.001409856    2.360    0.576
       392  -9.1646      9.8818     80.7678   7.5496171463e+01   5.7329773254e+01    0.2998345    0.1450767  63.06  0.001302745    2.923    0.658
       393  -8.3315    150.4582     80.4461   3.2657175054e+01   3.5818610258e+01    0.2771763    0.1398223 -47.89 0.0006750153    2.216    0.549
       394  -8.8172     74.8651     80.3192   5.4102900731e+01   5.0893329612e+01    0.2986875    0.1873116 -67.85  0.001135606    1.891    0.471
       395  -8.6948    119.2933     79.9039   4.0570684911e+01   4.2983926148e+01    0.2798075    0.2217332 -66.27 0.0009519377    1.510    0.338
       396  -8.1349    166.9182     79.3408   2.8549689442e+01   3.1986516376e+01    0.2159499    0.2018878  34.55 0.0005727738    1.051    0.049
       397  -8.0756    105.3128     77.2777   4.3794501150e+01   4.6345465947e+01    0.1455401    0.1148614  -1.89 0.0005044889    1.564    0.361
       398  -9.0162    141.0187     82.5662   3.5612538400e+01   3.7643279747e+01    0.3709438    0.2111849 -49.94 0.0009146523    1.954    0.488
       399  -9.3098    128.1289     75.1223   3.6690783228e+01   4.2016713199e+01    0.3670738    0.2613795 -61.78 0.0007245775    1.775    0.436
       400  -9.9630     63.2759     73.6208   5.6136954070e+01   5.3979694192e+01     0.451818    0.2695282 -69.25  0.001152614    2.047    0.511
       401  -8.3743    140.4838     75.1432   3.3487478267e+01   3.9181697522e+01    0.2441123    0.2149673 -83.06 0.0007256696    1.351    0.260
       402  -8.5846    163.4823     73.0885   2.7422118884e+01   3.3944527242e+01    0.3485306    0.1402413 -40.82  0.001178995    2.510    0.602
       403  -9.6144     82.5650     72.5611   4.9440317789e+01   5.1381105349e+01    0.3840042    0.2707522 -74.85  0.001093513    1.985    0.496
       404  -8.6727    115.8365     72.6702   3.9318121792e+01   4.5156652533e+01    0.2826189    0.2111573 -48.31 0.0004196285    1.366    0.268
       405  -8.9529    105.9216     71.6696   4.1890678531e+01   4.7371638927e+01    0.2782395    0.2098882 -53.45 0.0007181179    1.400    0.286
       406  -9.1616     95.0963     70.8098   4.4922466034e+01   4.9595467281e+01    0.4236912    0.2358346 -58.22  0.001360671    2.231    0.552
       407  -9.7646     51.7093     69.8394   5.9120777921e+01   5.6228846267e+01    0.4176913    0.2332511 -76.77  0.001365648    2.734    0.634
       408  -9.6355    104.8546     82.9835   4.5607640710e+01   4.5241706594e+01    0.4387049    0.3086102 -74.43  0.001075743    2.032    0.508
       409  -8.7550     16.7305     70.1138   7.1467806168e+01   5.9269649966e+01    0.2610012     0.156919  89.80 0.0008445513    1.927    0.481
       410  -8.7953    147.1051     68.1307   2.9647867576e+01   3.8877235618e+01     0.329011    0.2148523 -42.22 0.0007631862    1.567    0.362
       411  -8.3028     30.1723     69.5988   6.6654586914e+01   5.8396147942e+01    0.1544285    0.1130781  -9.72 0.0006512465    1.718    0.418
       412  -9.1054    138.7110     65.8600   3.0981641184e+01   4.1306924385e+01    0.3350573     0.237566 -57.92 0.0008244289    1.738    0.425
       413  -8.7123    121.6375     65.8180   3.5480678016e+01   4.5232943268e+01    0.2770213    0.2189778 -66.43 0.0006249787    1.598    0.374
       414  -8.8385     37.3200     64.1604   6.2830015216e+01   5.8963363664e+01    0.2798445    0.1732914 -71.67  0.001192103    1.710    0.415
       415  -8.9755    110.1533     63.4204   3.7964601800e+01   4.8139234889e+01    0.3217908    0.2181607 -54.52 0.0005835356    1.710    0.415
       416  -8.4798     64.3147     63.0658   5.2787463140e+01   5.6111015295e+01    0.3141826    0.1724414 -24.44  0.001297137    2.741    0.635
       417  -7.9044     86.3318     63.3127   4.5350930204e+01   5.2672758432e+01    0.1457782    0.1073073  -9.76  0.000704443    1.677    0.404
       418  -8.3524    158.4479     61.9148   2.5035237686e+01   3.7120282713e+01    0.2317326    0.1518174 -35.19 0.0005797909    1.534    0.348
       419  -9.1580     97.6591     60.3867   4.0742757558e+01   5.1203939042e+01    0.2858378    0.2320647  55.90 0.0007539302    1.431    0.301
       420  -9.6254     73.3579     59.4495   4.8487586782e+01   5.5558323480e+01     0.400043    0.2267718 -55.54  0.001137706    1.879    0.468
       421  -8.1771    147.3456     59.2005   2.6686643791e+01   4.0364452706e+01    0.2257784    0.1367557 -43.15 0.0005906104    1.729    0.422
       422  -9.8750     23.4011     56.1811   6.6107527382e+01   6.1851379085e+01    0.4061257    0.2452754  88.25  0.002015607    2.510    0.602
       423  -9.5558      7.6632     57.1505   7.2301751787e+01   6.2626338759e+01    0.2778761    0.1892427  71.74  0.001139296    1.885    0.469
       424  -8.2483    130.5359     57.1473   3.0166427257e+01   4.4779342761e+01     0.225614    0.1481683 -35.44 0.0008467354    1.515    0.340
       425  -8.1323    140.0234     56.0009   2.7374047180e+01   4.2704998216e+01    0.2384084    0.1855663 -67.53 0.0005558805    1.659    0.397
       426  -8.6706    119.3241     55.6984   3.2690989782e+01   4.7595485654e+01    0.2952805    0.2373278 -73.35 0.0007268403    1.681    0.405
       427  -8.4995     44.0684     55.5034   5.7989893974e+01   6.0151931046e+01    0.2398382     0.166545 -69.68  0.001036994    1.636    0.389
       428  -9.1165     62.8789     54.3733   5.0584699563e+01   5.8107730235e+01    0.3070399    0.1767785 -54.50 0.0006971218    1.728    0.421
       429  -9.0437     54.0440     53.6854   5.3652379386e+01   5.9394514377e+01    0.3507676    0.1784434 -62.29  0.001203118    2.416    0.586
       430  -8.5355    105.8677     53.1238   3.5686104587e+01   5.0939868971e+01    0.2206462    0.2000113 -63.82 0.0006921372    1.304    0.233
       431  -9.4411     92.4414     50.2726   3.8867602646e+01   5.4101634767e+01    0.3910865    0.2320957 -48.89  0.001049508    1.823    0.452
       432  -8.1709    145.0003     48.9699   2.3775216659e+01   4.2614969219e+01    0.1904366    0.1694241 -22.94 0.0005329917    1.135    0.119
       433  -8.5205    129.9767     49.2581   2.7554994278e+01   4.6243154470e+01    0.2127963    0.1986599  30.90 0.0004427073    1.043    0.041
       434  -8.4638    120.6440     47.2656   2.9313903675e+01   4.8744252857e+01    0.2087148    0.1385715 -22.70 0.0007330875    1.594    0.373
       435  -8.2212    112.3295     46.9335   3.1527081651e+01   5.0653947402e+01    0.2076687    0.1795148 -29.80 0.0005450303    1.139    0.122
       436  -8.9628     82.2820     46.3554   4.0835119832e+01   5.6655220533e+01    0.2950556    0.2174775 -52.42 0.0006749898    1.529    0.346
       437  -8.1795    174.0536     45.7349   1.6633695309e+01   3.5561310129e+01    0.2130747    0.1944691  51.65  0.000343095    1.064    0.061
       438  -8.3461     45.1070     44.5928   5.4195305943e+01   6.2285226765e+01    0.2106158    0.1563494 -56.11 0.0007621361    1.336    0.252
       439  -8.9241     16.8640     44.3434   6.5772733016e+01   6.4811122598e+01    0.2489373    0.1489424 -75.34 0.0008924961    1.880    0.468
       440  -8.3157    132.7315     42.9579   2.4591906572e+01   4.6581559374e+01    0.2134822    0.1899205 -22.67 0.0003683439    1.127    0.113
       441  -8.5958     92.6614     42.7059   3.5969492204e+01   5.5412279107e+01    0.2331942    0.1632557   1.79  0.001110812    1.764    0.433
       442  -8.5115     58.0943     42.5012   4.8309860965e+01   6.1104292095e+01    0.2467461    0.1718303 -57.43   0.00105121    1.640    0.390
       443  -9.8713      5.1481     41.6815   7.0025477114e+01   6.6030862343e+01     0.351745    0.1736585 -78.27  0.001772809    2.319    0.569
       444  -8.7782    105.9523     41.3494   3.1296173586e+01   5.2954664414e+01    0.2704124    0.1923534 -47.09 0.0007395758    1.577    0.366
       445  -9.1749     69.5277     41.3416   4.3521393835e+01   5.9670654331e+01    0.2849279    0.2230864 -55.60 0.0009177317    1.506    0.336
       446  -7.8651    140.6200     41.2997   2.2096797448e+01   4.4884263780e+01    0.1565073    0.1197507 -74.27 0.0002153942    1.766    0.434
       447  -8.3329     36.7379     40.5922   5.6310759138e+01   6.3960985925e+01     0.188837    0.1441597 -70.94 0.0006872679    1.627    0.385
       448  -7.8351    160.5403     39.5139   1.7181409358e+01   4.0010781513e+01    0.1515717    0.1471222  42.68 2.765664e-06    1.017    0.017
       449  -8.5745     95.5022     38.0403   3.3233093985e+01   5.5645419040e+01    0.2114529    0.1924947 -46.78 0.0006123385    1.265    0.209
       450  -8.1652     80.6004     36.7413   3.7712513813e+01   5.8657627526e+01    0.1876945    0.1219548 -44.56 0.0005208296    1.596    0.373
       451  -9.5223     26.0401     35.3140   5.9183320664e+01   6.5977771646e+01    0.2623756     0.205481 -71.04 0.0009530929    1.527    0.345
       452  -8.0782    126.0062     35.3223   2.3444369238e+01   4.9345140313e+01    0.2049137    0.1845638  32.27 0.0004763682    1.054    0.051
       453  -8.4165    111.9339     34.4675   2.6878393782e+01   5.2732101849e+01    0.2725213    0.1927683 -48.04 0.0008988774    1.661    0.398
       454  -8.0399     88.5382     34.4866   3.4079627162e+01   5.7580763263e+01    0.1394309    0.1262897  -9.18 0.0001226709    1.040    0.038
       455  -8.7561    119.2974     32.6105   2.4138252357e+01   5.1322306274e+01    0.3698645    0.1108526 -35.74  0.001200569    3.215    0.689
       456  -8.7321     60.9099     32.5198   4.3365097864e+01   6.2553673415e+01    0.2360748    0.1701086 -51.17 0.0006625403    1.575    0.365
       457  -8.7328     48.8113     33.1171   4.8539517047e+01   6.4066983597e+01    0.1826814    0.1620362 -49.38 0.0006323594    1.297    0.229
       458  -8.6311     72.0922     30.8114   3.8359494357e+01   6.1111731371e+01    0.2277816     0.178823 -54.18 0.0007978724    1.627    0.385
       459  -7.8832    191.6707    249.3760   5.7909192003e+01  -2.5693728256e-01    0.1068164   0.07787534  60.65 0.0003944628    1.841    0.457
       460  -7.8221     42.3207     29.6842   4.9973999148e+01   6.5467922008e+01    0.1115521   0.09873621 -80.04 0.0004721728    1.659    0.397
       461  -8.7536     81.7644     27.4563   3.3447469336e+01   5.9963310017e+01    0.2460611      0.20577 -55.38 0.0008007074    1.574    0.365
       462  -9.3244      3.8415     27.2572   6.6876718351e+01   6.9029395387e+01    0.2388461    0.1406993 -74.59  0.001297611    1.911    0.477
       463  -8.7788     91.9428     26.3329   2.9556388138e+01   5.8179023716e+01    0.2917786    0.1803776 -44.22 0.0007360316    1.859    0.462
       464  -8.5651    120.9753     21.5575   1.9316171209e+01   5.2406240801e+01    0.2204869    0.1853014 -14.84  0.000519047    1.194    0.163
       465  -8.0200    104.4913     22.5221   2.4113733052e+01   5.6074582676e+01    0.1403038    0.1305283   8.82 6.742276e-05    1.067    0.063
       466  -8.8869     63.7775     20.9815   3.7259017443e+01   6.4041197814e+01    0.2834438    0.1818068 -46.33 0.0008045988    1.810    0.447
       467  -8.7254     48.4991     21.4962   4.3850322437e+01   6.6158724865e+01    0.2194482    0.1746552 -28.69 0.0006192764    1.094    0.086
       468  -7.8967     34.3388     22.6796   5.0750794885e+01   6.7606294481e+01    0.1076025     0.096282 -82.59 0.0007050058    1.713    0.416
       469  -8.4488     19.7111     21.3522   5.7224420263e+01   6.9173212398e+01    0.1586476    0.1365359 -89.20 0.0007436423    1.761    0.432
       470  -8.8535     74.0076     19.4034   3.2640531138e+01   6.2569460329e+01    0.2418814    0.1735611 -43.16 0.0007552049    1.604    0.377
       471  -8.0943     39.1390     18.1878   4.6589422401e+01   6.7865480119e+01    0.1576124    0.1333094 -42.70 0.0004979756    1.336    0.252
       472  -8.0337     87.9806     17.3078   2.6861443595e+01   6.0231845568e+01     0.185003    0.1658615  12.72 0.0004441628    1.067    0.062
       473  -7.5738    112.7157     16.7072   1.9409486118e+01   5.4945729438e+01    0.1462157   0.09918338  23.65 0.0002570587    1.538    0.350
       474  -7.9591     30.2166     15.9412   4.9842602029e+01   6.9212339688e+01    0.1581654   0.08117003 -44.84 0.0007297801    1.648    0.393
       475  -8.0711     97.3442     15.1323   2.2981559542e+01   5.8571851758e+01    0.1962205    0.1168229 -34.85 0.0005427753    1.750    0.429
       476  -8.4876    101.4654     29.2835   2.7833988614e+01   5.5782468750e+01    0.1868051    0.1301278 -38.74 0.0003887917    1.507    0.336
       477  -8.0754     16.5538     13.5141   5.5709491359e+01   7.0848604713e+01    0.1158263   0.08846764 -34.81 8.693913e-05    1.036    0.035
       478  -9.0766    175.8815    247.8011   6.0375948003e+01   2.3694006942e+00    0.2772351    0.1654636  62.17  0.001326988    2.457    0.593
       479  -7.6828     28.6350     10.3135   4.8056811250e+01   7.0322544194e+01    0.1017903   0.09468313 -79.98 0.0002264179    1.763    0.433
       480  -8.9288    156.3201    248.0683   6.3735027815e+01   5.3753483544e+00    0.2222468    0.1591713  62.47 0.0007577564    1.550    0.355
       481  -9.1359    103.9901    246.7906   7.2487148483e+01   1.3352186852e+01    0.3708863    0.1856002 -85.22  0.001961362    3.376    0.704
       482  -8.7286    218.6467    247.0132   5.3112802639e+01  -4.1214360052e+00    0.2543383    0.1267588 -31.95  0.001547693    2.534    0.605
       483  -8.0453    113.1344    248.1670   7.1072734768e+01   1.1849799072e+01    0.1456964    0.1016292  66.87 0.0008372599    1.361    0.265
       484  -8.9764     64.5415    248.4823   7.9074188646e+01   1.8326874849e+01    0.1902671   0.05809562  49.01 0.0008146131    2.239    0.553
       485  -9.1624    243.2076    245.9224   4.8979981533e+01  -7.6180343281e+00     0.303267      0.16619  -8.17   0.00189691    2.141    0.533
       486 -10.0140    223.8634    243.7354   5.1794617704e+01  -4.5802512632e+00    0.3687758    0.2201893 -41.87  0.002335458    2.541    0.606
       487  -9.2734    146.8938    245.9772   6.5114156250e+01   7.0988479955e+00    0.2391664    0.1715918  74.77  0.001531077    1.813    0.448
       488  -8.9224    142.9996    247.5110   6.5945232001e+01   7.4947230468e+00    0.2772635    0.1040366  51.24  0.001354818    2.392    0.582
