#   1 NUMBER                 Running object number                                     
#   2 MAG_AUTO               Kron-like elliptical aperture magnitude                    [mag]
#   3 X_IMAGE                Object position along x                                    [pixel]
#   4 Y_IMAGE                Object position along y                                    [pixel]
#   5 X_WORLD                Barycenter position along world x axis                     [deg]
#   6 Y_WORLD                Barycenter position along world y axis                     [deg]
#   7 A_WORLD                Profile RMS along major axis (world units)                 [deg]
#   8 B_WORLD                Profile RMS along minor axis (world units)                 [deg]
#   9 THETA_WORLD            Position angle (CCW/world-x)                               [deg]
#  10 FWHM_WORLD             FWHM assuming a gaussian core                              [deg]
#  11 ELONGATION             A_IMAGE/B_IMAGE                                           
#  12 ELLIPTICITY            1 - B_IMAGE/A_IMAGE                                       
         1 -14.1050    223.9887      3.5422   3.8688997536e+01   2.8181512259e+01     2.310051    0.9975281  57.17  0.006930577    2.378    0.579
         2 -13.9994    192.8264     37.9571   5.1353856987e+01   3.1995070618e+01     1.203775     1.013783 -51.08  0.003253736    1.171    0.146
         3 -10.3964    189.9247     14.9611   4.5128193628e+01   3.5505407683e+01    0.2161767    0.1959808 -87.87 0.0006417542    1.012    0.012
         4 -14.7024    201.0653     28.3695   4.7523136631e+01   3.1098210233e+01     1.712718     1.288221  34.94  0.001401695    1.618    0.382
         5 -11.1256     74.5293     12.9953   6.8528210173e+01   6.3340676309e+01    0.3607461    0.1889367  59.08  0.001631666    2.659    0.624
         6 -16.4090     71.5309    149.2028   1.0998712140e+02   3.5842695423e+01     15.66312     7.283862  79.89   0.03860677    7.675    0.870
         7  -9.4996     41.3427    205.8716   1.2306118348e+02   2.7166802688e+01    0.2275332    0.2014942  -7.64  0.001593507    1.945    0.486
         8 -19.1700     11.3777    156.2813   1.2531353044e+02   4.0801661250e+01     18.11767     4.576641 -79.61   0.06775718    3.735    0.732
         9  -9.7440     28.7376    209.6249   1.2569850648e+02   2.7828308131e+01    0.1438137   0.07930174  54.27 0.0004357546    1.487    0.327
        10 -12.4327    204.1524    199.0896   8.9002949566e+01   1.9321132458e+00    0.4788007    0.3659979  -0.96  0.002753512    1.380    0.275
        11 -12.6867    108.0876    202.9659   1.0926450475e+02   1.8387728503e+01    0.5498841     0.265723  48.66  0.001915686    1.826    0.452
        12 -10.8861     97.5471    200.4741   1.1115425441e+02   2.0573276827e+01    0.3368039    0.2650253   7.98  0.001205583    2.034    0.508
        13  -9.5263     94.2629    250.2479   1.1704084098e+02   1.1991278328e+01    0.1607228    0.1002669  60.37 0.0006584111    1.333    0.250
        14  -9.5725     67.4180    216.4893   1.1894660483e+02   2.1784870705e+01    0.2377654     0.100433  40.86  0.001122523    2.105    0.525
        15 -10.9867    130.9642    214.1577   1.0606301729e+02   1.2454369122e+01    0.1974266    0.1805921  86.03 0.0003075943    1.178    0.151
        16 -14.3470     85.3960    229.8810   1.1678301796e+02   1.6765030781e+01     1.871225     1.473582  75.35  0.008339276    1.132    0.117
        17 -10.1665    159.9511    197.0333   9.7486587047e+01   1.0390961988e+01    0.2020641    0.1851592  43.55 0.0003705387    1.043    0.042
        18 -12.5192     27.0701    196.0025   1.2507884847e+02   3.0758397338e+01    0.2153265    0.1642138  69.83 0.0007510491    1.088    0.081
        19 -12.2650    192.9230    194.6518   9.0372468044e+01   4.6744936629e+00     1.049005    0.5807617 -64.43  0.003457058    5.290    0.811
        20  -9.9655     82.0763    195.1269   1.1376967609e+02   2.4028243354e+01    0.2230604    0.2064517  60.51  0.001483686    1.215    0.177
        21 -13.7100     63.0653    189.3022   1.1715424154e+02   2.7921042056e+01    0.7907818      0.66333 -52.23  0.004568812    1.521    0.343
        22 -10.9956     96.8135    190.6824   1.1004241596e+02   2.2704848584e+01    0.2867903    0.2711402  62.83  0.001136301    1.179    0.152
        23 -12.9226    113.6639    208.4028   1.0881922190e+02   1.6418416761e+01      0.45211    0.3123702  58.57  0.001909986    1.322    0.244
        24 -10.0974    103.7439    213.9825   1.1153015649e+02   1.6951666468e+01    0.1817622    0.1700373  44.45 0.0006579164    1.263    0.208
        25 -11.7096    106.6155    210.4931   1.1052662688e+02   1.7161316395e+01    0.4686693    0.2739639  51.68  0.001587804    1.486    0.327
        26 -10.5869    154.0300    185.5347   9.6746313136e+01   1.3634001408e+01      0.25616    0.2022808 -75.40 0.0009058577    1.592    0.372
        27 -11.9929    147.0713    184.3442   9.8041281706e+01   1.5182939918e+01    0.5552973    0.3408279  74.31  0.002210581    2.893    0.654
        28 -10.0186     44.4860    189.2771   1.2104801246e+02   3.0243120123e+01    0.2035114    0.1653008 -77.89  0.001144036    1.237    0.192
        29 -11.0441     43.9307    210.6617   1.2293727022e+02   2.5904818016e+01    0.3367642    0.2125619 -88.72  0.001028629    1.387    0.279
        30 -11.0300     99.3498    180.6881   1.0808334994e+02   2.4424969097e+01    0.2762362    0.2229929  57.20 0.0005918113    1.127    0.112
        31 -10.1416    204.6276    176.9097   8.4639043792e+01   5.3966311447e+00    0.2693627    0.1754003 -50.43  0.001296188    1.922    0.480
        32 -12.2704     75.6253    175.1093   1.1270470338e+02   2.9296269655e+01    0.3765745    0.2979148 -40.83  0.002171965    1.674    0.403
        33 -12.3655     79.2047    170.1275   1.1120538247e+02   2.9894567191e+01     0.373813    0.2890671 -58.35  0.001179237    1.355    0.262
        34 -11.8878    142.4314    174.6448   9.7329734433e+01   1.8005198677e+01    0.3231028    0.2742291  -4.73  0.001729811    1.486    0.327
        35 -11.2147     45.8849    172.8553   1.1915474913e+02   3.3666380809e+01    0.3721283    0.2582747  43.07  0.002055965    1.490    0.329
        36 -11.4114    132.5113    172.0126   9.9098223609e+01   2.0439006897e+01    0.2863002     0.202895  27.53  0.001185853    1.644    0.392
        37 -10.3922     56.8048    175.3106   1.1698583497e+02   3.1792656371e+01    0.4339746    0.1692258  53.29  0.001864317    2.615    0.618
        38 -10.6431     72.8065    203.3987   1.1661112501e+02   2.3649089244e+01    0.3821483    0.2489594  71.48  0.001641609    1.428    0.300
        39  -9.8537    161.9477    166.8807   9.1488782657e+01   1.5715171016e+01    0.2196851    0.2065313  52.66 0.0005144287    1.062    0.058
        40 -10.6606    229.6315    165.8171   7.7622512539e+01   2.4559755047e+00    0.1951816    0.1207483 -41.63 0.0007303097    1.730    0.422
        41 -13.8096     54.1389    202.9046   1.2031696289e+02   2.6222927588e+01     0.895945    0.5362576  69.00  0.002063459    1.494    0.331
        42  -9.9120    156.4590    159.8775   9.1284206262e+01   1.8242442685e+01     0.216751    0.1478016 -48.31  0.001010368    1.543    0.352
        43 -12.5160     93.4117    154.0213   1.0526857389e+02   3.1386612126e+01     0.680382    0.4892684 -31.13  0.002472341    1.954    0.488
        44  -9.2462    149.3276    155.9981   9.2107473906e+01   2.0507281137e+01     0.242076    0.1229041 -67.63 0.0007051068    4.329    0.769
        45 -11.5357    133.7491    144.7127   9.3419108328e+01   2.6117160518e+01     1.174402     0.315165 -54.88   0.00291481    5.363    0.814
        46 -10.6472    174.3648    148.8172   8.4905653134e+01   1.6710841801e+01    0.3114776    0.2705953  88.02 0.0009657512    1.409    0.291
        47 -10.7139    143.4206    146.1067   9.1384081297e+01   2.3834595599e+01    0.3593724    0.1437265 -56.00  0.001142599    3.241    0.691
        48 -10.4408     87.2539    145.0364   1.0525797540e+02   3.4480259867e+01    0.3405338    0.2414638 -78.85   0.00101832    1.471    0.320
        49 -12.4318     93.4461    139.5862   1.0263251172e+02   3.4765069774e+01    0.2902489    0.2516661 -49.67 0.0005819732    1.203    0.168
        50 -11.7019    106.3213    139.4599   9.9239807133e+01   3.2568403856e+01    0.5692199    0.4800235 -15.42   0.00294088    1.539    0.350
        51 -11.0311    135.9949    128.2010   8.9106703867e+01   2.9324682139e+01    0.5648727     0.206634 -51.90  0.001789203    3.010    0.668
        52 -11.0387    114.0245    130.4986   9.5305139684e+01   3.3226049676e+01    0.4446998    0.3716629  87.39  0.001752526    1.326    0.246
        53 -10.8754    105.9459    130.8114   9.7517715529e+01   3.4658182378e+01    0.3577281    0.3102411 -74.08  0.001265814    1.147    0.128
        54 -10.1272    160.7714    127.8751   8.3035256976e+01   2.3976140228e+01      0.30078    0.2231383 -62.43  0.001214897    1.587    0.370
        55 -11.2859    119.5760    124.0631   9.2353493135e+01   3.3628165394e+01    0.6830563    0.3878739 -27.32  0.002410217    2.942    0.660
        56 -11.0404    101.1720    126.1737   9.7791063728e+01   3.6606076532e+01    0.2962508     0.250777 -25.59  0.001131474    1.400    0.286
        57  -9.7277    135.0000    120.0074   8.7347629577e+01   3.1354778553e+01    0.2596358   0.08822191 -46.09 0.0007991694    2.920    0.658
        58 -12.0926     66.3764    206.8240   1.1824749734e+02   2.3835657361e+01    0.5445668    0.3984275 -24.51 0.0005141331    2.842    0.648
        59 -10.2287    109.3195    119.0999   9.3932985989e+01   3.6763598725e+01    0.2478441    0.2117722  51.39 0.0002483571    1.206    0.171
        60 -10.0591    167.7667    112.5378   7.7508840487e+01   2.5526524800e+01    0.3734922     0.263981 -80.62  0.001493157    2.192    0.544
        61 -10.1005    135.0000    112.5131   8.5422514388e+01   3.3006943829e+01    0.3498385   0.08854778 -45.01 0.0009310107    3.905    0.744
        62 -11.7879    118.6079    110.1977   8.9165298758e+01   3.6978051044e+01    0.5781198    0.4900744  88.22  0.002876723    1.373    0.272
        63 -10.0907    205.5116    110.1681   6.9106083798e+01   1.7094343813e+01    0.2636107    0.2169681  48.16 0.0005698489    1.257    0.204
        64 -10.7931     66.7763    104.2255   1.0288024286e+02   4.7251140356e+01    0.3022509    0.2322267  -7.93   0.00158158    1.736    0.424
        65 -11.7504     42.0701     91.0351   1.0788349660e+02   5.3293572748e+01    0.3847723    0.2527262 -47.44  0.001486783    1.352    0.260
        66 -11.2749     52.7108     90.5131   1.0423461134e+02   5.2249330727e+01    0.2689851    0.2098045 -34.42  0.001312523    1.314    0.239
        67 -10.7843     47.9913    218.0000   1.2273663489e+02   2.3980133864e+01    0.3639711    0.2355378  10.36  0.001764292    4.041    0.753
        68  -9.0072    156.2845     80.7006   7.1117593306e+01   3.4560153999e+01    0.1566112    0.1241406 -73.25 0.0002269491    1.551    0.355
        69  -8.9378    184.3692     77.2953   6.4205659568e+01   2.8123389465e+01    0.1631234     0.119803  23.89 0.0007028669    1.727    0.421
        70 -10.1744     64.8492     70.1467   9.4564693171e+01   5.5235569098e+01    0.2238208    0.1922042  -4.73 0.0003514147    1.231    0.188
        71 -10.6519    156.6596     58.8770   6.4228799063e+01   3.8300637114e+01    0.2785038    0.2369708  84.90 0.0004028862    1.311    0.237
        72 -11.7115     61.7180    235.0984   1.2154702786e+02   1.9060089997e+01    0.2026636    0.1467892  77.74 0.0004212034    1.167    0.143
        73 -13.7774    181.7435     47.0429   5.5763653953e+01   3.3620526418e+01     1.081474    0.9236387   6.31 0.0008240034    1.379    0.275
        74  -9.3105     51.3259    216.3232   1.2198615570e+02   2.3896266304e+01    0.2189409    0.1544223 -69.56  0.001466708    1.513    0.339
        75 -10.4717    158.7852     52.7566   6.1815542465e+01   3.8728823670e+01    0.2659636    0.2427091 -76.82 0.0003932948    1.170    0.145
        76  -9.2904     29.4983    217.0407   1.2603812105e+02   2.6298076948e+01    0.3184136    0.1282503 -63.36  0.001719276    2.598    0.615
        77  -8.8186     61.1729    218.9976   1.2035442380e+02   2.2127561733e+01    0.5263187     0.214028  84.66  0.002025223    4.248    0.765
        78  -9.9556     36.9815    224.7364   1.2519916558e+02   2.3995661958e+01    0.1372706    0.1241115  78.46 0.0004949576    1.395    0.283
