#   1 NUMBER                 Running object number                                     
#   2 MAG_AUTO               Kron-like elliptical aperture magnitude                    [mag]
#   3 X_IMAGE                Object position along x                                    [pixel]
#   4 Y_IMAGE                Object position along y                                    [pixel]
#   5 X_WORLD                Barycenter position along world x axis                     [deg]
#   6 Y_WORLD                Barycenter position along world y axis                     [deg]
#   7 A_WORLD                Profile RMS along major axis (world units)                 [deg]
#   8 B_WORLD                Profile RMS along minor axis (world units)                 [deg]
#   9 THETA_WORLD            Position angle (CCW/world-x)                               [deg]
#  10 FWHM_WORLD             FWHM assuming a gaussian core                              [deg]
#  11 ELONGATION             A_IMAGE/B_IMAGE                                           
#  12 ELLIPTICITY            1 - B_IMAGE/A_IMAGE                                       
         1 -13.2322     30.5632     59.4031   9.7595768667e+01   6.1622249994e+01     1.028343    0.8654285  31.88  0.002504457    1.470    0.320
         2 -10.5870     46.5861     17.5125   7.4076034341e+01   6.7103750187e+01    0.4284726    0.1695121 -27.77  0.001505436    2.551    0.608
         3 -12.7737    216.4487     13.8365   3.5938853495e+01   3.0107533692e+01    0.6446725    0.4368621  70.59  0.001383152    1.406    0.289
         4 -11.1376    109.2873     12.2875   5.1143053489e+01   5.5682373787e+01    0.2611093    0.1621973  86.05  0.001181763    2.559    0.609
         5 -11.3966     66.5867     11.0261   6.2955015473e+01   6.4602107742e+01    0.4206838    0.1672876  47.50  0.001910652    2.337    0.572
         6 -12.9081    190.3184      9.2698   3.7378968116e+01   3.6601884951e+01    0.5298541    0.2926829  83.89  0.002657869    1.802    0.445
         7 -11.9638     57.0861      6.2918   6.4198230172e+01   6.6774132188e+01    0.5861586    0.4944272 -64.45   0.00353782    2.176    0.541
         8 -11.9407     43.7312      8.5261   7.0905657028e+01   6.8659390590e+01      0.31049    0.2188924  34.46 0.0009506646    1.439    0.305
         9 -10.0748    203.6687      3.2871   3.4589972887e+01   3.4066151219e+01    0.1308102   0.07962371 -67.32 0.0003476234    1.620    0.383
        10 -11.4257    165.5404      1.7200   3.8120882739e+01   4.3210241034e+01    0.3970898      0.15513  68.62   0.00105637    2.186    0.543
        11  -9.6680    120.4457      1.7997   4.4898690603e+01   5.3998929019e+01    0.1648469    0.1177349  12.16 0.0005237089    1.566    0.361
        12 -10.3545    104.2388    225.4402   1.0664857277e+02   1.3943739130e+01    0.2231901     0.177717 -67.50  0.001381471    1.384    0.277
        13 -10.3781      8.1659    250.6449   1.2688186122e+02   2.0747077649e+01    0.1272884   0.08912834  32.97 0.0009462169    1.701    0.412
        14 -11.0356     95.6698    224.9601   1.0839604933e+02   1.5280923797e+01    0.3133421    0.1733682  54.76  0.001595932    1.800    0.444
        15 -10.4445    149.3985    223.6162   9.6840654603e+01   7.2905377471e+00    0.2270181     0.125444 -66.97 0.0009558935    3.204    0.688
        16 -12.1204    238.9474    216.8009   7.7999362363e+01  -5.4630765205e+00    0.5340973    0.2906136 -15.48  0.002767193    1.949    0.487
        17  -9.7948     21.7457    219.0028   1.2283702359e+02   2.5484637873e+01     0.149119   0.08261695 -81.33  0.000723302    1.602    0.376
        18 -10.0427    211.3113    218.0306   8.3348272716e+01  -1.6055800114e+00    0.1818493    0.1516897 -10.53 0.0006901607    1.130    0.115
        19 -11.3400    235.5042    210.5826   7.7486502295e+01  -4.0948233978e+00    0.4338933    0.1419451  32.27  0.001734979    3.147    0.682
        20 -10.1447    116.2089    208.6837   1.0184737454e+02   1.5449090118e+01    0.4115194    0.1528604 -52.76  0.001643433    2.847    0.649
        21  -9.9331     99.3290    206.6523   1.0534442519e+02   1.8464804830e+01    0.1421796   0.09384897  67.41 0.0007049501    1.759    0.431
        22 -11.5813     50.2534    201.8218   1.1567833650e+02   2.6070263196e+01    0.5003631    0.2683703  59.90  0.002543977    1.849    0.459
        23  -9.9618    112.3409    197.6651   1.0111033268e+02   1.8358660658e+01    0.1458202    0.1009429  67.95 0.0007051011    1.756    0.431
        24 -12.1790    159.9560    191.8039   8.9246097757e+01   1.1474656285e+01    0.7483735    0.5409452  86.40  0.003315096    2.514    0.602
        25 -10.3242    149.0037    198.2784   9.2846056194e+01   1.2112823542e+01    0.2753143     0.185868 -81.96  0.001182908    2.692    0.628
        26 -11.4702    226.4242    221.6572   8.1140830851e+01  -4.3707811127e+00    0.2246367    0.1875055  45.35  0.001366218    1.703    0.413
        27 -10.1477    183.4370    182.9875   8.2425671817e+01   8.9679329948e+00    0.4010676    0.1361199 -42.48  0.001412802    2.979    0.664
        28 -10.0027    224.3028    183.6586   7.4372734601e+01   1.7794945241e+00    0.1224352    0.1093889 -64.78 0.0006674238    1.677    0.404
        29 -10.6309     37.3751    180.1728   1.1646739662e+02   3.2368027440e+01    0.1834727    0.1042602 -86.12 0.0008188096    1.686    0.407
        30  -9.9855    191.5937    177.7887   7.9653937307e+01   8.4649662690e+00    0.2010612    0.1332333 -49.06 0.0009555725    1.721    0.419
        31  -9.5550     28.9502    176.5030   1.1806989268e+02   3.4055229301e+01    0.1595379    0.1222272  31.67 0.0003914438    1.506    0.336
        32  -9.5632    159.3254    175.6510   8.6293868094e+01   1.4832345751e+01    0.1470555    0.1188885  81.13  0.000704913    1.753    0.429
        33 -10.4360     38.4189    174.7864   1.1567407658e+02   3.3514534175e+01       0.1815    0.1019832 -62.31 0.0009476662    1.624    0.384
        34 -11.5423     44.9684    170.5709   1.1362711256e+02   3.3814808122e+01     0.576579    0.2412391 -81.74  0.002281293    2.851    0.649
        35 -11.8089     55.2757    168.0364   1.1075377471e+02   3.3249384291e+01    0.4988794    0.2764733  88.36  0.001791176    2.207    0.547
        36 -10.0730    120.8808    169.0290   9.4228572651e+01   2.3266059368e+01    0.3420731    0.1996949 -78.04  0.001234328    3.085    0.676
        37  -9.5581    215.2812    193.9315   7.8116920765e+01   1.5690580671e+00    0.1983161    0.1022888 -55.42 0.0007014031    4.104    0.756
        38 -10.6633     52.0040    160.1187   1.1055151329e+02   3.5541561734e+01    0.2472767     0.196687  74.08 0.0008775704    1.247    0.198
        39  -9.8039     92.7212    160.7349   9.9945830161e+01   2.9882934962e+01    0.2366191    0.1047272  46.30 0.0009002815    2.404    0.584
        40 -10.4651     22.3096    159.5004   1.1802238675e+02   3.8651349432e+01     0.325885    0.1763062  72.68  0.001634878    2.009    0.502
        41 -11.5703    118.6705    157.4418   9.2543124769e+01   2.6324128809e+01    0.4390507    0.3698525 -50.49  0.001181056    1.180    0.152
        42 -10.7252    167.3843    157.0222   8.0531942957e+01   1.7143226922e+01    0.3820131    0.2643902 -70.13  0.001602728    2.257    0.557
        43 -10.2809    218.5417    155.7503   6.9597000102e+01   7.5525253901e+00    0.3531274    0.1270926 -40.57  0.001297064    2.597    0.615
        44  -9.7913     23.4875    153.9492   1.1715755713e+02   3.9877188861e+01    0.1926377    0.1067072 -75.40 0.0004632471    1.526    0.345
        45  -9.8991     40.3568    153.0622   1.1267914246e+02   3.8519608475e+01     0.189554    0.1429508 -75.08 0.0004528078    1.153    0.133
        46 -11.1175    106.3799    158.7002   9.5986960571e+01   2.8157628165e+01    0.5484776    0.2421539  48.16   0.00202282    2.542    0.607
        47  -9.7668    189.4677    149.9748   7.4091621511e+01   1.4185841129e+01    0.2095233    0.1285552 -61.10 0.0008095185    2.539    0.606
        48  -8.9462    195.6592    146.3118   7.1967152865e+01   1.3666203626e+01    0.1447994    0.1210765 -81.21 0.0005264904    1.697    0.411
        49 -10.5529    107.0009    145.5340   9.3202005581e+01   3.1188133632e+01     0.359035    0.2521174  81.16  0.001540144    2.085    0.520
        50 -10.2231     55.6902    145.7070   1.0748224906e+02   3.8648792108e+01    0.2857137     0.158208  89.09  0.001177929    2.493    0.599
        51 -10.0788    148.3980    145.1888   8.2367842489e+01   2.3457280443e+01    0.2231635    0.1456701 -57.01 0.0006920531    1.749    0.428
        52  -9.6946    181.7934    141.5824   7.3791478594e+01   1.7397824062e+01    0.2098202    0.1464492  55.26 0.0007723761    1.693    0.409
        53 -11.9904     98.7255    128.3547   9.1781352797e+01   3.6740003610e+01       1.1111    0.6419151  66.30  0.003871615    3.244    0.692
        54 -11.4332     94.1187    121.8878   9.1637113146e+01   3.9072596508e+01    0.4564356    0.2684346  37.11 0.0004287034    1.785    0.440
        55 -10.8757     83.1676    131.6893   9.7046810648e+01   3.8432488947e+01     0.456173    0.2620198 -78.05  0.001741359    2.620    0.618
        56  -9.9002    132.1668    131.9953   8.3387506955e+01   2.9663707096e+01     0.260298    0.1856982 -77.01  0.001077208    2.057    0.514
        57 -11.1399     43.6856    122.7987   1.0723519084e+02   4.5644465430e+01    0.7931948    0.4168105  81.30  0.002938619    3.483    0.713
        58 -10.1421     59.0055    124.3204   1.0281790172e+02   4.3556093420e+01    0.2936523      0.17172  88.94   0.00116987    2.700    0.630
        59 -11.2495     27.8869    122.2485   1.1195132059e+02   4.7233736401e+01    0.6682429    0.3063224  77.12  0.002230453    4.599    0.783
        60 -11.8158    193.2660    118.3294   6.5747775885e+01   1.9541036605e+01    0.6229499    0.4363006 -65.75  0.001892699    1.981    0.495
        61 -10.7784     71.6879    120.5647   9.8151753268e+01   4.2830618361e+01    0.4048642    0.2280762 -80.76  0.001500093    2.932    0.659
        62 -11.1531    141.6440    115.2943   7.6696039081e+01   3.1423924989e+01    0.7343379    0.3829243 -41.49  0.002853353    1.880    0.468
        63 -10.6082    108.5553    113.3057   8.5253085665e+01   3.8540062502e+01    0.6805363    0.2887518 -60.14  0.002025137    3.711    0.731
        64 -10.6299     78.5726    112.5968   9.4204926275e+01   4.3774176709e+01    0.4601122    0.2877595 -85.48  0.001762451    2.848    0.649
        65 -12.3111    160.4990    112.6791   7.1379377691e+01   2.7865977856e+01     0.603071    0.4634765 -80.17  0.002675788    1.849    0.459
        66 -10.5766    121.9395    111.8089   8.1039484249e+01   3.6283380560e+01    0.4937924    0.1996069 -53.20  0.001588175    2.904    0.656
        67 -10.3206     91.9928    111.6393   8.9791301296e+01   4.1870684243e+01    0.5175214    0.2431319 -63.20  0.001754326    2.982    0.665
        68 -10.4401     18.6634    112.6977   1.1336280188e+02   5.0262905706e+01    0.2410816    0.1596286 -43.30  0.001028223    1.466    0.318
        69 -11.3809     14.2024    109.5938   1.1430698632e+02   5.1310002610e+01    0.6393271    0.2828544 -75.48  0.002949359    2.069    0.517
        70 -10.1564     71.2281    115.9283   9.7283289619e+01   4.4027625233e+01    0.2548709    0.1444484 -36.20  0.001080611    1.984    0.496
        71 -12.3364    140.8513    104.1340   7.3875185535e+01   3.3974099498e+01     0.796369    0.5574157 -54.49  0.003529003    1.584    0.369
        72 -11.9896     44.8785    100.8285   1.0261643305e+02   5.0887370836e+01    0.6920862    0.4486999 -89.77  0.002983205    2.196    0.545
        73 -12.0231    127.2047    100.9947   7.6611984418e+01   3.7568511908e+01    0.5345471    0.5050499  36.27  0.002398323    1.089    0.082
        74 -10.7072     21.7288    101.2350   1.1054303515e+02   5.2810087712e+01    0.5515391    0.2428209  66.07  0.001559237    7.184    0.861
        75 -10.9985    174.2474    110.4833   6.7698590692e+01   2.5244492596e+01    0.4201768     0.301383 -44.54  0.001067172    1.372    0.271
        76 -11.8371    115.8131    102.3246   8.0186929332e+01   3.9615966442e+01    0.4882387    0.2615001  43.10  0.001957321    1.932    0.482
        77 -11.7778    108.1415     99.4702   8.1633199437e+01   4.1747680566e+01     0.769813    0.5524682 -86.26  0.003166134    2.381    0.580
        78 -10.9065     94.7311     96.9039   8.5021414792e+01   4.4796365132e+01    0.4505332    0.2040616 -56.79  0.001576773    2.714    0.632
        79 -11.1535     63.1775     96.3755   9.5300721097e+01   4.9797409299e+01     0.362015    0.2292022 -81.87  0.001501916    2.605    0.616
        80 -11.1358    170.4771     94.9453   6.4337166666e+01   2.9100727415e+01    0.2732988    0.2637407 -70.36 0.0003438643    1.094    0.086
        81 -12.4656    169.8590     90.6565   6.3282285927e+01   3.0045134617e+01    0.4792424    0.4326934  -0.72 0.0006732431    1.183    0.155
        82 -10.4606      4.8595     91.7593   1.1470344747e+02   5.6072707711e+01    0.2422829    0.1415389  80.73  0.001251391    2.188    0.543
        83 -10.7501     34.0485     88.6673   1.0376894819e+02   5.4808641626e+01    0.4417571    0.1895865 -70.62  0.001722121    2.859    0.650
        84 -11.3420     87.4057     87.1827   8.4579203188e+01   4.8218387175e+01    0.5151422    0.3157561  54.62  0.002182881    2.247    0.555
        85 -10.7513    104.8946     83.7580   7.7976226286e+01   4.5737718535e+01    0.3606409    0.3025444  80.60  0.001348155    1.632    0.387
        86 -10.8095     24.3939     80.3336   1.0549281606e+02   5.7525429088e+01    0.4318911    0.2654872  88.90  0.002057633    2.516    0.603
        87 -11.1309     46.8615     83.2779   9.7765412988e+01   5.4788110849e+01    0.6664827    0.4086445  76.43  0.002515129    3.944    0.746
        88 -10.3521    124.5706     91.8176   7.4683575258e+01   4.0052420784e+01    0.2268086    0.1441553 -52.55 0.0009501868    1.752    0.429
        89  -9.5946      1.5431     77.9243   1.1361126832e+02   5.9417063059e+01    0.1934898   0.09302762 -64.27  0.001022344    1.581    0.368
        90 -10.8962     62.4847     70.5141   8.8241568561e+01   5.5646952409e+01     0.414828    0.1648478 -44.18  0.001657074    2.239    0.553
        91 -11.0836     82.6054     73.5790   8.1988021757e+01   5.1903624608e+01     0.465981    0.3253025 -80.67   0.00189704    2.945    0.660
        92 -10.0346    116.5354     73.8427   7.1388307257e+01   4.5316272467e+01    0.2814997    0.2074744 -89.91   0.00119292    2.322    0.569
        93 -11.9814     21.1590     51.5493   9.9336834425e+01   6.4021864022e+01     0.790463    0.4813181 -71.98  0.004053086    2.337    0.572
        94 -11.8128     42.2287     63.7421   9.4056103884e+01   5.9565097743e+01    0.6067964    0.2857638 -51.11  0.001116242    1.863    0.463
        95 -11.2724    221.0282    248.5319   8.6619940556e+01  -7.2323914263e+00    0.5493466    0.2307317  43.07  0.002584186    2.861    0.651
        96  -9.7776     35.6470     82.6620   1.0179149243e+02   5.6054936312e+01    0.1469888   0.08309759 -32.79 0.0007043605    1.799    0.444
        97 -10.8771     51.6824     70.8139   9.2452458435e+01   5.6988398851e+01    0.3851828    0.2484777 -68.01  0.001833481    2.126    0.530
        98 -11.9267    239.5101     64.9470   4.5354254798e+01   1.8577562724e+01    0.5607093    0.3172453  86.78  0.002544721    2.557    0.609
        99 -11.7498    231.0836     58.7951   4.4938528895e+01   2.1240162676e+01    0.3787511    0.2338517 -48.35  0.001970378    1.470    0.320
       100 -10.0134      8.9766     65.3343   1.0820650489e+02   6.1877002348e+01    0.2434206    0.1225794 -44.49  0.001321199    1.553    0.356
       101 -10.9324    144.9630     64.0464   6.0920934147e+01   4.0607688837e+01    0.2157709    0.2100205  38.77 0.0003061482    1.025    0.024
       102  -9.7190    100.4962     60.9801   7.1849702941e+01   5.0987350413e+01    0.2028821     0.124444 -58.59 0.0008103133    2.557    0.609
       103 -10.1356     72.8183     59.0072   8.0536322352e+01   5.6380741585e+01    0.2159711    0.1644365 -65.87 0.0009185792    1.968    0.492
       104 -11.0614      9.4328     56.4595   1.0589486616e+02   6.3768508375e+01    0.5393214    0.4246105  77.72  0.003424219    1.844    0.458
       105 -10.4029    197.1533     67.3521   5.1814722809e+01   2.7600699394e+01    0.3746922     0.217959  45.98  0.001005188    1.884    0.469
       106 -10.4263     54.2566     54.2444   8.6008488318e+01   6.0023263167e+01    0.4130569    0.2317522 -62.29  0.001690339    3.139    0.681
       107  -9.7029     62.5978     54.8121   8.2900061498e+01   5.8746564708e+01    0.1929438    0.1231282 -50.74 0.0009534466    1.758    0.431
       108 -11.1584    149.6741     53.1839   5.6461007255e+01   4.1183744473e+01    0.3137448    0.2584424  51.42 0.0007582263    1.171    0.146
       109 -10.1191    119.9800     57.1525   6.4872923199e+01   4.7502284529e+01    0.2384726    0.1782489  85.63  0.001082708    2.060    0.514
       110 -10.1735    161.1716     53.2148   5.4148972595e+01   3.8390470223e+01    0.3299827    0.1958374  68.10 0.0009802091    1.872    0.466
       111 -10.2797     92.1634     50.4784   7.0717445124e+01   5.4427320487e+01    0.4271274    0.2039402 -49.63  0.001618506    2.953    0.661
       112 -11.5256     74.6234     43.1962   7.3959785539e+01   5.8845649296e+01    0.3953583    0.3464846  73.49   0.00226736    1.745    0.427
       113 -10.9683     69.7714     42.1856   7.5356028984e+01   5.9833967256e+01    0.3584672    0.3104275 -69.31  0.001642815    1.800    0.445
       114 -11.6205      7.5000     42.9664   1.0307439768e+02   6.6657932172e+01    0.5256707    0.2887169  35.36  0.002942065    2.472    0.595
       115 -10.6925    153.9847     48.3701   5.4068918024e+01   4.0838612687e+01     0.250598    0.2121125 -30.40 0.0003691511    1.224    0.183
       116 -11.5786     36.9788     38.7752   8.7698444727e+01   6.4995345392e+01    0.3843368    0.3404535  75.39  0.002407656    1.961    0.490
       117 -10.1193     48.0144     35.3790   8.1405963770e+01   6.4223747491e+01    0.2178621      0.14899 -21.21 0.0005126142    1.299    0.230
       118 -10.3317     42.1889     36.4061   8.4400078144e+01   6.4799027687e+01    0.2200848    0.1150141  24.22 0.0007710101    1.988    0.497
       119 -10.3056    109.2686     31.8793   5.8644882036e+01   5.3544589772e+01    0.2743914    0.2187834  89.40 0.0008740571    1.777    0.437
       120 -10.8087    103.4986     29.9443   5.9460815022e+01   5.5051288168e+01    0.4444145    0.2840073  67.67  0.001876172    2.059    0.514
       121 -10.0759     73.4977     32.5288   7.0033618071e+01   6.0669052663e+01    0.2660258    0.2148286 -81.44  0.001384215    2.389    0.581
       122 -10.4990     35.9695     23.0504   8.1564643963e+01   6.7725556218e+01    0.4820579    0.1761747  38.28  0.001425628    3.159    0.683
       123 -10.0802     39.6741     14.7120   7.5868743545e+01   6.8450489965e+01    0.3301354    0.1585687 -12.06  0.001127456    2.948    0.661
       124 -11.1205     41.9322     21.1148   7.7876218747e+01   6.7251730235e+01     0.376099    0.2823994  43.35  0.001579927    1.826    0.452
       125 -11.3761     22.4349    248.2889   1.2437457262e+02   1.9772636439e+01     0.192365    0.1561275  45.37 0.0009873828    1.352    0.260
       126 -12.3459    204.3924     21.2228   3.8908259308e+01   3.2056243363e+01    0.4647909    0.2542004  69.95  0.002358847    1.722    0.419
       127 -11.2217    239.5658     20.5343   3.5441956342e+01   2.4346454327e+01    0.2844346    0.1952108  80.75 0.0006162559    1.416    0.294
       128 -10.0867     14.6630    249.6935   1.2576139726e+02   2.0293451977e+01    0.0876634   0.07853504 -55.98 0.0007041277    1.675    0.403
       129 -10.6040    222.5983     16.3051   3.5955915578e+01   2.8473258039e+01    0.2973371    0.2107093  53.14  0.001470327    1.616    0.381
       130 -10.0199     89.1296     18.2363   5.8832944769e+01   5.9453876682e+01    0.2402663    0.1859326  70.83  0.001344442    1.728    0.421
       131 -10.4163     30.9217     17.8579   8.1628666503e+01   6.9108865817e+01    0.1958831    0.1330022  -8.41 0.0007926286    1.269    0.212
       132 -10.1192     32.9698    242.4529   1.2219904082e+02   1.9749310646e+01    0.1627052   0.08987045  41.54 0.0008913059    1.588    0.370
       133 -10.9830     20.5986    241.1906   1.2432177267e+02   2.1267918532e+01    0.2545638   0.06460376  47.26  0.001224007    2.762    0.638
       134 -10.5549      7.9631    240.7256   1.2648094796e+02   2.2575713923e+01    0.1518734    0.1084518  64.87  0.001161753    1.060    0.057
       135 -10.8227     19.3858    236.6283   1.2429242159e+02   2.2249366121e+01    0.2066232    0.1318321  29.18   0.00137316    1.883    0.469
       136 -10.1333    109.1231    232.7939   1.0650767256e+02   1.1831955541e+01    0.1937105    0.1452157  51.21 0.0009733373    1.191    0.160
       137  -9.3128     77.6667     11.3062   5.9337084089e+01   6.2483071099e+01    0.1142762    0.1028443 -71.70 0.0007039627    1.666    0.400
       138 -10.7277     12.9638    228.0678   1.2498751362e+02   2.4520967960e+01    0.2808899     0.126326  86.66  0.001096742    2.047    0.512
       139  -9.3451     71.7079    229.3205   1.1379367778e+02   1.7694962562e+01    0.1264733   0.07768466  65.19 0.0002179786    1.607    0.378
