#   1 NUMBER                 Running object number                                     
#   2 MAG_AUTO               Kron-like elliptical aperture magnitude                    [mag]
#   3 X_IMAGE                Object position along x                                    [pixel]
#   4 Y_IMAGE                Object position along y                                    [pixel]
#   5 X_WORLD                Barycenter position along world x axis                     [deg]
#   6 Y_WORLD                Barycenter position along world y axis                     [deg]
#   7 A_WORLD                Profile RMS along major axis (world units)                 [deg]
#   8 B_WORLD                Profile RMS along minor axis (world units)                 [deg]
#   9 THETA_WORLD            Position angle (CCW/world-x)                               [deg]
#  10 FWHM_WORLD             FWHM assuming a gaussian core                              [deg]
#  11 ELONGATION             A_IMAGE/B_IMAGE                                           
#  12 ELLIPTICITY            1 - B_IMAGE/A_IMAGE                                       
         1  -8.4793     55.8172     10.0250   3.3238578205e+01   6.6432623753e+01    0.1606513    0.1542158  10.17 0.0005824958    1.322    0.244
         2  -8.5126     90.7665      8.4023   2.1712498459e+01   5.9872777708e+01    0.2030734    0.1459041 -39.01 0.0007092801    1.667    0.400
         3  -7.9953     13.2417      8.9573   5.2466259335e+01   7.2369933219e+01    0.1353228   0.07903388 -35.32 0.0005367404    1.569    0.363
         4  -8.1119     70.4790      5.9866   2.6423839241e+01   6.4173906371e+01    0.1643616    0.1139535 -19.01 0.0009291311    1.557    0.358
         5  -8.4175     33.4221      4.6980   4.0035541793e+01   7.0477013452e+01    0.2360711    0.1585783 -48.74  0.001404546    2.558    0.609
         6  -8.9247     97.2734      4.7998   1.8763736838e+01   5.8791657680e+01    0.2094589    0.1657048  39.03 0.0002228201    1.140    0.123
         7  -8.5578     79.1106      3.6234   2.2882353761e+01   6.2688843413e+01    0.2129862    0.1554952 -39.07  0.001262504    1.697    0.411
         8  -8.0220     44.5907      2.8190   3.4224706814e+01   6.9008367488e+01    0.1455995   0.09985428 -32.35 0.0006396864    1.699    0.411
         9  -8.2723    113.9671      2.4969   1.4468412413e+01   5.5265027457e+01    0.2041083    0.1021543  61.05  0.001035756    1.628    0.386
        10  -7.9866     62.7169      1.5117   2.6927507902e+01   6.6022658927e+01     0.148996    0.1051164  58.23  0.000927757    1.551    0.355
        11  -7.5502     39.4739      1.4498   3.5694589808e+01   6.9936820146e+01    0.1137821   0.08939259  15.38 0.0001082141    1.016    0.016
        12  -9.2257    210.8800    246.3278   5.3980313878e+01  -7.6192480173e+00    0.2308661    0.1683068 -52.70  0.001043691    1.981    0.495
        13  -8.6033    248.9966    248.8785   4.7592328863e+01  -1.2901144873e+01    0.3038521    0.1623575 -11.88  0.001704547    2.081    0.519
        14  -9.5533    248.7758    242.0290   4.6520894601e+01  -1.1997135651e+01    0.3691693     0.188884 -40.17  0.001303853    2.109    0.526
        15  -9.3839    233.2009    246.6856   4.9978174496e+01  -1.0663697460e+01     0.502756    0.2158553 -32.07  0.002301502    2.338    0.572
        16  -8.4126     94.1866    249.0951   7.7762180369e+01   9.7487083946e+00    0.3217721    0.1560445  64.83  0.001401932    2.723    0.633
        17  -9.5871    120.0588    245.2955   7.2004277169e+01   6.4958084654e+00    0.3316585    0.2176172  82.23  0.001697319    2.153    0.536
        18  -8.9005     20.1048    246.2884   9.2003573409e+01   2.0033950037e+01    0.1769774    0.1321983 -87.49 0.0005105648    1.273    0.215
        19  -8.2487     13.6663    247.2897   9.3228137089e+01   2.0535885926e+01    0.1229408   0.05926004  62.22 0.0002594129    1.630    0.387
        20  -9.2408    146.8606    245.6470   6.6508201065e+01   2.1867102499e+00    0.2777663    0.1851727  64.05  0.001262008    1.981    0.495
        21  -8.5006     67.6046    245.2060   8.2768114192e+01   1.4331777215e+01    0.1555435     0.109844 -64.16 0.0009434706    1.606    0.378
        22  -8.6108    169.2406    243.3953   6.1629529832e+01  -9.6510903713e-01    0.2588527    0.1823434  60.30 0.0007395523    1.904    0.475
        23  -8.6842    139.3713    243.8987   6.7816342701e+01   3.6869944656e+00    0.2243511    0.1262443 -66.03   0.00107315    2.512    0.602
        24  -9.0871     78.1096    243.0512   8.0437372567e+01   1.3282672510e+01    0.3556107    0.1594872  66.38  0.001454949    3.045    0.672
        25  -8.2061     49.7428    243.4579   8.6175035353e+01   1.7062394132e+01    0.2515898   0.08997184 -86.86 0.0009052683    4.393    0.772
        26  -8.4616      9.4659    243.7469   9.3804911093e+01   2.1681945637e+01     0.218627   0.08978795 -88.60  0.001148798    2.221    0.550
        27  -8.3961    201.9357    242.9696   5.5138606143e+01  -5.8516611316e+00    0.1966455    0.1636781 -39.97 0.0006987844    1.431    0.301
        28  -9.3137    193.9707    239.3125   5.6096260917e+01  -4.1134842848e+00    0.1990694    0.1739931 -45.76 0.0005091482    1.418    0.295
        29  -9.3510    160.1060    240.0986   6.3002684425e+01   1.0364005830e+00    0.3241633    0.2409804  85.49  0.001418114    2.173    0.540
        30  -7.7535    153.4747    241.9806   6.4637406816e+01   1.7708843913e+00    0.1616665    0.1141807  89.76 0.0008080226    2.398    0.583
        31  -7.9061     88.3218    242.0978   7.8237004051e+01   1.1981203330e+01    0.1741904    0.1094496 -85.65 0.0007734851    1.847    0.459
        32  -7.8910    213.7792    240.9561   5.2583920565e+01  -7.2499843517e+00    0.1494817   0.09314377 -34.35 0.0004170896    1.646    0.393
        33  -9.2173    182.9357    239.8555   5.8352032879e+01  -2.5170163833e+00    0.3416728    0.2406204  62.64  0.001730252    2.199    0.545
        34  -8.5552    146.7407    239.9638   6.5745996318e+01   3.2078748139e+00    0.3402206     0.210894  74.74  0.001292776    3.149    0.682
        35  -8.9301    241.3321    238.2396   4.7176569105e+01  -1.0567223877e+01    0.4777868    0.1919988 -21.36  0.001850199    4.142    0.759
        36  -9.1627    135.5897    238.6065   6.7891740181e+01   5.2569583140e+00    0.2548443    0.1634369  63.97 0.0008990006    1.974    0.494
        37  -9.1379    230.6665    236.4449   4.8760120778e+01  -8.9252483736e+00    0.2570031    0.2068903 -65.91  0.001110257    2.337    0.572
        38  -8.1543    209.1807    238.2241   5.3004517503e+01  -6.1908495092e+00    0.1510627     0.145163  29.92 0.0006441319    1.365    0.267
        39  -8.5425    128.8291    238.0367   6.9240929285e+01   6.4558675531e+00    0.2054637    0.1423782  77.23 0.0008082298    1.943    0.485
        40  -7.9961    225.3166    237.3140   4.9867980659e+01  -8.3249353232e+00    0.1247615   0.08041352  -0.31 0.0006282105    1.645    0.392
        41  -8.4509     25.5601    236.5731   9.0397607545e+01   2.1394277992e+01    0.2650459    0.1010499  70.94  0.001149453    2.919    0.657
        42  -8.8251    217.0218    235.5320   5.1096627588e+01  -6.9117866637e+00    0.2007292    0.1666261  39.03 0.0006607111    1.417    0.294
        43  -9.3853    213.5125    231.4978   5.1082624436e+01  -5.8025035556e+00    0.3325557    0.2740003  87.01  0.001369879    2.341    0.573
        44  -9.7489    175.6025    232.9889   5.8754074040e+01  -2.2646384040e-01    0.4816556    0.2666494 -59.10  0.002223378    2.706    0.630
        45  -8.9496    247.9752    234.1925   4.5360652645e+01  -1.0858084089e+01    0.2396747    0.1467165 -34.80 0.0009634873    1.586    0.370
        46  -9.4211    246.8626    228.3270   4.4560734293e+01  -9.9120476790e+00    0.4382185    0.1605117 -36.78  0.002073932    2.544    0.607
        47  -8.8914    202.9929    234.3731   5.3556048286e+01  -4.6956235611e+00    0.2362656    0.1780128 -56.71 0.0009608195    1.887    0.470
        48  -8.7861    194.7694    232.9870   5.4925670076e+01  -3.2331073293e+00    0.3179256    0.2370948  75.37  0.001631102    2.621    0.618
        49  -7.9073    170.2796    235.6668   6.0254780830e+01   1.6879332086e-01    0.1218921   0.09984232  67.53 0.0004255539    1.609    0.378
        50  -9.1644    109.3645    234.3785   7.2916178490e+01   1.0283903444e+01    0.5323402    0.2059056  52.73    0.0020334    2.897    0.655
        51  -8.3837    122.9826    233.9710   6.9946247760e+01   8.1794039353e+00    0.2181116    0.1463604  66.67  0.001121785    1.756    0.430
        52  -8.2393     99.6756    234.2963   7.4980180092e+01   1.1820107865e+01     0.217576    0.1317768  65.50  0.001081501    1.827    0.453
        53  -8.5399     78.3884    233.6176   7.9435383396e+01   1.5162814701e+01    0.2406434    0.1109698 -85.52 0.0009502883    3.303    0.697
        54  -9.1897     68.4882    232.3988   8.1400231252e+01   1.6830524260e+01    0.4577483    0.1788885  62.64  0.001681927    3.548    0.718
        55  -8.4600    144.5467    232.7839   6.5182745361e+01   4.8741502262e+00    0.3280602    0.1732293  61.60  0.001286394    3.174    0.685
        56  -8.4054    139.9632    229.9727   6.5752515334e+01   6.1605324694e+00    0.2598682    0.1517911  56.94 0.0008593234    2.010    0.503
        57  -8.4511    132.4893    232.5008   6.7711323536e+01   6.9115440738e+00    0.2076882    0.1311932 -72.51  -0.00018611    2.163    0.538
        58  -8.5086     92.6406    231.8349   7.6202706426e+01   1.3405836702e+01    0.2949473    0.1804317  77.73  0.001046229    1.997    0.499
        59  -9.4465    186.5071    230.5066   5.6158113413e+01  -1.5420305856e+00    0.3484756    0.2491515 -74.85  0.001377939    2.614    0.617
        60  -9.2167    236.1391    230.2310   4.6746508202e+01  -8.7757873626e+00    0.3333166    0.2027939 -39.00  0.001392047    1.702    0.412
        61  -8.8092      2.1406    230.9075   9.4504653723e+01   2.5027823148e+01    0.2486018   0.07432072  54.12    0.0011717    2.596    0.615
        62  -9.1102    151.4758    228.9727   6.3149657643e+01   4.4351760109e+00     0.283481    0.2164537 -88.11  0.001505724    1.865    0.464
        63  -9.4646    148.4632    224.2986   6.3082481361e+01   5.8198558132e+00    0.3863684    0.2720135  78.86  0.001253706    2.171    0.539
        64  -7.9091    229.5667    228.7319   4.7663815346e+01  -7.6658949188e+00    0.1511051    0.1101309 -42.51  0.000497014    1.601    0.375
        65  -9.0933    162.2124    227.6711   6.0684547261e+01   2.8907008167e+00    0.3375557    0.2078377  53.36  0.001411797    1.869    0.465
        66  -8.8583    127.9493    227.1148   6.7939384698e+01   8.7100100416e+00    0.3234328    0.2211388  68.88  0.001133763    1.803    0.445
        67  -8.7730    206.0509    225.6013   5.1508370397e+01  -3.7721686017e+00    0.2925063    0.1654496 -46.36  0.001336788    2.017    0.504
        68  -7.9144    119.9750    227.2191   6.9692223774e+01   1.0005116133e+01    0.1886565    0.1408045  80.73 0.0004875629    1.591    0.371
        69  -7.9354     49.6366    226.9064   8.4847401502e+01   2.0533654604e+01    0.2411236   0.08529837  60.00 0.0009036685    3.316    0.698
        70  -8.0213    200.0041    226.0310   5.2751492385e+01  -2.9144378575e+00    0.1743058    0.1588599  81.97  0.000505075    1.597    0.374
        71  -8.9177    180.5867    224.1612   5.6315330669e+01   4.8949370333e-01    0.3021232    0.2173995  55.51  0.000814122    1.720    0.419
        72  -8.7772     94.2623    224.1346   7.4943452536e+01   1.4766719235e+01    0.4109809    0.1941002  63.97  0.001577594    3.027    0.670
        73  -7.9169     38.6620    224.9237   8.6961087229e+01   2.2329480936e+01    0.2412391   0.07981835  59.63 0.0009049645    3.407    0.706
        74  -8.9172    216.3115    223.0820   4.9131003406e+01  -4.9131167619e+00    0.2423969    0.2103571 -58.24  0.001093532    1.628    0.386
        75  -8.8190    173.2813    223.0479   5.7635101657e+01   1.8880305886e+00    0.3026446    0.2206648 -84.91 0.0009325816    2.423    0.587
        76  -8.1625    113.8029    223.7514   7.0579240244e+01   1.1723785225e+01    0.1933811    0.1414524  60.70 0.0005055552    1.349    0.259
        77  -8.8159    104.7045    223.4982   7.2557602876e+01   1.3251052051e+01    0.3342064    0.2165152  80.71  0.001629915    1.960    0.490
        78  -9.2898    160.9466    221.4034   5.9957947644e+01   4.2564013378e+00    0.6387109    0.2738674  54.84  0.002105089    4.119    0.757
        79  -9.1277    225.5738    221.5077   4.7146749140e+01  -6.0209104862e+00    0.2385526    0.2178287  83.38  0.001225448    1.776    0.437
        80  -9.4606    192.5281    221.2640   5.3419554338e+01  -9.4357151965e-01    0.3191641    0.2564518  66.37 0.0009644844    1.803    0.445
        81  -8.1681     73.4435    220.9319   7.9161864356e+01   1.8585669145e+01     0.187261   0.09964469  80.22 0.0008066599    2.445    0.591
        82  -8.2111    202.5303    219.9699   5.1226261300e+01  -2.3116320103e+00    0.1819094     0.123033 -38.82 0.0004227689    1.523    0.344
        83  -9.1358    120.2891    218.7883   6.8450316859e+01   1.1678958657e+01    0.5024312    0.2566099  63.60  0.001842479    3.085    0.676
        84  -8.2714     82.3011    220.1026   7.7112359607e+01   1.7463207090e+01    0.2623096    0.1375367  59.52 0.0009975423    1.984    0.496
        85  -8.2033      6.0000    220.0117   9.3195287507e+01   2.6949646087e+01    0.1893917   0.05513145 -78.45 0.0008063043    2.969    0.663
        86  -8.5659    210.0867    218.8942   4.9582633415e+01  -3.3065713780e+00     0.211776    0.1734048 -31.61 0.0005778904    1.244    0.196
        87  -9.0556    249.0152    217.9746   4.2408325796e+01  -8.7233237750e+00     0.225145    0.1638226  57.05   0.00129133    2.490    0.598
        88  -8.5946    179.4602    217.4733   5.5426948417e+01   1.8602466755e+00    0.2142626    0.1311541 -57.75 0.0007146072    2.170    0.539
        89  -9.5601    239.0873    220.5709   4.4569473698e+01  -7.7727835542e+00    0.4057225     0.202142 -30.29   0.00165409    1.914    0.478
        90  -9.3665    132.9522    215.9863   6.5209545010e+01   1.0109482991e+01    0.5105023    0.3118905  78.52  0.001912067    2.980    0.664
        91  -8.4722     62.4204    217.3714   8.1212320891e+01   2.0925609139e+01    0.3915468    0.1456503  58.79  0.001426068    3.326    0.699
        92  -8.7322     51.8978    217.2319   8.3498430568e+01   2.2362595202e+01    0.3108432    0.1655339  71.40  0.001213389    1.969    0.492
        93  -8.9918    169.2866    215.8612   5.7279224216e+01   3.8743134112e+00    0.3026643    0.2260327 -81.48 0.0009934289    2.096    0.523
        94  -8.8891    142.9483    216.0266   6.2999325158e+01   8.3795834317e+00    0.3927071    0.2364803 -67.22   0.00175591    2.244    0.554
        95  -8.2260    111.6755    217.0964   7.0145189633e+01   1.3468919376e+01    0.2168256    0.1662507  86.04  0.001168537    1.461    0.316
        96  -8.8931    232.2112    214.6490   4.4744047144e+01  -5.9196994314e+00    0.2266437    0.1938995 -61.59  0.001042261    1.765    0.433
        97  -8.1055    154.4344    214.9106   6.0305444416e+01   6.6123108855e+00    0.1811935    0.1234975 -82.95 0.0008054433    2.451    0.592
        98  -7.7871     18.4721    215.5039   9.0422605575e+01   2.6671316705e+01    0.1228257   0.09485052  76.77  0.000153228    1.017    0.016
        99  -8.4533    185.6548    214.1590   5.3586048895e+01   1.4205839752e+00    0.1950153    0.1722449 -68.53 0.0007643474    1.461    0.316
       100  -8.9181     93.0735    213.8451   7.3927064670e+01   1.7182066131e+01    0.3724896     0.169345  56.29  0.001486198    2.482    0.597
       101  -9.3959     73.3301    211.7864   7.8168846034e+01   2.0637002056e+01    0.7357941    0.2525108  58.12  0.002219215    4.677    0.786
       102  -8.0749    224.9925    212.4638   4.5659808727e+01  -4.5246665029e+00    0.2059036    0.1271544 -45.10 0.0006149329    1.779    0.438
       103  -9.4244    213.8773    212.0203   4.7648989443e+01  -2.7653354369e+00    0.3388819    0.2464197  53.98  0.001832493    1.871    0.466
       104  -8.8433    161.7563    212.4131   5.8306571372e+01   5.8266803683e+00    0.2484677    0.2070406  74.97 0.0009024959    1.512    0.338
       105  -9.1035    204.3231    210.7963   4.9265356892e+01  -1.0515258849e+00      0.28336     0.214125 -60.07 0.0007247809    1.829    0.453
       106  -9.5608    175.4688    210.0133   5.4975382885e+01   3.9080287047e+00     0.462855    0.3086661  69.35  0.001895447    2.613    0.617
       107  -7.8712    106.7744    212.5977   7.0632900599e+01   1.5247078939e+01    0.2044491    0.1132467  48.95 0.0008298854    1.673    0.402
       108  -8.4489    192.2769    210.1565   5.1539085987e+01   1.0311070783e+00      0.22543    0.1817904 -61.83 0.0006696476    1.618    0.382
       109  -8.7902    147.7686    210.1900   6.0994921072e+01   8.7145693239e+00    0.2981968    0.2176076 -86.03 0.0009733639    1.965    0.491
       110  -9.2146    116.2427    210.0715   6.8102416199e+01   1.4213080759e+01    0.3355803     0.227078  80.80 0.0009334254    1.933    0.483
       111  -9.2871    236.5757    208.2990   4.2834138032e+01  -5.5620792062e+00    0.2996137    0.2433221 -64.92  0.001178979    1.983    0.496
       112  -8.3668     85.4823    209.4272   7.5104005657e+01   1.9351846117e+01    0.3122864    0.1718569  69.91  0.001119588    2.315    0.568
       113  -8.1907     46.4637    209.4777   8.3962448085e+01   2.4806025027e+01    0.1350593    0.1038466  71.78 5.708565e-05    1.091    0.083
       114  -9.3171    246.3916    206.9538   4.0896200451e+01  -6.7383265930e+00    0.3088092    0.1809766 -31.66  0.001160651    1.517    0.341
       115  -9.2676    250.1609    201.7403   3.9318334512e+01  -6.4655843691e+00     0.377541    0.1564081 -40.26   0.00133747    2.212    0.548
       116  -8.1470    156.4740    207.9733   5.8704709536e+01   7.6245411800e+00    0.1965786    0.1404118 -52.55 0.0006594379    1.531    0.347
       117  -8.4796    138.9789    207.5531   6.2530079437e+01   1.0805560837e+01    0.2505721    0.1973606 -83.48 0.0007151095    1.560    0.359
       118  -8.4389    126.6694    208.3454   6.5453099150e+01   1.2794635770e+01    0.2253588    0.1563774  67.89  0.001025924    1.724    0.420
       119  -8.7090      5.5955    207.3533   9.2535243679e+01   2.9753849989e+01    0.2369498   0.08180965  84.71 0.0009518171    3.184    0.686
       120  -9.1363     99.3893    205.9286   7.1409972653e+01   1.7937364734e+01     0.399186      0.23402  80.10  0.001306386    2.489    0.598
       121  -8.6047     56.4559    205.4295   8.1310966452e+01   2.4445525803e+01    0.3043563    0.1521674  67.15  0.001030356    2.271    0.560
       122  -9.1657    183.8312    203.9401   5.2151284445e+01   3.5996708354e+00    0.3303291    0.2567316  74.75  0.001293041    1.928    0.481
       123  -8.1221    109.0497    205.0007   6.9019983492e+01   1.6544222823e+01    0.2274995    0.1576633  69.96 0.0008419658    1.633    0.388
       124  -7.6819     92.6345    205.2980   7.2902833448e+01   1.9168938316e+01    0.1522382   0.09557933  64.91 0.0007032395    1.724    0.420
       125  -9.4238    194.6719    203.2945   4.9820040534e+01   1.8610291401e+00     0.370041    0.3219653 -38.80  0.001407318    1.206    0.171
       126  -9.3290    192.4719    197.2948   4.9156459198e+01   3.3395574840e+00    0.3706411    0.3018815 -88.56 0.0008605827    1.851    0.460
       127  -9.7235    163.8138    202.8963   5.6220671377e+01   7.3306482238e+00     0.477498    0.2911637  58.22  0.001148614    2.146    0.534
       128  -8.7978    131.1747    203.6482   6.3674899328e+01   1.3012731036e+01    0.3018886    0.2152208  78.24  0.001330356    1.846    0.458
       129  -8.9744    243.1428    200.5044   4.0276768399e+01  -5.2868619005e+00    0.3143929    0.1640892 -39.20  0.001034118    1.765    0.434
       130  -8.6913    210.9001    201.6265   4.6326605134e+01  -5.3645397921e-01    0.2471902    0.1710659 -56.33 0.0007062436    1.906    0.475
       131  -8.8382    140.6371    201.0327   6.1072534589e+01   1.1883588704e+01    0.3909112    0.2594769  73.73  0.001428607    2.243    0.554
       132  -8.5050     80.1748    201.0480   7.5274556408e+01   2.2086518923e+01    0.3615288    0.1835988  68.36  0.001407791    2.722    0.633
       133  -7.8155     73.0000    201.9592   7.7081207598e+01   2.2942311373e+01    0.2137534   0.07453763 -65.44 0.0007904865    2.860    0.650
       134  -8.4225     48.4774    201.9985   8.2780135427e+01   2.6279051521e+01    0.1974378   0.09518772  80.02  0.000809846    2.589    0.614
       135  -8.2518     10.4863    202.3087   9.1193653516e+01   3.0422516740e+01    0.1871822    0.1037484  33.81 0.0008166302    1.940    0.484
       136  -8.1660    222.1790    201.2215   4.4132447195e+01  -2.2631882336e+00    0.1689027    0.1503653 -50.98 0.0004628231    1.390    0.281
       137  -9.5217    149.4361    198.4178   5.8622989737e+01   1.0842980673e+01    0.4411245    0.3025878 -88.69  0.001398701    2.364    0.577
       138  -8.8195    124.0433    199.2264   6.4614797384e+01   1.5239860335e+01    0.3418998    0.2274891 -82.78 0.0009849857    2.039    0.510
       139  -9.2538    113.1795    198.5187   6.7065266728e+01   1.7297080739e+01     0.480534    0.2656592  66.64  0.001849082    2.677    0.627
       140  -9.2577    237.1626    198.4394   4.0928685837e+01  -4.0875633722e+00    0.2425094     0.161511 -39.59 0.0006789907    1.444    0.307
       141  -8.4984    176.9260    198.6850   5.2642385969e+01   5.8150496107e+00    0.2530087    0.1863235 -67.20 0.0006382847    1.826    0.452
       142  -9.0278     88.7627    198.3708   7.2872142146e+01   2.1380465729e+01    0.3607044     0.218901  74.77  0.001598984    2.053    0.513
       143  -8.2692    202.2838    197.6848   4.7266511188e+01   1.5865094317e+00    0.2356717     0.157336 -51.25 0.0007181427    1.715    0.417
       144  -9.0004     61.2957    196.9164   7.9242045074e+01   2.5787003209e+01    0.4447844    0.2173284  74.37  0.001731606    2.864    0.651
       145  -8.3370     12.6189    197.3157   9.0389341559e+01   3.1356466921e+01    0.2052477    0.1091743  68.09  0.001037942    1.699    0.411
       146  -9.3302    245.6969    193.5620   3.8560477552e+01  -4.5595692227e+00    0.3293228     0.252133 -74.65  0.001650946    2.531    0.605
       147  -8.8489    216.0412    195.5464   4.4215666436e+01  -3.1841959792e-01    0.2554502    0.2024493 -64.78 0.0008793087    1.788    0.441
       148  -8.1415    133.0847    195.9765   6.1959069446e+01   1.4339474048e+01    0.2320179    0.1704973  76.03 0.0006949864    1.713    0.416
       149  -8.6521    224.7803    194.1272   4.2330181747e+01  -1.4780527900e+00     0.281189    0.1717809 -51.54  0.001400556    1.988    0.497
       150  -8.0045    209.4064    195.2648   4.5424741202e+01   8.2378525384e-01    0.1817631     0.123861 -49.55 0.0006050373    1.635    0.388
       151  -8.9538    185.2337    194.6418   5.0147022603e+01   5.1141800663e+00     0.262117    0.2231368 -89.64 0.0007079515    1.598    0.374
       152  -9.1906    160.9900    194.1098   5.5262021066e+01   9.6230470259e+00    0.3457091    0.2608312 -88.03  0.001195782    1.919    0.479
       153  -8.0422    231.1491    194.2081   4.1198768493e+01  -2.4869237414e+00    0.1678998    0.1499851 -51.13 0.0005603091    1.383    0.277
       154  -8.7499     76.8581    193.6598   7.5102221529e+01   2.4328051012e+01     0.260977    0.1890369 -83.66 0.0006836375    1.370    0.270
       155  -8.9652     43.9812    193.4584   8.2951162562e+01   2.8851870942e+01    0.3522463    0.1752515  79.21  0.001518901    2.385    0.581
       156  -8.3717    198.7500    191.4226   4.6782688840e+01   3.3384050785e+00    0.2348091    0.1637343 -51.42 0.0005633691    1.599    0.375
       157  -8.5732    172.4601    191.7157   5.2304919787e+01   8.0006667972e+00    0.2651006    0.2235807  79.81  0.001092731    1.517    0.341
       158  -8.0077    205.4416    191.5131   4.5480075032e+01   2.1666174625e+00    0.1351226    0.1246028  -9.44  9.17258e-05    1.026    0.026
       159  -9.0987    139.3708    190.2973   5.9500618399e+01   1.4438046336e+01    0.3741888     0.270225  84.99  0.001155952    1.919    0.479
       160 -10.2302     92.3245    188.6976   7.0610681050e+01   2.3092716544e+01    0.9611356    0.2874689  47.64   0.00303552    3.500    0.714
       161  -8.4211    237.1762    188.3229   3.9028822942e+01  -2.4377820568e+00    0.2169523     0.153875 -26.75 0.0006050041    1.274    0.215
       162  -9.0464    216.6512    187.6562   4.2596625903e+01   9.6532723583e-01     0.293539    0.2523177 -81.31  0.001286229    1.681    0.405
       163  -9.3012    156.0121    187.3922   5.5134389354e+01   1.1957365481e+01    0.4069728    0.2360841 -59.37 0.0009354647    2.055    0.513
       164  -8.3534    148.3205    188.8299   5.7158274255e+01   1.3092226447e+01    0.2742406     0.217704  89.00 0.0008892956    1.595    0.373
       165  -9.0428    129.2555    188.2803   6.1534708041e+01   1.6752874715e+01    0.3372363    0.2459584 -86.83 0.0008631593    1.754    0.430
       166  -9.5542    120.7443    186.2410   6.3230918454e+01   1.8769785004e+01    0.5031037    0.2871086 -74.92  0.001956941    2.529    0.605
       167  -8.6888    191.3913    187.0975   4.7436828708e+01   5.4601897760e+00    0.3344655    0.2339208 -71.31  0.001230951    2.269    0.559
       168  -9.0528     54.8012    186.8596   7.9624124976e+01   2.9072065454e+01    0.4214536    0.2051674  70.29  0.001653193    2.715    0.632
       169  -8.4813     34.5097    188.1926   8.4653357661e+01   3.1220740335e+01    0.2692277    0.1251345  62.51  0.001184627    2.310    0.567
       170  -8.0730    230.4046    187.2474   4.0010429168e+01  -1.2013678178e+00    0.1806076    0.1150293 -46.71 0.0007456453    1.644    0.392
       171  -8.7667    164.8736    186.3346   5.2947155987e+01   1.0512627001e+01    0.2993604    0.2095917 -66.31 0.0008795421    1.821    0.451
       172  -9.3327    109.6648    185.9064   6.5886540972e+01   2.0821449779e+01    0.4354397    0.2813082  83.44  0.001263501    2.162    0.538
       173  -9.2265    249.2396    185.4336   3.6447652889e+01  -3.7767999032e+00    0.2796072    0.1924003 -42.38 0.0008490129    1.413    0.292
       174  -8.7809    210.0669    184.0502   4.3142754723e+01   2.7323152647e+00    0.2558295    0.1788139 -39.83  0.000467287    1.372    0.271
       175  -8.8314    202.4991    184.5768   4.4715494503e+01   3.9564815662e+00    0.2496761    0.2204412 -54.12  0.000640534    1.277    0.217
       176  -8.8896    182.9935    184.5810   4.8690136723e+01   7.4851541725e+00    0.2621249    0.1990576 -62.20 0.0007867704    1.596    0.373
       177  -9.0806    174.3243    183.4056   5.0311076783e+01   9.3389810281e+00    0.3743191    0.2360769 -57.35  0.001105746    1.861    0.463
       178  -9.0754     66.7048    184.5614   7.6393972839e+01   2.8007518405e+01    0.3722032    0.2115346  66.73 0.0009861011    2.014    0.503
       179  -8.5952    224.2514    183.5167   4.0394722865e+01   4.3519277944e-01    0.2449668     0.164398 -38.70 0.0005738979    1.386    0.278
       180  -8.4452    197.0158    183.2713   4.5549782104e+01   5.1803493821e+00    0.2705436    0.1743785 -67.26 0.0007736763    2.576    0.612
       181  -8.9243     44.6931    182.6955   8.1621251989e+01   3.1360554485e+01    0.3511004    0.1786851  56.49  0.001271927    1.994    0.499
       182  -7.7823      1.7783    183.5916   9.1809381252e+01   3.5502802713e+01    0.1630208   0.09360652  48.56 0.0009421826    1.657    0.396
       183  -9.2699    147.4621    180.4416   5.5787433943e+01   1.5090140522e+01    0.3848105    0.2781987 -88.12  0.001082276    1.972    0.493
       184  -8.1247    235.4308    181.0549   3.7937433954e+01  -9.4590848348e-01    0.2016025    0.1149958 -39.20 0.0007230559    1.584    0.369
       185  -8.0507     90.7532    181.4119   6.9886123101e+01   2.5103637743e+01    0.1965379    0.1416686  25.15 0.0008185487    1.659    0.397
       186  -9.4445     25.7835    178.9897   8.5844726676e+01   3.4376332821e+01    0.6256782    0.2424246  78.39  0.002095342    4.184    0.761
       187  -8.6596    137.6407    179.1617   5.7868734375e+01   1.7252856578e+01    0.3280446     0.243082  88.78  0.001052636    1.781    0.439
       188  -9.4975    191.4072    178.1719   4.5675881169e+01   7.1929367493e+00    0.2958116    0.2676276 -72.95 0.0005849042    1.310    0.237
       189  -8.9868     36.1851    176.9295   8.3085757872e+01   3.3762687757e+01    0.5032592    0.2140942  77.94   0.00175212    3.705    0.730
       190  -8.5958    250.5130    172.4546   3.3762233934e+01  -1.8503405313e+00    0.2366427    0.1357074 -39.82  0.000514093    1.518    0.341
       191  -9.2303    248.9818    177.1712   3.4917122468e+01  -2.3950509595e+00    0.2968765    0.2327614 -57.32  0.001233478    1.622    0.383
       192  -8.9322    247.4415    173.5110   3.4461736656e+01  -1.5548063563e+00     0.195995    0.1715726  46.35 0.0005306255    1.407    0.289
       193  -8.7674    205.3365    177.6619   4.2793112756e+01   4.7499628665e+00    0.2779486    0.2264529 -74.14  0.001145339    1.678    0.404
       194  -8.0766    169.4356    178.3106   5.0377031774e+01   1.1323127563e+01    0.1962645    0.1418704 -58.97 0.0006138918    1.559    0.358
       195  -8.5989    129.2667    177.1228   5.9513537915e+01   1.9307114756e+01    0.2946754    0.2183738  81.49 0.0007838114    1.707    0.414
       196  -8.5338    231.1309    176.7859   3.7853637130e+01   4.8048688406e-01    0.2304748    0.1633156 -46.68 0.0006512452    1.437    0.304
       197  -8.6244    217.3615    176.8590   4.0349541984e+01   2.7833617879e+00    0.2432936    0.1955301 -60.81 0.0007951808    1.536    0.349
       198  -9.1981    183.1147    175.9136   4.6946010048e+01   9.2009427525e+00    0.2965052    0.2327095 -66.86 0.0006951724    1.566    0.361
       199  -8.6555     88.9850    176.6700   6.9586636803e+01   2.6549705871e+01    0.3138758    0.2035553  79.69 0.0009544514    1.921    0.479
       200  -9.3698     58.4883    175.0027   7.7205757107e+01   3.1497316124e+01    0.5724285    0.2716096  66.36  0.002125237    2.995    0.666
       201  -9.2085     55.7979    170.4135   7.7286804003e+01   3.2997509414e+01    0.4248758    0.2308961  81.49  0.001757723    2.383    0.580
       202  -8.7247     12.6867    176.1755   8.8728079819e+01   3.6312079029e+01    0.2777022    0.1321391  88.13  0.001227593    2.006    0.501
       203  -8.4868    211.5315    175.9973   4.1270656082e+01   3.9592865769e+00    0.2146077    0.1284935 -41.58 0.0007009158    1.583    0.368
       204  -9.3086    158.7031    174.6752   5.2062143805e+01   1.4179829939e+01    0.4389653    0.3081035  87.41  0.001197645    2.280    0.561
       205  -9.5531    104.3417    174.6160   6.5303151733e+01   2.4454161303e+01     0.578117    0.2963895  63.30   0.00187255    2.992    0.666
       206 -10.6546     75.7215    169.6135   7.1927483492e+01   3.0383928130e+01     1.373216    0.5069196 -74.61  0.003788279    4.866    0.795
       207  -8.4777    224.4799    174.0417   3.8490565352e+01   2.0727861913e+00    0.2070803    0.1225803 -40.78 0.0005427959    1.557    0.358
       208  -7.6585    241.3283    173.7052   3.5506331594e+01  -6.3255260664e-01    0.1205323    0.1020056 -70.19 0.0002220366    1.629    0.386
       209  -9.6054    175.7245    171.8406   4.7699357046e+01   1.1459672961e+01    0.4499342    0.2734265 -43.73  0.001239592    1.639    0.390
       210  -9.6190    121.3754    170.5396   6.0234085545e+01   2.2338571158e+01    0.4153747     0.298007 -78.93  0.001042031    1.675    0.403
       211  -8.0432    142.7513    172.1788   5.5297952573e+01   1.7853808637e+01    0.2388087    0.1892525 -80.97  0.000677273    1.506    0.336
       212  -8.6333    134.9490    171.6565   5.7081936430e+01   1.9488746012e+01    0.2699943    0.2093883  86.86 0.0007780572    1.586    0.370
       213  -8.9256     45.3357    171.0612   8.0088355710e+01   3.4149872638e+01    0.4025902    0.2129026  82.24  0.001718493    2.302    0.566
       214  -8.3884    237.1868    169.2923   3.5333982740e+01   7.9048378699e-01    0.2281962    0.1585186 -30.57 0.0006509597    1.305    0.234
       215  -8.9861    230.5849    169.8512   3.6576548398e+01   1.7870053399e+00     0.215173    0.1784472  14.77 0.0005485241    1.290    0.225
       216  -8.4710    205.7621    169.9906   4.1160762558e+01   6.1282731242e+00    0.2528688    0.1849449 -55.55  0.000775749    1.537    0.349
       217  -8.6339    198.4091    170.0327   4.2611645348e+01   7.4829826467e+00    0.2389069    0.2029054  85.72 0.0006677548    1.551    0.355
       218  -8.6204    149.6992    169.4471   5.3101532606e+01   1.7105516769e+01    0.2879472    0.2191008 -82.53 0.0007892075    1.695    0.410
       219  -8.2283    244.5880    169.2750   3.4101464626e+01  -3.9796906849e-01    0.1852239    0.1471959 -64.14 0.0005367374    1.675    0.403
       220  -9.2730    167.0511    168.4842   4.8918744920e+01   1.3874712417e+01     0.372799    0.2561265  69.85  0.001218877    2.073    0.518
       221  -8.6021    218.7651    168.1141   3.8334207521e+01   4.1374455035e+00    0.2059263    0.1798868 -54.77 0.0005822288    1.262    0.208
       222  -8.0268    211.5706    167.8118   3.9607083178e+01   5.4819906694e+00    0.1992324    0.1262431 -51.25 0.0009433848    1.682    0.406
       223  -8.8450    111.8272    167.4173   6.2078995454e+01   2.4859444295e+01    0.3211198    0.2258885  84.44  0.001169924    1.828    0.453
       224  -7.8672     88.7799    168.5916   6.8311921089e+01   2.8579018235e+01    0.2085883     0.128093  50.59 0.0005657576    1.637    0.389
       225  -8.8900    191.9023    166.4802   4.3188717563e+01   9.4212090541e+00    0.2996038    0.1986002 -45.48 0.0007195431    1.476    0.322
       226  -8.6763    184.9546    166.4388   4.4616376356e+01   1.0775998587e+01    0.2738978    0.1999807 -60.90 0.0006882859    1.596    0.374
       227  -8.9908     20.7567    166.2285   8.5832657828e+01   3.7978725320e+01      0.35148    0.1538337  55.82  0.001433223    2.449    0.592
       228  -9.7005    137.5324    164.5263   5.5030424898e+01   2.0636711951e+01    0.7437069    0.3794004  59.73  0.002416359    2.892    0.654
       229 -10.0682     94.9205    162.4884   6.5612394243e+01   2.9068821854e+01    0.9151366     0.471078  74.03   0.00253912    4.960    0.798
       230  -8.1899    234.1271    164.6871   3.4934055371e+01   2.1032881994e+00    0.2323945    0.1608013 -44.29 0.0005685184    1.356    0.262
       231  -8.6667    159.4883    164.0142   4.9703888367e+01   1.6359386998e+01    0.3047941    0.2410488 -78.02  0.001027611    1.554    0.357
       232  -9.6680     33.9002    163.2995   8.2125291181e+01   3.7381505880e+01    0.5990657    0.2064955  53.03  0.002143647    3.546    0.718
       233  -8.2397    239.9740    163.9806   3.3813266054e+01   1.2539527735e+00    0.1971663    0.1539636 -63.41 0.0005043777    1.642    0.391
       234  -8.8508    212.8567    163.3002   3.8438183986e+01   6.0982039726e+00    0.3251458    0.1839824 -47.06 0.0006356066    1.733    0.423
       235  -9.2054    246.0962    162.6755   3.2558240397e+01   4.8284141963e-01     0.221017    0.1549711 -43.37 0.0004840524    1.304    0.233
       236  -8.6892    204.9224    162.4767   3.9770891634e+01   7.7300183976e+00    0.2679888    0.1870207 -55.72 0.0006415916    1.597    0.374
       237  -8.2916     56.9957    163.4113   7.5991620286e+01   3.4598078310e+01     0.348976    0.1494105  15.78 0.0009594558    6.187    0.838
       238  -9.1803      3.2746    162.2356   8.9833907100e+01   4.0436803468e+01    0.3688838    0.1746203  56.99  0.001844526    2.154    0.536
       239  -8.9580    127.3640    159.6932   5.6582995287e+01   2.3773361871e+01    0.4650146    0.2948213 -28.85  0.001791647    2.278    0.561
       240  -8.3188     67.4630    162.4501   7.3019245921e+01   3.3401124727e+01    0.1435509    0.1308847 -84.00 0.0004537639    1.037    0.035
       241  -9.1893    177.4103    160.3532   4.4936294471e+01   1.3535221274e+01     0.326544    0.2461733 -66.84 0.0008366473    1.596    0.373
       242  -8.7397    151.6743    160.7057   5.0829822609e+01   1.8677058723e+01     0.307586    0.2303903 -71.57  0.001048652    1.600    0.375
       243  -8.6818    227.3094    158.8375   3.4917772272e+01   4.3250044020e+00    0.3131022    0.1925987 -56.79  0.001235273    1.995    0.499
       244  -8.5702     60.7919    159.9685   7.4452686473e+01   3.4959275393e+01    0.3278723    0.1972789  65.53  0.001469769    1.934    0.483
       245  -8.7398    243.3596    149.9892   3.0453680761e+01   3.1245417034e+00    0.2965058    0.1581655 -44.30  0.001119185    1.664    0.399
       246  -8.9632    238.3579    149.4693   3.1145965605e+01   4.0734647172e+00    0.3559279     0.209274  39.75  0.001413332    1.970    0.492
       247  -9.8485    233.6468    147.3165   3.1470267545e+01   5.2861813084e+00    0.6533531    0.2557724 -31.21  0.002280667    3.307    0.698
       248  -8.2811    240.2811    152.6805   3.1490243419e+01   3.1761113465e+00    0.1798819    0.1720297   4.33 0.0002315409    1.149    0.130
       249  -9.6689    250.1950    157.4552   3.0878736641e+01   7.1248498618e-01    0.3377095    0.1764963 -43.50 0.0008079222    1.686    0.407
       250  -9.0314    246.7215    155.6205   3.1056873355e+01   1.5889180523e+00    0.2276414     0.146192 -22.94  0.000693684    1.689    0.408
       251  -8.7820    237.0129    158.5377   3.3210974971e+01   2.7003014131e+00    0.2565796    0.1677163 -50.63 0.0006963927    1.575    0.365
       252  -8.9133    196.6907    157.8968   4.0416527050e+01   1.0210291269e+01    0.3072258    0.2175228 -69.36 0.0009724351    1.944    0.486
       253  -9.4558    106.0086    157.9548   6.1797643622e+01   2.8235889248e+01    0.5136268     0.316657  69.35  0.001253083    2.273    0.560
       254  -8.4809    188.0495    157.7374   4.2132652541e+01   1.1947836075e+01    0.2670747    0.1828939 -58.10 0.0006084447    1.650    0.394
       255  -9.3021    167.5542    157.0858   4.6400034107e+01   1.6236261463e+01    0.3684219    0.2653694 -83.17  0.001268414    2.041    0.510
       256  -9.6643     81.4609    155.1485   6.7955694279e+01   3.3132107268e+01    0.5222831    0.4506789 -80.57  0.001845856    1.103    0.093
       257  -8.5518    218.0121    156.4108   3.6060529897e+01   6.4477515760e+00    0.2745223    0.1765287 -53.18 0.0007731878    1.673    0.402
       258  -9.0217    157.6424    156.1284   4.8453514769e+01   1.8483832691e+01    0.3404146    0.2511759 -77.11 0.0009762016    1.769    0.435
       259  -9.4196     50.0231    155.3324   7.6725247011e+01   3.7529192341e+01    0.5106561    0.2368402  56.68  0.001990759    2.665    0.625
       260  -9.2926    119.6670    155.0116   5.7602495610e+01   2.6392711161e+01    0.4217417    0.2896512  86.69  0.001550328    2.060    0.515
       261  -8.2133    204.8483    155.2020   3.8251360752e+01   9.1592557907e+00    0.2161495    0.1901228 -62.72 0.0007500134    1.240    0.193
       262  -9.0153    144.3604    154.6154   5.1285313027e+01   2.1556232169e+01    0.2985655    0.2364395 -69.48 0.0006576698    1.395    0.283
       263  -9.4071     68.2657    153.7827   7.1396556331e+01   3.5479867476e+01    0.4347343     0.253092  68.43  0.001278304    2.262    0.558
       264  -9.6778    132.9872    152.8547   5.3727137900e+01   2.4278308825e+01    0.4929192    0.3324066  72.81  0.001244795    2.062    0.515
       265  -9.1876    133.5854    148.1785   5.2561824140e+01   2.5260148437e+01    0.4288141    0.2323599 -43.04  0.001677904    1.947    0.486
       266  -9.4045    243.0074    154.7279   3.1466641585e+01   2.3581066675e+00    0.1989133    0.1675776 -52.93 0.0004063131    1.253    0.202
       267  -8.1499    151.7620    152.7915   4.9109519115e+01   2.0448192061e+01    0.2164062    0.1830311 -89.71 0.0006323703    1.359    0.264
       268  -9.4130     29.5402    150.6190   8.1752562663e+01   4.0996627083e+01    0.4431295     0.209744  69.56  0.001758104    2.934    0.659
       269  -9.1667     19.9131    152.3357   8.4579484188e+01   4.1477069574e+01    0.2042577    0.1401253  58.69  0.001155346    1.485    0.326
       270  -8.5534      9.2338    152.6465   8.7448388937e+01   4.2296072857e+01     0.150034    0.1225298   0.45 0.0007385911    1.671    0.401
       271  -8.6683      3.2654    150.8464   8.8836240166e+01   4.3182369114e+01    0.3140485   0.08270758 -72.39  0.001212002    2.882    0.653
       272  -8.9145    189.5600    150.0795   4.0162779489e+01   1.3213022182e+01    0.3095825    0.2316394 -69.23 0.0007572433    1.663    0.399
       273  -8.0627    182.4389    150.9989   4.1838922053e+01   1.4477192032e+01    0.2278581    0.1429078 -47.45 0.0006306776    1.560    0.359
       274  -8.3670    162.6632    150.5379   4.6073939372e+01   1.8681731339e+01    0.2608404    0.1869314 -69.39 0.0006359919    1.728    0.421
       275  -8.6692     98.4248    150.5609   6.2397505210e+01   3.1430841303e+01    0.3276181    0.2243264  84.04 0.0008304429    1.933    0.483
       276  -9.3402    248.9131    149.1044   2.9412238456e+01   2.3473930057e+00    0.3129803    0.1646938 -40.55 0.0007528451    1.617    0.382
       277  -8.3487    212.9848    149.7245   3.5561677104e+01   8.6565247535e+00    0.1867184     0.184593 -14.08 0.0003695647    1.082    0.076
       278  -8.6516    198.7877    148.8537   3.8054888980e+01   1.1601687797e+01    0.2630225    0.1925574 -62.06 0.0006602741    1.579    0.367
       279 -10.3535    148.9490    145.0642   4.8066192686e+01   2.2791800539e+01    0.6983761     0.458482  89.13   0.00170091    2.680    0.627
       280 -10.1335     89.3539    146.3032   6.4083679109e+01   3.4066836530e+01    0.7119635    0.4022492  89.10  0.002364265    3.415    0.707
       281  -9.6384     40.2559    148.1112   7.8420985021e+01   4.0499902581e+01    0.5315155    0.2408482  56.13  0.002032584    2.769    0.639
       282 -10.3356     54.9770    144.6460   7.3667186587e+01   3.9614913483e+01    0.8228921    0.4122205  72.78   0.00279405    3.676    0.728
       283  -8.5174    223.1169    146.6668   3.3110268882e+01   7.3224726848e+00    0.2370818    0.1738716 -48.59 0.0005693795    1.299    0.230
       284  -9.8249    139.2099    145.1258   5.0469017563e+01   2.4817197574e+01    0.4921803    0.3248115 -82.02  0.001328535    2.372    0.578
       285  -9.4548    139.0212    137.9662   4.8883773233e+01   2.6519734115e+01    0.5434782    0.2389494 -34.70  0.001629611    3.532    0.717
       286 -10.2814    106.5913    144.0351   5.8806671103e+01   3.1561335757e+01     0.815441    0.5026802  83.55  0.002328734    2.872    0.652
       287  -9.2180     13.3910    146.0441   8.5651311273e+01   4.3582156029e+01    0.3248025    0.1954588  68.24  0.001118588    1.752    0.429
       288  -7.9560    206.5327    146.4971   3.6061147467e+01   1.0531366048e+01    0.1446913    0.1339684 -48.55  0.000809204    1.053    0.050
       289  -8.1828    175.7552    145.9637   4.2145329324e+01   1.6927747314e+01    0.2449875    0.1708635 -71.51 0.0007917768    1.926    0.481
       290  -8.5564    240.4642    145.0635   2.9906637552e+01   4.4870652340e+00    0.1972825     0.148421 -41.94 0.0004466855    1.161    0.139
       291  -9.3157    243.2905    141.5427   2.8743433918e+01   4.6152023729e+00    0.4464965    0.1686366 -34.55  0.001635926    2.716    0.632
       292  -8.7214    247.0306    143.6236   2.8594227331e+01   3.6093676896e+00    0.2622539    0.1679243 -41.42 0.0005609166    1.334    0.251
       293  -7.9941    194.4467    143.9379   3.7826943359e+01   1.3466820252e+01    0.2097293    0.1236763 -63.74 0.0008067664    2.430    0.588
       294  -8.8931    165.6355    143.8658   4.3903771311e+01   1.9520304370e+01    0.3282074    0.2458543  76.20 0.0009579895    1.721    0.419
       295  -9.7355    124.9531    142.3278   5.3492891379e+01   2.8401415547e+01    0.5330629    0.3560499 -83.60  0.001421224    2.220    0.550
       296 -10.9225     69.5902    139.6389   6.8505950986e+01   3.8874625568e+01    0.8778954    0.4389342 -63.74  0.003199522    1.927    0.481
       297  -9.1441      2.7177    141.6753   8.8105317557e+01   4.5440865016e+01    0.3789583    0.1785062  73.85  0.001481281    2.478    0.596
       298  -8.5013    181.9308    141.4490   3.9815065713e+01   1.6581152283e+01    0.2864929    0.2031088 -60.41  0.000648223    1.567    0.362
       299  -7.9835    250.4837    140.5013   2.7443441466e+01   3.5637723072e+00    0.1325046    0.1117639 -40.81 0.0002837081    1.026    0.026
       300  -7.8436    238.6536    140.3004   2.9210320190e+01   5.6505834942e+00    0.1337509    0.1014984 -71.04  0.000631113    1.683    0.406
       301  -8.1598    134.0000    139.9217   5.0605573662e+01   2.7116630566e+01     0.261967   0.08885244 -49.32 0.0007998346    2.924    0.658
       302  -9.9192     23.5531    138.0978   8.1833948321e+01   4.4685143319e+01    0.4974335    0.2420856  65.65  0.001858435    2.774    0.639
       303  -8.6930    172.3125    137.9983   4.1080035197e+01   1.9361951640e+01    0.3169634    0.2216409 -65.16 0.0007136007    1.700    0.412
       304  -7.7004     14.3065    139.6651   8.4675037923e+01   4.5077867690e+01    0.1340389   0.08485526  71.41 0.0007040572    1.670    0.401
       305  -7.8780    218.5154    138.4768   3.2157502314e+01   9.7303169672e+00    0.1426828    0.1282941 -50.71 0.0001959017    1.066    0.062
       306  -8.4087    207.3374    137.4722   3.3935272569e+01   1.2131506265e+01    0.2546053    0.1596471 -57.75 0.0009034221    1.805    0.446
       307  -8.6480    197.4874    137.4257   3.5779263880e+01   1.4151679327e+01    0.2753496    0.2212079 -69.44 0.0008179302    1.415    0.293
       308  -8.7646    150.5588    136.0694   4.5609009638e+01   2.4487962653e+01    0.5412256     0.345703  15.89  0.001940984    2.856    0.650
       309 -10.3930     83.4197    132.8538   6.3055379568e+01   3.8427369908e+01    0.7255797    0.3928979 -64.35  0.001433756    1.938    0.484
       310  -8.3965     83.7692    122.6205   6.0705807222e+01   4.0900699239e+01    0.3329214    0.2002438 -50.58  0.001169244    1.583    0.368
       311  -8.9610    248.6069    135.0377   2.6612024984e+01   4.8270515183e+00    0.2949809    0.1632673 -43.76 0.0007992127    1.541    0.351
       312  -8.1813    162.6816    136.1681   4.2799761496e+01   2.1840502650e+01     0.247628    0.1917882 -68.35 0.0007669136    1.458    0.314
       313  -8.6907    124.8604    135.6196   5.1991570696e+01   3.0018437977e+01    0.3090425     0.211781  21.52  0.001274801    1.985    0.496
       314  -9.5450     55.8611    135.4867   7.1837430440e+01   4.1820874929e+01     0.443222    0.2467566  -4.77  0.001467233    4.454    0.776
       315  -9.0871     39.2074    135.9420   7.6913630484e+01   4.3681157169e+01    0.2790089    0.1984631  63.03 0.0008296878    1.540    0.351
       316  -8.0419    187.8612    135.0959   3.7149907765e+01   1.6642450616e+01    0.2514936    0.1667197 -67.99 0.0007472835    2.008    0.502
       317  -8.5426     78.0102    146.9806   6.7436556111e+01   3.5740594210e+01    0.2432263    0.1716945  75.94 0.0007624145    1.682    0.405
       318  -9.4259    237.6964    133.5714   2.7958613281e+01   7.0225362576e+00    0.2364909    0.1454592 -55.28 0.0007905726    1.722    0.419
       319  -8.7250    179.6207    133.8279   3.8551933681e+01   1.8670288704e+01    0.2897641    0.2191265 -73.09 0.0008337797    1.610    0.379
       320  -9.0524    112.8586    133.1211   5.4660345616e+01   3.3023943516e+01    0.3810842    0.2807994  88.61 0.0009508076    1.767    0.434
       321  -7.7949    231.4491    133.5246   2.8934749216e+01   8.1843374164e+00    0.1384902    0.1219034 -38.89 4.483212e-05    1.035    0.034
       322 -10.2462    132.1578    130.5721   4.8892635223e+01   2.9686868966e+01    0.7236739    0.4007088 -62.52    0.0018898    2.263    0.558
       323  -9.0171    143.0258    131.6181   4.6390887912e+01   2.7123299667e+01    0.3154024    0.2432504 -70.44 0.0007727102    1.469    0.319
       324  -8.9381    250.6640    129.4405   2.5172332554e+01   5.4359961517e+00    0.4115662    0.1024904 -41.66  0.001401162    3.319    0.699
       325  -9.6454     12.9146    129.0521   8.3785010590e+01   4.7790227117e+01    0.4295988    0.2247946  71.82  0.001632537    2.410    0.585
       326  -8.1198    247.0147    130.0351   2.5821353303e+01   5.9730672722e+00      0.20572     0.166118 -43.81 0.0005847349    1.055    0.052
       327  -7.9296    192.6245    129.8355   3.4997231205e+01   1.6698641019e+01    0.2119837    0.1323798 -52.29 0.0003893729    1.609    0.379
       328  -9.5009    168.1696    129.0894   3.9899191339e+01   2.2174462415e+01    0.3591991     0.263414 -77.84 0.0006460047    1.771    0.435
       329  -9.7446    152.7834    127.8533   4.3120463792e+01   2.5840216815e+01    0.7810033    0.2840902 -50.04  0.001644653    2.866    0.651
       330 -10.1644     99.4174    127.7280   5.7220912454e+01   3.6894888448e+01    0.6597338     0.419659  88.36   0.00168413    2.686    0.628
       331  -9.5790     73.1668    129.2833   6.5389671688e+01   4.0945424330e+01    0.3965748    0.2667522  80.48  0.001146649    2.020    0.505
       332  -8.1319    204.6597    130.3370   3.2835001172e+01   1.4069992305e+01    0.2218988    0.1652091 -74.16 0.0007476469    1.683    0.406
       333  -8.1569    211.5101    128.9457   3.1291969873e+01   1.2934083770e+01    0.2255726    0.1310416 -45.51  0.001015054    1.583    0.368
       334  -7.7274    186.2719    129.6162   3.6205848730e+01   1.8106731302e+01    0.1577851    0.1150374 -71.96 0.0006994971    1.706    0.414
       335  -9.2551     49.8414    128.2334   7.2373090362e+01   4.4400113214e+01    0.4003353    0.2355182  74.37  0.001676076    2.481    0.597
       336 -10.4749     44.4047    123.4198   7.3203765809e+01   4.6239872372e+01     0.930518    0.4520021 -87.57  0.003158535    3.771    0.735
       337  -8.2719     27.0383    129.4780   7.9597637922e+01   4.6511308916e+01    0.1820694    0.1345363  23.71  0.001034795    1.601    0.375
       338 -10.4120     60.1834    125.0463   6.8538990514e+01   4.3871390195e+01     0.712495    0.4237544  80.04  0.002776259    2.717    0.632
       339  -9.3884     36.4064    127.6708   7.6442872825e+01   4.6048081388e+01    0.2528315    0.2216535 -86.03 0.0003652274    1.097    0.088
       340  -9.8153    118.1175    125.3680   5.1380196758e+01   3.3823329428e+01    0.6400719    0.3737277  66.57  0.001946099    2.671    0.626
       341  -9.0657    179.0243    124.6254   3.6512715596e+01   2.0718681800e+01    0.3475795    0.2607289  66.32  0.001212745    1.498    0.333
       342 -10.3743     28.5923    122.3225   7.8017450979e+01   4.8138736957e+01    0.7091687    0.3546364  75.58  0.002688393    3.428    0.708
       343  -7.7839    244.0000    123.9952   2.5011594364e+01   7.5663373573e+00    0.2210369   0.06680138 -40.49 0.0006142123    2.833    0.647
       344  -8.0979    188.4837    123.5184   3.4338990542e+01   1.8867449537e+01     0.274365    0.1322063 -52.51 0.0007367426    2.235    0.553
       345  -9.6493    158.6006    121.5194   4.0216051203e+01   2.5933011222e+01    0.4080419    0.2894085 -81.86  0.001240429    1.961    0.490
       346  -7.8674    195.3207    122.1045   3.2688825769e+01   1.7665526742e+01    0.2219296    0.1240073 -51.85 0.0005618601    1.809    0.447
       347  -9.0680    171.8633    121.4110   3.7249157696e+01   2.2981208960e+01    0.2762676    0.2101489 -48.73 0.0004481371    1.275    0.216
       348  -7.6446    202.7535    121.6665   3.1211057851e+01   1.6159382897e+01    0.1411929    0.1138643 -13.83 0.0002503127    1.551    0.355
       349 -10.0264    131.1725    118.5891   4.6203743943e+01   3.2650998250e+01    0.5993363    0.3957967  84.40  0.001905464    2.534    0.605
       350 -10.0439    141.5108    117.5806   4.3314042834e+01   3.0613601586e+01    0.7297624    0.3262808 -52.50  0.001920152    2.411    0.585
       351  -9.4063     71.2573    119.6868   6.3929044358e+01   4.3613459271e+01    0.3059187    0.2261206  77.95 0.0009800597    1.706    0.414
       352  -8.7266    100.8594    119.0620   5.4741558908e+01   3.8714041942e+01    0.4002126    0.2130263  17.68  0.001158688    4.441    0.775
       353 -10.2329      2.7044    115.6015   8.5183659058e+01   5.1726526021e+01    0.7506244    0.2806561 -84.31  0.002945649    3.133    0.681
       354  -8.0263    231.5153    117.4877   2.5490494950e+01   1.1071297684e+01    0.1409944    0.1200982 -55.83 0.0008091261    1.079    0.073
       355  -8.0849    185.7675    115.9014   3.3062819473e+01   2.0999743743e+01    0.2489769    0.1605538 -65.08 0.0005441432    1.911    0.477
       356  -9.8458    109.2948    113.9856   5.1024128395e+01   3.8268582413e+01    0.5566722    0.3706906 -77.51  0.001520921    2.182    0.542
       357  -8.1556    193.0099    115.0164   3.1459158312e+01   1.9569016447e+01     0.231505    0.1714149 -72.24 0.0004987869    1.583    0.368
       358 -10.2521     92.8170    111.6929   5.5321810752e+01   4.1950431567e+01    0.8665941    0.3697756 -55.48  0.002793761    2.422    0.587
       359  -8.7088     59.7440    114.7045   6.6529548606e+01   4.6483826264e+01    0.3618083    0.1873712   7.75  0.001196925    4.153    0.759
       360  -8.7232    249.4698    113.8137   2.2132800288e+01   8.3298402993e+00    0.3305099    0.1891126 -63.82  0.001528136    2.253    0.556
       361  -8.2464    167.4239    114.2464   3.6444024674e+01   2.5479818116e+01    0.2144371    0.1419355 -55.51 0.0003121923    1.570    0.363
       362  -9.8359     79.0212    112.2702   5.9760395393e+01   4.4193406023e+01    0.5306349    0.3586268  87.19  0.001545642    2.266    0.559
       363  -8.5279     78.4443    104.8388   5.8109304805e+01   4.6045917477e+01    0.3337206    0.2156664 -17.81  0.001134934    2.397    0.583
       364 -10.1020    133.5463    109.1072   4.3143538012e+01   3.4245619982e+01    0.6683877    0.3072661 -50.00  0.001895399    2.232    0.552
       365  -9.6193    121.8611    112.3611   4.7091296962e+01   3.6053455761e+01    0.3720571    0.2973114 -88.05 0.0006410549    1.521    0.342
       366  -8.4652     26.6666    113.6873   7.7212052025e+01   5.0427614325e+01    0.1389881   0.08655735 -39.25 0.0006445079    1.681    0.405
       367  -8.7261    174.7432    111.3225   3.4167533046e+01   2.4411697006e+01    0.3613095      0.18218 -54.80 0.0009676591    2.251    0.556
       368  -8.8298    159.2724    111.7371   3.7615132081e+01   2.7865606111e+01    0.2873932    0.2207289 -69.35 0.0007738183    1.465    0.317
       369 -10.2722     66.5301    109.8193   6.3210746946e+01   4.6712619789e+01    0.5611126    0.3351435 -69.24  0.002131997    1.924    0.480
       370  -9.9689     14.5378    111.1972   8.0785752673e+01   5.2004438469e+01    0.3623465    0.2288107  74.51    0.0013149    1.933    0.483
       371  -7.6695    182.7261    109.3437   3.2069927987e+01   2.2991556695e+01    0.1564418    0.1139692 -71.94 0.0005978062    1.620    0.383
       372  -9.2009     42.9450    109.0103   7.0906557704e+01   4.9939723638e+01    0.3533477    0.1509512  16.76  0.001313117    3.489    0.713
       373  -9.3094    248.3546    108.0113   2.1082771731e+01   9.5232676806e+00    0.2986016     0.217808 -86.74   0.00165638    1.707    0.414
       374 -10.4025    249.4665    102.6281   1.9822341457e+01   1.0226080264e+01    0.4516347    0.3117455 -52.44  0.002560206    1.251    0.201
       375 -10.4909    108.8518     98.6914   4.7086105084e+01   4.1806471388e+01    0.7819613    0.4674739  69.70  0.001381615    2.912    0.657
       376  -8.6325    107.3983     92.7463   4.5840199747e+01   4.3384622632e+01     0.259928    0.2020908  29.56  0.001145666    1.403    0.287
       377  -8.8282    109.8604    106.7951   4.8990496768e+01   3.9800811481e+01    0.3497241    0.2187373  22.57  0.001368146    2.305    0.566
       378 -10.5479     45.8541    102.2585   6.8474657912e+01   5.1225856145e+01    0.7581009    0.4323051  71.54  0.002887018    3.467    0.712
       379 -10.8188     22.6960    102.4799   7.6574919791e+01   5.3457722935e+01    0.6351738    0.3734741  74.41  0.002181564    2.527    0.604
       380  -9.5832    150.6120    102.9374   3.7323567867e+01   3.1693481595e+01    0.4913359    0.3030912 -67.28  0.001242312    2.253    0.556
       381  -9.3530    139.7843    104.4157   4.0323236628e+01   3.3861108523e+01    0.3685385    0.2860726  89.89 0.0009157663    1.598    0.374
       382  -8.6641    166.6709    103.8779   3.3986447066e+01   2.7776523719e+01    0.2916174     0.215842 -73.42 0.0006530474    1.602    0.376
       383 -10.0558    128.3490    101.7982   4.2543515457e+01   3.6978200313e+01    0.4015305    0.3042222 -78.31 0.0007877567    1.666    0.400
       384  -8.9494      6.8319    102.9027   8.2077821133e+01   5.4488745482e+01    0.2264414    0.1533081  87.90 0.0008754289    1.584    0.369
       385  -7.9223    175.5982    101.8370   3.1620103761e+01   2.6109926560e+01    0.2192322    0.1346312 -53.89 0.0004599398    1.677    0.404
       386  -8.3924    159.7421    100.8278   3.4698219474e+01   3.0004393078e+01    0.2878325    0.1956546 -60.44 0.0006150319    1.627    0.385
       387  -9.5209     82.1160     99.6463   5.5572637910e+01   4.6629565534e+01    0.4118818    0.2637111 -70.74  0.000870608    2.090    0.522
       388  -9.4636     95.0599     96.8859   5.0721653668e+01   4.4919763558e+01    0.3015352    0.2500286 -68.15 0.0005926983    1.335    0.251
       389 -10.1341     64.0689     95.9011   6.0627951253e+01   5.0336427144e+01    0.5157135    0.3448027  81.99  0.001563718    2.585    0.613
       390  -8.7426    151.0270     95.2807   3.5184033773e+01   3.3155343605e+01    0.3035653     0.201874 -13.26  0.001161101    2.580    0.612
       391  -8.1861    164.6880     93.9498   3.1829688635e+01   3.0204838698e+01    0.2157693    0.1883063 -55.03 0.0003911078    1.119    0.106
       392  -9.4179    139.2150     91.9268   3.7062900453e+01   3.6573002945e+01    0.5517066    0.3373516 -60.40  0.001410162    2.003    0.501
       393  -8.2348    189.3770    107.7411   3.0400008679e+01   2.1802057250e+01    0.2902347    0.1326146 -45.91  0.000812893    2.082    0.520
       394  -9.4764    118.8704    106.1386   4.6273257494e+01   3.8080564333e+01    0.4382204    0.2796795 -65.17  0.001166368    1.974    0.494
       395  -8.0709    176.4769     93.0291   2.9207534491e+01   2.7603904413e+01    0.2254023    0.1422626 -46.11 0.0005221362    1.535    0.348
       396 -10.1367    124.6327     90.8057   4.0469497719e+01   4.0103687406e+01    0.4333169    0.3250256 -79.92 0.0009589253    1.758    0.431
       397  -9.7011      5.5110     91.9081   8.0777130230e+01   5.7119598198e+01    0.3315627    0.2054192  72.75  0.001259491    2.168    0.539
       398  -8.6920     46.4575     91.9409   6.5862632245e+01   5.3558181820e+01    0.3612011     0.183202  14.83   0.00151352    2.732    0.634
       399  -9.6972     34.9733     89.8530   6.9570560253e+01   5.5287506719e+01    0.4647202    0.2661979 -80.60  0.001550669    2.543    0.607
       400  -9.1484     22.9156     89.8156   7.4026726303e+01   5.6392085936e+01    0.3181693    0.2175048 -23.03  0.001045678    1.615    0.381
       401  -8.0812    151.1892     88.9938   3.3438054547e+01   3.4354652900e+01    0.2518255    0.1646577 -66.05 0.0005633562    1.932    0.483
       402 -10.1945     85.9315     85.5417   5.0389616059e+01   4.9059534105e+01    0.6296099    0.4384323 -80.99  0.002520029    2.353    0.575
       403  -7.7611    164.2118     87.0014   3.0088750768e+01   3.1644132159e+01    0.1969456    0.1204057 -41.66  0.000319085    1.634    0.388
       404  -9.7739     48.4185     83.9149   6.3101568823e+01   5.5124168167e+01    0.4803731     0.324745  84.20  0.001912122    2.605    0.616
       405  -9.6397    104.6699     82.9107   4.3770878597e+01   4.5980322015e+01     0.403968    0.2975414 -69.55 0.0009989227    1.763    0.433
       406  -9.0763    140.9147     82.5502   3.4013789105e+01   3.8007834036e+01    0.3258269    0.2123933 -48.41 0.0009458121    1.570    0.363
       407  -8.7201    150.8812     80.7774   3.1233477496e+01   3.5982932677e+01    0.4340536    0.1879087 -52.34  0.001492641    2.794    0.642
       408  -7.8414     64.1429     82.2377   5.6886931425e+01   5.3355040841e+01    0.1832199     0.163298 -81.80 0.0004787114    1.352    0.260
       409  -7.9687    157.8374     91.3353   3.2599951079e+01   3.2330299269e+01    0.2141267    0.1791948 -59.27 0.0004874866    1.195    0.163
       410  -9.5964     24.8232     80.6230   7.1278560146e+01   5.8302700001e+01    0.3819968     0.260933  81.85   0.00138176    2.200    0.546
       411  -9.1940      9.9550     80.7361   7.7066925462e+01   5.9376123069e+01    0.3212456    0.1764256  54.95  0.001404804    2.785    0.641
       412  -8.5711    119.3276     80.0302   3.8751171285e+01   4.3419832071e+01     0.306902    0.2194607 -63.78 0.0008161967    1.707    0.414
       413  -8.7681     74.8664     80.3040   5.2549322026e+01   5.2075857833e+01    0.2966353    0.1984888 -63.23  0.001018486    1.855    0.461
       414  -8.4407    158.0493     83.7253   3.0495023609e+01   3.3726074625e+01     0.259788    0.1945159 -55.42 0.0005254877    1.361    0.265
       415  -8.1272    166.9348     79.5105   2.7536603450e+01   3.2368094833e+01     0.214311    0.1437376  58.03 0.0003535837    1.467    0.318
       416  -7.8319    174.6404     77.8427   2.5620455783e+01   3.0816301623e+01    0.2099469    0.1278151 -50.61 0.0004462579    1.640    0.390
       417  -7.8968    157.1882     76.1452   2.8592989591e+01   3.5312955791e+01    0.2099184    0.1681682 -72.39 0.0005212927    1.342    0.255
       418  -9.2763    128.0713     75.1055   3.4987670896e+01   4.2378762880e+01    0.3565425    0.2483823 -62.75 0.0007459034    1.748    0.428
       419  -8.3872    140.4348     74.8952   3.1924385706e+01   3.9537522964e+01    0.2701139    0.1410653 -44.98 0.0008365469    1.961    0.490
       420  -9.9395     63.1345     73.3913   5.4631708001e+01   5.5353364575e+01    0.4606289    0.2761472 -58.10  0.001129016    1.927    0.481
       421  -7.8449     11.3096     75.3212   7.5406642988e+01   6.0481267822e+01    0.1317875   0.07276046 -38.08  0.000403683    1.646    0.392
       422  -9.6662     82.4347     72.5093   4.7574266317e+01   5.2338970899e+01    0.3777315    0.2848564 -75.22 0.0009526009    1.935    0.483
       423  -8.5196    163.5606     72.8638   2.6402839707e+01   3.4352358506e+01    0.2699926    0.1722589 -47.57  0.001236575    1.569    0.363
       424  -7.9112    151.3787     73.1732   2.8987036075e+01   3.7235523494e+01    0.2116228    0.1331877 -50.89 0.0005985685    1.662    0.398
       425  -8.4386    115.7448     72.6865   3.7497091983e+01   4.5594574418e+01    0.2810781    0.1921066 -50.09 0.0006119091    1.566    0.362
       426  -8.3886     42.5036     72.5033   6.2229360491e+01   5.8281406148e+01    0.2241171     0.124493 -64.55 0.0009302842    2.218    0.549
       427  -9.4530    105.9204     71.0166   3.9747381588e+01   4.8018730784e+01    0.4302186    0.2118357 -42.48  0.001736323    2.074    0.518
       428  -9.3047     95.0564     70.7356   4.2929074037e+01   5.0291417824e+01    0.4351521    0.2483618 -57.85  0.001249658    2.379    0.580
       429  -9.5874     51.6290     69.8577   5.7887235746e+01   5.7695153716e+01    0.3784772    0.2643597 -74.11  0.001312962    2.152    0.535
       430  -8.9669     16.6791     70.1317   7.2041081759e+01   6.1227211136e+01    0.2452058    0.1886336 -89.14  0.000844718    1.702    0.413
       431  -8.6484    147.0280     67.8711   2.8406945096e+01   3.9198169549e+01    0.2513177    0.2106099 -50.55 0.0005938234    1.218    0.179
       432  -8.7307    138.5038     65.8758   2.9716883887e+01   4.1572473858e+01    0.2791991    0.2172752 -74.39 0.0006937382    1.507    0.336
       433  -8.7960    121.7522     65.8862   3.3790830655e+01   4.5466131835e+01    0.2608072    0.1948309 -60.66 0.0006712444    1.568    0.362
       434  -8.0729    134.3069     65.2967   3.0516074639e+01   4.2662326002e+01    0.1455861    0.1141145  22.19 0.0001749489    1.588    0.370
       435  -8.6317     37.3815     64.2097   6.1864982848e+01   6.0560923939e+01    0.2255159    0.1908913  89.52  0.001171048    1.674    0.403
       436  -8.8070    110.2684     63.5904   3.6142423297e+01   4.8415886010e+01    0.2789894    0.2247452 -78.11 0.0007189585    1.599    0.374
       437  -8.6196     64.8803     62.6462   5.0558466383e+01   5.7189418622e+01    0.3896782    0.2276393  -1.89   0.00152171    3.188    0.686
       438  -8.2865    158.5086     61.7604   2.4313244688e+01   3.7432396335e+01       0.1983    0.1305124 -53.08 0.0008727321    1.592    0.372
       439  -9.0539     97.7407     60.4514   3.8747954067e+01   5.1602397500e+01    0.2851475    0.2189174  57.56 0.0007585968    1.411    0.291
       440  -9.6668     73.3830     59.2227   4.6320502490e+01   5.6419293739e+01    0.3832093    0.2374713 -53.92  0.001141333    1.973    0.493
       441  -7.7107     89.2977     59.6360   4.1098872371e+01   5.3428328308e+01    0.1372708    0.1122042 -80.31 0.0007032854    1.720    0.418
       442  -8.2607    130.7201     57.3660   2.8933551860e+01   4.4807709378e+01    0.2521021    0.1670668 -48.47 0.0006036789    1.629    0.386
       443  -9.8250     23.4668     56.1733   6.5375854439e+01   6.3538455023e+01    0.3936615    0.2744649 -85.11   0.00172841    2.476    0.596
       444  -9.3869      7.3876     56.8463   7.2691749053e+01   6.4608703264e+01    0.2736788    0.2088033  86.10  0.001115369    1.885    0.469
       445  -8.2520    139.9983     56.0063   2.6428064975e+01   4.2819897430e+01    0.2300276    0.1676328 -73.84 0.0005502995    1.684    0.406
       446  -8.6485    119.3359     55.6946   3.1182867324e+01   4.7705910749e+01    0.2866443     0.219714 -78.61 0.0007316335    1.708    0.414
       447  -8.7639     44.0722     55.4542   5.6314842978e+01   6.1474447269e+01    0.2269449    0.1750262 -59.52 0.0007734332    1.583    0.368
       448  -9.0223     62.8947     54.4168   4.8489923029e+01   5.9000696597e+01    0.2930793    0.1826088 -48.29 0.0005971249    1.733    0.423
       449  -8.8947     54.1534     53.7948   5.1656111536e+01   6.0425713989e+01    0.3244594     0.201403 -58.87  0.001088895    2.225    0.550
       450  -8.6618    105.8727     53.0906   3.3913751704e+01   5.1104847955e+01    0.2756948    0.1950445 -59.22 0.0007876657    1.818    0.450
       451  -9.3995     92.5226     50.3258   3.6877173002e+01   5.4331307193e+01    0.3851228    0.2277977 -48.10  0.001280642    1.982    0.495
       452  -8.2833    144.6460     48.8072   2.3298920469e+01   4.2784904720e+01    0.1949896    0.1251457 -47.14  0.000465935    1.650    0.394
       453  -7.9947    130.1632     49.1423   2.6494455319e+01   4.6198128852e+01    0.1923675    0.1622543 -71.40 0.0004195953    1.321    0.243
       454  -8.0811    173.1684     47.7906   1.7898086182e+01   3.5984095128e+01    0.1791406    0.1620955  37.57 0.0003764817    1.331    0.249
       455  -7.8918    120.7893     47.0236   2.8011512377e+01   4.8692152533e+01    0.1808799    0.1139269 -34.51 0.0008659174    1.704    0.413
       456  -8.2881    112.1686     46.6997   3.0066148845e+01   5.0694429873e+01    0.2325363    0.1831627 -52.36 0.0007351647    1.446    0.308
       457  -8.8876     82.3139     46.4898   3.8756099334e+01   5.6931625716e+01    0.2527045    0.2199991 -63.24 0.0007309023    1.477    0.323
       458  -8.3865     45.1724     44.6880   5.2064814423e+01   6.3255786988e+01    0.2096922    0.1577792 -47.52 0.0007018331    1.472    0.321
       459  -8.8579     16.8968     44.4982   6.4726369074e+01   6.6322130258e+01    0.1982614    0.1568068 -62.96 0.0006491114    1.548    0.354
       460  -8.5151    132.7021     42.9681   2.3993968183e+01   4.6478208684e+01    0.1892797    0.1805204 -67.46 0.0004142049    1.109    0.098
       461  -8.4287     74.9523     51.4557   4.3049751653e+01   5.7487026169e+01    0.3045922    0.1799549  13.24  0.001289369    2.620    0.618
       462  -8.7532     58.3005     42.6438   4.5955725470e+01   6.1700076203e+01    0.2365638    0.2099854 -73.83 0.0009864037    1.662    0.398
       463  -7.7022     32.9681     44.0000   5.7135602954e+01   6.4861402876e+01     0.185096   0.06593014  28.98 0.0007958442    2.897    0.655
       464  -9.5803      5.2988     42.0149   6.9511304920e+01   6.7620426286e+01    0.2699518    0.1966311 -72.88  0.001077792    1.814    0.449
       465  -8.8717    106.0781     41.3048   2.9827433961e+01   5.2812462275e+01    0.2506497    0.1968697 -45.17 0.0007192335    1.422    0.297
       466  -9.1994     69.5942     41.2877   4.1201730742e+01   6.0047270708e+01    0.2734131    0.2153849 -54.12 0.0009718545    1.657    0.397
       467  -8.4564    140.3392     41.1450   2.1850437668e+01   4.4899860402e+01    0.1931965    0.1203399 -45.99 0.0004126252    1.726    0.421
       468  -8.2828     36.7621     40.4441   5.4134624714e+01   6.5035516751e+01    0.2006564    0.1468274 -51.36 0.0007633514    1.610    0.379
       469  -7.5207    155.7013     38.7127   1.8283215291e+01   4.1496646888e+01    0.1347287    0.1018628  37.76 0.0002867652    1.554    0.357
       470  -8.6469     95.6953     37.9241   3.1506088373e+01   5.5502699037e+01    0.2257948    0.1767366 -49.37 0.0006718208    1.515    0.340
       471  -8.1656     80.6426     36.7799   3.5695081046e+01   5.8681645654e+01     0.178264    0.1175563 -42.78 0.0004485899    1.728    0.421
       472  -7.6842    133.6452     36.2911   2.1699577779e+01   4.7144066438e+01    0.1411397    0.1024066 -80.43 0.0007028336    1.681    0.405
       473  -9.3615     26.1834     35.1951   5.7024119660e+01   6.7099031516e+01    0.2731387    0.1920151 -55.22 0.0009459454    1.786    0.440
       474  -8.0235    125.9846     35.2778   2.2991132072e+01   4.9085780408e+01    0.1879072    0.1651764  54.03 0.0004201625    1.041    0.040
       475  -8.3010    111.9435     34.7493   2.6058739740e+01   5.2385045730e+01    0.2424512    0.1637551 -61.63 0.0007461678    2.028    0.507
       476  -8.2454    119.3780     33.1565   2.3761498385e+01   5.0890668047e+01    0.1828563    0.1208201 -45.09  0.000468865    1.704    0.413
       477  -8.7275     60.9335     32.4886   4.0959864310e+01   6.2807971128e+01    0.2103144    0.1727513 -46.07 0.0006275754    1.522    0.343
       478  -8.7992     48.5346     32.9348   4.6092783680e+01   6.4669130469e+01    0.2002167    0.1889131  45.61 0.0006149624    1.437    0.304
       479  -8.8232     13.1510     30.0676   6.1520819885e+01   6.9173019696e+01    0.2792448    0.1774133 -64.30  0.001327768    2.415    0.586
       480  -8.0091    101.5171     29.4811   2.6846521316e+01   5.5348509140e+01    0.1315407    0.1192539  45.83 0.0001075284    1.040    0.038
       481  -8.8606     72.1109     30.6851   3.6184619699e+01   6.1108246020e+01    0.2289136    0.1712301 -46.57 0.0007814647    1.667    0.400
       482  -8.7405     81.7724     27.4441   3.1732356965e+01   5.9689709548e+01    0.2222099    0.1964581 -66.12 0.0007856048    1.515    0.340
       483  -8.9996      3.7868     27.7535   6.5558020568e+01   7.0264350903e+01    0.2036211    0.1426546 -56.56  0.001129199    1.612    0.380
       484  -8.7612     91.9306     26.3839   2.8309072141e+01   5.7759907219e+01    0.2230575    0.1729093 -46.30 0.0005711894    1.553    0.356
       485  -8.1805    104.7542     22.7979   2.3616761219e+01   5.5412929045e+01    0.1708617    0.1493944 -88.90 0.0006042838    1.341    0.254
       486  -8.2208     34.7383     22.8243   4.7918920654e+01   6.8018783546e+01    0.1440806    0.1358063  -3.28 0.0007369285    1.374    0.272
       487  -8.3089    120.9789     21.6822   1.9578598924e+01   5.1852251212e+01    0.1857262    0.1531828  63.77 0.0004228926    1.092    0.084
       488  -9.0383     63.8091     20.7748   3.5034937662e+01   6.3845781812e+01    0.2757863    0.1828022 -41.11   0.00104852    1.828    0.453
       489  -8.8425     48.4294     21.3971   4.1265336990e+01   6.6293686088e+01    0.2049302    0.1855936  -3.43  0.000576271    1.212    0.175
       490  -7.9753     19.4508     21.2454   5.4725705375e+01   6.9998019689e+01    0.1475432    0.1016359 -47.07 0.0009506543    1.696    0.410
       491  -8.9589     74.1199     19.2159   3.0859369381e+01   6.2137941218e+01    0.2565798    0.1913137 -40.92 0.0008309681    1.629    0.386
       492  -7.8167    211.8055     18.2261   5.8931216486e+00   3.0699971669e+01     0.152352    0.1354726  74.81 0.0003558038    1.289    0.224
       493  -8.2787     87.8790     17.3517   2.5974499151e+01   5.9607449445e+01    0.1931463    0.1669595 -32.27 0.0005552553    1.331    0.249
       494  -7.8434     39.0228     18.2499   4.3927282659e+01   6.8069532712e+01    0.1508323    0.1215986 -42.90 0.0007023744    1.644    0.392
       495  -8.3316    112.6856     17.0082   1.9743504705e+01   5.4244831968e+01    0.1720396    0.1593872  30.67 0.0004937474    1.125    0.111
       496  -7.9913     30.3648     16.1002   4.6975280077e+01   6.9493644613e+01    0.1470715   0.09903905 -40.51 0.0006444172    1.705    0.414
       497  -8.1145     97.3630     15.1421   2.2628823445e+01   5.7829013909e+01    0.1656997    0.1132241 -38.18 0.0006134776    1.697    0.411
       498  -8.0045      7.5333     15.4841   5.8638997319e+01   7.1955284867e+01    0.1097823   0.08474527 -16.14  0.000192881    1.041    0.039
       499  -8.7702    218.7356    247.3862   5.2695139274e+01  -8.8501360967e+00    0.3453678    0.1268008 -40.59  0.001608264    2.901    0.655
       500  -8.1790    191.7486    249.5772   5.8113633777e+01  -5.3533988102e+00    0.1725193    0.1008847  42.42 0.0007360583    1.687    0.407
       501  -9.1796    175.6328    247.6060   6.0972216444e+01  -2.6355764063e+00    0.2914081    0.2322803  77.88   0.00130401    1.984    0.496
       502  -8.8706    132.5303    247.9341   6.9756522412e+01   4.0518000528e+00    0.3496615    0.2047858  64.03  0.001079527    2.360    0.576
       503  -8.1555    112.8886    248.4930   7.3867131655e+01   7.0205522026e+00    0.1948007    0.1446017 -71.39  0.001065099    1.570    0.363
       504  -7.9882    202.3389    248.3163   5.5896508690e+01  -6.6995468383e+00    0.1269188   0.08282872   3.75 0.0007048315    1.703    0.413
       505  -9.0207    156.1938    247.9123   6.4916442288e+01   3.2746944281e-01    0.2270789    0.1945653  58.45 0.0009895313    1.308    0.235
       506  -9.1838    103.7402    246.4996   7.5524243762e+01   8.8011961415e+00    0.4226553    0.2212206 -83.91  0.001832803    3.155    0.683
       507  -9.0172    243.0352    245.9762   4.8145357908e+01  -1.1807680548e+01    0.3445727    0.1583989 -26.89  0.001840808    2.193    0.544
       508 -10.0069    223.9239    243.8793   5.1189728865e+01  -9.0624502042e+00    0.4357114    0.2321129 -47.20  0.002312342    2.484    0.597
