#   1 NUMBER                 Running object number                                     
#   2 MAG_AUTO               Kron-like elliptical aperture magnitude                    [mag]
#   3 X_IMAGE                Object position along x                                    [pixel]
#   4 Y_IMAGE                Object position along y                                    [pixel]
#   5 X_WORLD                Barycenter position along world x axis                     [deg]
#   6 Y_WORLD                Barycenter position along world y axis                     [deg]
#   7 A_WORLD                Profile RMS along major axis (world units)                 [deg]
#   8 B_WORLD                Profile RMS along minor axis (world units)                 [deg]
#   9 THETA_WORLD            Position angle (CCW/world-x)                               [deg]
#  10 FWHM_WORLD             FWHM assuming a gaussian core                              [deg]
#  11 ELONGATION             A_IMAGE/B_IMAGE                                           
#  12 ELLIPTICITY            1 - B_IMAGE/A_IMAGE                                       
         1 -12.4893    214.9897     31.4681   4.0818303768e+01   2.7861887085e+01     1.060637     0.606777 -40.41  0.004415419    1.636    0.389
         2 -12.2639    221.9948     26.0378   3.8788224004e+01   2.6916117233e+01    0.6553689    0.5309165 -17.45  0.001427682    1.525    0.344
         3 -12.6014    238.2438     10.3875   3.3873140629e+01   2.5114589413e+01    0.7039968    0.5229213 -65.01  0.002595571    1.134    0.118
         4 -10.4462      2.0980     12.1539   9.5510162480e+01   7.2473820081e+01    0.4824616   0.02405152 -50.52  0.001321479    8.057    0.876
         5  -9.8759      2.2731      2.9813   9.1132292092e+01   7.3905591152e+01    0.2502177    0.1254982 -31.82   0.00155242    1.522    0.343
         6 -10.3005     37.9029    230.7207   1.2108569240e+02   2.1518633202e+01    0.2247174    0.1536255  85.94 0.0003510307    1.290    0.225
         7 -13.9191     90.6758    245.9553   1.1224203674e+02   1.1962839881e+01     4.488311    0.8528994  34.72   0.01341415    5.746    0.826
         8 -11.9673     15.7256    215.2077   1.2427691041e+02   2.6923105846e+01    0.5444654      0.34256  77.16   0.00361417    1.295    0.228
         9 -12.9833     10.3604    206.6487   1.2479665200e+02   2.9183945783e+01    0.8557733    0.6008012  24.57  0.003980441    1.868    0.465
        10 -10.8679     21.9974    222.3359   1.2352544746e+02   2.4868906177e+01    0.2577842     0.144296 -81.17  0.001608222    1.594    0.373
        11 -11.0432     32.6534    248.7764   1.2317226089e+02   1.8704646310e+01    0.6070034    0.2036132 -72.08  0.003146469    2.901    0.655
        12  -9.7604     27.7592    250.2467   1.2409885540e+02   1.8969355462e+01    0.2771072    0.1515303  34.39  0.001271533    1.908    0.476
        13  -9.5811    192.8469    193.9603   8.3265751360e+01   4.7919827748e+00    0.3063292    0.1876789 -62.47  0.001239461    3.165    0.684
        14 -11.0442     55.2479    181.4915   1.1300061993e+02   3.0022937365e+01    0.3821304    0.2781703 -34.17  0.001122762    1.901    0.474
        15 -10.8952     61.4517    175.4808   1.1078116694e+02   3.0652680272e+01    0.3023366    0.2542648 -35.96 0.0009318299    1.477    0.323
        16 -10.9120     28.9762    245.9783   1.2365267074e+02   1.9613279914e+01    0.3318422    0.2412508  36.15  0.002414111    1.546    0.353
        17  -9.0380    101.6509    172.3129   1.0030643632e+02   2.5540097367e+01    0.1523507    0.1066476  69.47 0.0007046278    1.720    0.419
        18 -10.3318     72.1344    165.3602   1.0670649820e+02   3.1644193212e+01    0.2569908    0.2412553 -72.67 0.0004452615    1.085    0.078
        19 -12.5122     58.6883    161.8092   1.0965820906e+02   3.4257896771e+01    0.5380043    0.2948626 -45.01  0.001500369    2.110    0.526
        20 -13.6834     79.9922    158.7668   1.0362225516e+02   3.2118355157e+01     5.008777     2.479326  82.65  0.001316445    7.933    0.874
        21 -11.5772     69.5350    145.5082   1.0422747729e+02   3.6832189845e+01    0.4775139    0.4449175 -13.61  0.001411843    1.243    0.196
        22 -12.4131     67.7762    142.5775   1.0421438397e+02   3.7791389802e+01      1.14018    0.5268246  55.65  0.001465578    3.084    0.676
        23  -8.1912    157.3842    160.2222   8.4230994512e+01   1.8013873897e+01    0.2054066    0.1436777 -57.43 0.0005417626    1.661    0.398
        24 -10.3827     32.7781    156.2556   1.1560424102e+02   3.8453419265e+01    0.3266569    0.1423502 -78.27   0.00143292    2.230    0.552
        25  -8.1185    124.8852    153.8654   9.0894203669e+01   2.5738491063e+01    0.2029811    0.1761214  77.61 0.0004622039    1.312    0.238
        26 -10.0011     23.9688    147.6873   1.1690103490e+02   4.1315354659e+01    0.2355141    0.1500355  79.38 0.0006305641    1.589    0.371
        27 -11.1300     82.9476    142.8717   1.0000052609e+02   3.5553217210e+01    0.4038281    0.2606664 -56.73 0.0004406183    1.458    0.314
        28  -9.5738    133.6256    143.6084   8.6413619617e+01   2.6404317206e+01    0.3899377     0.148887 -53.07  0.001252581    2.921    0.658
        29 -10.2118     94.9869    144.0293   9.6870600682e+01   3.3367025004e+01    0.3420623    0.2897694 -39.62 0.0009184985    1.226    0.184
        30  -9.5295     98.0151    141.2402   9.5463889352e+01   3.3537863551e+01    0.2419937    0.2211469 -40.13  0.000765079    1.113    0.101
        31 -10.5181     76.6650    137.4758   1.0075548762e+02   3.7810354510e+01    0.4040503    0.2112517  57.21  0.001560129    2.663    0.624
        32 -12.0976     25.5905    209.7746   1.2201495399e+02   2.7071902566e+01    0.3968342    0.3288763 -54.44 0.0007615437    1.558    0.358
        33  -8.8944    159.1073    135.1301   7.8086279243e+01   2.3019833014e+01    0.2415833    0.1959702 -86.50 0.0009493974    1.674    0.402
        34  -9.9534    106.8266    131.7479   9.0934139083e+01   3.4279574508e+01    0.3572213    0.3482398 -59.97  0.001184289    1.021    0.020
        35  -9.9187     67.7466    129.3364   1.0179551646e+02   4.1065000004e+01    0.3049923    0.1647802  86.47 0.0009651697    4.203    0.762
        36  -9.7756     94.5118    128.5463   9.3734930209e+01   3.7199348622e+01    0.3072788    0.2563882  -3.85 0.0008140323    1.427    0.299
        37  -9.3809    114.5934    126.2260   8.7458908504e+01   3.4141041092e+01    0.2284865    0.1407902 -39.55 0.0007252162    1.675    0.403
        38  -8.9285    105.1703    120.1706   8.8671974219e+01   3.7327220068e+01    0.2218767    0.1983776 -18.62 0.0003507074    1.179    0.152
        39  -9.4298     33.7364    237.4205   1.2229580318e+02   2.0691352606e+01    0.1888074   0.09285679  61.72 0.0008370936    1.742    0.426
        40  -8.4200    168.5042    113.5009   7.0429946932e+01   2.5462445666e+01    0.1563338    0.1511149 -59.43 -0.0002105965    1.092    0.085
        41  -8.8199    204.8678    110.5375   6.2212964180e+01   1.7880729869e+01    0.2867718    0.1427174  45.75  0.001149425    2.134    0.531
        42  -9.7185     52.6008    109.2191   1.0246311834e+02   4.7894276989e+01    0.2128847    0.1099651 -51.01 0.0009587547    1.677    0.404
        43  -9.4621     56.0448     95.5526   9.8229374302e+01   5.0751657658e+01    0.2006012    0.1384027  27.44 0.0008405751    1.608    0.378
        44  -8.6924     45.5151     91.4830   1.0094169125e+02   5.2909145148e+01    0.1373891    0.1184485 -46.81 0.0001306252    1.010    0.010
        45  -8.2890     83.6407     89.1930   8.7131210044e+01   4.8228294678e+01    0.2049283    0.1271099 -39.49 0.0003357417    1.538    0.350
        46  -8.3421     24.5612     82.5499   1.0652611314e+02   5.6889725914e+01    0.1302737    0.1051803 -49.57 8.452715e-05    1.007    0.007
        47 -10.4191      2.2424     61.6446   1.1072646113e+02   6.2893604814e+01     0.364323   0.09564268 -68.62  0.001313134    3.858    0.741
        48  -9.7227     13.3349     60.0836   1.0573784278e+02   6.2643695300e+01    0.1953185    0.1417687 -30.49 0.0004188223    1.231    0.188
        49 -14.2949     35.9523    198.9819   1.1906194621e+02   2.8294855635e+01     2.528548     1.393946  75.39   0.01143373    1.805    0.446
        50  -8.3215     28.2567     52.4364   9.7135781551e+01   6.3124311586e+01     0.146704    0.1163493  27.11 0.0004645207    1.500    0.333
        51 -11.2423    198.7308     46.4119   4.6632464809e+01   2.9760249526e+01    0.4378043    0.3460814 -52.05  0.002420165    1.226    0.184
        52  -9.1363     94.9274     42.3250   6.7525240101e+01   5.4990688863e+01    0.2448723    0.1869376 -38.18 0.0009488404    1.420    0.296
        53 -12.5564    208.3465     36.4733   4.2821916473e+01   2.8784859183e+01    0.7849451    0.6253004   4.11  0.003700006    1.715    0.417
        54 -13.9328    119.6677    229.7666   1.0459608078e+02   1.0625036463e+01     8.368659    0.7009295  43.24   0.01825985    8.862    0.887
        55 -14.9248      5.3636    238.4199   1.2732556579e+02   2.3382943724e+01     13.38539    0.7552106 -76.92   0.03431377   11.758    0.915
        56  -9.6691     61.9889    235.5791   1.1686121872e+02   1.7706959015e+01    0.2130865    0.1383335  79.07 0.0007096467    1.507    0.337
        57  -8.4918    131.4992     31.0036   5.3717236790e+01   4.8294167124e+01    0.1899124    0.1391608 -26.91 0.0003605802    1.460    0.315
        58  -9.5567     53.3885    240.2864   1.1886817190e+02   1.7879896644e+01    0.2137966     0.164647  38.70 0.0008921234    1.371    0.270
        59  -9.1990    189.7401     15.0066   3.9504467041e+01   3.5724724311e+01    0.1607516    0.1124439 -31.38 0.0006824843    1.534    0.348
        60 -10.8364     40.8035    235.2554   1.2085469302e+02   2.0314318891e+01    0.2684013    0.1749228  79.90 0.0005382087    1.356    0.263
