#   1 NUMBER                 Running object number                                     
#   2 MAG_AUTO               Kron-like elliptical aperture magnitude                    [mag]
#   3 X_IMAGE                Object position along x                                    [pixel]
#   4 Y_IMAGE                Object position along y                                    [pixel]
#   5 X_WORLD                Barycenter position along world x axis                     [deg]
#   6 Y_WORLD                Barycenter position along world y axis                     [deg]
#   7 A_WORLD                Profile RMS along major axis (world units)                 [deg]
#   8 B_WORLD                Profile RMS along minor axis (world units)                 [deg]
#   9 THETA_WORLD            Position angle (CCW/world-x)                               [deg]
#  10 FWHM_WORLD             FWHM assuming a gaussian core                              [deg]
#  11 ELONGATION             A_IMAGE/B_IMAGE                                           
#  12 ELLIPTICITY            1 - B_IMAGE/A_IMAGE                                       
         1 -18.9254    196.4866    118.0396   8.3373905235e+01   1.8099171325e+01     8.592126     7.199684  44.91   0.04465007    1.246    0.197
         2  -9.5514    215.1407     11.8856   5.4619066174e+01   2.9959984057e+01    0.1575386    0.1391031  72.44 0.0003828908    1.267    0.211
         3  -9.7193      1.6779      8.4881   1.1257974495e+02   7.4255858564e+01    0.1711922    0.0831173 -45.36 0.0005707446    1.789    0.441
         4 -10.0380    193.6802      7.0226   5.5391898804e+01   3.5563670035e+01    0.1767653    0.1500111 -73.18 0.0005588122    1.086    0.079
         5 -10.2202    217.4712      1.7260   5.2148794074e+01   3.0485395644e+01      0.20699    0.1407149  84.80 0.0004954343    1.259    0.206
         6 -10.5180    227.6904      1.9460   5.1467221719e+01   2.8163248726e+01    0.1697022    0.1292071 -62.95 0.0004435122    1.113    0.101
         7 -10.2240     31.7153    243.0520   1.4137941560e+02   2.0385653427e+01    0.2371069      0.16203  15.72  0.001410434    2.489    0.598
         8 -12.2721    232.4359    244.5239   1.0195548293e+02  -9.3147769538e+00    0.3369673    0.1981024  -3.47  0.001206264    1.838    0.456
         9 -13.5260    239.4149    246.6618   1.0106885729e+02  -1.0496833478e+01     0.909564    0.4635822  25.26  0.005276196    1.696    0.410
        10 -11.3309    212.7666    249.3339   1.0628601730e+02  -7.2120712056e+00    0.2457443    0.1747185  27.47 0.0004578725    1.174    0.148
        11  -9.4143      2.3952    242.7624   1.4665265905e+02   2.3540232257e+01    0.1370529   0.08264713 -77.67 0.0009388254    1.624    0.384
        12  -9.6965     56.6387    242.1472   1.3655035050e+02   1.7514399273e+01    0.1488096    0.1011874 -65.46 0.0009316685    1.691    0.409
        13 -11.3619    192.4573    232.4799   1.0750681098e+02  -1.8062364490e+00    0.2475304    0.2184113  -2.43 0.0003529204    1.151    0.131
        14  -9.6458     31.3103    233.6632   1.4088537024e+02   2.2269046804e+01    0.1278509   0.06429163  63.94  0.000704427    1.684    0.406
        15  -9.8162    144.2290    230.7253   1.1712368293e+02   6.3848095956e+00    0.2142249    0.1414806  50.82 0.0006772726    1.471    0.320
        16  -9.6769     69.3071    230.0986   1.3297227314e+02   1.8192031614e+01     0.170304    0.1378906  71.46 0.0003797301    1.084    0.078
        17 -10.1723    149.3201    227.4546   1.1557194089e+02   6.1120204868e+00    0.2421666    0.1737359  23.17 0.0008365813    1.422    0.297
        18 -11.5425    202.2537    225.8736   1.0450383902e+02  -2.3535817324e+00    0.4583704    0.2183644  28.72  0.002151018    2.028    0.507
        19 -10.4321    220.5428    225.5276   1.0096656781e+02  -5.1062241794e+00    0.2488104    0.1075921  35.68  0.000668601    2.090    0.521
        20 -11.1517    168.7659    224.5003   1.1102970713e+02   3.3455737071e+00    0.4395998    0.1901021  47.14   0.00126569    2.401    0.584
        21 -13.6686    176.8151    221.7310   1.0891511082e+02   2.4568532048e+00    0.7003987    0.3689045  44.80  0.002306124    1.834    0.455
        22 -10.8546    233.5125    220.7503   9.7769376552e+01  -6.3366157283e+00    0.3270748    0.1829238  28.05  0.001030571    1.639    0.390
        23 -11.8129    143.1147    215.6275   1.1512819254e+02   9.3447230625e+00    0.2907586    0.2577832 -81.19 0.0005106821    1.342    0.255
        24 -11.6674    123.5399    215.9204   1.1950821769e+02   1.2652317377e+01    0.4582179    0.3015448  24.83  0.001768232    1.728    0.421
        25 -10.6595     59.1283    215.8520   1.3380752198e+02   2.2533005322e+01    0.2645305     0.193616  85.19   0.00160591    1.266    0.210
        26  -9.3062     17.6836    217.2834   1.4255431117e+02   2.7092175388e+01    0.1240165   0.06479777  62.86 0.0002624668    1.582    0.368
        27 -11.5918    235.6257    214.8056   9.6339813993e+01  -5.8112163959e+00    0.3154869    0.2198513  14.62  0.001020294    1.298    0.229
        28 -11.2792    203.0282    215.2091   1.0252186134e+02  -8.3322933932e-01     0.310385    0.1777747 -48.64 0.0008976408    2.235    0.553
        29 -11.1251     91.8207    214.2901   1.2640809210e+02   1.8154099480e+01    0.3575446    0.2659303   7.52  0.001851353    2.073    0.518
        30  -9.8107      1.4247    214.7340   1.4560196030e+02   2.9187857871e+01    0.1426231   0.08750257 -76.92 0.0003857513    1.501    0.334
        31 -11.5294    177.9895    213.6064   1.0731274172e+02   3.6376476072e+00    0.3316607     0.219496  50.18  0.001699294    1.662    0.398
        32 -14.1551    227.5791    156.2261   8.6324276846e+01   4.7730575170e+00     1.615306    0.8285375  27.71  0.005846498    2.722    0.633
        33 -14.1498    219.8079    175.4028   9.1722518371e+01   2.8790825435e+00    0.6961856    0.5089118 -50.43  0.001084256    1.625    0.385
        34 -15.4040    203.2877    178.2022   9.5477328913e+01   5.3714156996e+00       5.0484     1.297353  38.47   0.01513399    4.235    0.764
        35 -16.2277    199.6525    161.7142   9.2768743451e+01   9.0877141796e+00     4.255036      2.26897 -25.34   0.01678805    2.436    0.589
        36 -16.3260    173.3239    154.0442   9.6670330793e+01   1.5961321941e+01     4.802773     3.026156   6.75   0.01726696    3.015    0.668
        37 -15.0800    222.8926    139.1665   8.3448233526e+01   8.6479191367e+00    0.7839411    0.6246145  -3.83  0.002014293    1.423    0.297
        38 -14.8668    190.4869     93.6769   7.8389647502e+01   2.4028870935e+01     1.332531    0.8822899   1.72  0.005058426    2.895    0.655
        39 -15.2557    205.7934     92.8559   7.5499612455e+01   2.0586732383e+01     1.234189      1.02655   1.46  0.003334237    1.555    0.357
        40 -16.0622    178.0060    139.5258   9.2323022654e+01   1.7944332385e+01     3.808711     0.906918  43.18   0.01004654    4.446    0.775
        41  -9.7807     30.4597    249.0362   1.4195476468e+02   1.9393432460e+01     0.153558    0.0943641 -86.50 0.0005268094    1.529    0.346
        42 -10.2893     89.9021    206.2857   1.2585432635e+02   2.0165834896e+01     0.189766    0.1573946  48.32 0.0003760801    1.107    0.096
        43 -14.5185    168.3365     79.8680   7.8951660101e+01   3.1919706773e+01     1.256312     1.000868  40.54  0.003115642    1.355    0.262
        44 -12.2509    233.2854    171.6940   8.8526478760e+01   1.1653977037e+00    0.2875311    0.2177978  34.64 0.0004634477    1.374    0.272
        45  -9.5277    114.8905    204.6708   1.1984775973e+02   1.6429227142e+01    0.1919886    0.1556262  47.61  0.000271651    1.096    0.087
        46 -10.7244     87.7593    172.7515   1.2163967473e+02   2.8202260577e+01    0.2778257    0.2255241 -85.44 0.0007459676    1.235    0.190
        47 -11.3282    184.3322    211.5068   1.0563539073e+02   2.9056439663e+00    0.2449633    0.2099853  46.77 0.0008000553    1.286    0.223
        48 -11.4285    250.6565    158.2223   8.2871487280e+01   4.4010167162e-01    0.2162407     0.107468 -35.88  0.000214179    1.759    0.432
        49  -9.9774     42.1519    158.4247   1.3171019184e+02   3.7989779044e+01    0.2281371    0.1514875 -82.40  0.001206672    1.393    0.282
        50 -11.3955    154.4552    203.9063   1.1072136866e+02   9.5785436724e+00    0.2551811     0.206339 -53.16 0.0004827245    1.406    0.289
        51  -9.7839     67.9889    201.4953   1.3035140552e+02   2.4471601815e+01    0.1997108    0.1642402 -88.92 0.0005544726    1.149    0.130
        52 -11.5797      7.0974    201.3968   1.4377052652e+02   3.1501712153e+01    0.2100251    0.1679063  78.50 0.0003375046    1.082    0.076
        53 -11.3041     90.5901    150.3903   1.1700890251e+02   3.3189632772e+01    0.4963821    0.2009231 -52.49  0.001817639    2.405    0.584
        54  -9.4403     34.0100    150.0405   1.3289009002e+02   4.0929022997e+01    0.1580434    0.1361983 -86.83 0.0003448896    1.011    0.011
        55 -11.0251     80.3264    148.4353   1.1954470802e+02   3.5344417481e+01    0.2887186    0.2432966 -84.00 0.0005031554    1.174    0.148
        56  -9.5510     37.0118    147.0090   1.3166896301e+02   4.1368717635e+01    0.1578854    0.1394065 -88.24 0.0003360414    1.032    0.031
        57 -10.2234    162.3316    201.2833   1.0852851433e+02   8.6521288839e+00    0.1421776    0.1061367   7.50 0.0003053714    1.613    0.380
        58 -12.4825    247.5685    137.8448   7.9117791695e+01   4.2691005848e+00    0.4012395    0.3042495  14.10 0.0005133127    1.597    0.374
        59 -12.4366    111.3124    132.5702   1.0740336261e+02   3.3761977474e+01    0.5288551    0.3829075  21.96  0.002350514    1.695    0.410
        60  -9.7215     57.4939    133.4828   1.2358517032e+02   4.2364045258e+01    0.1419333    0.1288866 -78.20 0.0008103775    1.013    0.013
        61  -9.6681     18.9492    133.3584   1.3513183940e+02   4.6405603154e+01    0.1636532    0.1490302 -84.49 0.0004489555    1.101    0.092
        62  -9.9168     73.8312    201.1880   1.2895999916e+02   2.3708599597e+01    0.1631372    0.1557129 -60.21 0.0002644861    1.281    0.220
        63 -10.6896     99.5063    128.9429   1.0997194134e+02   3.6883257878e+01    0.2392133    0.2108648  71.47 0.0003324268    1.199    0.166
        64 -12.6463    103.2350    127.0295   1.0843577953e+02   3.6648881414e+01     0.502138     0.407338  55.02  0.001401174    1.279    0.218
        65 -11.0140     87.3157    128.7329   1.1355756459e+02   3.9093383436e+01    0.3093178     0.241652 -23.54  0.001002794    1.589    0.371
        66 -10.7556    214.2900    210.7251   9.9544909409e+01  -1.9498652076e+00    0.2298304    0.1538301 -44.21  0.001259796    1.758    0.431
        67 -11.1826    168.9812    210.0089   1.0859943160e+02   5.8437515812e+00      0.30461    0.1921377  36.79 0.0007418696    1.414    0.293
        68 -12.9626    250.0120    114.7811   7.3826826597e+01   7.6079446173e+00    0.4516646    0.2399603 -35.84  0.001475496    1.654    0.396
        69 -11.5092     91.4921    116.3130   1.0940840548e+02   4.1389594443e+01    0.3084222    0.2371621   1.72  0.001045655    1.727    0.421
        70 -11.2617     69.0548    116.5011   1.1658037064e+02   4.4996386151e+01    0.4280377    0.2168615  52.12  0.001622288    2.509    0.601
        71 -11.8823     90.4226    110.3405   1.0825740621e+02   4.3004654856e+01    0.4018835    0.2901925  87.54 0.0009444834    1.986    0.496
        72 -11.8023    134.6616    197.4797   1.1413210292e+02   1.4457385188e+01    0.3119833    0.2522784 -44.71  0.001051619    1.374    0.272
        73 -10.5097    233.7365    192.2781   9.2507141595e+01  -2.1915835217e+00    0.2188663    0.1758747  14.80 0.0004372652    1.151    0.131
        74 -12.1270     79.1035    105.6540   1.1072117428e+02   4.6056439799e+01    0.6448528    0.2824555 -37.46  0.002191684    3.016    0.668
        75 -11.7321     83.8367    103.8137   1.0869363798e+02   4.5695951125e+01    0.3256377    0.2380222  57.63 0.0003538461    1.611    0.379
        76 -10.4202     31.8859     98.6424   1.2552033250e+02   5.3766661222e+01    0.2389486    0.1526954 -52.21 0.0006845561    1.345    0.257
        77 -11.1130    227.2605    191.2420   9.3478703807e+01  -9.9015178973e-01    0.3413787    0.2460214 -14.19  0.001015106    1.347    0.258
        78 -12.5453    103.6686     92.1769   9.9119737905e+01   4.4598593914e+01    0.5015331    0.3633768  17.50  0.000948378    1.737    0.424
        79 -10.0248     86.2914     94.3353   1.0531226714e+02   4.7444287743e+01    0.1530602    0.1145926 -16.98 0.0004315917    1.637    0.389
        80  -9.8674     17.0107     97.0014   1.3053677418e+02   5.5351482034e+01    0.1548361    0.1282133 -60.98 0.0003898138    1.004    0.004
        81 -10.2507      8.0008     92.9397   1.3308850169e+02   5.6875200909e+01    0.1807728    0.1515552 -64.84            0    1.040    0.038
        82 -11.6186     87.7834     88.5836   1.0315778862e+02   4.8450717942e+01    0.3867852    0.3016672 -39.83  0.001060275    1.254    0.203
        83  -9.5000      3.4942     88.5010   1.3401968924e+02   5.8146134696e+01    0.1246769   0.09741636 -58.21 0.0007488996    1.041    0.039
        84 -10.6746     73.0093     85.4810   1.0733591673e+02   5.1671307086e+01    0.2710117    0.1431335  29.78  0.001137939    2.094    0.523
        85 -11.5033     78.5597     83.5601   1.0481155684e+02   5.1172335888e+01    0.3711252    0.2399345  37.37  0.001149632    1.591    0.371
        86 -10.3759    250.6356     80.3805   6.6300677352e+01   1.2951536983e+01    0.2279013    0.1044097 -41.02  0.001047811    1.833    0.454
        87 -10.9266    245.8985     79.9122   6.6760860603e+01   1.3976771726e+01     0.291122    0.2356845   2.58 0.0008950863    1.776    0.437
        88 -12.0079     98.7459     92.0806   1.0062824901e+02   4.5604868677e+01    0.4230274    0.2649904 -18.27   0.00161706    2.529    0.605
        89 -13.6529    103.3721     71.2538   9.2683211529e+01   4.8920513975e+01    0.8957767    0.6609729 -81.17  0.003216443    2.143    0.533
        90 -11.6223    109.0018     70.2811   9.0656302797e+01   4.7891148085e+01    0.2958585    0.2868862  34.08 0.0002358281    1.035    0.034
        91 -11.9411    164.9855    208.7978   1.0925048352e+02   6.7708885753e+00    0.3156123    0.2289466 -27.72  0.001664489    1.596    0.374
        92 -10.7022     85.9730     76.8574   1.0017301254e+02   5.1269167701e+01    0.2607316    0.2054809 -43.10 0.0006499923    1.254    0.203
        93 -10.0090     52.6469     81.0554   1.1360073920e+02   5.5590089675e+01    0.1964194    0.1581166 -43.92 0.0004003602    1.121    0.108
        94 -12.3281    119.7110     70.8779   8.7778557692e+01   4.5375186542e+01    0.4067692    0.3186488  61.85  0.001992551    1.364    0.267
        95 -11.5423     82.8551     67.7958   9.8275902041e+01   5.3653084834e+01    0.3184523    0.2482042 -75.62 0.0009214226    1.885    0.470
        96 -11.9829    243.1903     65.7324   6.3956895291e+01   1.6680902481e+01    0.5583825    0.3153686 -82.77   0.00179103    2.399    0.583
        97 -11.5720    126.0686     66.0688   8.4508451746e+01   4.4747686173e+01    0.3828505    0.2917427 -73.21  0.001007412    1.722    0.419
        98 -11.0732     31.8256     67.3856   1.1818524888e+02   6.0893721692e+01    0.2308531    0.1896517 -40.67 0.0002529671    1.037    0.035
        99 -10.3861     10.9635     65.9841   1.2675886936e+02   6.2803732651e+01    0.1862836    0.1445268 -45.35            0    1.046    0.044
       100 -11.8998    235.1753     62.3595   6.4115028660e+01   1.8887614225e+01    0.4197044    0.2939947 -23.49   0.00145797    1.740    0.425
       101 -11.6731    131.9725    185.0133   1.1262705223e+02   1.7604362109e+01    0.2853113    0.2122384  53.06  0.000664935    1.325    0.245
       102  -9.6514     62.7971     64.3903   1.0454357317e+02   5.7695000333e+01    0.1817318    0.1262429  18.68 0.0003000624    1.553    0.356
       103 -12.1699    128.6660    188.7381   1.1406843338e+02   1.7406705437e+01    0.4670151    0.3327892 -74.65  0.001592843    1.747    0.428
       104 -10.9696    110.9809     60.7725   8.6880441176e+01   4.9153538914e+01     0.266645    0.1927825 -53.58  0.001135941    1.626    0.385
       105 -10.0861     88.5018     60.9624   9.3972462206e+01   5.3863254105e+01     0.209476    0.1389038 -37.21  0.000393191    1.516    0.340
       106 -10.6763    239.6863     57.3226   6.2485059342e+01   1.8648799235e+01    0.2863017    0.2741614 -25.49   0.00187626    1.306    0.234
       107 -12.1616    127.0047    183.7408   1.1360124667e+02   1.8805521495e+01    0.3503875    0.2603883  47.02  0.001517295    1.259    0.206
       108 -11.3993    149.4960     52.2591   7.4641226927e+01   4.1201664212e+01    0.4093358    0.2026882  65.88  0.001601346    2.133    0.531
       109 -12.5741    128.8982    179.9150   1.1245823540e+02   1.9299550722e+01    0.4143693     0.340294 -70.16  0.002018841    1.342    0.255
       110 -10.7720    154.0023     53.0114   7.3964200663e+01   3.9947590143e+01    0.3187936    0.1766237 -48.41 0.0007068627    1.974    0.493
       111 -11.6586    159.0770     55.0442   7.3585919086e+01   3.8352777041e+01    0.2995219      0.26106  60.39 0.0003702866    1.091    0.084
       112 -11.0676    139.3562     56.1367   7.8053519760e+01   4.3153783469e+01    0.2618995    0.1873557  46.78 0.0006702446    1.351    0.260
       113 -11.3532    128.3869     55.9224   8.0584520791e+01   4.5879961697e+01     0.282463    0.2040403  45.46 0.0004354227    1.323    0.244
       114 -10.2683    116.0254     55.7361   8.3736075525e+01   4.8841093382e+01    0.2123749    0.1836099  43.07 0.0004325856    1.091    0.084
       115 -11.8894    249.2476     52.6675   6.0491936998e+01   1.7297054225e+01    0.2667902    0.1908168 -60.15 0.0005366189    1.200    0.167
       116 -11.2089    245.1427     46.9709   5.9670812389e+01   1.8938587476e+01    0.3940546    0.2764625  89.06  0.001557163    1.416    0.294
       117 -11.8346    135.3680     52.7601   7.7874043268e+01   4.4663338439e+01     0.291807    0.2864163 -87.72 0.0004340055    1.063    0.060
       118 -11.6851    121.6119     53.2065   8.1384391321e+01   4.7932457037e+01    0.3756375    0.2332376  64.90 0.0007599096    1.808    0.447
       119 -11.3489    105.6252     49.1044   8.4321922768e+01   5.2258117417e+01    0.3820333    0.2613141 -29.56  0.001608026    1.548    0.354
       120 -11.9463     97.0695     50.2464   8.7314348672e+01   5.3942263933e+01    0.4923604    0.2800584  54.41 0.0004359266    1.870    0.465
       121 -10.6190     93.7147     51.7087   8.8914748694e+01   5.4409457413e+01    0.2310224    0.1964344   1.53 0.0001737781    1.202    0.168
       122 -11.7119    230.6166     47.0335   6.1150288760e+01   2.2077725811e+01    0.4272877    0.2361301 -45.77 0.0004506902    1.591    0.371
       123 -10.9795    235.7500     46.9931   6.0606336325e+01   2.0951138271e+01    0.2939463     0.262215 -79.54  0.001900947    1.113    0.102
       124 -11.6424    233.8880     43.1375   5.9936652973e+01   2.1883726757e+01    0.4761279    0.2572749 -61.74  0.001524257    1.837    0.456
       125 -11.0311    162.8401     50.4587   7.1517209526e+01   3.8075255744e+01    0.3223533    0.1992785 -45.84 0.0008753081    1.676    0.403
       126 -12.7052    141.1288     48.7189   7.5279084290e+01   4.3830694643e+01    0.5206513    0.4342723  56.96  0.001149546    1.114    0.102
       127 -11.2273    213.9121    188.5141   9.5450101080e+01   1.6915733763e+00    0.3503753    0.2780628  57.99  0.001171807    1.702    0.412
       128  -9.7319     18.4367     49.5074   1.1896366586e+02   6.5741420971e+01    0.1234416   0.09821336 -34.64   5.1114e-05    1.012    0.012
       129 -11.5073    156.1384     44.4500   7.0943332825e+01   4.0635112026e+01    0.3916559    0.3109201  -0.19  0.002004839    1.629    0.386
       130 -10.7508    151.8260     44.1398   7.1659014672e+01   4.1775972967e+01    0.2210775    0.1929896 -74.25 0.0006187761    1.191    0.161
       131 -10.8656     63.9885     45.1840   9.7075761456e+01   6.1038382715e+01    0.2386451    0.1781946 -23.24  0.001343509    1.286    0.222
       132 -11.4125    118.3349     42.9746   7.8668905122e+01   5.0232818636e+01    0.2796207    0.1978082  46.95 0.0006187509    1.302    0.232
       133 -11.1588    187.8135     41.4006   6.4972948887e+01   3.3014009084e+01    0.3293858    0.2654531 -66.11    0.0018297    1.191    0.160
       134 -11.7983    191.9735     39.0669   6.3789592999e+01   3.2288689875e+01    0.4053314    0.2836713 -86.25  0.001416732    1.439    0.305
       135 -11.0960     93.7781     39.7123   8.4363117129e+01   5.6240259671e+01    0.2738526    0.2220099 -37.09 0.0002376679    1.347    0.257
       136  -9.6175     88.3149    191.3211   1.2424902153e+02   2.3756154642e+01    0.1332237    0.1113015 -21.65 0.0005151922    1.658    0.397
       137 -10.2962     86.0623     38.6801   8.6433003499e+01   5.7990994369e+01     0.192645    0.1604555  34.14 0.0003776201    1.104    0.094
       138 -11.6327    221.0016     31.9522   5.8689697829e+01   2.6248434674e+01     0.376334    0.1841021 -34.49  0.001253638    2.029    0.507
       139 -11.3510    218.2219     34.6083   5.9591413741e+01   2.6553329313e+01    0.2930973    0.2268039  87.74  0.001110224    1.180    0.153
       140 -11.5831    213.9512     34.6298   6.0049534462e+01   2.7548480560e+01    0.4109166     0.237725 -37.31 0.0003693139    1.694    0.410
       141 -11.7613    209.1508     35.3538   6.0752485323e+01   2.8591882048e+01    0.3325046    0.2663789 -35.06  0.001942838    1.362    0.266
       142 -10.0900    238.9163    187.5178   9.0675179406e+01  -2.2737470879e+00    0.1747186    0.1643253 -22.13 -3.089507e-07    1.286    0.223
       143 -13.7598    248.5819    184.2453   8.8388371980e+01  -3.2713061265e+00    0.3455942    0.2873679  -4.92  0.001224206    1.039    0.038
       144 -11.0699    233.2436     35.8997   5.8391587456e+01   2.2981405811e+01    0.2244759    0.1740513  74.04 0.0003978533    1.304    0.233
       145 -10.4629    146.8901     35.6036   6.9917966565e+01   4.4158472833e+01    0.2694845     0.174076  70.35  0.001287643    1.500    0.334
       146 -11.9534    200.0647     32.9294   6.1199291672e+01   3.1089564158e+01    0.3956182    0.1784597  70.05  0.001720577    2.085    0.520
       147 -12.3626    185.9476     31.3248   6.2533661946e+01   3.4774847175e+01    0.6951307    0.3278602 -72.75  0.002489127    3.338    0.700
       148 -12.2828    189.7035     26.9756   6.0912338442e+01   3.4365522103e+01    0.5992463      0.25536  48.98  0.002128753    2.747    0.636
       149 -11.0006    156.9424     30.6792   6.6612873238e+01   4.2206212103e+01    0.4083312    0.1792497 -35.81  0.001701877    2.344    0.573
       150 -11.0776    129.4179     31.7032   7.2138345328e+01   4.9021896507e+01    0.3137005    0.2367508  81.38 0.0006630703    1.459    0.314
       151  -9.9835    128.6653     28.3177   7.1132347211e+01   4.9610473975e+01    0.1498104    0.1293697  46.91 0.0007217335    1.084    0.077
       152 -10.8865    217.2414     37.9812   6.0489394006e+01   2.6344207699e+01     0.233165    0.1834159  74.41  0.000222052    1.237    0.192
       153  -9.3293     36.5913     30.5014   1.0306609398e+02   6.7401033753e+01    0.1224031    0.1016772 -12.69 6.321633e-05    1.049    0.047
       154 -11.3821    203.0281     28.0424   5.9641529470e+01   3.0974776122e+01    0.2164678    0.1803897 -76.36   0.00108223    1.044    0.042
       155 -11.3918    178.1376     26.5009   6.2254885650e+01   3.7314355361e+01    0.2383298    0.2330901 -67.57 0.0004968599    1.178    0.151
       156 -10.9947    162.0863     27.0421   6.4702913108e+01   4.1323411931e+01    0.2114729    0.1875734  78.99 0.0004059825    1.004    0.004
       157 -10.4144    220.8761    206.8227   9.7591401168e+01  -2.3963566970e+00    0.2612834    0.1715119 -34.56 0.0009869972    1.532    0.347
       158 -11.7615    226.5835     23.8826   5.6332521528e+01   2.5968511312e+01    0.3723479    0.2390692  83.87  0.002110746    1.442    0.306
       159  -9.9660     64.9813     25.0191   8.8205906497e+01   6.3896130037e+01    0.1593757    0.1308342  23.61 0.0004939525    1.076    0.070
       160 -10.3971    167.7048     24.6795   6.3181402854e+01   4.0164768907e+01    0.2248259    0.1248924  65.15 0.0005082246    1.586    0.369
       161  -9.6454    168.5269     21.5161   6.2159365801e+01   4.0309202715e+01    0.2148683    0.1364043 -29.61 0.0002626292    1.759    0.432
       162 -10.2545    125.8814     21.6387   6.9386965009e+01   5.1039699729e+01    0.2190468    0.1864373   9.59  0.000679501    1.330    0.248
       163 -11.8730    118.0477    190.8798   1.1697297514e+02   1.8855025998e+01    0.3731118    0.2941991 -57.30 0.0009890668    1.360    0.265
       164 -10.1934    247.9500     17.5007   5.3273610548e+01   2.2080043597e+01     0.243741     0.127429 -51.64  0.001338035    1.567    0.362
       165 -10.5166     32.1310    179.2343   1.3652281353e+02   3.4066279190e+01    0.3036498    0.1565563 -55.60  0.001091358    2.057    0.514
       166 -10.3684    205.5904     12.7311   5.5662911112e+01   3.2111292164e+01    0.1781549    0.1026824 -47.68 0.0006761081    1.620    0.383
       167 -10.0406    180.0162     13.2997   5.8440288575e+01   3.8291323524e+01    0.1861137    0.1493729  84.10 0.0003689332    1.067    0.063
       168  -9.4167    123.4282     13.4815   6.7001703682e+01   5.2457571901e+01    0.1351845    0.1170736  55.14 8.050129e-05    1.019    0.018
       169  -9.8847    132.1301    246.5068   1.2173449619e+02   5.6152028436e+00    0.1923185    0.1028504  40.81 0.0005621878    1.502    0.334
       170 -11.0284     90.3170    178.0046   1.2180163323e+02   2.6537592302e+01    0.4030484    0.2622487 -24.08  0.001657219    2.768    0.639
       171  -9.5409     51.4974    245.4837   1.3779437926e+02   1.7534094207e+01    0.1194731   0.09079829  61.95 3.162378e-05    1.012    0.012
       172 -11.6432    214.4655    243.6602   1.0508396268e+02  -6.7091045104e+00    0.2370306    0.1861303  38.78  0.001029406    1.450    0.310
       173 -11.7579    123.1872    176.3345   1.1321653056e+02   2.1170705506e+01    0.2868086    0.2429283 -89.18 0.0006919694    1.304    0.233
       174 -10.2362    120.8724    242.6687   1.2357667405e+02   8.0603449877e+00    0.3724707    0.1974226 -74.91  0.001678921    3.145    0.682
