#   1 NUMBER                 Running object number                                     
#   2 MAG_AUTO               Kron-like elliptical aperture magnitude                    [mag]
#   3 X_IMAGE                Object position along x                                    [pixel]
#   4 Y_IMAGE                Object position along y                                    [pixel]
#   5 X_WORLD                Barycenter position along world x axis                     [deg]
#   6 Y_WORLD                Barycenter position along world y axis                     [deg]
#   7 A_WORLD                Profile RMS along major axis (world units)                 [deg]
#   8 B_WORLD                Profile RMS along minor axis (world units)                 [deg]
#   9 THETA_WORLD            Position angle (CCW/world-x)                               [deg]
#  10 FWHM_WORLD             FWHM assuming a gaussian core                              [deg]
#  11 ELONGATION             A_IMAGE/B_IMAGE                                           
#  12 ELLIPTICITY            1 - B_IMAGE/A_IMAGE                                       
         1 -13.9465    215.6608      8.2469   3.8500430538e+01   2.9930289937e+01     2.318874     1.470044  37.72  0.009706986    2.183    0.542
         2 -13.4671    190.9283     39.6911   4.9777771316e+01   3.2325710262e+01     1.102598     1.036142  60.81  0.003966069    1.094    0.086
         3 -12.7815    195.5621     33.7976   4.7465477829e+01   3.1924659203e+01    0.6832577    0.6114985  60.67  0.001240972    1.137    0.121
         4 -10.6759    189.6231     14.8162   4.2949773366e+01   3.5645443310e+01     0.279496    0.2225286 -52.53 0.0008227783    1.252    0.201
         5 -10.4028     57.0038      5.4905   6.9029508023e+01   6.7080107075e+01    0.3636813    0.1557811  17.65   0.00123076    4.706    0.787
         6 -13.2263    175.6947     53.1801   5.6222366479e+01   3.4293267683e+01     1.935541     1.262069  34.15  0.005401742    1.859    0.462
         7 -12.2052    249.0888    229.8421   8.3809690852e+01  -9.6624442685e+00    0.8394032    0.2166381 -35.18  0.003411984    4.001    0.750
         8 -12.1774    247.9152    246.7538   8.6824244438e+01  -1.1412376685e+01    0.6961308    0.4024091 -17.75  0.004427872    1.693    0.409
         9 -10.5768     43.9285    205.2678   1.2110540775e+02   2.6296953219e+01    0.1768221    0.1362129 -82.56  0.000187166    1.211    0.174
        10 -10.5571     67.2708    204.6798   1.1630173421e+02   2.3498545737e+01    0.3300496    0.1778813 -51.48  0.001057951    2.299    0.565
        11  -8.4020     71.7677    201.7166   1.1505042925e+02   2.3510461455e+01    0.3160472    0.1884498  79.03  0.001650196    1.829    0.453
        12 -10.8500    193.2220    195.4648   8.8049908123e+01   4.1589107339e+00    0.8345336    0.4464517 -61.11  0.002861049    4.634    0.784
        13 -10.4073     50.3384    224.5587   1.2139719930e+02   2.1660177507e+01    0.2294383    0.1135553 -87.49  0.001243343    2.086    0.521
        14  -9.5706     64.9547    223.8460   1.1856919789e+02   1.9950229505e+01    0.1511349   0.09756891 -87.65 0.0006997719    1.513    0.339
        15 -10.5821     57.4101    201.2811   1.1801105327e+02   2.5495549019e+01     0.306102    0.2143382 -38.04  0.001420264    2.277    0.561
        16 -11.6266     58.9304    196.1903   1.1719147987e+02   2.6387923393e+01    0.4073397    0.2724317 -58.58  0.001679529    1.630    0.387
        17  -9.2983    167.8381    231.2664   9.9121240919e+01   2.7528823547e+00      0.18506    0.1702327  17.47 0.0004459211    1.136    0.120
        18 -10.6638    202.3105    199.4546   8.6981636398e+01   1.8888917975e+00    0.4183332    0.1195878  39.58  0.001457521    3.225    0.690
        19  -9.8490     55.7253    223.4769   1.2029891420e+02   2.1204727642e+01     0.124279    0.0880671  66.11 0.0001749979    1.133    0.117
        20  -9.7821     82.1717    195.0487   1.1204723485e+02   2.3457624906e+01    0.2116531    0.1715062  52.28 0.0004326538    1.146    0.127
        21  99.0000     43.2468    221.3661   1.2248299607e+02   2.3128506752e+01    0.2021473    0.1457527  24.62  0.001295778    1.966    0.491
        22 -11.2469     99.2622    180.7953   1.0624295658e+02   2.3951668224e+01    0.4565224    0.3422681 -86.17 0.0005812662    1.426    0.299
        23 -10.4495     95.6300    189.0576   1.0826949384e+02   2.2716133131e+01    0.4083395    0.3114226  69.41  0.002302148    1.285    0.222
        24 -10.3954     98.5148    186.0176   1.0718362198e+02   2.2921618528e+01    0.4265606    0.2300289  59.63  0.001706209    2.120    0.528
        25  -9.1605    156.4731    189.9342   9.4768018048e+01   1.1930209928e+01    0.1995297    0.1412994 -46.99 0.0007679217    1.541    0.351
        26 -11.3400    149.3915    187.8485   9.5953713694e+01   1.3651562698e+01    0.3935236    0.3157931  59.63  0.001414786    1.331    0.249
        27 -10.6393    140.4598    188.1987   9.8002490309e+01   1.5225767274e+01    0.2815439    0.2044556 -24.25  0.001385941    1.834    0.455
        28 -10.8913    133.9112    187.3124   9.9321779497e+01   1.6595018317e+01     0.248609    0.1996767 -72.47  0.001341041    1.420    0.296
        29 -10.0925    238.4866    185.4575   7.7440838596e+01  -2.1449481250e+00    0.2282892    0.1140599 -43.36    0.0010349    2.356    0.576
        30 -10.9956    150.5603    179.2125   9.4119934011e+01   1.5160454121e+01    0.4647661    0.3045191 -71.80  0.001455424    2.291    0.563
        31  -9.5792    245.3212    180.3396   7.5203724599e+01  -2.5122279090e+00    0.1399193   0.08974349   1.65 0.0007050321    1.717    0.418
        32 -10.6407    188.9763    176.8371   8.5289333007e+01   8.2075469501e+00    0.6615763     0.398172 -58.46  0.002561445    2.520    0.603
        33 -10.2482    130.9933    180.5061   9.8819647318e+01   1.8542357371e+01    0.2185626     0.133901  40.57  0.000483692    1.538    0.350
        34  -8.4297    194.3152    172.6839   8.3329319989e+01   7.9296140403e+00    0.1364088    0.1178916  87.34 0.0003550289    1.647    0.393
        35  -9.4101     50.6899    172.2723   1.1646598706e+02   3.2737762204e+01     0.207486    0.1506491  61.88 0.0007980283    1.287    0.223
        36  -7.7583     81.2585    220.3411   1.1504933640e+02   1.8408061344e+01    0.1064404   0.09530376 -37.31 0.0004680248    1.586    0.369
        37  -9.0547     61.4937    219.9183   1.1889497737e+02   2.1167359931e+01    0.1555584    0.1044384 -66.79 0.0007663801    1.580    0.367
        38 -10.5187    240.9064    169.0368   7.3648855344e+01  -5.8435577025e-02    0.2260996     0.148952   5.30 0.0009367403    1.726    0.421
        39  -9.4286     55.8037    217.0383   1.1975212211e+02   2.2461938032e+01    0.2215009    0.1054561  76.05  0.001058729    2.470    0.595
        40  99.0000     49.8337    216.7666   1.2088357513e+02   2.3252460378e+01    0.3060595     0.222345  -6.73  0.001660661    3.116    0.679
        41 -11.0218     90.4163    158.0451   1.0477272185e+02   3.0591539041e+01    0.2664035     0.264894  87.24 0.0003866812    1.146    0.127
        42 -11.7463     96.3081    151.5046   1.0211107778e+02   3.1189681068e+01    0.6150296    0.5120578 -12.58  0.001881569    1.593    0.372
        43 -10.8897    133.8244    145.6991   9.1322198452e+01   2.5658596270e+01      1.24848     0.316671 -54.40  0.002929484    5.787    0.827
        44  -9.7930    113.4423    151.4311   9.7683364294e+01   2.8232668091e+01    0.3481448    0.2235968  79.42  0.001383198    2.458    0.593
        45  -9.7580    187.4614    151.9946   8.0282237906e+01   1.3185984139e+01    0.2786966    0.2674059  42.36  0.001359725    1.122    0.109
        46  -9.5400    174.5421    149.0078   8.2416037347e+01   1.6489381291e+01    0.2871295    0.2170492  59.97  0.000629215    1.550    0.355
        47 -11.3742    108.0709    138.0019   9.6334526198e+01   3.2367059011e+01    0.7250581    0.4588843 -44.86  0.003247817    1.612    0.380
        48  -8.8651    102.7178    133.6818   9.6859097644e+01   3.4353364817e+01    0.2073692    0.1720443  74.69 0.0004277796    1.340    0.254
        49 -10.7318    105.9728    130.8365   9.5345131981e+01   3.4450568396e+01     0.409176    0.3407634 -63.18  0.001302422    1.187    0.158
        50 -11.7412     96.0982    137.4322   9.9450968638e+01   3.4594358545e+01    0.3275016    0.2855271  84.26 4.868984e-05    1.194    0.162
        51  -9.0969    118.2237    133.4631   9.2623151425e+01   3.1540982368e+01     0.298521    0.1528091  35.09  0.001141818    2.152    0.535
        52  -9.5751    135.9150    128.9467   8.6928324023e+01   2.9021245321e+01    0.3476891    0.1946589 -44.34  0.001393047    1.778    0.438
        53 -10.1758    114.9829    128.9212   9.2451756319e+01   3.3227075914e+01    0.3511398    0.3066632 -15.78 0.0007740182    1.318    0.241
        54  -9.5238    160.8752    128.0899   8.0563453705e+01   2.3805823897e+01    0.2513806    0.2235415 -78.28  0.001242923    1.302    0.232
        55 -10.5213    102.5109    124.7113   9.4923359596e+01   3.6533715222e+01      0.29693     0.247681 -28.24 0.0005108844    1.339    0.253
        56 -10.1743    120.1172    123.1862   8.9694665492e+01   3.3565682720e+01    0.4571183    0.3007261 -15.02  0.001737124    2.547    0.607
        57 -10.5424     58.9981    229.9487   1.2020333734e+02   1.9551440604e+01    0.1674157    0.1289432  71.95 0.0003957979    1.054    0.051
        58  -9.2888    110.0918    118.1017   9.1217502746e+01   3.6699165975e+01    0.2200911     0.213874 -61.49 0.0003103801    1.018    0.017
        59 -10.1179    231.2115    113.7005   6.2828386200e+01   1.0960841652e+01    0.2942977    0.2784133  -7.83 0.0008031735    1.071    0.066
        60  -9.3599    167.4761    112.1667   7.4919196791e+01   2.5628335015e+01    0.3327506    0.2468637 -83.70  0.001104924    1.995    0.499
        61  -8.4389    146.4888    113.4449   8.0288797566e+01   3.0161461025e+01    0.1572785    0.1551116 -71.30 0.0001408417    1.048    0.046
        62 -10.4276    134.7425    108.2114   8.1898722460e+01   3.3901084761e+01    0.9180798    0.1317235 -45.80  0.001809131    7.172    0.861
        63 -11.0827    118.4982    110.5625   8.6937860768e+01   3.6795094435e+01    0.6222272    0.3998973  60.24  0.002563898    1.988    0.497
        64  -9.6969    205.5487    110.2664   6.6506685728e+01   1.7178544499e+01    0.3194153    0.2422674  40.22 0.0008436586    1.394    0.283
        65  -9.5291    129.9942     96.4421   7.9865060277e+01   3.7491032493e+01    0.4196063    0.2358426  64.41  0.001444384    2.853    0.649
        66  -9.6385    184.4892    212.5167   9.2850919166e+01   2.8995215865e+00    0.2516895    0.1311103 -41.69  0.001209127    2.160    0.537
        67 -10.5765     37.5622    211.7682   1.2285446279e+02   2.5692717699e+01    0.1833901    0.1082449 -89.97 0.0001371356    1.503    0.335
        68  -8.6218    154.4162     82.2384   6.9470107867e+01   3.4681840043e+01    0.2132434    0.1478738 -46.47 0.0004277338    1.481    0.325
        69  -8.4928    184.3432     77.2881   6.1659205036e+01   2.8185692162e+01    0.1578985    0.1195621  22.28 0.0007022308    1.648    0.393
        70  -8.9286     69.0152     71.9982   9.1477467855e+01   5.4152568669e+01    0.2044282    0.1853491 -34.29            0    1.054    0.051
        71 -10.6505     71.9245    245.3079   1.1906802998e+02   1.5068364887e+01    0.2678568    0.1519614 -70.99  0.001661524    1.909    0.476
        72  99.0000     43.1125    209.3642   1.2159698335e+02   2.5547256134e+01    0.3796633    0.1492576  68.65  0.001604789    3.195    0.687
        73  -8.8183     75.6246    247.5375   1.1858449116e+02   1.4185512555e+01    0.1110197   0.08842166  62.32 0.0002353592    1.064    0.060
        74 -19.5375     21.2515    146.0475   1.2066373246e+02   4.1881010016e+01     19.24384     4.710576 -75.30   0.06631929    3.863    0.741
        75  -8.8037     41.4072    232.5909   1.2359818066e+02   2.1194138100e+01    0.1229606    0.1124679  68.42 0.0008771683    1.373    0.272
