#   1 NUMBER                 Running object number                                     
#   2 MAG_AUTO               Kron-like elliptical aperture magnitude                    [mag]
#   3 X_IMAGE                Object position along x                                    [pixel]
#   4 Y_IMAGE                Object position along y                                    [pixel]
#   5 X_WORLD                Barycenter position along world x axis                     [deg]
#   6 Y_WORLD                Barycenter position along world y axis                     [deg]
#   7 A_WORLD                Profile RMS along major axis (world units)                 [deg]
#   8 B_WORLD                Profile RMS along minor axis (world units)                 [deg]
#   9 THETA_WORLD            Position angle (CCW/world-x)                               [deg]
#  10 FWHM_WORLD             FWHM assuming a gaussian core                              [deg]
#  11 ELONGATION             A_IMAGE/B_IMAGE                                           
#  12 ELLIPTICITY            1 - B_IMAGE/A_IMAGE                                       
         1 -15.4894     68.9142    144.2760   9.6491543953e+01   3.7265636469e+01     4.944928     2.609118  71.79  0.004161168    4.294    0.767
         2 -13.8215    201.7453     43.3981   3.8947916809e+01   2.9778830984e+01    0.9798875    0.8410236 -52.32  0.003128168    1.151    0.131
         3 -14.2022    212.3615     33.6304   3.5549196537e+01   2.8720867474e+01    0.8160282    0.7298949  34.50  0.001833314    1.550    0.355
         4 -13.7552    238.2327      7.7366   2.8102345781e+01   2.6406133817e+01    0.8017316    0.6011208 -70.27  0.004718459    1.009    0.009
         5 -10.7166      2.1710      2.8197   8.2047078029e+01   7.4243297295e+01    0.1861952    0.1169163  -9.20  0.001045548    1.276    0.216
         6 -11.3255     59.0467      7.3033   5.6398249475e+01   6.5783377869e+01    0.1761299    0.1346943  35.71 0.0005975444    1.112    0.101
         7 -10.9098     59.8100      2.5973   5.3951839272e+01   6.6062887153e+01    0.1663128    0.1056388  58.12 0.0009565398    1.731    0.422
         8 -12.5044    194.1024    197.3749   7.5147661065e+01   3.4113912787e+00     1.293582    0.6626458 -59.45  0.004562106    3.945    0.747
         9 -12.3523    140.1603    247.9916   9.5076392842e+01   2.5708785510e+00    0.5550622    0.3041513 -55.07  0.002817671    2.224    0.550
        10 -12.3935    106.4992    249.1925   1.0240391112e+02   7.2900914588e+00    0.9593225    0.3457483 -56.05  0.004112189    3.104    0.678
        11 -12.2490    101.5234    245.5428   1.0304639519e+02   8.7009846518e+00     1.089896    0.2936819 -53.87  0.004068475    3.961    0.748
        12 -14.2516     52.8914    185.0897   1.0724173951e+02   2.8931928462e+01     1.661215     1.149138  65.90  0.008638189    1.485    0.327
        13 -16.1977     40.9180    194.6973   1.1130981995e+02   2.7991132248e+01     7.860954     2.658762  61.82   0.01748135    6.526    0.847
        14 -16.1786      5.2963    173.9425   1.1809521688e+02   3.6453449944e+01      8.14298    0.9840357 -72.32   0.02221625    5.213    0.808
        15 -14.3827     17.9228    217.7890   1.1846110762e+02   2.5060635527e+01    0.7741987    0.4774532 -43.04  0.003058158    2.365    0.577
        16 -17.9826     14.3871    240.4857   1.2056611152e+02   2.0571171077e+01     6.385602     2.400259  24.41   0.02507856    3.641    0.725
        17 -11.2784    111.1722    203.8566   9.5238297140e+01   1.5976509467e+01    0.2498096    0.1973225  37.37 0.0004617745    1.199    0.166
        18 -10.3927     67.1565    197.0656   1.0513562023e+02   2.4156789001e+01    0.2330203     0.188596  44.98 0.0005718951    1.197    0.165
        19 -10.1108     82.3754    194.8884   1.0103715452e+02   2.2532048030e+01    0.2738343    0.2124503  27.30  0.001213769    1.377    0.274
        20  -9.7326    149.4143    192.2205   8.4037541363e+01   1.2064543236e+01    0.1966971    0.1430813 -60.41 0.0005393657    1.610    0.379
        21 -10.5568    131.4884    190.9802   8.8111171030e+01   1.5474555342e+01     0.223186     0.147337 -54.35  0.001027609    1.591    0.371
        22 -11.5983     81.1672    182.4174   9.9511074613e+01   2.5753330659e+01    0.4775763    0.3366413 -70.98   0.00112924    1.443    0.307
        23 -10.8575     99.4756    180.7966   9.4438030409e+01   2.3299403732e+01    0.2701013    0.2575526  27.52  0.000646739    1.087    0.080
        24 -11.1056     88.2544    175.9483   9.6594924980e+01   2.6284346903e+01    0.5240565    0.3367856 -15.69  0.001099239    2.676    0.626
        25 -10.5252    186.1325    173.1388   7.1981187110e+01   9.4827580010e+00    0.3118176     0.281657 -85.38  0.001405263    1.454    0.312
        26 -10.5381    244.3445    173.3118   6.1079456817e+01  -1.1506492504e-01    0.1341849   0.08933559  -9.08 0.0005564566    1.706    0.414
        27 -13.0240     80.3473    158.2926   9.5719018060e+01   3.1973114987e+01     1.175871    0.6409839  65.98 0.0005539954    3.069    0.674
        28 -13.4907     68.6103    153.2490   9.8212476866e+01   3.4987972569e+01     0.529029    0.4430395 -31.13  0.001035767    1.331    0.248
        29 -13.0347    118.7322    246.4420   9.9455241389e+01   6.0229677659e+00    0.6622772      0.28091  28.50  0.002390325    2.433    0.589
        30  -9.7623    110.8601    167.5841   8.9017494464e+01   2.4609461994e+01    0.2933612    0.2022025 -76.38 0.0006888041    1.844    0.458
        31  -9.4992    102.8959    165.0836   9.0686532463e+01   2.6604811390e+01    0.2187863    0.1973228  77.20  0.001135329    1.178    0.151
        32 -10.2982     36.4303    162.0829   1.0874787327e+02   3.6626280500e+01     0.239788    0.1931767  -8.32 0.0009172336    1.606    0.377
        33 -12.2514     87.8158    151.5241   9.2293853333e+01   3.2533977224e+01    0.7388358    0.4747101 -23.47   0.00298033    2.272    0.560
        34 -11.4001    133.8375    145.3857   7.8203484555e+01   2.5667667158e+01      1.21531    0.3161609 -54.36  0.002757503    5.712    0.825
        35  -9.3293    112.1799    150.3488   8.5138527553e+01   2.8615645909e+01    0.2147402    0.1418135  46.67 0.0003820784    1.587    0.370
        36 -11.8829     55.0866    147.0441   1.0115136064e+02   3.8386916189e+01    0.5926687    0.4566205 -52.12  0.003112292    1.229    0.187
        37 -10.1947    174.8274    149.1005   6.9209106617e+01   1.6612832144e+01    0.2302446    0.2093514 -68.49 0.0006039047    1.244    0.196
        38 -10.5586     31.0304    143.8722   1.0786753612e+02   4.1847117809e+01    0.3132755    0.1938266 -38.48  0.001528717    1.818    0.450
        39 -10.2955    111.3160    129.0269   8.0502145369e+01   3.3991736301e+01    0.3233485    0.2356359  20.90 0.0007436809    1.611    0.379
        40 -10.8847    102.0336    137.8785   8.5267907645e+01   3.3550336791e+01    0.6200001    0.3808455 -18.83  0.002218737    2.779    0.640
        41 -10.9855    106.0182    131.0468   8.2521331997e+01   3.4504039527e+01    0.4545541    0.3311261 -60.68  0.001880866    1.447    0.309
        42 -12.4116     89.1747    137.3283   8.8953446500e+01   3.5919550241e+01    0.3058768    0.2686034 -37.11 0.0004562024    1.145    0.126
        43 -11.3654     25.8859    137.6109   1.0853749376e+02   4.3926240050e+01    0.3806015    0.2170014  35.46  0.001444201    1.919    0.479
        44 -11.3330     44.1170    130.0549   1.0161444605e+02   4.4071346670e+01    0.2702352     0.189242 -70.31  0.001364351    1.352    0.260
        45 -10.9843    134.8632    128.7574   7.3969346995e+01   2.9333779439e+01    0.3426049    0.3188285 -49.91  0.001758378    1.066    0.062
        46 -11.0230     98.2694    124.7407   8.3305200026e+01   3.7468948669e+01    0.3209147    0.2573527   1.26 0.0005661374    1.499    0.333
        47 -10.4162    117.4385    123.5018   7.7390230535e+01   3.4109173739e+01    0.2859948    0.1534753  28.11  0.000887068    2.384    0.581
        48  -9.2020    163.3062    120.7090   6.5026207919e+01   2.5044193900e+01    0.1526415     0.122868 -82.96 0.0002986081    1.576    0.365
        49 -10.1072    135.0000    120.0077   7.1725377349e+01   3.1292855954e+01    0.2659709   0.08870398 -45.65 0.0008012406    2.934    0.659
        50 -12.3375     67.2963    171.2421   1.0152389752e+02   3.0546382433e+01    0.4835974     0.315371 -33.77  0.002193592    1.979    0.495
        51  -9.9490    107.6603    118.0818   7.8832691396e+01   3.7308580038e+01    0.2142607    0.1896337 -38.75 0.0003472379    1.102    0.093
        52  -9.6505     83.9659    117.9995   8.6108405776e+01   4.1608264474e+01     0.234762    0.1857402  74.36 0.0005486137    1.637    0.389
        53 -10.5332    231.2646    113.7255   5.0835252387e+01   1.2469330065e+01    0.2425048     0.210849 -33.49 0.0007174636    1.118    0.106
        54 -12.6352     71.9513    166.4330   9.9483880348e+01   3.1123321971e+01    0.7492592    0.5217882  80.61  0.003008273    1.726    0.421
        55 -10.0204    205.5286    110.2086   5.4142988698e+01   1.8134426388e+01    0.2393151    0.2043117  56.26 0.0005735328    1.288    0.224
        56 -10.3287    115.1081    109.2994   7.4346391468e+01   3.7855257688e+01     0.322294    0.1777839 -34.20  0.001224157    2.078    0.519
        57 -11.2734     33.7634    108.2244   1.0099163455e+02   5.0658211110e+01    0.2909959    0.2487008 -66.04  0.001283812    1.124    0.110
        58 -11.1736    119.1824    104.0716   7.1758555636e+01   3.8173624282e+01    0.2452971    0.2130155  -7.10 0.0006641878    1.272    0.214
        59 -11.6220    240.3008    169.1740   6.0932683210e+01   1.1885659666e+00     0.216433    0.1692881  10.90 0.0005129604    1.387    0.279
        60 -10.8857     36.2121    101.1222   9.8625638614e+01   5.2161777511e+01    0.2540632    0.1671356  54.34  0.001231297    2.027    0.507
        61 -10.6223    120.9574     98.5169   6.9707715375e+01   3.8994909143e+01    0.2525445    0.2065964 -42.31 0.0006841485    1.212    0.175
        62 -10.2486     41.0060     98.0269   9.6158850801e+01   5.2411993343e+01     0.215706    0.1686924  72.01  0.001131716    1.713    0.416
        63  -9.7724    159.4914     83.5206   5.6113323517e+01   3.3249508560e+01    0.1474545      0.14327 -78.23 5.564231e-05    1.001    0.001
        64  -8.9064     69.2901     81.6089   8.1203496214e+01   5.2395248215e+01    0.1414435    0.1165252 -89.11 0.0003129013    1.770    0.435
        65 -10.7891     13.4563     59.8704   9.7815385338e+01   6.3436622961e+01    0.2232134    0.2051432 -49.69 0.0004406007    1.251    0.201
        66 -13.2336    191.2323     51.0250   4.2131063959e+01   3.1097154954e+01    0.7000351    0.5388169  24.72   0.00121618    1.903    0.474
        67 -12.4147    113.6705    243.3955   1.0016712844e+02   7.3434556919e+00    0.4946997    0.1984901  50.88  0.001923293    3.006    0.667
        68 -10.2685    168.0626    233.2378   8.6948516424e+01   9.8132788155e-01    0.2892899    0.1942658  45.96   0.00154176    1.662    0.398
        69  -9.1539     12.3123     31.6493   8.9103750011e+01   6.8931717053e+01    0.1008343   0.09579661  64.29 0.0007045728    1.723    0.419
        70 -10.8153      2.3234     29.6448   9.3805891539e+01   7.0019906433e+01    0.1834747     0.161805 -20.38 0.0009143635    1.265    0.210
        71  -9.5035    198.3487     23.7334   3.4757573250e+01   3.2990288676e+01     0.156684    0.1175744 -25.74 0.0006740607    1.641    0.391
        72  -9.4771    189.5204     15.0196   3.3634390788e+01   3.5936026328e+01    0.1718402    0.1175821 -36.69 0.0007512475    1.560    0.359
        73 -11.9677    107.5262    203.9617   9.6141144752e+01   1.6537691184e+01    0.4254432     0.221756  51.33  0.001767729    2.122    0.529
        74 -15.8805      9.4199    207.6624   1.1959196472e+02   2.8143012450e+01     1.432073     1.065041 -35.93  0.006121214    1.942    0.485
        75 -11.0675    122.9987    200.2111   9.1779190329e+01   1.4851810357e+01    0.3313111     0.211547 -69.96  0.001251408    2.015    0.504
