#   1 NUMBER                 Running object number                                     
#   2 MAG_AUTO               Kron-like elliptical aperture magnitude                    [mag]
#   3 X_IMAGE                Object position along x                                    [pixel]
#   4 Y_IMAGE                Object position along y                                    [pixel]
#   5 X_WORLD                Barycenter position along world x axis                     [deg]
#   6 Y_WORLD                Barycenter position along world y axis                     [deg]
#   7 A_WORLD                Profile RMS along major axis (world units)                 [deg]
#   8 B_WORLD                Profile RMS along minor axis (world units)                 [deg]
#   9 THETA_WORLD            Position angle (CCW/world-x)                               [deg]
#  10 FWHM_WORLD             FWHM assuming a gaussian core                              [deg]
#  11 ELONGATION             A_IMAGE/B_IMAGE                                           
#  12 ELLIPTICITY            1 - B_IMAGE/A_IMAGE                                       
         1 -12.5109     74.6640     50.2307   8.6348408559e+01   5.8130857535e+01     1.321105     0.757265 -53.78  0.005929935    1.934    0.483
         2 -11.5365    120.8190     57.5597   7.4535242005e+01   4.7414195158e+01     1.557626     1.164309  78.93  0.007092236    1.817    0.450
         3 -12.5660    119.9875     38.2460   6.7410927307e+01   5.0847671208e+01    0.8757938    0.5799218 -63.22  0.003672408    2.180    0.541
         4 -12.0656    124.7002     27.8117   6.2053592811e+01   5.1185240165e+01    0.8646683    0.6901144  -7.24  0.003523426    1.302    0.232
         5  99.0000     67.8983     32.0176   8.1309523386e+01   6.2652786101e+01     1.539366    0.7818494 -57.73  0.005316719    4.186    0.761
         6 -12.1485     60.7560     44.3882   8.9376243563e+01   6.1499616494e+01     1.039046    0.5223474 -43.69  0.004796823    1.742    0.426
         7 -11.2102    178.1995     21.5050   5.0111904592e+01   3.7974099056e+01    0.6251685    0.3649921  39.67  0.001902407    1.981    0.495
         8 -11.5405    183.0152     25.3512   5.0703369201e+01   3.6250704225e+01    0.6712162    0.3786342  48.97  0.002915303    1.845    0.458
         9 -11.2547      5.2734      9.3958   1.0185803002e+02   7.4170363034e+01     1.283614    0.7008756 -68.38  0.006669265    2.677    0.626
        10 -11.6986     26.4730     28.0954   9.8174380467e+01   6.8898409481e+01    0.4797796    0.4333217 -29.16    0.0026517    1.170    0.146
        11 -10.8266     14.0661     23.6632   1.0288167626e+02   7.0821006346e+01    0.4870029    0.3616017 -18.51  0.001757284    1.340    0.254
        12 -11.4259     19.9327     22.3004   9.9143766929e+01   7.0617324396e+01     1.507946    0.3117044 -51.13   0.00557207    3.474    0.712
        13 -12.7850     17.5094     13.6533   9.6528094935e+01   7.2444310338e+01    0.5361981    0.4601604  -8.44 0.0007977155    1.223    0.182
        14 -11.8726     22.8796     10.7630   9.1969808680e+01   7.2441590088e+01    0.4412502     0.361724   0.73  0.001943786    1.243    0.196
        15 -11.1001    240.1691     32.9167   4.6372305898e+01   2.1011638134e+01    0.5091589    0.4202314 -39.63  0.002984983    1.076    0.070
        16 -11.8688    106.0338     20.1960   6.3426308488e+01   5.6645592395e+01    0.4705197    0.2873254 -35.13 0.0004332949    1.653    0.395
        17 -12.2582    104.6311     12.9006   6.0474857958e+01   5.7832637622e+01    0.9723838    0.4927911 -33.31  0.004309813    1.976    0.494
        18 -11.4372    155.0280     23.6025   5.4375255695e+01   4.3895816495e+01     1.398388    0.7125347  55.19  0.005827705    1.848    0.459
        19 -11.6834    138.1485     21.9511   5.6841311812e+01   4.8511935591e+01     1.730136    0.5506467  48.15  0.005708656    3.028    0.670
        20 -12.2041    132.2925     14.9920   5.5225177990e+01   5.0803103875e+01      1.22288    0.5863715  77.09  0.001929503    2.769    0.639
        21 -10.4881    145.3855     16.3293   5.3340359551e+01   4.7260988935e+01    0.3376522    0.2629288 -80.44            0    1.473    0.321
        22  -9.6217    141.4537     12.2923   5.2474395341e+01   4.8713013673e+01    0.2679894    0.2251287 -20.76 0.0006976132    1.227    0.185
        23 -12.4423    164.0503     27.8244   5.4365004675e+01   4.0992069895e+01    0.5118239    0.3878887  22.75 0.0003866055    1.529    0.346
        24 -11.1391    198.8518     28.5282   4.9635315031e+01   3.1719576800e+01    0.6863701    0.4281693  -9.08  0.003039981    1.974    0.493
        25 -11.2078    165.0884     17.6693   5.0676101668e+01   4.1893303044e+01    0.4844693    0.3061816  33.20  0.001491329    1.852    0.460
        26 -10.3898     87.1251      7.4516   6.2619499871e+01   6.2365704740e+01    0.5658762    0.3356065  55.81  0.002393352    1.724    0.420
        27 -10.7211     91.0662     21.1285   6.8128624264e+01   5.9862896422e+01    0.6447802    0.3914632 -26.61  0.002611894    1.578    0.366
        28 -11.1807     86.0111     13.7593   6.6130079228e+01   6.1880221142e+01    0.4565994    0.3541866   7.43  0.001409257    1.250    0.200
        29 -11.4521     40.7255      5.8595   7.9651969739e+01   7.1011972713e+01    0.4771657    0.2223413 -21.05  0.001670468    2.426    0.588
        30  -9.4851     50.3714      6.6176   7.5575946209e+01   6.9440430244e+01       0.3215    0.1592772  39.44 0.0009581576    2.081    0.519
        31 -12.1959     48.3790     13.0040   8.0087079404e+01   6.8843773323e+01    0.7665568    0.3559045  37.74  0.003718201    2.303    0.566
        32 -11.3300     32.6627     12.6015   8.7602618695e+01   7.1042193063e+01    0.2222073    0.2155612  39.68 0.0004115549    1.508    0.337
        33 -11.5401     35.5338     18.5298   8.9203668517e+01   6.9693707847e+01    0.6237403       0.2473 -35.47  0.002010752    2.295    0.564
        34 -10.3746    120.7326     19.2922   5.9433990691e+01   5.3230490582e+01    0.4805517    0.3732564 -59.13  0.001498792    1.558    0.358
        35 -10.1319     62.9343      6.4806   7.0278527425e+01   6.7304446666e+01    0.3357642    0.2242456   4.67  0.001274836    1.538    0.350
        36 -11.9046     68.2933     18.0433   7.4426662557e+01   6.4794385982e+01     0.543843    0.5079495  66.91  0.002686855    1.448    0.309
        37 -12.1920    239.1670     16.0183   4.2113106712e+01   2.3196056140e+01    0.8933935    0.4653198  71.21  0.003175874    1.990    0.498
        38 -11.9678    244.9169      6.7586   3.9364711377e+01   2.2856615362e+01     0.841572    0.4564744 -50.64  0.004202073    1.609    0.378
        39 -11.9122    233.9257      7.1041   4.0233522302e+01   2.5369144529e+01    0.8520233    0.3974674 -87.53  0.003683055    2.480    0.597
        40 -11.0132    218.8171      3.1845   4.0352800091e+01   2.9407490245e+01    0.3400746    0.3078967 -18.43  0.001144247    1.227    0.185
        41 -11.1622    223.6740      1.8978   3.9636031120e+01   2.8344124687e+01    0.5724553    0.2560669  83.05  0.002479282    2.337    0.572
        42  -9.9142    192.5868     17.3264   4.6971452617e+01   3.4640224944e+01    0.5307859    0.3343195 -57.75  0.002484212    1.662    0.398
        43 -10.8253    186.3799     15.0387   4.6986569627e+01   3.6516640283e+01    0.3402578     0.262462  49.69 0.0005536277    1.350    0.259
        44 -11.6322    192.5325      7.4005   4.3933730821e+01   3.5678500350e+01    0.7501982    0.4566799  10.87  0.003308509    2.327    0.570
        45 -10.2006    226.0005     15.5806   4.3100275107e+01   2.6372757741e+01    0.4008526    0.1721129 -31.86  0.001327782    2.036    0.509
        46 -10.5991     64.4072     10.5251   7.1952496145e+01   6.6527562655e+01    0.5433782    0.2326853  39.92  0.002411671    2.368    0.578
        47 -11.4421    211.8989      9.7881   4.2763906862e+01   3.0471387676e+01    0.4974183    0.3277031   5.45 0.0009693402    2.073    0.518
        48  -9.9305    169.1024      9.6734   4.7373541755e+01   4.1648407878e+01    0.3783074    0.1839537  45.45  0.001538305    2.189    0.543
        49  -9.2399    157.4765      2.5096   4.6397550787e+01   4.5401068653e+01    0.2468363    0.2313109  15.77  0.001057317    1.131    0.116
        50 -10.2777    163.3038      4.9727   4.6506614737e+01   4.3634902980e+01    0.7074219    0.2414158 -17.55  0.002436396    3.286    0.696
        51  -8.9241    161.0469      1.0000   4.5405603532e+01   4.4583024112e+01    0.3541926    0.1040517  75.39  0.001094162    3.679    0.728
        52  -9.7564    184.7371      7.0071   4.4637911954e+01   3.7760437652e+01    0.3151471    0.1901998 -40.25 0.0008992782    1.606    0.377
        53  -9.0089    183.6833      3.6736   4.3698561457e+01   3.8351074309e+01    0.2699535    0.1554352  33.56 0.0007643093    2.193    0.544
        54  -9.7987    152.1436      7.3945   4.8913237449e+01   4.6375633474e+01    0.4525307    0.1880818  54.88 0.0008125513    2.157    0.536
        55  -7.7171     78.4735      7.4996   6.5321557921e+01   6.4179476288e+01    0.2704397    0.2185051  67.83  0.001176008    1.593    0.372
        56 -10.4579     76.8064      3.6341   6.3793307479e+01   6.4940867068e+01    0.4004955    0.2513503  15.47  0.001345591    1.687    0.407
        57 -10.4802     73.0025      2.7629   6.4565973804e+01   6.5801948229e+01    0.5099471    0.2454166  28.86  0.002226368    2.383    0.580
        58 -11.1628      3.2012      1.8060   9.9389297687e+01   7.5678359165e+01    0.3764254     0.184345   6.45  0.002118785    2.511    0.602
        59 -10.5692    175.8741      5.3762   4.5108992056e+01   4.0257486660e+01    0.4893708    0.2821111  89.02  0.001418618    1.889    0.471
        60 -10.9357    205.6263      2.4129   4.1224781942e+01   3.2783214378e+01    0.5126491    0.2592824  89.28  0.001873425    2.122    0.529
        61  -9.5832    116.9779      2.5281   5.2991102818e+01   5.5875337555e+01    0.3176031    0.2237481  40.08  0.001350512    1.333    0.250
        62 -10.4178    110.8423      2.0224   5.4029534269e+01   5.7424701879e+01    0.5544615    0.3165154  88.62  0.002312276    2.667    0.625
        63 -10.7896    105.2751      1.8462   5.5169196674e+01   5.8779158034e+01    0.4743897    0.3290974 -80.89 0.0008557307    2.058    0.514
        64 -10.5320    142.4311      3.2446   4.8815636764e+01   4.9307330630e+01    0.3901161    0.2964614  58.32  0.001328798    1.222    0.182
        65 -11.7033    133.4043      2.7503   5.0073607589e+01   5.1696952293e+01    0.4702604    0.2979758  62.42  0.001441214    1.462    0.316
        66  -9.6594     13.1474      1.8505   9.2852318174e+01   7.4876019163e+01    0.2673552    0.1783939   8.01  0.001765739    1.582    0.368
        67  -9.4558    122.5335      1.2651   5.1373637720e+01   5.4595028398e+01    0.4233481    0.1090073  65.49  0.001356776    3.506    0.715
        68 -10.6058     82.2005      1.3323   6.0890304803e+01   6.4045309482e+01    0.2039743    0.1147023  53.10 0.0003235157    1.717    0.418
        69  -8.5417    151.9356      1.0000   4.6593484012e+01   4.6996721666e+01     0.227834   0.07622738  70.65 0.0004570528    2.818    0.645
        70 -11.1176     63.0169    150.0609   1.1349866088e+02   3.6765741663e+01    0.4129579    0.3787926  40.20  0.001692549    1.309    0.236
        71  -9.2431    234.2190    150.6034   7.6328247550e+01   5.3871923258e+00    0.1891884    0.1141188  31.86 0.0008034738    1.678    0.404
        72  -9.5903    239.7657    146.6074   7.4544722684e+01   4.9437881380e+00    0.2401608    0.1701909 -23.52 0.0007114193    1.281    0.219
        73 -10.6633    249.5714    142.4764   7.2079744964e+01   3.7523890121e+00     0.545616    0.2222148 -27.77  0.002317847    2.296    0.564
        74  -8.8440     53.2988    145.6187   1.1532858148e+02   3.9002492931e+01     0.140547   0.08388707  74.25 0.0004582285    1.767    0.434
        75 -10.7118     33.1299    144.2674   1.2017254704e+02   4.1526279449e+01    0.2661688    0.2074594  74.12 0.0007266956    1.124    0.111
        76  -9.9825    133.3070    140.3509   9.4519551576e+01   2.7390819061e+01    0.2977387    0.2659645 -12.72 0.0008414345    1.319    0.242
        77 -12.2744     23.3292    135.7772   1.2175931278e+02   4.4407241851e+01    0.7794046    0.3644228  45.92  0.002165467    2.111    0.526
        78  -8.1752    186.3112    139.3438   8.2629564114e+01   1.6686741223e+01    0.1525422    0.1117223   5.54 0.0007045809    1.703    0.413
        79  -9.8673    214.9214    150.9866   7.9768504764e+01   8.9661311291e+00    0.2808658     0.230025 -20.31  0.001023897    1.163    0.140
        80 -10.3838     80.1015    136.6908   1.0714937241e+02   3.7488836780e+01    0.3710589    0.3321575 -20.15  0.002176116    1.468    0.319
        81 -10.1098     47.4089    135.8535   1.1557325857e+02   4.1970014287e+01    0.4572347     0.140832 -63.90  0.001447049    2.663    0.624
        82 -12.2256     29.8825    132.9801   1.1978767048e+02   4.4461319152e+01    0.3952462     0.265863  87.11 0.0003223492    1.287    0.223
        83  -9.4050     86.7012    135.8573   1.0528506437e+02   3.6676214433e+01    0.2275988    0.1675148 -45.71  0.001187762    1.504    0.335
        84  -8.9746    216.5400    135.4571   7.6000139758e+01   1.1097326256e+01    0.1445941    0.1260729   1.16 7.386204e-05    1.072    0.067
        85 -10.3166     92.7561    129.1701   1.0244042309e+02   3.7264122211e+01    0.3373562     0.258732  87.44  0.001280484    1.417    0.294
        86  -9.5153    107.6823    145.9483   1.0181719792e+02   3.0909151781e+01    0.1981994    0.1735939 -71.43 0.0004445456    1.116    0.104
        87 -10.0038     68.0319    134.4803   1.0995298676e+02   3.9728044489e+01    0.1879851    0.1298274  41.67 0.0003936829    1.521    0.342
        88  -9.9303     74.1428    132.8961   1.0807328171e+02   3.9250091939e+01    0.2310518    0.2188363  34.13  0.001381383    1.262    0.208
        89  -9.5417     62.8084    131.8491   1.1092603027e+02   4.1046032299e+01    0.4059116    0.1455908 -60.44  0.001633851    2.418    0.586
        90  -9.1179     44.1359    133.1739   1.1608126501e+02   4.2966276101e+01    0.1791639    0.1302013  78.83  0.001050031    1.280    0.219
        91 -10.2411     82.4766    125.2033   1.0443964127e+02   3.9833714596e+01    0.4755099    0.3058154 -24.90  0.001775868    2.751    0.636
        92  -8.8554    223.8431    126.8225   7.2708755202e+01   1.0981391057e+01    0.1895716    0.1599512 -46.11  0.000438964    1.329    0.247
        93 -10.4001     18.6086    124.2681   1.2182121081e+02   4.7490003539e+01    0.3615286    0.1489422 -67.83  0.001789537    1.906    0.475
        94 -10.7425     55.6603    123.5565   1.1156414764e+02   4.3927607536e+01    0.4471066     0.367271 -13.15  0.001787937    1.736    0.424
        95 -10.7857     46.7381    121.2004   1.1369516341e+02   4.5533943296e+01    0.6696954    0.3531412  73.38   0.00255663    2.504    0.601
        96  -9.6692      2.2009    125.6174   1.2623893403e+02   4.8371450328e+01    0.2362629    0.1269192 -82.85  0.001159813    1.427    0.299
        97 -10.0797      4.3054    120.7011   1.2528870563e+02   4.9365150870e+01    0.2769732    0.1457337 -59.77 0.0008316773    1.735    0.424
        98 -11.8701    104.2587    122.0235   9.7889285505e+01   3.6945945320e+01    0.4541501    0.4402326  87.18  0.001139507    1.057    0.054
        99  -9.4233     67.2944    124.2108   1.0843887153e+02   4.2270570468e+01    0.3005142    0.2009405  11.47  0.001423603    2.399    0.583
       100  -9.7087     94.0278    123.0139   1.0085578342e+02   3.8491794083e+01     0.226681    0.1664009  82.83 0.0004520763    1.609    0.378
       101 -10.5866     33.3066    119.4569   1.1722323595e+02   4.7339218717e+01    0.3168756    0.2535458  85.88  0.001354859    1.112    0.100
       102  -9.4115     22.9400    126.9252   1.2094873160e+02   4.6506187505e+01    0.1821608    0.1417558  85.47 0.0002912927    1.082    0.076
       103  -9.3358    148.0978    119.9531   8.6331058785e+01   2.8648597968e+01    0.2422412    0.1895388  -1.76 0.0006436329    1.690    0.408
       104  -9.5630    185.6212    118.8440   7.7848163056e+01   2.0552297615e+01    0.2195828    0.1950373  23.36 0.0009702813    1.144    0.126
       105 -10.2821    113.2291    116.0091   9.4121086233e+01   3.6660710978e+01    0.2517544    0.2380598  20.49 0.0003097993    1.181    0.153
       106 -10.7920    107.8910    112.3180   9.4675390053e+01   3.8513543466e+01    0.7461801    0.5450788  83.43  0.003441355    1.795    0.443
       107 -10.9724    101.1675    109.5555   9.5867599849e+01   4.0388200120e+01    0.6764576    0.3691489  26.36  0.002582716    2.738    0.635
       108  -9.9332    103.1324    106.1015   9.4469221646e+01   4.0827339577e+01    0.3008476    0.2802334  22.28 0.0003476407    1.209    0.173
       109  -9.6419     79.9113    115.4518   1.0321506920e+02   4.2546158273e+01    0.4156113    0.2516653 -89.72  0.001729278    2.411    0.585
       110 -10.6106     50.8593     95.3215   1.0786661034e+02   5.1318582392e+01     2.016146    0.8162265 -73.90  0.007095172    3.330    0.700
       111 -11.0535     17.3664    100.8604   1.1942688406e+02   5.3132593021e+01    0.6044528    0.3038754  20.15  0.003163156    2.609    0.617
       112 -11.7696      9.4787     97.4001   1.2141410896e+02   5.4493666016e+01     1.231574    0.5074163  87.89  0.005322825    2.772    0.639
       113 -11.8648      7.0101     88.7400   1.2110017962e+02   5.6689717237e+01    0.8803838    0.5820067   5.85  0.005441345    2.111    0.526
       114 -11.9830     35.9054     93.2107   1.1232654882e+02   5.3411128254e+01     1.468703     0.895265  87.16   0.00543595    1.903    0.474
       115 -12.2511     23.9328     94.6851   1.1647039248e+02   5.4106592226e+01    0.7571845    0.4238197  14.65   0.00376163    2.486    0.598
       116 -12.4880     18.3257     90.2516   1.1760803091e+02   5.5593399331e+01      0.49585    0.3361415 -41.72 0.0004194544    1.604    0.376
       117 -11.6410      2.4743    112.0858   1.2502327714e+02   5.1479164511e+01     0.457801    0.2557565  65.37 0.0007807611    1.779    0.438
       118 -11.7033      3.9594    105.9504   1.2401517247e+02   5.2821292751e+01    0.7424875    0.3656039  82.82  0.003891707    1.953    0.488
       119 -11.5954     28.4772    113.0444   1.1774396400e+02   4.9318494392e+01     0.688347    0.3035759  26.54  0.003188749    2.751    0.636
       120 -12.2267     18.7487    106.2068   1.1970432899e+02   5.1754715883e+01    0.2896165    0.2170669 -60.65 0.0002729255    1.240    0.194
       121 -11.3384     22.5104    113.9925   1.1958142775e+02   4.9601877900e+01    0.4891989    0.3027194  -1.99  0.001845959    2.716    0.632
       122 -12.6466     25.3010    107.6654   1.1794730261e+02   5.0881509442e+01    0.8977565    0.6158242 -33.76  0.005202783    1.897    0.473
       123 -10.8592     37.1943     85.8298   1.1046581446e+02   5.5059155180e+01    0.2779498    0.2391648  69.01 0.0007204186    1.292    0.226
       124 -11.8863     43.5043     85.1550   1.0815684428e+02   5.4578261984e+01    0.4981299    0.3627327  14.41  0.001837788    1.778    0.438
       125  -9.8567     67.4932    113.9943   1.0650380778e+02   4.4697352395e+01    0.3088142    0.2106018  79.40  0.001529562    1.737    0.424
       126  -9.7504     66.9973    110.7628   1.0601513794e+02   4.5543872167e+01    0.2977526    0.2121855  36.01  0.001582134    1.576    0.365
       127  -9.0665    126.5305    113.9604   9.0143328150e+01   3.4482853785e+01    0.2350557    0.1467117 -46.10  0.001021708    1.571    0.364
       128 -11.0647    170.7286    110.3193   7.8750548521e+01   2.5525970173e+01    0.5298314    0.4321879  34.01  0.002082192    1.281    0.219
       129  -9.7206     48.9679    112.0999   1.1159724634e+02   4.7477799530e+01    0.2400494    0.1856616  41.69  0.001284359    1.443    0.307
       130 -10.7679     91.1778    103.6119   9.7286111432e+01   4.3530647271e+01      0.43031    0.3988744  35.99  0.001394223    1.193    0.162
       131 -11.3906     79.8583    108.2328   1.0168676640e+02   4.4277000292e+01    0.6429667    0.4327941  43.47  0.002454592    1.589    0.371
       132  -9.9288     85.9619    104.0254   9.8920507608e+01   4.4305273770e+01    0.3267226    0.2387491 -43.14 0.0008382479    1.393    0.282
       133 -10.0011    120.5646    108.9233   9.0424553831e+01   3.6812300606e+01    0.3687141    0.2668263 -10.56  0.001576859    2.123    0.529
       134  -9.6301     58.2756    108.2688   1.0812976451e+02   4.7291910654e+01    0.2680519    0.1621543 -72.79 0.0005857261    1.580    0.367
       135 -10.6206    157.4816    106.5124   8.0669995367e+01   2.9307911452e+01    0.4642237    0.3377643   7.92   0.00131652    1.949    0.487
       136  -8.5854    161.9479    105.0164   7.9256267512e+01   2.8579000840e+01    0.1810427    0.1777165  34.07 0.0003354274    1.036    0.035
       137  -9.3986    150.2938    108.6212   8.2902258139e+01   3.0507475020e+01    0.1617708    0.1223034 -75.72   0.00010585    1.747    0.428
       138 -10.2552    143.4897    106.0364   8.3839078309e+01   3.2560719340e+01    0.3283914    0.2852092 -76.30    0.0013066    1.295    0.228
       139 -11.8008    145.3988    100.5880   8.1885241878e+01   3.3262982460e+01    0.6796798    0.4755436 -27.52  0.001994859    1.603    0.376
       140  -8.8684     45.5337    105.5743   1.1150237770e+02   4.9439031252e+01    0.1329422    0.1124526 -73.16 0.0001564646    1.013    0.013
       141  -9.4324     81.9947    102.7746   9.9805700901e+01   4.5240846707e+01    0.2116969    0.1864501 -35.88 0.0004992025    1.236    0.191
       142  -9.9279     57.6457    102.5067   1.0718872115e+02   4.8764017960e+01    0.3221096    0.2059411 -63.94   0.00135435    1.362    0.266
       143 -10.0553     57.1553     97.8481   1.0637820609e+02   4.9949610677e+01    0.3745658    0.2954994   4.44  0.002078763    1.710    0.415
       144  -9.9955     60.7829    101.0088   1.0590443223e+02   4.8725479000e+01    0.3383188    0.1744699 -64.99  0.001522652    1.782    0.439
       145 -10.1126     64.5135     99.2062   1.0435074732e+02   4.8665037242e+01    0.2649918    0.2217214  12.87 0.0008342454    1.510    0.338
       146 -10.5410     68.8848     95.4421   1.0211586449e+02   4.8959971685e+01    0.3761916    0.3394795   6.42  0.001716053    1.341    0.254
       147  -9.4735    120.9727    101.0166   8.8232198571e+01   3.8480703202e+01    0.2460589    0.1938337  -5.58  0.001134818    1.708    0.414
       148 -11.0146     90.0083     89.2537   9.3906019629e+01   4.7066244948e+01    0.7384797    0.4011602 -35.68  0.002973466    2.202    0.546
       149 -12.5873     78.6385     96.0104   9.9195670343e+01   4.7370422207e+01     0.732403    0.4790307 -42.42 0.0009231842    1.551    0.355
       150 -10.3229     94.0847     76.6266   8.8917846296e+01   4.9162301963e+01    0.4214311    0.3300111  33.18 0.0009436635    1.410    0.291
       151 -12.0292     83.7584     71.4315   9.0604644170e+01   5.2150307390e+01     1.234067    0.8966275 -89.60  0.005636716    2.134    0.531
       152 -12.2059     89.6876     59.5339   8.4597268689e+01   5.3583947329e+01     1.096613    0.8874697  69.80  0.005636314    1.608    0.378
       153 -10.2821    142.9489    248.9824   1.0894782572e+02   6.7267401635e+00     0.178051    0.1626207  25.21  0.001435124    1.277    0.217
       154 -10.8321     58.1845     77.9119   1.0129219261e+02   5.4557533243e+01    0.6426204    0.3167292 -68.34  0.002131802    2.442    0.591
       155 -13.0389     52.5682     73.6344   1.0214881931e+02   5.6260003003e+01    0.5364277     0.282426 -60.23 0.0009449518    1.706    0.414
       156 -10.6736     46.9838     74.5386   1.0441487898e+02   5.6706538809e+01    0.3756346    0.2029821 -62.60  0.000314994    1.652    0.395
       157 -11.6482     76.7105     80.5263   9.5695950503e+01   5.1280733396e+01     1.414699     0.919136  66.60  0.006246198    2.304    0.566
       158 -10.7702     67.2906     81.8152   9.9203669835e+01   5.2403299631e+01    0.8848112    0.6863208 -31.34   0.00477842    1.407    0.289
       159  -9.8086    210.3142     97.9102   6.7796908326e+01   1.8591377164e+01    0.2809662    0.2594682 -70.00  0.001012764    1.231    0.187
       160  -9.9504    141.2909     96.2953   8.1678672101e+01   3.5078994265e+01    0.4606199    0.2284093  34.90  0.001602241    2.653    0.623
       161 -10.6576    153.1503     91.7850   7.7536854559e+01   3.3245159638e+01    0.6857133    0.3367202  53.95  0.002550951    2.176    0.540
       162  -9.2064    137.5816     93.5478   8.1812047159e+01   3.6485972863e+01    0.3219121    0.2215521  13.92 0.0008625927    2.242    0.554
       163 -10.2521    117.4272     93.1774   8.7012418009e+01   4.0934854643e+01     0.427877    0.3097447  32.07  0.001296838    1.580    0.367
       164 -10.4935    120.7968     89.4435   8.5005233070e+01   4.1036175754e+01    0.4942952    0.2960658  35.31  0.001602122    1.940    0.484
       165 -10.8405    120.6700     85.3720   8.3822707098e+01   4.1931127855e+01    0.4458373    0.3292889  59.04  0.002074491    1.521    0.342
       166 -10.1455    126.2314     93.4020   8.4698727283e+01   3.9023429843e+01    0.3864491    0.3236942  84.63  0.001125958    1.424    0.298
       167 -10.4246    122.4982     93.5479   8.5737699006e+01   3.9791163091e+01    0.3093457    0.2808468 -62.57  0.000825521    1.114    0.102
       168 -12.6321    101.9096     90.0729   9.0548979636e+01   4.4709358637e+01    0.5237334    0.4250368 -33.04 0.0004640669    1.286    0.222
       169 -10.1326    105.0776     76.5493   8.5532110713e+01   4.7051488278e+01     0.481671    0.4265362 -64.35  0.002544057    1.194    0.162
       170 -11.2065    113.5906     83.7366   8.5298054618e+01   4.3775623705e+01    0.7464837    0.3737494 -37.73  0.002413563    2.065    0.516
       171 -11.0329    109.1283     80.6433   8.5627721462e+01   4.5357283217e+01    0.4444887    0.3420267 -15.82  0.001421524    1.597    0.374
       172  -9.0144    200.1641     88.1622   6.6928348572e+01   2.2587555880e+01    0.2129875    0.1791087 -61.22 0.0007942339    1.323    0.244
       173 -10.2937    183.7919     85.8083   6.9286435808e+01   2.6952599929e+01    0.7005594    0.2721135 -43.27  0.002351901    2.585    0.613
       174 -10.3477    165.6323     83.6331   7.2339600585e+01   3.1796795885e+01    0.4284919    0.3450547 -78.96  0.001684584    1.541    0.351
       175 -11.2225    143.1063     83.9694   7.7589796256e+01   3.7156654892e+01    0.3852289    0.3387113 -58.79 0.0008618244    1.190    0.159
       176 -10.3882    127.5361     83.0770   8.1271297702e+01   4.0907652367e+01    0.4639213    0.2806801 -43.66  0.001773541    1.592    0.372
       177  -9.7876    127.1141     77.1845   7.9529913926e+01   4.2203232586e+01     0.315856    0.2689581  76.85  0.001314524    1.373    0.272
       178 -10.1034    232.8873     77.5820   5.8934146396e+01   1.6632065529e+01    0.3765863    0.2488908 -26.58  0.001384915    1.401    0.286
       179  -9.2337      8.9676     76.2668   1.1862544127e+02   5.9511168216e+01    0.1685276      0.12799 -65.82 0.0002232448    1.046    0.044
       180 -11.7509     13.9859     74.7768   1.1656539235e+02   5.9554328921e+01    0.4913559    0.3511491 -68.58  0.002083328    1.093    0.085
       181  -9.9522     14.3998     67.3137   1.1501883422e+02   6.1271512513e+01    0.3090282    0.2829369 -12.73  0.002210205    1.344    0.256
       182  -9.1918    170.3427     77.9546   6.9641632038e+01   3.1663242825e+01    0.2248974    0.2021144 -31.55  0.000551877    1.081    0.075
       183  -8.8379     38.3052     78.6483   1.0853858539e+02   5.6659818995e+01    0.1327611   0.09427633  81.93 0.0006259172    1.707    0.414
       184  -9.5087      1.2997     78.1722   1.2160724714e+02   5.9474831555e+01    0.1867746    0.0886032 -72.76  0.000391882    1.578    0.366
       185 -11.4585      2.0059     71.4543   1.2039010960e+02   6.1003442388e+01      0.41005    0.1603936 -69.67  0.001989146    1.862    0.463
       186 -12.5627      6.5301     62.2573   1.1711439424e+02   6.2900470182e+01    0.7726858    0.4395084 -37.89  0.003289838    1.807    0.447
       187 -12.0318    186.5566     70.5259   6.4278600796e+01   2.8866854031e+01    0.9572132    0.6468004 -34.87  0.003195366    1.407    0.289
       188  -9.8994    184.3414     61.5110   6.1936515715e+01   3.0880990358e+01    0.3433177    0.2424799 -32.04 0.0007161098    1.363    0.266
       189  -9.5388    241.9979     75.2908   5.7122299037e+01   1.4946716223e+01    0.1890893    0.1778502 -36.21 0.0003747784    1.074    0.068
       190  -9.1017    150.9935     73.8116   7.2546609674e+01   3.7207581759e+01    0.2626393     0.175481  27.03  0.001069847    1.936    0.483
       191 -11.7500     40.7564     70.5726   1.0570403793e+02   5.8305981525e+01    0.5087264    0.2877069 -53.10  0.002386879    1.449    0.310
       192 -11.3356     32.4107     72.0301   1.0918801172e+02   5.8777683881e+01    0.5249403    0.3017634  29.48  0.002672924    2.071    0.517
       193 -12.0460    123.1171     68.5691   7.7764296496e+01   4.4814166800e+01    0.8868073    0.7231804  35.74  0.004391836    1.298    0.230
       194  -9.6230    174.9987    246.6894   1.0320382669e+02   2.2925814379e+00    0.1694814    0.1169285  37.26 0.0007521493    1.098    0.089
       195 -11.2119    113.4390     49.6419   7.3626412556e+01   5.0508922482e+01    0.6348042    0.3992779  32.57  0.001926295    1.845    0.458
       196  -9.5872    199.0326    244.5438   9.8878262843e+01  -9.9358239780e-01    0.1778958    0.0852534  39.30  0.001035644    1.617    0.382
       197  -9.8000    162.2045     70.7858   6.9115486469e+01   3.4969074327e+01    0.3264835    0.2704011 -68.79  0.001141596    1.383    0.277
       198  -8.7071     19.6471     71.7089   1.1390004346e+02   5.9889083894e+01    0.1300239   0.07675464 -41.87 0.0007028357    1.677    0.404
       199 -10.7761    171.6848     66.8466   6.5942878290e+01   3.3248289925e+01     0.621042    0.3884051 -39.94  0.002666429    1.543    0.352
       200 -11.1522    127.3204    241.6740   1.1089424961e+02   1.0025929387e+01    0.2846822    0.1966566  65.76  0.001919343    1.541    0.351
       201 -11.4215    220.0775     66.3404   5.7715357770e+01   2.1258676933e+01    0.7174033    0.4041637  54.51  0.002546903    1.880    0.468
       202  -9.1531    208.2593     68.5454   6.0077926067e+01   2.3781814033e+01    0.2112178    0.1377418  46.34 0.0009510245    1.656    0.396
       203 -10.0978     53.2932     49.4441   9.4295132163e+01   6.1522677388e+01    0.4566889    0.3295637  89.48  0.002215732    2.438    0.590
       204 -10.8408     58.5381     63.3654   9.6946348513e+01   5.7822628234e+01    0.6558946    0.4193793 -64.23  0.003236877    1.691    0.408
       205 -10.4965     34.1336     42.3331   9.9953115726e+01   6.5255218024e+01    0.8227339    0.3919281 -30.04  0.003624513    2.606    0.616
       206 -12.6767     43.1574     46.4581   9.7450643681e+01   6.3407904575e+01    0.8559864    0.6876974 -88.64  0.001670555    1.760    0.432
       207 -11.9415     21.2038     46.9838   1.0728446810e+02   6.5406364134e+01    0.5090855    0.4403875 -23.22  0.001973989    1.240    0.194
       208 -11.7033     30.8136     59.1709   1.0659963777e+02   6.1887060386e+01     0.782653    0.3673467  12.29  0.000855555    3.216    0.689
       209 -11.1760     40.9696     57.0058   1.0183821536e+02   6.1369965101e+01    0.4411186    0.3342701  64.83  0.001711269    1.819    0.450
       210 -11.5403     27.5500     54.0650   1.0654804316e+02   6.3322809556e+01    0.8313887    0.4460822  -3.95  0.003872183    2.988    0.665
       211 -10.9415     20.4848     54.9941   1.0978726756e+02   6.3678009289e+01    0.3415504    0.2436289  16.85 0.0009726451    1.736    0.424
       212 -11.3132     50.9131     61.2366   9.9189709134e+01   5.9281307726e+01    0.3351873    0.3118215  69.40 0.0009360129    1.293    0.226
       213 -10.4686     25.9350     65.3547   1.1011220226e+02   6.0888166982e+01    0.2231589    0.1618867 -58.66 0.0003206418    1.097    0.089
       214 -10.8497     21.2568     65.4445   1.1196563208e+02   6.1231099927e+01    0.2756945    0.2004389  79.11 0.0008724632    1.652    0.395
       215  -9.9493    192.6686     65.6976   6.1770273340e+01   2.8102812748e+01    0.2926809    0.2498338 -65.09 0.0007833031    1.257    0.204
       216 -11.5798     46.1038     58.1814   1.0013272143e+02   6.0534795051e+01    0.6185677    0.2867467 -47.38  0.002193665    1.802    0.445
       217  -9.9987    106.5280     64.0052   8.0902844056e+01   4.9334928776e+01    0.2772381    0.2538944  -2.24  0.001488801    1.132    0.117
       218  -9.5504    197.7931     62.8320   6.0075975263e+01   2.7257066964e+01    0.2899803    0.1957062 -73.78 0.0009368255    1.978    0.495
       219 -10.4670    159.4164     61.8298   6.6813673521e+01   3.7218739084e+01    0.4936193    0.2952527  40.71  0.002015582    1.848    0.459
       220  -9.9239    146.1341     62.0329   6.9791056489e+01   4.0530341434e+01    0.4554498    0.3188794  19.28  0.001926975    1.894    0.472
       221 -11.0138    138.5583     32.8565   6.0962797062e+01   4.7018774688e+01    0.5495371    0.5011169 -74.35  0.001803473    1.209    0.173
       222 -11.0558    136.0233     55.1275   6.9773360564e+01   4.4223839058e+01    0.9356478    0.8591051  18.89  0.004914112    1.124    0.110
       223 -11.0625    140.2128     43.0434   6.4420279576e+01   4.5129851776e+01    0.8768685    0.4736928  32.75  0.002623894    2.444    0.591
       224 -11.4407    146.2781     47.2110   6.4601982594e+01   4.2946822702e+01    0.8590598    0.3921093 -23.21  0.003007489    2.573    0.611
       225 -10.5890    146.3649     43.1810   6.3137035906e+01   4.3539578625e+01    0.3265288    0.2867627  39.02 0.0004259849    1.152    0.132
       226 -10.2691    162.3071     44.7454   6.0507042578e+01   3.9167477996e+01    0.5675103    0.4350824   0.97  0.002667374    1.543    0.352
       227 -11.4061    155.9736     41.9357   6.0745519284e+01   4.1233272682e+01    0.4126392     0.398605 -30.33 0.0009601856    1.028    0.027
       228 -11.1786    153.1685     36.1944   5.9251404919e+01   4.2776786352e+01    0.3389004    0.3030783 -45.74 0.0004302552    1.137    0.120
       229 -11.1804    157.5117     55.2606   6.5022602446e+01   3.8790533117e+01     0.600238    0.5335267  72.72  0.003073097    1.191    0.160
       230 -10.7835    155.2597     49.4868   6.3515122640e+01   4.0285718700e+01    0.5687187    0.3344298 -16.95 0.0008337196    2.049    0.512
       231 -12.9677    116.4076     41.7083   6.9724440427e+01   5.1152736408e+01     1.063303    0.8167927  87.17   0.00503871    1.797    0.443
       232  -9.3875      1.9749     56.3137   1.1782912999e+02   6.4483165857e+01    0.1533756    0.1294506 -58.31 0.0004189857    1.131    0.116
       233  -9.9391    248.8186     52.8306   5.0594618251e+01   1.6534749866e+01     0.438179    0.1887647 -58.01  0.001513356    3.379    0.704
       234  -9.6407    234.1202     44.9361   5.0148243578e+01   2.0906562732e+01    0.3224662    0.2187984 -45.76 0.0009033459    1.340    0.254
       235 -10.6099    231.6318     39.3151   4.8921219450e+01   2.2215572003e+01    0.6081046    0.2991091 -65.28  0.002068728    2.824    0.646
       236  -9.4307    238.1306     54.4055   5.2190675548e+01   1.8722041858e+01     0.284478     0.172945 -45.33   0.00136964    1.514    0.340
       237  -9.8055    244.6620     51.2979   5.0652182008e+01   1.7658633909e+01    0.2224124    0.1801146 -50.48 0.0007900442    1.148    0.129
       238 -10.9319    240.3900     50.2758   5.0856807705e+01   1.8758067776e+01    0.3951896    0.3280529 -43.58  0.001064318    1.070    0.065
       239 -10.0384    188.0352     55.5847   5.9484345918e+01   3.0845832984e+01    0.2778198     0.261478 -25.24 0.0004836388    1.056    0.053
       240  -9.9562     66.9885     54.3804   9.0732092525e+01   5.8531351737e+01    0.3334608    0.1832969 -56.00  0.001131618    1.959    0.489
       241  -9.5723     68.1892    240.5771   1.2108189328e+02   1.8280313530e+01    0.1408653    0.0884218  36.35 0.0009039764    1.655    0.396
       242  -9.6551     59.5371     24.0713   8.0935157298e+01   6.5369468240e+01    0.3096831    0.1539828 -32.87 0.0004319981    1.831    0.454
       243 -11.4725     48.2439     30.5143   8.8836703191e+01   6.5925278039e+01    0.6602907    0.3000534  27.92  0.002643582    2.712    0.631
       244 -11.4645     57.1601     31.0175   8.5197658378e+01   6.4554537837e+01    0.4621417     0.323624  -7.58  0.001766507    1.614    0.380
       245  -8.9415    172.6517    238.6523   1.0259937400e+02   3.6391930589e+00    0.1170762   0.07734292  15.53 0.0007040881    1.814    0.449
       246 -11.6419     60.5358     36.0395   8.6020328936e+01   6.3128203690e+01    0.4030859    0.2399727 -36.77  0.001217768    1.486    0.327
       247  -9.9187    211.0032     53.1442   5.5282767651e+01   2.5378830407e+01    0.3262205    0.2095427  77.10  0.001231048    1.815    0.449
       248 -11.2066    202.0294     47.1122   5.4779359563e+01   2.8483024788e+01    0.6924734      0.45603 -46.82  0.003225935    1.482    0.325
       249 -10.7956    173.9864     47.9721   5.9464188835e+01   3.5632918701e+01     0.581793    0.4443217  88.17  0.002627513    1.517    0.341
       250  -9.5160    176.3169     43.5644   5.7628579996e+01   3.5657020216e+01    0.3660355    0.2392241  80.40  0.001583471    1.809    0.447
       251 -10.2140     90.9121     47.4303   7.9617723725e+01   5.5683637896e+01    0.2928567     0.227001 -36.29 0.0004171964    1.204    0.170
       252  -9.9374      5.6609     41.7053   1.1296518296e+02   6.7563426126e+01    0.3797813    0.2081026  87.06  0.001850226    2.810    0.644
       253  -9.6022      2.3109     48.7781   1.1615743993e+02   6.6164479390e+01    0.2484671    0.1867656  -8.80  0.001701894    1.635    0.388
       254  -9.4244      2.7688     44.8047   1.1506096550e+02   6.7025644428e+01    0.2950331    0.1363952 -34.45  0.001165437    2.226    0.551
       255  -9.9329     13.8224     46.4536   1.1045847638e+02   6.6044690153e+01    0.4051431    0.1480302 -40.05  0.001806428    2.640    0.621
       256  -9.9227     17.6353     41.6803   1.0733925043e+02   6.6825939422e+01    0.3937465    0.1872431 -36.92  0.001999259    2.027    0.507
       257  -9.6851    208.8181     46.7070   5.3725942692e+01   2.6821340418e+01    0.3353239     0.209754 -71.18  0.001438071    2.036    0.509
       258  -9.6817    194.5822     46.4958   5.5673184418e+01   3.0478579578e+01    0.5463224    0.2743233 -87.89  0.001703861    3.892    0.743
       259  -9.1677    132.0505     45.4990   6.7216685308e+01   4.6789632299e+01    0.2267462    0.1479416  51.84 0.0004973351    1.534    0.348
       260 -10.9980     97.5374     41.5132   7.5102898130e+01   5.5379679355e+01    0.6138644    0.4113881  78.99  0.002332786    2.712    0.631
       261 -10.7476     92.7987     41.3753   7.6548068615e+01   5.6383484164e+01    0.3850965    0.3299949  32.78  0.001669557    1.200    0.166
       262 -10.6150    189.1764     40.9446   5.4765571456e+01   3.2647036347e+01    0.6349747    0.2505806 -24.05  0.001118625    2.729    0.634
       263  -9.3662    193.2706     39.1040   5.3600943784e+01   3.1827085329e+01    0.2480395    0.1947333  51.31 0.0005510935    1.328    0.247
       264  -9.7761     86.8405     29.6678   7.3428130093e+01   5.9506233012e+01    0.4612531    0.2085574 -22.32   0.00171934    2.741    0.635
       265 -10.4342     80.7003     39.8637   8.0000744264e+01   5.9004557124e+01    0.5740945    0.4286843  39.90  0.003062766    1.427    0.299
       266 -10.7801     77.4394     34.2267   7.8727069247e+01   6.0585355240e+01    0.4183206    0.2733272  46.44 0.0009455861    1.688    0.408
       267 -10.3744     81.8582     31.7111   7.6039649630e+01   6.0167737227e+01     0.446765     0.277563 -52.71  0.002038176    2.117    0.528
       268 -10.7005     22.8633     37.0309   1.0334395791e+02   6.7407812613e+01    0.3800812    0.2417975  44.65  0.001429725    2.170    0.539
       269 -11.8212    176.7106     35.3657   5.4883033029e+01   3.6671056227e+01    0.9116691    0.6645868  80.16  0.003863529    1.483    0.326
       270 -10.3903    150.4857    237.4850   1.0634446525e+02   7.1627634000e+00    0.1884084    0.1674647  26.84  0.001429341    1.204    0.170
       271 -10.2278    176.7079     29.9012   5.3086273738e+01   3.7370633630e+01    0.4490787    0.2191292  61.22  0.001602148    1.969    0.492
       272  -9.4303    167.6767    237.3382   1.0330000069e+02   4.5650350709e+00    0.1114781   0.07997676  61.20 0.0007050943    1.719    0.418
       273  -9.5680    133.1271     36.8519   6.3686277642e+01   4.7834012354e+01    0.4136429    0.2741027 -70.11  0.001713076    2.234    0.552
       274  -9.7801    206.8666     36.9912   5.1149385916e+01   2.8605228739e+01    0.2398323    0.2149627  78.33  0.000746896    1.144    0.126
       275  -9.2381     94.4484     36.1267   7.3811675085e+01   5.6920617007e+01    0.2621512     0.193528  71.12  0.001020799    1.894    0.472
       276 -10.8699    198.0353    232.9137   9.7441852915e+01   4.8967611095e-01    0.2768429    0.2203307  66.34  0.001842736    1.975    0.494
       277  -8.9093      6.0367     36.0295   1.1124374822e+02   6.8771877466e+01    0.5940307    0.3712218  -4.77  0.002751547    1.964    0.491
       278  -9.4692      6.6404     30.7637   1.0935266158e+02   6.9854090842e+01    0.4944066    0.2263417 -12.95  0.002389346    3.125    0.680
       279  -9.8144     15.0414    233.6429   1.2955206846e+02   2.5381743359e+01    0.1900765    0.1162683  83.44  0.001087641    1.330    0.248
       280 -10.0480    247.5381    231.3094   8.9063237056e+01  -6.4968078327e+00     0.171468   0.09704881 -28.29 0.0007759372    1.929    0.481
       281  -9.5613     23.5720    231.7733   1.2808290847e+02   2.4843700226e+01    0.1618591    0.0878899  51.52 0.0007422654    1.368    0.269
       282 -10.2746    242.3198    231.1604   8.9863236196e+01  -5.7660837914e+00    0.2204616     0.122055  53.36  0.001102496    3.496    0.714
       283  -9.2332    108.3537    230.1705   1.1311869239e+02   1.4540587994e+01    0.1449531    0.1004598 -85.74 0.0004783754    1.715    0.417
       284  -9.8532    234.3046    222.9679   8.9862874245e+01  -3.7838402493e+00    0.1599294    0.1220197  10.16 0.0005109804    1.077    0.071
       285  -9.1943      9.8416    217.8283   1.2978808660e+02   2.8640453333e+01    0.1508723   0.08258272  67.42 0.0006198619    1.317    0.241
       286 -12.1227    105.7123     33.0049   6.9106416807e+01   5.4957249542e+01    0.6677961    0.3907776  13.68  0.001704679    2.713    0.631
       287 -12.3887    113.6736     25.2653   6.3667130810e+01   5.4198797791e+01    0.8139742    0.3889138  49.86   0.00225675    1.997    0.499
       288 -10.2476    165.1857    212.5124   1.0038668800e+02   8.4231329093e+00     0.275128    0.1657393  56.32  0.000945756    1.918    0.479
       289  -9.0891    204.6590    208.3216   9.2530454609e+01   2.5155919981e+00    0.1123062   0.09475454  64.25 0.0006566326    1.722    0.419
       290  -9.6790    152.9456    207.9617   1.0205014510e+02   1.1148902742e+01    0.1919696    0.1403115  65.92 0.0008762594    1.642    0.391
       291  -9.5024     61.0066    206.9877   1.1986964581e+02   2.5065211728e+01    0.1771765    0.1321532  66.05 0.0004211437    1.043    0.042
       292  -9.9541    238.6603    204.6438   8.6097143431e+01  -2.3911646688e+00    0.2333726    0.1363319 -33.35  0.001375843    1.882    0.469
       293 -10.4605      4.5133    204.6147   1.3017871822e+02   3.1554506088e+01    0.2324901    0.1260258 -71.90  0.001495434    1.841    0.457
       294 -10.7396    245.4702    200.8287   8.4317655606e+01  -2.9831130437e+00    0.2144941    0.1423136  29.88 0.0007614262    1.306    0.235
       295  -8.7881    207.4581    201.4726   9.0889484439e+01   2.9606464281e+00    0.1256757    0.1021151  19.38 0.0008083781    1.029    0.028
       296  -9.1678    216.6152     32.2495   4.8628036522e+01   2.6750114426e+01    0.1899254    0.1340128 -15.54 0.0004067709    1.553    0.356
       297 -10.5899    189.2427     28.5065   5.0864486456e+01   3.4229723677e+01    0.5470042    0.3379224 -10.43  0.002241278    1.956    0.489
       298  -9.3692    148.5136     31.9520   5.8607561123e+01   4.4565617833e+01    0.2202377    0.2017199  52.17 0.0005212698    1.078    0.072
       299  -9.2502     36.0122     31.2573   9.4810070939e+01   6.7295352487e+01    0.1812609    0.1450577  67.42  0.001058504    2.021    0.505
       300 -10.4298    230.6174     27.4120   4.5842406092e+01   2.3916770830e+01     0.460094    0.1985586 -32.61   0.00185534    1.998    0.499
       301 -10.2859     98.5135     27.7448   6.8906854045e+01   5.7331051375e+01    0.4860345    0.2307619 -41.40   0.00108763    2.236    0.553
       302  -9.2447     41.1705     28.2837   9.1078444077e+01   6.7253800163e+01    0.3800764    0.1235195 -37.64 0.0009959281    3.008    0.668
       303  -9.5672    221.5130     29.4729   4.7320348110e+01   2.5877656610e+01    0.2465677    0.2165129 -39.98 0.0005997816    1.068    0.064
       304  -8.5290      1.2994    200.2972   1.3057703403e+02   3.2650779081e+01   0.08891974   0.07149327 -71.05 0.0003093053    1.575    0.365
       305  -9.8186    250.5548     26.6607   4.3860402415e+01   1.9398828449e+01    0.2678271    0.1145827 -28.85 0.0005954813    2.052    0.513
       306 -10.7752    214.5978     23.4844   4.6370194511e+01   2.8300325630e+01    0.4875252     0.373686   4.87  0.002534562    1.624    0.384
       307 -10.5248    211.3804     18.7875   4.5366717958e+01   2.9641559378e+01    0.3460843    0.2235611  59.70  0.000258078    1.589    0.371
       308  -8.6079    206.2494     25.6462   4.7901076205e+01   3.0160506454e+01    0.1524739   0.09511399 -52.73 0.0003633064    1.595    0.373
       309  -9.9699    161.5238     23.4729   5.3253587421e+01   4.2187030727e+01    0.2528056    0.2186028 -35.45 1.232209e-05    1.164    0.141
       310 -10.2009    234.3181    196.9920   8.5467192356e+01  -8.1416332883e-01    0.3414295    0.2289501   6.04  0.001342881    1.441    0.306
       311  -8.8398     83.6291    195.8468   1.1433730656e+02   2.4191247360e+01    0.1582167    0.1044695 -86.80 0.0004820376    1.572    0.364
       312  -9.8372     86.1508     23.8059   7.0949617758e+01   6.0518831535e+01    0.2270677    0.1810775  25.25 0.0002337723    1.234    0.190
       313 -10.5304     83.1878     19.2539   6.9743261740e+01   6.1757801892e+01    0.6685042    0.2930173  52.94  0.002789577    2.445    0.591
       314  -8.5193    141.3023    194.6975   1.0240429176e+02   1.5318348682e+01    0.1275458   0.09337692  68.36 0.0003086534    1.591    0.371
       315  -9.4998    223.0435     22.4913   4.5245375953e+01   2.6322425117e+01    0.2399565    0.1861984 -36.85 0.0004800674    1.189    0.159
       316  -8.9354    220.9457     19.2767   4.4565084911e+01   2.7201168493e+01    0.1845524    0.1614472 -71.73 0.0002119752    1.082    0.076
       317 -12.1286      4.7829    184.5145   1.2925054118e+02   3.5433465389e+01    0.5682137    0.3649638  68.00  0.003093243    1.169    0.145
       318  -9.8850    169.8204    191.4082   9.6212844352e+01   1.0909870242e+01    0.3413192    0.1727241  31.49  0.001075507    2.101    0.524
       319 -10.5554     47.0561     19.1597   8.3951785176e+01   6.8069972412e+01    0.3223619    0.2844591  -3.45   0.00139662    1.132    0.116
       320  -9.7695    239.8832    184.6326   8.2266413664e+01  -1.7663928133e-01    0.2086484     0.148022  -6.91 0.0006388721    1.299    0.230
       321 -10.1900    212.9012    181.5794   8.6342053488e+01   4.7738262470e+00    0.2922831    0.1650644  20.03  0.001378078    2.127    0.530
       322 -10.2496     38.8200     21.6719   8.9121222634e+01   6.8741878866e+01    0.3151247    0.1869914 -35.83  0.001256815    1.411    0.291
       323  -9.4829    250.0863    179.5999   7.9644500895e+01  -1.1850424720e+00    0.2609046    0.1421704 -11.98  0.001337091    1.980    0.495
       324  -9.8886    242.1630     22.2858   4.3464547799e+01   2.1802835832e+01    0.2204897    0.1627641  73.34  0.000756766    1.441    0.306
       325 -10.0122     51.8815    173.5133   1.1875803484e+02   3.2943444075e+01    0.3528733    0.1569641 -87.15  0.001600904    2.563    0.610
       326  -9.2407     27.9981    175.9826   1.2408342401e+02   3.5041143333e+01    0.1969579    0.1035458  66.14  0.001132133    1.660    0.397
       327  -9.0465    230.4562    175.4862   8.2090782353e+01   2.5782352544e+00    0.1298917    0.1078557   7.32 7.948982e-05    1.008    0.008
       328  -9.9832     74.1395     19.5445   7.3014225828e+01   6.3495910317e+01    0.2760676     0.206648  26.56 0.0008308167    1.328    0.247
       329  -8.9093     57.3122    174.9961   1.1771787025e+02   3.1965026429e+01    0.1707117    0.1364993  83.54 0.0004741226    1.056    0.053
       330  -9.7289    247.6422    173.9172   7.8929364092e+01  -8.5875339917e-02    0.4391656    0.1391122  31.81   0.00148817    4.431    0.774
       331  -9.6669     39.4956    173.4946   1.2144618604e+02   3.4364176218e+01    0.2040597     0.160115 -89.16 0.0009068844    1.114    0.103
       332 -10.4849     35.6490    170.6245   1.2203563207e+02   3.5393036335e+01    0.3634838    0.1840446  85.60  0.001937637    1.882    0.469
       333  -8.4802    170.6595    172.2968   9.2666841567e+01   1.3960232986e+01    0.1341807    0.1068579  73.85 0.0007032539    1.661    0.398
       334  -9.0716      1.7291     20.4472   1.0854147500e+02   7.2238278889e+01    0.1471329   0.09267739 -20.54 0.0009370092    1.640    0.390
       335 -11.6961      9.6595    167.0388   1.2733842064e+02   3.8628939459e+01    0.5004917    0.3147415 -84.53  0.002461314    1.275    0.216
       336 -10.9385     13.9753    158.9323   1.2588803796e+02   4.0006426254e+01    0.3721178    0.2075344 -78.91  0.001563727    1.460    0.315
       337  -9.0858    197.8392    167.9005   8.6468708062e+01   9.5630858528e+00    0.1699142    0.1647041 -65.61 0.0008449726    1.298    0.230
       338 -10.2987     18.7740    165.0107   1.2526239209e+02   3.8264005380e+01    0.2340005    0.1982397  33.52  0.001624062    1.533    0.348
       339  -9.5187    205.2399     17.3976   4.5598526762e+01   3.1355758714e+01    0.1973515    0.1297347 -89.59 0.0007277366    1.610    0.379
       340  -9.9689    188.8798    164.2885   8.7472795173e+01   1.1853626251e+01     0.260309    0.1960178 -19.54 0.0008845953    1.434    0.302
       341  -9.6552    220.7681     12.4641   4.2715288939e+01   2.7985531531e+01    0.2544336     0.130806  84.27  0.001124167    2.102    0.524
       342  -9.2864     40.6628    164.3185   1.2036941319e+02   3.6224821250e+01    0.1823901     0.103366  85.08 0.0003977199    1.646    0.392
       343  -9.1564     94.4705     12.4611   6.2985354182e+01   6.0200285639e+01    0.1389289    0.1244604  13.56 0.0001264178    1.001    0.001
       344  -8.9710     40.3159    161.3181   1.2016409418e+02   3.6924593035e+01    0.2234456    0.1058526  58.14  0.001122748    2.032    0.508
       345 -10.3075     28.1604    162.1176   1.2297942557e+02   3.8005498611e+01     0.413504     0.141948 -72.77  0.001925004    2.437    0.590
       346  -9.7678    204.9801    162.9736   8.4127391030e+01   8.9935258993e+00    0.2113878    0.1822464  14.99  0.000560848    1.053    0.050
       347  -9.5572     79.2821    160.3989   1.1098483182e+02   3.2201900128e+01    0.2365948    0.1480564  88.15  0.001187501    1.787    0.440
       348  -9.5682    215.6497    157.9150   8.1118594978e+01   7.7606338928e+00    0.2230368    0.1595417  -9.79  0.001180403    1.464    0.317
       349  -9.1029    223.9936    156.9634   7.9437412169e+01   6.3452658398e+00    0.1669232     0.143976  -2.24 0.0005647556    1.031    0.030
       350 -10.4941    104.8067    154.3733   1.0399684210e+02   2.9542858703e+01    0.4174082    0.3475972 -74.31  0.002391308    1.185    0.156
       351 -10.0538      8.9716    156.0546   1.2680076244e+02   4.1050951616e+01    0.2851299    0.1247062 -70.52  0.001568196    1.910    0.476
       352  -8.7156     60.2673    156.3505   1.1496501665e+02   3.5688560084e+01    0.1219243   0.09238128 -48.09 0.0002564984    1.621    0.383
       353 -11.2222     10.9002    127.3428   1.2414501684e+02   4.7368870703e+01    0.4813983    0.2097516 -62.81  0.001116359    1.944    0.486
       354 -11.0721     15.3122    147.8286   1.2476996636e+02   4.2348607227e+01    0.5003283    0.2451749  53.79  0.001623709    1.896    0.473
       355 -12.0808     13.1018    138.8208   1.2457614516e+02   4.4564662760e+01     1.990283    0.6269356  85.57  0.006877843    4.490    0.777
       356 -11.1499     21.2995    150.7021   1.2360298988e+02   4.1183977538e+01    0.2132233    0.1608867  84.45 0.0002001749    1.028    0.027
       357 -11.7229     24.0338    148.5100   1.2277293293e+02   4.1428963494e+01    0.2738664    0.2140437 -75.79 0.0005806211    1.199    0.166
       358 -10.7761     31.5663    153.0997   1.2141249253e+02   3.9672435899e+01    0.4223662     0.263928 -88.78  0.002524378    1.350    0.259
       359  -9.2775     74.9831    153.4916   1.1104793999e+02   3.4362168369e+01      0.23772    0.1658282 -84.58 0.0008870156    1.399    0.285
       360  -9.7501     70.7626    151.5985   1.1180967769e+02   3.5379874463e+01    0.3061228    0.1568767  51.95  0.001041898    1.937    0.484
       361 -11.8318      3.6999    147.4256   1.2742578893e+02   4.3354603642e+01    0.6688414     0.361082 -88.51  0.003491177    1.439    0.305
       362 -11.1143      5.3582    141.9293   1.2667100573e+02   4.4454829862e+01    0.3026077    0.2359626  36.24  0.001694827    1.555    0.357
       363 -12.5381      3.9768    137.1377   1.2666061841e+02   4.5631469533e+01     0.301497    0.1914283 -72.28 0.0004073579    1.334    0.250
       364 -11.2696     46.9552    146.6621   1.1703020132e+02   3.9501860601e+01    0.5857102    0.2730981 -69.03  0.002876684    1.867    0.464
