#   1 NUMBER                 Running object number                                     
#   2 MAG_AUTO               Kron-like elliptical aperture magnitude                    [mag]
#   3 X_IMAGE                Object position along x                                    [pixel]
#   4 Y_IMAGE                Object position along y                                    [pixel]
#   5 X_WORLD                Barycenter position along world x axis                     [deg]
#   6 Y_WORLD                Barycenter position along world y axis                     [deg]
#   7 A_WORLD                Profile RMS along major axis (world units)                 [deg]
#   8 B_WORLD                Profile RMS along minor axis (world units)                 [deg]
#   9 THETA_WORLD            Position angle (CCW/world-x)                               [deg]
#  10 FWHM_WORLD             FWHM assuming a gaussian core                              [deg]
#  11 ELONGATION             A_IMAGE/B_IMAGE                                           
#  12 ELLIPTICITY            1 - B_IMAGE/A_IMAGE                                       
         1 -15.3131     29.3751     80.4052   5.1808324907e+01   5.9397978826e+01     2.283814     1.030035 -54.17  0.007176011    2.021    0.505
         2 -13.9418     10.4688     28.2795   4.6899330226e+01   7.3633193512e+01    0.7764692    0.6574932  30.95  0.003424297    1.268    0.212
         3 -12.1550     19.4979     20.1607   3.5663298538e+01   7.4146535630e+01    0.4354467    0.3784056  88.30  0.002658839    1.676    0.403
         4 -12.4545    196.3322     11.0844   3.4743680245e+02   3.5733925481e+01    0.3868341    0.1923645 -72.94  0.002107691    1.884    0.469
         5 -13.9936     23.2463      5.6566   2.3431227976e+01   7.5879096392e+01     1.036521    0.6087889  16.84  0.005075834    2.253    0.556
         6 -12.2638     36.3921      8.1683   1.6906759198e+01   7.3125807090e+01    0.4778268     0.350535 -35.70  0.002318924    1.515    0.340
         7 -12.2765    121.8502      5.2747   3.5227812069e+02   5.3289002377e+01    0.2632406    0.1206577 -42.92  0.001238422    2.091    0.522
         8 -12.2017    120.3631    230.8688   4.7451694667e+01   1.0540688466e+01     0.270984    0.1800632  53.06  0.001489423    1.959    0.489
         9 -11.9629    121.7920    248.6384   4.9200936487e+01   7.3140937286e+00    0.3212748    0.2616445  23.85  0.001506699    1.105    0.095
        10 -15.4222     55.0470    236.0684   6.3203691436e+01   1.6943945564e+01      6.29135     2.025986  43.56   0.02648122    2.589    0.614
        11 -14.7714     70.9395    200.0967   5.5921795903e+01   2.2904291545e+01     1.091941    0.9286345  76.93  0.004481016    1.267    0.211
        12 -14.9781     22.3185    240.9217   7.1170016203e+01   1.9133006630e+01     1.113177     0.999711  11.48  0.005416567    1.289    0.224
        13 -16.2668     85.6268    233.2350   5.5701157150e+01   1.4157343285e+01     1.462076     1.121353  70.82  0.005411597    1.600    0.375
        14 -15.7938     70.2293    219.7630   5.8128418661e+01   1.8651690141e+01     1.668704    0.9509397  62.97  0.007302988    2.179    0.541
        15 -15.4213      9.7936    228.3587   7.3597842086e+01   2.2806492484e+01    0.7675488    0.4995467  89.46  0.002449302    1.586    0.370
        16 -16.4202      2.9725    215.0775   7.4790481242e+01   2.6247864344e+01     2.075561    0.4792967 -85.15  0.007159119    4.582    0.782
        17 -14.8422     98.7108    209.2736   4.9863385319e+01   1.7406532935e+01     1.807325    0.9310244  44.48  0.007943504    1.975    0.494
        18 -14.6209    101.7409    197.3672   4.7536745158e+01   1.9542657588e+01     1.074698    0.8818812  47.06  0.003544746    1.250    0.200
        19 -14.0297     89.6561    185.0582   4.8983373102e+01   2.3955280037e+01     1.335719    0.8616025  55.66  0.005260211    1.779    0.438
        20 -10.6767     22.7748    217.5456   6.9946704697e+01   2.4038241525e+01    0.2137533    0.1644404  82.81 0.0006996474    1.311    0.237
        21 -13.0747    215.1834    201.9759   2.4648141109e+01   4.2075847249e+00    0.6790767    0.5353146 -43.91  0.004454834    1.566    0.361
        22 -12.1992    214.6858    194.8841   2.3580740840e+01   5.3068073430e+00    0.4293204    0.2822871 -24.23  0.002781843    1.257    0.205
        23 -11.4421     32.9341    204.5645   6.6530483284e+01   2.6049906813e+01    0.3760062    0.2985251  69.35  0.001600957    1.206    0.170
        24 -13.3977    173.2579    192.9358   3.0655925108e+01   1.0669398370e+01    0.6745678    0.5255389 -29.24  0.002550279    1.166    0.143
        25 -13.5000    169.7162    183.3139   2.9719128667e+01   1.2851879038e+01     1.030425    0.7633359 -36.00  0.004659172    1.252    0.201
        26 -12.3483     64.5433    166.9864   5.3673885919e+01   3.1773135073e+01     0.625839    0.5663436 -46.94  0.002385761    1.180    0.153
        27 -12.8927     59.8510    185.6250   5.7367895689e+01   2.7682064973e+01     0.672718    0.3912997  34.84  0.002597983    1.544    0.352
        28 -13.6271     62.8607    179.6113   5.5799130600e+01   2.8798486705e+01    0.9064115    0.6950914  60.89   0.00338897    1.331    0.249
        29 -14.2857     54.3496    173.1474   5.7546947705e+01   3.1468253137e+01     1.257384    0.6730676 -62.67  0.003996935    1.873    0.466
        30 -13.2874     45.5750    170.3909   5.9907026148e+01   3.3196378451e+01    0.6711927     0.568523 -88.14  0.002170466    1.179    0.152
        31 -14.9872    120.3184    172.6922   3.8980739883e+01   2.2279561482e+01     1.763364     1.204739  48.02  0.004712682    1.602    0.376
        32 -13.8303     93.0568    167.2634   4.5337402288e+01   2.7690621738e+01     1.480194    0.7626593 -42.78  0.005928539    2.181    0.541
        33 -13.4137    102.0255    170.3579   4.3367554727e+01   2.5605487417e+01    0.8767067    0.6051576 -54.63  0.003311401    1.486    0.327
        34 -12.9121      1.9511    182.6613   7.3847688813e+01   3.4009758013e+01    0.7688316    0.3830002 -63.34  0.003172559    2.088    0.521
        35 -14.9209     11.2996    176.1146   7.0806077755e+01   3.4971662062e+01      1.41821    0.7210563  77.23  0.004525077    1.975    0.494
        36 -14.7959     19.1884    176.9214   6.8508823410e+01   3.4116615345e+01     1.958534    0.8163413  84.74  0.002784793    2.712    0.631
        37 -14.4738      2.6368    164.2252   7.2787662356e+01   3.8688168607e+01     2.029055    0.3473256 -64.61  0.006059588    4.586    0.782
        38 -14.7596      1.8857    149.3403   7.2219660442e+01   4.2699019557e+01     2.331178     0.330392 -78.44  0.005974479    5.675    0.824
        39 -14.3215      4.8182    139.4864   7.0579351943e+01   4.5195256622e+01    0.9576827     0.765958  41.74  0.002008529    1.233    0.189
        40 -11.2801    208.2933    171.9989   2.0713938452e+01   9.6125157159e+00    0.1812404    0.1361091 -29.20   0.00117838    1.096    0.087
        41 -11.3190     79.7994    165.2511   4.8843750892e+01   3.0125781492e+01    0.3842743    0.3520482  85.64  0.001656985    1.135    0.119
        42 -12.8465     79.0278    158.0530   4.7931830455e+01   3.2052122448e+01    0.8512308    0.6008618  47.06  0.002678581    1.414    0.293
        43 -12.4961     68.0672    157.5307   5.1223517101e+01   3.3742092374e+01    0.5416373    0.4911742 -40.45  0.001789447    1.180    0.153
        44 -12.4039     72.9740    151.0449   4.8649629240e+01   3.4734697156e+01    0.6864676    0.4365387  27.09  0.002536147    1.597    0.374
        45 -12.4986     47.6165    150.0115   5.6772457037e+01   3.8370255932e+01    0.5457271    0.4297982  41.65  0.001545916    1.224    0.183
        46 -13.0502     40.1311    142.6523   5.8354215254e+01   4.1236224185e+01    0.9466066    0.3930032  32.98  0.003033155    2.215    0.548
        47 -15.0486     28.9842    123.7083   5.9903812932e+01   4.7650719203e+01     1.837405     1.106743 -86.12  0.004708818    1.743    0.426
        48 -10.7112     55.6672    137.1636   5.2090307901e+01   4.0838738301e+01    0.3148451    0.2559493  60.20  0.001391222    1.254    0.203
        49 -11.8591     58.7837    147.9073   5.2740866122e+01   3.7532958716e+01    0.4992565    0.3572238  77.62  0.001750508    1.587    0.370
        50 -11.7419     57.4029    143.2064   5.2470592676e+01   3.8976609018e+01     0.395749    0.3673667  88.91  0.001447826    1.058    0.055
        51 -15.2951    109.8731    131.0153   3.3585634910e+01   3.3655036187e+01     2.187968     1.251736 -68.14  0.007996851    2.364    0.577
        52 -11.5379     83.1839    130.7780   4.1598331055e+01   3.8395939406e+01     0.371444    0.2715507  68.98   0.00167112    1.653    0.395
        53 -11.8776    129.0571    131.1691   2.8526551218e+01   3.0074401076e+01    0.3861811    0.2215301 -45.11  0.001670848    1.694    0.410
        54 -12.5612     84.2785    111.4463   3.6881880504e+01   4.3108754214e+01     0.935505    0.4621103 -52.78  0.003602726    1.985    0.496
        55 -12.4464     80.4766    120.8584   4.0355463433e+01   4.1393761578e+01    0.7083953    0.5724268  58.52  0.002382064    1.310    0.236
        56 -12.9367    226.0019    116.4730   7.6240850098e+00   1.5943229765e+01     0.645452    0.4572485 -30.66  0.003019812    1.253    0.202
        57 -13.5099    234.2703    107.5532   4.8741634527e+00   1.6053145939e+01    0.7401462    0.4259216 -23.34  0.004050752    2.055    0.513
        58 -13.9789    245.5520    131.1523   8.0180272647e+00   1.1030146293e+01     0.843574    0.4284359 -51.06  0.004676253    2.113    0.527
        59 -12.5359     88.1162    133.3116   4.0554170615e+01   3.6925542827e+01       0.7123    0.4977138  53.54   0.00260453    1.546    0.353
        60 -11.6800     50.9012    110.3975   4.8911677829e+01   4.8744540424e+01    0.4186602    0.3153298 -50.24   0.00122026    1.322    0.244
        61 -11.8380    115.0990    103.9050   2.5556110323e+01   3.8888048848e+01    0.6008106    0.4010895  32.58   0.00266219    1.747    0.428
        62 -11.6309    113.1186    100.1038   2.5087727130e+01   4.0136741692e+01    0.4492182    0.3622224  28.31  0.001947293    1.430    0.301
        63 -12.5088     86.7524    123.4296   3.8862965758e+01   3.9659089535e+01    0.6438255    0.3772463  39.53  0.002304113    1.691    0.409
        64 -12.6306    102.6426    247.2946   5.3220560382e+01   9.6561575441e+00    0.4214949    0.2696173  12.37  0.002468628    1.485    0.327
        65 -12.8126     10.1924     75.9664   6.0883904572e+01   6.2263427649e+01     1.338765    0.2652065 -60.22   0.00428509    3.411    0.707
        66 -13.5807      8.6994     52.0980   5.6466582661e+01   6.8402115852e+01    0.6469067     0.520714 -59.92  0.002297924    1.192    0.161
        67 -13.7425      2.0694     76.3153   6.5338631369e+01   6.2641326353e+01     1.163785    0.3620717 -77.73    0.0040165    3.170    0.685
        68 -14.6219      4.6587     63.3111   6.1616458886e+01   6.5877703806e+01     1.133034    0.7151392 -63.16  0.004178507    1.434    0.303
        69 -13.6454    239.8508     75.0766   3.5789018244e+02   1.9818868583e+01     0.449805    0.3921449  64.33  0.002816425    1.489    0.329
        70 -11.8185     67.2076     81.6185   3.5012998675e+01   5.3500979335e+01    0.3097638    0.2422732  -7.12  0.001452151    1.665    0.400
        71 -12.7416    234.8013     64.5127   3.5621805246e+02   2.2059711591e+01    0.5252805    0.2475509 -39.62  0.002553857    1.611    0.379
        72 -13.0597    243.5406     63.3271   3.5525455038e+02   2.0797869190e+01    0.6411841    0.3547485 -73.17  0.003739306    2.253    0.556
        73 -13.0074    248.9946     78.1710   3.5768346102e+02   1.7992681040e+01    0.5536675    0.2420638 -39.24  0.003018589    1.672    0.402
        74 -11.7828     18.7151     72.1120   5.5437629534e+01   6.2601911059e+01    0.4697072    0.2636003 -74.34  0.001783045    1.881    0.468
        75 -12.9575      2.9099     33.8026   5.5141501659e+01   7.3060954565e+01    0.5737848    0.3365959 -75.23  0.002892079    2.000    0.500
        76 -12.5010     17.7594     34.6021   4.4138996670e+01   7.1542591774e+01    0.6584626    0.2954667 -47.42  0.002955135    2.106    0.525
        77 -13.9513    175.5230    239.0454   3.7167128327e+01   2.9986643222e+00    0.8634127    0.8365549 -69.33  0.006004558    1.697    0.411
        78 -13.8816    134.7153    232.2379   4.4481576010e+01   8.6123698523e+00     1.015964    0.6466521 -19.91  0.004006488    1.761    0.432
        79 -13.4867    146.3243    239.3578   4.2952200825e+01   6.1075252576e+00    0.6499525    0.5427129 -56.00  0.003448494    1.608    0.378
        80 -14.5329    155.2146    233.8820   4.0427359188e+01   5.9906048742e+00    0.9436608    0.7796833 -19.68  0.003873904    1.178    0.151
        81 -11.9189    190.0819    230.7728   3.3334953528e+01   2.6856777883e+00    0.5047584    0.3369836 -54.57  0.003091082    2.320    0.569
