#   1 NUMBER                 Running object number                                     
#   2 MAG_AUTO               Kron-like elliptical aperture magnitude                    [mag]
#   3 X_IMAGE                Object position along x                                    [pixel]
#   4 Y_IMAGE                Object position along y                                    [pixel]
#   5 X_WORLD                Barycenter position along world x axis                     [deg]
#   6 Y_WORLD                Barycenter position along world y axis                     [deg]
#   7 A_WORLD                Profile RMS along major axis (world units)                 [deg]
#   8 B_WORLD                Profile RMS along minor axis (world units)                 [deg]
#   9 THETA_WORLD            Position angle (CCW/world-x)                               [deg]
#  10 FWHM_WORLD             FWHM assuming a gaussian core                              [deg]
#  11 ELONGATION             A_IMAGE/B_IMAGE                                           
#  12 ELLIPTICITY            1 - B_IMAGE/A_IMAGE                                       
         1 -14.9346    135.8967      5.0542   7.1322353976e+01   4.9960679047e+01     9.145226      1.20832  62.58   0.02473464    5.654    0.823
         2 -13.5467    225.4519     18.1434   6.2649304084e+01   2.7061371536e+01    0.9324483     0.423719 -70.46  0.003782418    2.901    0.655
         3 -13.8319    234.3626     55.7222   7.0157685729e+01   1.9903478829e+01     1.991709    0.9755897 -80.11  0.001521047    3.858    0.741
         4 -13.8571    248.5536      5.4965   5.7900836486e+01   2.3296280515e+01     1.255042    0.5148426 -38.69  0.006247318    2.282    0.562
         5 -14.1026    232.2842      4.1694   5.8973125848e+01   2.7073253544e+01     1.153509     0.717265  83.32  0.003816287    1.387    0.279
         6 -14.6947    205.7273     38.2841   6.9750496472e+01   2.9254337190e+01     1.633422     1.205165 -35.77   0.00886037    1.457    0.314
         7 -14.3351    237.4601     27.7881   6.3545640258e+01   2.3086138039e+01     1.346052    0.5557249 -79.41  0.004163266    5.095    0.804
         8 -14.6681    166.0888     53.2433   8.0263415480e+01   3.6998895598e+01      3.53996     1.749305  82.42  0.003748701    5.104    0.804
         9 -14.7863    215.8547     28.9322   6.6190168995e+01   2.8014458062e+01     2.328588     1.121532 -66.52  0.008348021    2.714    0.631
        10 -12.7247    131.4937     25.7596   7.8886233042e+01   4.8919420580e+01    0.4543691     0.328909 -57.63  0.002411207    1.783    0.439
        11 -13.7892    178.8737     70.2905   8.2587779071e+01   3.1110351337e+01     6.800026    0.6421626 -42.85  0.002610217    9.928    0.899
        12 -15.9886    242.0643     89.2972   7.6821117123e+01   1.2764638704e+01     9.444751     1.665787 -36.51   0.02353164    5.747    0.826
        13 -10.7261    215.7000      2.8577   6.0197017029e+01   3.1050512794e+01    0.3584898    0.2474512 -39.37   0.00214135    1.553    0.356
        14 -10.5679    209.7979      1.4943   6.0461137658e+01   3.2581517656e+01    0.3036918    0.1288965  73.22  0.001220077    2.027    0.507
        15  -9.7509    202.2844    248.1043   1.1669003808e+02  -6.6449871085e+00    0.1605923    0.1415245  23.50 0.0002826702    1.095    0.087
        16 -14.4456     17.9310    220.3190   1.4797985600e+02   2.6846537850e+01    0.8127654    0.5829656  80.68  0.004178108    1.009    0.009
        17  -9.6887     91.2446    217.4164   1.3404249148e+02   1.7823973339e+01    0.1796629    0.1020605  54.53 0.0004287567    1.566    0.361
        18 -15.1038     47.4240    192.9486   1.4013168620e+02   2.9242729538e+01     1.635131     1.299141 -35.47  0.001723631    1.958    0.489
        19 -14.6957     57.5329    182.5920   1.3683485464e+02   3.0277328842e+01     1.298592     1.194472 -46.51  0.008463598    1.435    0.303
        20  -8.9101    205.2640    223.6632   1.1210821582e+02  -3.5369349493e+00    0.1181594     0.103883  80.92 0.0003732443    1.587    0.370
        21 -12.4607     67.8076    144.2643   1.2883746467e+02   3.7837536913e+01    0.6570129      0.40118  66.50  0.002751469    2.060    0.514
        22 -10.1165    191.6755    192.7048   1.0913261227e+02   4.2833280459e+00    0.3964411    0.2185474 -66.42  0.001324927    4.140    0.758
        23 -12.2665    210.5874    133.9840   9.2637668174e+01   1.1617163826e+01    0.6990116    0.2948709  50.72   0.00239044    2.471    0.595
        24 -11.3392    183.9203    135.0768   9.8322379975e+01   1.7419732649e+01    0.3915585    0.2208242  58.93  0.001455239    2.071    0.517
        25 -11.5143    213.4089    128.5745   9.0829911333e+01   1.2032297436e+01    0.2906546    0.2745204 -83.00 0.0007292611    1.116    0.104
        26 -11.3672    208.9876    129.2959   9.1843060129e+01   1.2883297738e+01    0.3212101    0.1906405  42.99  0.001366115    1.785    0.440
        27 -10.3219    160.7586    128.4308   1.0188294811e+02   2.4111669864e+01    0.3121054     0.224379 -47.46  0.001408309    1.391    0.281
        28 -12.6384    219.1469    122.9889   8.8450296120e+01   1.1815306719e+01    0.6025532    0.2812794 -33.70  0.002268235    2.285    0.562
        29 -12.8367    214.8863    117.0298   8.7811398386e+01   1.3900072925e+01    0.5463616    0.4552627  82.43  0.002554362    1.368    0.269
        30 -12.9366    220.8874    112.6723   8.5693617619e+01   1.3354201667e+01    0.6456394    0.3799796 -28.43  0.002286825    1.951    0.488
        31 -13.9074    123.6747     36.5311   8.4227242600e+01   4.9375427413e+01     2.302841    0.5224479  54.27  0.005999202    3.993    0.750
        32 -11.4597     15.0579    194.3033   1.4660425705e+02   3.2491766347e+01    0.1626052    0.1214747  77.84 0.0006257993    1.091    0.084
        33  -9.8717    135.1570    120.6045   1.0615015261e+02   3.1489754111e+01    0.3005562    0.1101276 -48.49 0.0009672046    2.742    0.635
        34 -10.4086    167.5444    113.1279   9.6479623845e+01   2.5776535176e+01    0.3604558     0.261681 -74.49  0.001412932    1.810    0.447
        35  -9.8804    135.0000    112.5311   1.0413407717e+02   3.3294064870e+01    0.4783834    0.1023065 -45.90  0.001191966    4.642    0.785
        36 -10.9376    134.6860    105.7627   1.0243237051e+02   3.4814989110e+01      0.57218    0.3587374 -33.15  0.002409437    1.788    0.441
        37 -12.7456    204.6256    110.6385   8.8167839604e+01   1.7488125061e+01    0.6005862    0.4039589  33.96  0.001954478    1.826    0.452
        38 -12.4154    228.4210    109.3885   8.3622714244e+01   1.2264528859e+01    0.5244586    0.3186499  41.43  0.001632465    1.914    0.478
        39 -13.6063    228.5218    105.0422   8.2582183776e+01   1.3027462751e+01    0.8135792    0.6766134 -73.22  0.002801899    1.286    0.222
        40 -10.0894    141.0418    100.9853   9.9539559964e+01   3.4410675515e+01    0.2461773    0.1934851   5.24 0.0008806674    1.682    0.405
        41 -10.9083    215.4360     99.7467   8.3528605723e+01   1.6988290571e+01    0.3003068    0.1336545 -43.63 0.0008219258    2.139    0.532
        42 -10.3776    124.2926     99.9976   1.0358163774e+02   3.8251568563e+01    0.2861761    0.1986259  28.73  0.001216542    1.691    0.409
        43 -10.1518    156.0493    101.2806   9.5994835126e+01   3.0903261379e+01    0.2245315    0.2072525  58.90 0.0007573052    1.081    0.075
        44 -11.3295    146.7157     95.1213   9.6533085133e+01   3.4312112396e+01    0.3573458     0.298796   7.10 0.0007630195    1.453    0.312
        45 -12.2071    197.0473    101.2034   8.7253314127e+01   2.1083865195e+01    0.3816021    0.2303264 -36.73  0.001084913    1.680    0.405
        46 -10.5928    133.3560     93.0156   9.9276536046e+01   3.7745018688e+01    0.2824001    0.2468434 -80.93 0.0006679598    1.318    0.241
        47 -10.2559    205.8567     92.5495   8.3433272949e+01   2.0569476853e+01    0.3072374    0.1996782 -86.84  0.001235256    2.273    0.560
        48 -12.6928    154.3481     87.3579   9.2556076840e+01   3.4041697034e+01     0.683646    0.5390945  -0.67  0.002062259    1.657    0.396
        49 -12.3047    157.5128     84.5264   9.1035327421e+01   3.3820904916e+01    0.3971538    0.3800949   7.19  0.001046743    1.116    0.104
        50 -10.8804    190.1586     85.6878   8.4563691121e+01   2.5630933259e+01    0.2476209    0.1915234  82.89  0.001011612    1.455    0.313
        51  -9.4300    218.3232     85.3196   7.9515886690e+01   1.8876777372e+01    0.1451316    0.1177756  17.62 0.0007045087    1.673    0.402
        52 -11.6698    140.0952     83.7197   9.4924387222e+01   3.8054354544e+01    0.3447692    0.3065866 -52.76 0.0006284261    1.166    0.142
        53  -9.9576    219.7119     77.8341   7.7468298070e+01   1.9825761194e+01    0.3184128    0.1678039  59.74  0.001359175    1.922    0.480
        54 -12.9107    153.6789     73.9153   8.8867654660e+01   3.6665163737e+01     0.402452    0.3424648 -42.70 0.0008233536    1.205    0.170
        55  -9.9181    130.7170     66.0280   9.1976012128e+01   4.3367811108e+01    0.2110921    0.1884609 -27.26 0.0009612624    1.144    0.126
        56 -12.5032    185.9608     56.4585   7.7523700270e+01   3.1559505877e+01    0.3563309    0.2683152  41.84  0.001217959    1.461    0.316
        57 -12.6231    191.0769     52.0222   7.5476562304e+01   3.0948132210e+01    0.4625045    0.3221983  34.01  0.001497723    1.839    0.456
        58 -10.9447    218.9725    181.5110   1.0145317446e+02   9.7951651066e-01    0.2164866    0.1345352  43.19  0.001033031    1.594    0.373
        59 -13.1515    170.6378     71.7890   8.4630287369e+01   3.2898398668e+01    0.7785252    0.6325293   4.13  0.002108846    1.582    0.368
        60 -10.7404    239.9933     46.3704   6.7362410510e+01   1.9981378803e+01    0.2775203    0.2004936 -83.06 0.0005765837    1.337    0.252
        61 -11.0279    233.4321     42.0505   6.7153498578e+01   2.2101809057e+01    0.5448015    0.3508429  89.79   0.00280754    1.595    0.373
        62  -9.7217    189.8977     36.1257   7.1456271747e+01   3.3457203096e+01    0.2046875    0.1727965 -77.11 0.0006414014    1.159    0.137
        63 -10.0628    155.2380     33.6305   7.6576214275e+01   4.2358594435e+01    0.2147529    0.1637259  78.96 0.0008198868    1.386    0.278
        64  -9.4438    161.1023     28.1767   7.3899641679e+01   4.1587655272e+01    0.1834155    0.1517474 -84.95 0.0004155369    1.291    0.226
        65 -10.2572    144.4877     28.4857   7.7079152464e+01   4.5568748495e+01    0.1376978     0.123718  53.34  0.000187174    1.002    0.002
        66 -11.0177    194.2842     26.2739   6.8273456701e+01   3.3608555921e+01     0.307815    0.2154516 -68.69 0.0008498201    1.499    0.333
        67 -12.6323    226.6185    174.5842   9.8561709895e+01   7.2893325189e-01    0.8003656    0.3835917 -23.55  0.002877378    3.175    0.685
        68 -11.9772    229.4332    166.5563   9.6341675361e+01   1.6025200406e+00    0.3764482    0.2702389 -42.09  0.001114384    1.388    0.279
        69 -11.9887    198.6342    119.5924   9.1530636817e+01   1.7151515689e+01    0.6979039    0.3361032  65.25  0.002262997    3.246    0.692
        70 -10.6263      5.0645    170.2967   1.4660279269e+02   3.8546812892e+01    0.1554027    0.1190776  86.63 0.0003584776    1.072    0.068
        71 -12.2765    124.2760     25.0144   8.0228968230e+01   5.0637498234e+01    0.3666496    0.2522008 -77.17  0.001697844    2.371    0.578
        72  -9.0245    214.3041    160.2720   9.7864331293e+01   5.7854595258e+00    0.1444251    0.1123621   7.53 0.0002526272    1.537    0.349
        73 -11.6869    246.3680    163.8867   9.2727017090e+01  -1.1455756507e+00    0.4867404    0.2887826  -0.80  0.001906685    3.083    0.676
