#   1 NUMBER                 Running object number                                     
#   2 MAG_AUTO               Kron-like elliptical aperture magnitude                    [mag]
#   3 X_IMAGE                Object position along x                                    [pixel]
#   4 Y_IMAGE                Object position along y                                    [pixel]
#   5 X_WORLD                Barycenter position along world x axis                     [deg]
#   6 Y_WORLD                Barycenter position along world y axis                     [deg]
#   7 A_WORLD                Profile RMS along major axis (world units)                 [deg]
#   8 B_WORLD                Profile RMS along minor axis (world units)                 [deg]
#   9 THETA_WORLD            Position angle (CCW/world-x)                               [deg]
#  10 FWHM_WORLD             FWHM assuming a gaussian core                              [deg]
#  11 ELONGATION             A_IMAGE/B_IMAGE                                           
#  12 ELLIPTICITY            1 - B_IMAGE/A_IMAGE                                       
         1 -13.4099    175.3082     59.1455   4.8524160232e+01   3.3957593894e+01     2.251466     1.300196  29.41  0.006634252    3.080    0.675
         2 -13.0833    191.5755     45.1441   4.2415214707e+01   3.2161316984e+01    0.8810163    0.6666808 -49.72  0.002608815    1.269    0.212
         3 -13.0597    237.9247      5.1179   2.9013547875e+01   2.6895904830e+01      2.18661     0.537342  77.07  0.008560739    4.149    0.759
         4 -13.5061    215.2155     17.8756   3.3387442577e+01   3.0233163547e+01    0.8647751    0.5364379 -58.28  0.003587923    1.437    0.304
         5 -12.9959    219.5894     13.9564   3.2167001797e+01   2.9730452733e+01    0.8701082    0.4247605 -60.15  0.003783105    1.931    0.482
         6 -10.7602    189.7293     15.0884   3.5226855530e+01   3.6235753937e+01    0.3246069    0.1890804 -52.11  0.001768022    1.663    0.399
         7 -10.3797     72.5021      2.0000   5.2123301317e+01   6.4187416483e+01     0.270769   0.05983728  55.89 0.0009338603    3.928    0.745
         8  -9.3637    167.0345    223.9382   8.7438196929e+01   3.4020749055e+00    0.2021737    0.1807705  13.33  0.000530531    1.033    0.032
         9 -13.4607    245.8801    238.9923   7.4615937145e+01  -9.9438647357e+00      1.84436    0.7060338 -32.22  0.009215395    2.405    0.584
        10  -9.6625     64.5953    205.0348   1.0829432349e+02   2.3047264412e+01    0.2037411    0.1323869  86.33  0.001037829    1.659    0.397
        11 -11.2030     61.7354    199.2007   1.0832020115e+02   2.4773517691e+01    0.2788952    0.1991151 -61.97  0.001008252    1.415    0.293
        12 -11.0802     38.9346    199.6863   1.1376634732e+02   2.7389434646e+01    0.2110315    0.1554994  72.49 0.0008225964    1.223    0.183
        13 -10.4495    192.6743    194.5549   7.6811565862e+01   4.6301176653e+00    0.7873945    0.4178884 -63.39  0.002465476    5.223    0.809
        14 -10.1578     75.4192    248.7128   1.1030679540e+02   1.2367904406e+01    0.2750665      0.10731 -61.48  0.001287751    2.781    0.640
        15  -9.7072     83.3212    194.7102   1.0247544858e+02   2.2862175425e+01    0.2790234    0.1845254  26.86   0.00108507    1.649    0.393
        16  -9.9337     66.0621    194.4019   1.0670411620e+02   2.5340257614e+01     0.192747    0.1494318  45.47 0.0007152309    1.234    0.189
        17  -9.7151    162.7913    192.4089   8.2887693505e+01   1.0167701235e+01    0.2049492    0.1320402  25.00  0.000698562    1.633    0.388
        18 -11.1110     50.1367    250.5899   1.1552756407e+02   1.5194248438e+01    0.1362959   0.09847427  42.60 0.0008865687    1.244    0.196
        19 -11.6573     57.8365    189.3279   1.0813233557e+02   2.7616723580e+01    0.3977718    0.2739199 -35.99  0.001492713    1.938    0.484
        20 -12.1305    144.1291    183.9206   8.5647359258e+01   1.5278979859e+01     0.611801     0.450345 -10.12   0.00286677    1.754    0.430
        21 -11.1099     57.1898    210.7460   1.1062135428e+02   2.2692884958e+01    0.2521602    0.1929156  70.61  0.001494708    1.198    0.166
        22 -19.4928     21.9805    142.9700   1.1219398793e+02   4.2955229633e+01     19.96053     5.973236 -75.03   0.06944147    3.303    0.697
        23 -10.3272     79.8798    182.8199   1.0167161930e+02   2.6209480741e+01    0.3026034    0.2424153 -88.92 0.0004941822    1.279    0.218
        24 -10.6992     84.4940    178.1176   9.9763750486e+01   2.6676612608e+01    0.5478357    0.3037988  73.31  0.001412562    2.979    0.664
        25  -9.0265     61.7201    210.8274   1.0958960684e+02   2.2099800948e+01    0.1082046   0.09483054  15.87 0.0001903752    1.406    0.289
        26 -10.1145    179.6804    174.0951   7.5536671515e+01   1.0868691558e+01    0.2439781    0.2059457  48.61   0.00128946    1.321    0.243
        27  -9.5894     45.6870    173.4327   1.0934355169e+02   3.2966309247e+01    0.2572211    0.2382286  -0.05  0.001508252    1.330    0.248
        28 -12.2309    246.0598    169.3543   6.1906466001e+01   5.5237985959e-01    0.5206001    0.3558088  11.28  0.002891382    1.740    0.425
        29 -11.8718    230.3002    167.0979   6.4131514042e+01   3.3900563791e+00    0.4883973    0.2893419 -40.75   0.00248309    1.527    0.345
        30 -12.1276     28.8889    209.6476   1.1686753871e+02   2.6187520211e+01    0.2135413    0.1735183  63.46 0.0006791382    1.083    0.077
        31 -10.1703    178.3295    166.6762   7.4292809307e+01   1.2633021005e+01    0.4981184     0.251563 -62.94  0.001513453    4.338    0.769
        32 -10.1533    145.4745    169.5047   8.2507545335e+01   1.8230090295e+01    0.2877637    0.1341145  48.70  0.001039824    2.435    0.589
        33 -10.0339    186.6182    168.1964   7.2824080357e+01   1.0782853058e+01    0.3302126    0.2468513 -18.28  0.001311388    1.444    0.307
        34  -9.0416    186.5107    164.4562   7.2060008350e+01   1.1553280806e+01     0.274239    0.1369481 -38.80 0.0008724955    1.955    0.488
        35  -9.2715    191.8153    165.8965   7.1250765050e+01   1.0284376857e+01      0.22179    0.1881123  -9.53 0.0005539668    1.179    0.152
        36 -10.2521    120.3177    165.2358   8.8026550189e+01   2.3867950635e+01     0.342432    0.2698901 -82.93 0.0008673662    1.544    0.352
        37 -11.1010     89.6824    154.2609   9.4275174735e+01   3.1811680800e+01    0.2851486    0.2563173 -54.82 0.0002677899    1.092    0.084
        38 -12.0525    133.9500    145.8465   8.0368807687e+01   2.5886033538e+01     1.432964    0.3914085 -55.46  0.003279682    5.818    0.828
        39 -10.5888    112.0661    150.4102   8.7237986976e+01   2.8942246131e+01    0.6402553    0.3752265  73.18  0.002049497    3.652    0.726
        40 -12.2232     95.6239    148.0762   9.1379558360e+01   3.2390336896e+01    0.7173007    0.5407795 -34.76  0.003420275    1.470    0.320
        41  -9.5230    174.4860    148.8296   7.1260758866e+01   1.7097789825e+01    0.2838893    0.2446498  87.73  0.000712276    1.475    0.322
        42  -9.1781     75.0209    208.9458   1.0628603421e+02   2.0753095082e+01    0.2097892    0.1397738  73.28 0.0006428569    1.643    0.391
        43 -11.6438    107.1345    135.3822   8.5352675391e+01   3.3514691666e+01    0.5159755    0.4076527 -18.52  0.002002946    1.521    0.343
        44 -10.8618    105.7485    130.5769   8.4650797741e+01   3.4939473242e+01    0.4221216    0.3704017 -58.93  0.001167671    1.141    0.124
        45 -10.5110    117.5996    134.1338   8.2096882339e+01   3.1850331465e+01    0.4910491    0.3308148  78.93    0.0013914    2.489    0.598
        46 -11.6227     95.4612    134.6851   8.8610539985e+01   3.5757392020e+01    0.3034509    0.2720326 -36.36 0.0009074457    1.129    0.115
        47  -9.8705    149.9430    134.6806   7.3717678665e+01   2.5194949430e+01    0.2783771    0.2222472 -59.36 0.0005443814    1.349    0.259
        48  -9.7655     88.8849    132.0385   9.0003188322e+01   3.7522483765e+01    0.2269606    0.1982875  81.88  0.001159358    1.281    0.219
        49 -10.8401    135.8376    128.6660   7.5845048606e+01   2.9482512067e+01    0.5147697     0.165535 -48.30  0.001549479    3.114    0.679
        50 -10.7313    113.6995    128.0378   8.1755219999e+01   3.4057515418e+01    0.4466047    0.3080337  21.10  0.001335439    1.773    0.436
        51 -10.1428    119.9605    122.9545   7.8739147708e+01   3.4032023147e+01    0.2475475    0.2416229 -47.34 0.0009769012    1.021    0.021
        52 -10.1982    102.4771    122.6971   8.3745169240e+01   3.7446638078e+01    0.2985898     0.248531 -13.46 0.0007561489    1.381    0.276
        53 -10.4259    135.0000    118.0543   7.3406750262e+01   3.2055814146e+01    0.4867066    0.1725602 -41.41  0.001514903    2.944    0.660
        54  -9.5898    109.9572    117.2003   8.0162628255e+01   3.7343750306e+01    0.2508526    0.2175712 -49.27  0.000245056    1.135    0.119
        55 -11.8648    118.2661    109.7786   7.5825312359e+01   3.7398213038e+01    0.7337631    0.5374429  85.33  0.002872052    2.086    0.521
        56 -10.6844    120.2364    104.0240   7.3712185494e+01   3.8270779834e+01    0.3058619    0.2126963 -34.37  0.001361411    1.514    0.339
        57  -9.8090    205.3888    110.4206   5.6166236679e+01   1.8384833903e+01    0.2647094      0.24045  46.09 0.0008459614    1.205    0.170
        58  -9.1633    163.0823    110.7518   6.4665606659e+01   2.7495875353e+01    0.2278834    0.2049222 -88.54  0.000537945    1.233    0.189
        59 -10.6774    134.2578    105.8515   7.0389205687e+01   3.4888397866e+01     0.505475    0.2213448 -45.13  0.001805947    2.267    0.559
        60 -10.2373     65.6528    100.1955   9.0096851824e+01   4.8887421816e+01    0.4094853    0.2085467  28.19  0.001716282    2.141    0.533
        61  -9.4490     35.2187    208.1800   1.1535336634e+02   2.5845267880e+01    0.0933703   0.09045818 -63.48 0.0006246082    1.302    0.232
        62 -10.3245     87.1710    206.3326   1.0308501104e+02   1.9617073354e+01    0.2266291    0.1935531 -87.56 0.0003609636    1.184    0.155
        63 -10.0284     68.3300    247.4865   1.1164525617e+02   1.3531621906e+01    0.1134713    0.1022292  65.79 0.0003384607    1.132    0.116
        64 -12.2849     53.2248    241.9017   1.1425498565e+02   1.6532585613e+01    0.4045295    0.1550953 -61.10  0.001917119    2.753    0.637
        65 -12.6259    196.9939     39.7302   4.0372827649e+01   3.1638472638e+01    0.4977728    0.4556979 -71.95   0.00145504    1.086    0.079
        66  -9.5917     95.6553     58.6934   6.7151955517e+01   5.2298691594e+01    0.3020543    0.2147695  81.04 0.0009280349    2.552    0.608
        67 -10.4188     60.5282     53.1752   7.7736045117e+01   5.9554698902e+01    0.4216392    0.1939124  47.22  0.001705432    2.911    0.656
        68  -8.8785     93.6382    250.3811   1.0671475799e+02   9.5772505130e+00    0.1972783    0.1192495  56.87  0.001080236    1.629    0.386
        69  -9.6844     67.4795    241.6824   1.1130983166e+02   1.4784887281e+01    0.1228919    0.1106499  69.66 0.0003584114    1.121    0.108
        70 -11.4211     62.1719    236.9988   1.1200115331e+02   1.6411455934e+01    0.2359906    0.1601387 -81.80  0.001390986    1.517    0.341
        71  -9.5202     76.4454    230.6894   1.0834939849e+02   1.5836515606e+01    0.1259525    0.1039756  48.31  0.000177115    1.078    0.072
        72 -10.1572     60.4846     20.8826   6.4745303266e+01   6.4484348891e+01    0.2213063    0.1590095  34.97 0.0005173817    1.249    0.200
        73 -11.5206    202.2550     18.4370   3.4733521302e+01   3.3026944479e+01    0.2589631    0.1824425 -61.88  0.001567656    1.291    0.225
        74  -9.7687     40.9524    206.4574   1.1391604813e+02   2.5602186562e+01    0.1558592    0.1303929  43.88 0.0003249749    1.229    0.186
        75  -9.1891    196.6781     14.6754   3.4413535641e+01   3.4694985166e+01    0.1197611   0.09000348  44.44 0.0007047137    1.682    0.405
