#   1 NUMBER                 Running object number                                     
#   2 MAG_AUTO               Kron-like elliptical aperture magnitude                    [mag]
#   3 X_IMAGE                Object position along x                                    [pixel]
#   4 Y_IMAGE                Object position along y                                    [pixel]
#   5 X_WORLD                Barycenter position along world x axis                     [deg]
#   6 Y_WORLD                Barycenter position along world y axis                     [deg]
#   7 A_WORLD                Profile RMS along major axis (world units)                 [deg]
#   8 B_WORLD                Profile RMS along minor axis (world units)                 [deg]
#   9 THETA_WORLD            Position angle (CCW/world-x)                               [deg]
#  10 FWHM_WORLD             FWHM assuming a gaussian core                              [deg]
#  11 ELONGATION             A_IMAGE/B_IMAGE                                           
#  12 ELLIPTICITY            1 - B_IMAGE/A_IMAGE                                       
         1 -14.5194    217.0523      3.8739   4.2991845233e+01   2.9466935101e+01     3.090843     1.654627  48.44   0.01140323    2.117    0.528
         2 -13.8786    177.5092     47.4046   6.1089979476e+01   3.4561308320e+01     1.545135      1.19242  31.25  0.003983303    1.405    0.288
         3 -13.9226    190.2500     36.0395   5.5530446610e+01   3.2800194329e+01     1.056706    0.8872718 -50.92  0.003432334    1.211    0.174
         4 -14.1552    196.1989     28.0774   5.2261876445e+01   3.2223290762e+01     1.179144    0.9662064  24.10  0.001340737    1.340    0.253
         5 -11.5249    163.6153     55.9683   6.6367923285e+01   3.6819704092e+01    0.2957606    0.2564745  25.83 0.0007669169    1.201    0.167
         6 -16.6933     70.9061    146.9463   1.1204387064e+02   3.6513814942e+01     8.565135     4.044889  70.57   0.03264718    3.609    0.723
         7 -12.2142     61.3987    203.7849   1.1972936506e+02   2.6663139435e+01    0.2695689    0.1981493 -82.87 0.0006512601    1.444    0.308
         8 -17.4979     22.0010    241.5328   1.2875747932e+02   2.4622384631e+01     3.385148     1.797989 -78.64   0.02609342    2.081    0.519
         9 -10.0804     31.1119    210.8271   1.2597881841e+02   2.8640829964e+01    0.1542654   0.07877451  47.37 0.0005545759    1.442    0.307
        10 -11.1677     70.4301    209.8269   1.1841317958e+02   2.4593979449e+01    0.1961526    0.1280936  54.23 0.0005231941    1.234    0.189
        11  -9.4124     76.3197    207.0925   1.1704945369e+02   2.4345396027e+01    0.1374746    0.0910009  86.23 0.0004134723    1.684    0.406
        12 -19.1997     10.5236    107.9286   1.2451634830e+02   5.1523365160e+01     16.03195    0.7773748 -77.38   0.02858612   15.153    0.934
        13  -9.8134     34.8371    205.6515   1.2502174721e+02   2.9164561423e+01    0.1351459   0.07101646  46.00 0.0006232923    1.441    0.306
        14 -16.7892     63.9392    247.7814   1.2203387732e+02   1.9535149665e+01      8.28037     2.396519  27.90   0.02850402    7.278    0.863
        15 -10.7762     95.2051    200.2082   1.1267037420e+02   2.3099923733e+01    0.3217951    0.2326459 -69.17  0.002190084    1.613    0.380
        16 -11.5863     98.4983    198.5450   1.1183673703e+02   2.2938326925e+01    0.3830972    0.1845738 -62.89  0.001741218    2.472    0.595
        17 -11.7150    193.1671    194.8978   9.3202851877e+01   9.4520486035e+00    0.6825628    0.3937821 -59.27  0.002814178    5.326    0.812
        18 -11.7937    141.3858    198.8947   1.0338006639e+02   1.6767105739e+01     0.225641    0.1981457  21.65 0.0008012043    1.137    0.120
        19  -9.1342     47.2351    200.5553   1.2231304854e+02   2.8786682153e+01    0.1149028   0.06031121  66.32            0    1.766    0.434
        20 -11.1297    208.3844    196.7328   9.0876060638e+01   6.9557631430e+00    0.1865148      0.15978  24.41 0.0005756602    1.257    0.204
        21 -10.6172     59.8065    216.5351   1.2091182242e+02   2.4706276802e+01    0.2701205    0.2251076  52.04   0.00125867    1.148    0.129
        22 -10.1738     82.0872    195.1623   1.1483934642e+02   2.5667295581e+01    0.2681685    0.1722344  30.12  0.001663865    1.586    0.369
        23 -12.9452     68.0508    189.9614   1.1727644858e+02   2.8334158460e+01    0.6242864    0.5702642 -76.06  0.004773877    1.295    0.228
        24  -9.6681     42.9004    194.9329   1.2282782532e+02   3.0247604777e+01    0.3779027   0.04039931  42.60  0.001016509    3.940    0.746
        25 -11.8482    152.6291    193.0374   1.0040198056e+02   1.5931500672e+01    0.3765095    0.2223597  61.76  0.001844969    2.776    0.640
        26 -10.0214     48.6394    217.4768   1.2305374440e+02   2.5761832837e+01    0.2432508    0.1319986  31.71  0.001587106    1.774    0.436
        27 -11.6813     99.3518    180.7165   1.0965492531e+02   2.5921420881e+01     0.245511    0.2015208  49.42 0.0006242199    1.039    0.038
        28  -9.3838     98.5261    213.6806   1.1333001593e+02   2.0491520068e+01    0.1288241   0.09972088  80.43 0.0009261486    1.456    0.313
        29 -11.9131     41.3981    211.9792   1.2410526800e+02   2.7425170358e+01    0.4301116    0.2463715  22.58  0.002559106    2.242    0.554
        30 -10.9075     55.5196    211.0652   1.2137059682e+02   2.6083333557e+01    0.1841397    0.1337936  55.85 0.0004324239    1.051    0.049
        31 -11.2428    149.1389    180.3832   9.9208011882e+01   1.8398830466e+01    0.2195515    0.1688046 -74.83   0.00100705    1.930    0.482
        32 -12.0023    141.3056    175.3463   1.0002341444e+02   2.0467132897e+01    0.3507994    0.1776922  44.27   0.00127344    1.768    0.434
        33  -9.4131     61.1907    188.4438   1.1858724180e+02   2.9423183815e+01     0.163493   0.09243339  41.62 0.0009884585    1.476    0.323
        34 -10.5399     47.6942    172.2542   1.2019886606e+02   3.4042939574e+01    0.5241192    0.1598131  36.07  0.002406529    2.690    0.628
        35 -10.4794     42.7985    171.2628   1.2121827677e+02   3.4761853148e+01    0.2666183    0.1646272  30.43  0.001159627    1.701    0.412
        36 -10.5561    164.6366    170.9552   9.4584841326e+01   1.7320446961e+01    0.2088797    0.1954288  60.62 0.0005566036    1.304    0.233
        37 -10.3702    201.5325    169.0526   8.7318992785e+01   1.1420685825e+01    0.2998184    0.2044796 -48.43  0.001591616    2.105    0.525
        38 -10.6948    204.3430    165.1668   8.6101103972e+01   1.1464539855e+01    0.4145167    0.2530166 -35.60  0.001536626    1.779    0.438
        39 -11.4488    193.2588    165.5237   8.8158541670e+01   1.3277478030e+01    0.4035438    0.2648181 -47.30  0.001572792    2.032    0.508
        40 -10.6006    229.6104    165.7972   8.1961953497e+01   7.2866928665e+00    0.1608104    0.1033444 -33.02 0.0008680077    1.703    0.413
        41 -10.1068    159.1188    163.1459   9.4330170183e+01   1.9485439328e+01    0.1701864    0.1484787  55.68 0.0004289292    1.297    0.229
        42 -12.7207     50.6929    208.1685   1.2211403700e+02   2.7096945261e+01    0.5239099    0.2000969  46.94  0.002169357    1.943    0.485
        43 -12.8842     95.8114    154.1647   1.0692669620e+02   3.1512729427e+01     0.623758    0.4989997 -32.13  0.003691909    1.601    0.376
        44 -10.8114    189.3289    155.0810   8.6896678073e+01   1.5435136748e+01    0.3898619    0.2764503  46.72  0.002205118    1.485    0.327
        45 -11.6244    133.8035    145.0590   9.6476891452e+01   2.7070857826e+01      1.04285    0.2906801 -54.16  0.003003259    5.503    0.818
        46  -9.8937    113.1509    150.9099   1.0230387941e+02   2.9456503296e+01    0.2090093    0.1686268  72.35 0.0009206941    1.371    0.271
        47 -10.5073    174.4772    148.9477   8.8550587364e+01   1.9031234884e+01    0.2514762    0.2200864  47.98 0.0009142887    1.259    0.206
        48 -11.4415    144.3687    147.2523   9.4526394196e+01   2.4786528045e+01    0.3488143    0.2709759 -86.96  0.001839465    1.887    0.470
        49  -9.5795    159.6206    146.8572   9.1170486392e+01   2.2089268821e+01    0.1800438    0.1268464 -53.37 0.0007886675    1.731    0.422
        50 -12.1490    107.3812    139.8411   1.0180048076e+02   3.2618470615e+01    0.5415942    0.3138489 -34.73  0.002423386    2.419    0.587
        51 -13.1843     57.6322    203.5099   1.2045325026e+02   2.7136008502e+01    0.5100788    0.3444588  67.28  0.001821155    1.308    0.236
        52 -12.5340     95.4492    139.8342   1.0478212051e+02   3.4523082990e+01    0.2908763    0.2682463  30.88 0.0004157872    1.169    0.145
        53  -9.7364    128.0660    139.4813   9.6742894180e+01   2.9149821120e+01    0.2126702    0.1278754  40.96  0.001025149    1.569    0.363
        54 -11.4107    106.0774    130.4570   1.0040775566e+02   3.4786448735e+01    0.4104066    0.3052738 -64.09  0.001934843    1.423    0.297
        55 -11.2108    102.3235    126.3253   1.0058644033e+02   3.6292860951e+01    0.2890712    0.2313633 -27.37 0.0009218928    1.538    0.350
        56 -11.3559    114.6337    130.2318   9.8196670331e+01   3.3367299547e+01    0.3140431    0.2691951  -5.17 0.0008299636    1.421    0.296
        57 -11.0992    135.8989    127.6685   9.2486216393e+01   3.0002234136e+01    0.4900998    0.1655123 -51.01  0.001637607    3.502    0.714
        58 -10.1994    160.7473    127.8817   8.6933325899e+01   2.5150708331e+01    0.2633834    0.2030197 -57.96  0.001365332    1.608    0.378
        59 -11.2674    119.9505    124.2560   9.5639657884e+01   3.3647571898e+01     0.446388    0.2695691 -24.23  0.001812337    2.708    0.631
        60  -9.7619    135.0000    119.9181   9.0983643726e+01   3.1684593203e+01    0.2323828   0.08138347 -45.30 0.0007999862    2.925    0.658
        61 -10.2016    110.0254    119.0884   9.7089899011e+01   3.6512754050e+01    0.2036242    0.1973431  63.87 0.0003047051    1.009    0.009
        62 -10.1337    168.0371    112.9954   8.1885447097e+01   2.6266797492e+01    0.3316895    0.2415601 -80.60  0.001460044    2.403    0.584
        63  -9.9732    135.0000    112.4739   8.9240566132e+01   3.3150177895e+01     0.317047   0.08231458 -44.44  0.000930556    3.901    0.744
        64 -11.5757    119.4673    110.4016   9.2660490872e+01   3.6605676148e+01    0.5427825      0.36312  50.80  0.002595192    1.547    0.354
        65 -10.1355    205.6249    110.0924   7.4009156083e+01   1.8940444323e+01    0.2544059    0.1911818  32.76 0.0006313819    1.317    0.241
        66 -11.6395     53.7047     91.1713   1.0809957668e+02   5.1552549029e+01    0.3727421    0.2670821  59.12  0.001888151    1.524    0.344
        67 -11.0091     41.6313     91.7372   1.1233593790e+02   5.2783857125e+01    0.2383776    0.2012559  88.46 0.0004112972    1.113    0.102
        68  -8.9263    154.3469     80.3089   7.5969451656e+01   3.5038136969e+01    0.1599241    0.1169537  14.75 0.0007044348    1.705    0.413
        69  -9.6382     68.9394     71.7287   9.8026567825e+01   5.4085465814e+01    0.1815925    0.1766812  76.42 0.0002110877    1.101    0.092
        70 -11.7806    163.8116     64.5744   6.9114179121e+01   3.5429384472e+01    0.3769077    0.2939631 -62.21 0.0004133556    1.539    0.350
        71 -10.4484     60.6534    230.5675   1.2162601549e+02   2.2403013762e+01    0.1381133   0.08500461  65.90 0.0004582977    1.470    0.320
        72 -10.1129     72.2529    230.1754   1.1952506752e+02   2.1164452258e+01    0.1334713   0.09667209  54.98 0.0005693398    1.088    0.081
        73  -9.8545     81.0020    220.5223   1.1722670079e+02   2.1614870565e+01    0.1648468   0.08504857  37.05 0.0006180818    1.570    0.363
        74  -9.3034     43.6885    220.6756   1.2413759022e+02   2.5756558574e+01   0.08421771   0.07896604 -14.64 0.0007039644    1.657    0.397
