#   1 NUMBER                 Running object number                                     
#   2 MAG_AUTO               Kron-like elliptical aperture magnitude                    [mag]
#   3 X_IMAGE                Object position along x                                    [pixel]
#   4 Y_IMAGE                Object position along y                                    [pixel]
#   5 X_WORLD                Barycenter position along world x axis                     [deg]
#   6 Y_WORLD                Barycenter position along world y axis                     [deg]
#   7 A_WORLD                Profile RMS along major axis (world units)                 [deg]
#   8 B_WORLD                Profile RMS along minor axis (world units)                 [deg]
#   9 THETA_WORLD            Position angle (CCW/world-x)                               [deg]
#  10 FWHM_WORLD             FWHM assuming a gaussian core                              [deg]
#  11 ELONGATION             A_IMAGE/B_IMAGE                                           
#  12 ELLIPTICITY            1 - B_IMAGE/A_IMAGE                                       
         1 -16.6278      5.0641     41.7205   1.1078497555e+02   6.6619068022e+01     3.154145    0.7946733 -64.37   0.01218272    3.711    0.731
         2 -17.3925     19.0341     22.2439   9.7803379064e+01   6.9393165039e+01     2.312735     1.374062 -42.78   0.01118124    1.343    0.255
         3 -12.7223    217.4709     16.0470   4.3229279824e+01   2.8676649460e+01    0.7306928    0.6195157 -63.63  0.003173617    1.076    0.070
         4 -12.5654     58.5424      8.1807   7.3278895284e+01   6.6638195827e+01    0.5329621    0.3393317  -4.23  0.003037313    1.571    0.364
         5 -12.6046    126.2842    230.0107   1.0935868463e+02   1.0588677425e+01    0.5268683    0.3338153  61.37  0.003025298    1.587    0.370
         6 -11.3617     99.3081    249.7702   1.1637447891e+02   1.1445097702e+01    0.5484894    0.1289278  43.08  0.002273311    3.100    0.677
         7 -11.1217     65.3875    241.2099   1.2159960567e+02   1.7558351402e+01    0.3219005    0.2181282 -52.31  0.001037419    2.178    0.541
         8 -11.3574     91.8949    234.4877   1.1629083445e+02   1.5085363441e+01    0.3157521    0.1755564 -66.14 0.0006862734    2.015    0.504
         9 -13.9489     80.8127    247.9312   1.1944575220e+02   1.4352196476e+01     1.582023    0.7523354  34.52  0.008499173    2.354    0.575
        10 -12.4256    244.2897    226.4659   8.7073136238e+01  -8.0361784598e+00    0.6413368    0.4353632  41.17  0.003072098    1.583    0.368
        11 -13.2856    249.1588    215.8004   8.4415062746e+01  -7.4986789384e+00    0.9709883    0.3290556 -29.49   0.00309629    3.128    0.680
        12 -10.3370    218.5150    234.4788   9.2844101940e+01  -5.0991649173e+00    0.2776408    0.1715851 -14.59  0.001359468    1.900    0.474
        13 -11.2872    144.9994    230.2565   1.0582075950e+02   7.4977420694e+00    0.2497888    0.1661945  25.74  0.001403129    1.730    0.422
        14 -11.7999    223.1989    233.5897   9.1880031271e+01  -5.7116178993e+00    0.4953414    0.3207087  20.48  0.001768378    1.363    0.266
        15  -9.9562    192.5119    193.0149   9.0660511874e+01   5.2202536614e+00    0.1785675    0.1207731 -67.21 0.0008105711    2.617    0.618
        16 -10.3445     66.4746    180.7575   1.1578378076e+02   2.9302558840e+01    0.3629758     0.231442 -43.33  0.001893273    2.235    0.553
        17 -10.5741     71.2132    175.3407   1.1408292773e+02   2.9848769244e+01    0.2697764    0.2176151 -48.93 0.0006313389    1.522    0.343
        18  -9.1531    195.4024    168.2558   8.5273198649e+01   8.8836828234e+00    0.1914584     0.135081 -48.35 0.0009450869    1.605    0.377
        19 -10.8931     80.4606    165.1531   1.1058601946e+02   3.0814110937e+01    0.2941158    0.2545891 -37.06 0.0009192501    1.492    0.330
        20 -11.0046     85.7458    159.5023   1.0847871287e+02   3.1309079510e+01    0.3337666    0.2825265   0.81  0.001192366    1.693    0.409
        21 -12.1243     67.8691    161.5026   1.1306400972e+02   3.3427759562e+01    0.4410391    0.3073349 -50.58  0.001378812    1.611    0.379
        22 -12.3793     73.9801    154.9366   1.1065419221e+02   3.4096872169e+01    0.8849688    0.3989106  64.88  0.003093514    3.740    0.733
        23 -12.9940     68.5540    144.3515   1.1040072063e+02   3.7328594385e+01    0.7923859    0.5158566  78.25  0.003510941    1.753    0.430
        24 -12.0678     58.0993    147.3235   1.1349562489e+02   3.7990702171e+01     0.464179    0.3039244  86.09  0.002460468    1.580    0.367
        25  -9.9367     39.2305    146.5944   1.1809442432e+02   4.0323579354e+01    0.1485365    0.1255953  15.76 0.0004023408    1.609    0.378
        26 -10.8424     88.6882    142.4998   1.0489944864e+02   3.4802508688e+01    0.2548073    0.2306902 -55.32 0.0003611052    1.164    0.141
        27 -12.5951     57.7302    130.3304   1.1101706078e+02   4.2060544125e+01    0.8397892     0.335794 -71.57  0.003245796    2.716    0.632
        28  -9.2869     36.3133    140.3166   1.1805914993e+02   4.2085297673e+01     0.123673   0.08592179 -47.20 0.0002417295    1.644    0.392
        29 -12.0693     32.6121    129.7416   1.1767495067e+02   4.4923537511e+01    0.6757441    0.1100237 -65.85  0.002173001    4.176    0.761
        30  -9.5661     98.1184    128.2594   9.9626508424e+01   3.6599095886e+01    0.2443845    0.1913723 -43.33 0.0008080741    1.340    0.254
        31  -8.6583    107.5085    120.3696   9.5335345565e+01   3.6768771469e+01    0.1453192     0.140601  85.15 0.0001342457    1.036    0.035
        32  -9.2694    106.1373    130.9020   9.8044009777e+01   3.4570700847e+01    0.2378914    0.1994226  85.91   0.00123707    1.280    0.219
        33 -17.5611      9.8514    237.2320   1.3059715814e+02   2.4625008985e+01     2.335127      1.97459  24.56  0.007115767    1.999    0.500
        34 -11.0643      2.0000     88.4896   1.2093099919e+02   5.6688008067e+01    0.2970406    0.1333737 -74.27  0.001568735    1.779    0.438
        35 -16.6629      4.1470    177.2002   1.2854564376e+02   3.6779007806e+01     3.302222    0.7122425 -72.91  0.008028047    3.376    0.704
        36 -16.7639      8.7309    213.1613   1.2967450305e+02   2.9148785279e+01     1.820517    0.8697537 -69.75  0.005706409    2.006    0.501
        37  -9.2933    144.6685     49.3404   6.4649442147e+01   4.2924859238e+01    0.2297551    0.1736387 -72.56 0.0006294479    1.712    0.416
        38 -10.7478    194.1087     38.6692   5.2248293608e+01   3.1775152915e+01    0.2721635    0.2467431  13.47  0.001163753    1.286    0.222
        39 -11.9246    202.4363     31.7979   4.9161610512e+01   3.0546066144e+01    0.5481775    0.4974816 -87.63  0.003004455    1.030    0.029
        40 -11.5572    210.6069     23.8384   4.6001820285e+01   2.9469452104e+01    0.4269407    0.3021185  31.44  0.001171477    1.886    0.470
        41 -10.7405     83.4575    232.0435   1.1761436080e+02   1.6724302776e+01    0.1883035    0.1307301  52.67 0.0006387455    1.158    0.137
