#   1 NUMBER                 Running object number                                     
#   2 MAG_AUTO               Kron-like elliptical aperture magnitude                    [mag]
#   3 X_IMAGE                Object position along x                                    [pixel]
#   4 Y_IMAGE                Object position along y                                    [pixel]
#   5 X_WORLD                Barycenter position along world x axis                     [deg]
#   6 Y_WORLD                Barycenter position along world y axis                     [deg]
#   7 A_WORLD                Profile RMS along major axis (world units)                 [deg]
#   8 B_WORLD                Profile RMS along minor axis (world units)                 [deg]
#   9 THETA_WORLD            Position angle (CCW/world-x)                               [deg]
#  10 FWHM_WORLD             FWHM assuming a gaussian core                              [deg]
#  11 ELONGATION             A_IMAGE/B_IMAGE                                           
#  12 ELLIPTICITY            1 - B_IMAGE/A_IMAGE                                       
         1 -13.5057    207.1868     35.7808   5.0903745206e+01   2.8580414431e+01     1.416619     1.284007 -55.62   0.00642385    1.066    0.062
         2 -12.8787      3.3020      5.6650   9.8742117034e+01   7.2992037089e+01    0.7883192    0.5992435 -36.14  0.006001679    1.211    0.175
         3 -12.8788      3.5072     19.2512   1.0438750059e+02   7.0654987429e+01    0.8509096    0.3061644 -51.17 0.0005245759    2.019    0.505
         4 -13.6893    225.2216     18.4042   4.4127808679e+01   2.6165863399e+01     1.035971    0.9344431  26.32  0.002372381    1.326    0.246
         5  -9.9953      2.1390     13.9295   1.0299011098e+02   7.1677758101e+01    0.2510863    0.1933507 -37.55  0.001276171    1.140    0.123
         6 -10.9804    197.7587    246.0000   1.0057144297e+02  -2.5432436432e+00    0.2168974    0.1267517  47.41 0.0009021232    1.636    0.389
         7 -12.5157    245.4198    249.1364   9.3029650652e+01  -9.9919187365e+00    0.6428469    0.4075547  40.78  0.004308494    1.600    0.375
         8  -9.9180    103.4938    237.4817   1.1616754137e+02   1.3429179497e+01    0.1162674   0.09049368  58.53 9.859138e-06    1.007    0.007
         9 -12.8880    101.1073    229.3987   1.1577203887e+02   1.5129698888e+01     1.472057   0.05442664  44.12   0.00371176    8.133    0.877
        10 -11.6640     92.5613    227.3706   1.1711003599e+02   1.6723933256e+01     0.370566     0.189781  55.67  0.001146129    1.701    0.412
        11 -10.4090     70.4552    250.3009   1.2285667490e+02   1.5896522881e+01    0.1986907    0.1161052  47.62 0.0008600496    1.383    0.277
        12  -8.2409    181.7235    192.3525   9.4924856923e+01   7.7963389427e+00    0.1267121    0.1070988  84.56 0.0005070065    1.644    0.392
        13 -11.7456     49.5028    190.7233   1.2168716704e+02   2.9429280298e+01    0.2407901    0.2197545 -86.53 0.0005638152    1.292    0.226
        14 -11.9277     57.0048    183.0458   1.1942011486e+02   3.0115631388e+01    0.2360631    0.2067591 -80.22 0.0004391211    1.210    0.174
        15 -10.4430    176.1935    242.2199   1.0381299686e+02   1.3517665135e+00    0.1613649    0.1249154  54.43  0.001079134    1.374    0.272
        16 -10.8089     69.0776    171.3242   1.1550038878e+02   3.1072296601e+01    0.2237711    0.2012063  84.98 0.0003518425    1.109    0.098
        17 -13.2044     54.7572    168.7216   1.1831734895e+02   3.3466151649e+01    0.4672907    0.2682167 -48.19  0.001500647    2.163    0.538
        18 -11.8968     77.4768    163.0769   1.1250604210e+02   3.1729764074e+01    0.5774575    0.5351249 -53.46  0.003728007    1.277    0.217
        19 -10.1416     32.6845    157.2032   1.2190467973e+02   3.8446171073e+01    0.1991536    0.1404396  62.15 0.0008992712    1.356    0.262
        20 -15.1010     10.3788    208.0755   1.3008774568e+02   3.0125646803e+01     4.466253     1.108471 -78.84   0.02038852    3.505    0.715
        21 -10.2332     92.0746    148.7548   1.0677886926e+02   3.2767938392e+01    0.2934273    0.2657773  66.32 0.0007540633    1.094    0.086
        22 -11.9749     80.2899    147.1162   1.0937590066e+02   3.4931035581e+01    0.2972443    0.2287987 -57.46 0.0008198465    1.255    0.203
        23 -12.1146     67.8034    143.6322   1.1188434819e+02   3.7472994521e+01    0.6690844    0.4086385  68.62   0.00277767    1.957    0.489
        24  -9.2549     95.8577    144.8663   1.0515274752e+02   3.3047210906e+01     0.198973    0.1816409 -46.43 0.0003564036    1.195    0.163
        25  -9.9835    106.3298    133.8604   1.0035623210e+02   3.3788075892e+01    0.5226846    0.2922415 -40.57  0.001823906    2.017    0.504
        26 -10.2826     92.7321    131.7005   1.0340665152e+02   3.6578563929e+01    0.2404554    0.2176864 -60.87 0.0003480399    1.058    0.055
        27  -9.0831    104.3245    122.0594   9.8292886256e+01   3.6838283976e+01    0.1949913    0.1699498 -58.36 0.0003019885    1.084    0.078
        28 -13.6184     36.1858    205.2955   1.2540397735e+02   2.8040218610e+01     1.621857    0.6204177  39.76   0.00872754    2.441    0.590
        29 -10.8279    242.2946     93.9823   6.1460757513e+01   1.1718093098e+01    0.2156752    0.1781546 -29.66 0.0008431949    1.088    0.081
        30 -13.2531     18.8094    221.4794   1.2941550527e+02   2.6828666687e+01    0.4307868     0.293175 -80.12 0.0007670099    1.384    0.278
        31  -9.6851    162.0337     80.3050   7.2270308830e+01   3.3222952546e+01     0.224516    0.2097588  48.10 0.0007381161    1.094    0.086
        32 -11.6020     12.9533     61.0814   1.1272086878e+02   6.1782773011e+01    0.4084007    0.1409497 -53.77  0.001977091    1.983    0.496
        33 -14.1627     24.1942    215.4832   1.2817819295e+02   2.7381216146e+01    0.8491935    0.5287096  81.38  0.002484714    1.248    0.198
        34 -13.0526    143.7538    248.8939   1.1034386887e+02   5.5735720957e+00     1.143605    0.2884922  45.64  0.004643744    3.134    0.681
        35 -10.4363     20.0385     36.0683   1.0274148778e+02   6.6403312238e+01    0.1696073    0.1432276 -81.32   0.00114213    1.725    0.420
        36 -10.9817    108.8145    247.6997   1.1624708321e+02   1.1028605755e+01    0.2817309    0.1567911  69.60  0.001500774    2.136    0.532
        37 -11.5524     83.1395    247.6227   1.2057022722e+02   1.4652666098e+01    0.2781982    0.2603779 -72.03  0.001533008    1.499    0.333
        38 -15.4632     12.2645    157.5182   1.2635677974e+02   4.0235311408e+01     12.09607     2.836913 -82.13   0.03738151    5.856    0.829
