#   1 NUMBER                 Running object number                                     
#   2 MAG_AUTO               Kron-like elliptical aperture magnitude                    [mag]
#   3 X_IMAGE                Object position along x                                    [pixel]
#   4 Y_IMAGE                Object position along y                                    [pixel]
#   5 X_WORLD                Barycenter position along world x axis                     [deg]
#   6 Y_WORLD                Barycenter position along world y axis                     [deg]
#   7 A_WORLD                Profile RMS along major axis (world units)                 [deg]
#   8 B_WORLD                Profile RMS along minor axis (world units)                 [deg]
#   9 THETA_WORLD            Position angle (CCW/world-x)                               [deg]
#  10 FWHM_WORLD             FWHM assuming a gaussian core                              [deg]
#  11 ELONGATION             A_IMAGE/B_IMAGE                                           
#  12 ELLIPTICITY            1 - B_IMAGE/A_IMAGE                                       
         1  -9.9103     16.6383     42.2380   2.5672895004e+02  -5.3135207393e+01   0.08911948   0.02333906  25.01  0.002291719    3.190    0.687
         2  -9.7629     97.5964     12.0102   2.5634015449e+02  -5.6211921075e+01   0.05046747   0.02652141  30.43  0.001187514    1.815    0.449
         3 -10.4338     41.0882     13.8037   2.5548453300e+02  -5.4249874993e+01    0.0350459    0.0295413  81.76 0.0002310577    1.234    0.189
         4  -8.3035     80.3960     12.2387   2.5605100555e+02  -5.5617661663e+01   0.02538104   0.01718163  -3.91 0.0007485984    1.604    0.377
         5  -8.8398      3.3909     12.2507   2.5480264632e+02  -5.2968117709e+01   0.02596287   0.01709247  -3.05 0.0009509135    1.640    0.390
         6  -8.6633     97.8228      4.8325   2.5589950363e+02  -5.6289118134e+01   0.02560525   0.02029469 -33.08 0.0004025066    1.303    0.233
         7  -8.4665     65.0309      4.7617   2.5533750415e+02  -5.5159143585e+01   0.02458101    0.0233351 -83.76 0.0002010936    1.059    0.056
         8  -7.9560     52.0209      3.0099   2.5502070541e+02  -5.4726668179e+01   0.02114645   0.02095363   9.03 0.0003171386    1.010    0.010
         9  -8.6971      2.8091      3.1845   2.5427483703e+02  -5.3029417974e+01   0.02561833   0.02017934  60.12   0.00039311    1.323    0.244
        10  -9.5983     67.5536      1.3709   2.5517405069e+02  -5.5277578603e+01   0.03238458   0.01724296 -74.77 0.0003974569    1.875    0.467
        11 -10.8124     98.2326    241.6595   2.6962797293e+02  -5.3229252286e+01   0.06278276   0.03972425 -74.26  0.001012822    1.783    0.439
        12 -10.4895    247.2341    248.3541   2.7460235913e+02  -5.7758727052e+01   0.05782178   0.04129982 -49.90  0.001606549    1.387    0.279
        13  -9.6152    213.5335    250.2216   2.7356482897e+02  -5.6693655439e+01   0.04301429   0.02548075 -65.74  0.001509771    1.805    0.446
        14 -10.1435    204.1117    249.8896   2.7323751245e+02  -5.6409311955e+01   0.06272495   0.03028593 -62.43  0.002003762    2.148    0.535
        15 -10.5737    161.4989    248.9673   2.7184661815e+02  -5.5101956185e+01   0.09798404   0.04915735  11.28  0.002776681    3.076    0.675
        16 -11.5593    167.1996    242.0952   2.7164395621e+02  -5.5397535015e+01    0.1008747   0.06518897 -59.87  0.002393871    1.530    0.346
        17 -10.5806    166.4574    248.1064   2.7195089591e+02  -5.5271558505e+01    0.0703068   0.04677837 -55.30  0.002230031    1.468    0.319
        18 -11.4100    173.7659    245.1689   2.7201450389e+02  -5.5550135279e+01    0.1599921   0.08375473  16.61  0.005025766    2.412    0.585
        19 -10.2014    169.7933    224.9404   2.7077038492e+02  -5.5768214562e+01   0.07438651   0.05315444 -19.35  0.002145473    1.716    0.417
        20 -11.5475    161.5147    231.5823   2.7089199015e+02  -5.5396349758e+01    0.1803923     0.053853 -55.95  0.004800204    3.001    0.667
        21 -10.8513     54.3997    248.6100   2.6882614714e+02  -5.1726077257e+01   0.09075528   0.05440728  69.53   0.00232804    2.460    0.593
        22 -11.7203     19.1762    247.9441   2.6790649120e+02  -5.0613387452e+01    0.1627066   0.08212472 -66.73  0.005366579    2.059    0.514
        23 -10.1618     13.0049    250.1509   2.6786712953e+02  -5.0383287600e+01   0.05130515   0.03147092 -55.68  0.001538689    1.576    0.365
        24 -11.2073      8.9059    242.1601   2.6736546454e+02  -5.0371345795e+01   0.08822443   0.06201702 -35.29  0.003422796    1.528    0.346
        25  -9.9524      4.0344    249.2285   2.6760409973e+02  -5.0110765903e+01   0.04021565   0.03489125 -50.34 0.0006979026    1.137    0.121
        26  -9.7351      2.1086    244.8299   2.6733752751e+02  -5.0114382426e+01   0.04591632   0.03058489  24.68  0.001313037    1.497    0.332
        27  -9.5299    250.5026    241.8786   2.7434655076e+02  -5.7977530284e+01   0.03606237    0.0282397  33.08 0.0008256568    1.276    0.216
        28 -10.0268    249.1008    237.6495   2.7405491405e+02  -5.8012137411e+01   0.04124638   0.03368245  16.49  0.001355088    1.308    0.236
        29  -8.9964    221.2989    239.9446   2.7324389476e+02  -5.7116778282e+01     0.031034   0.02460509 -45.02 0.0006283507    1.272    0.214
        30 -10.4841    107.8493    238.0659   2.6970122754e+02  -5.3592193594e+01   0.06459348   0.04234622  20.90  0.002109606    1.596    0.373
        31  -9.9854     15.9554    237.9368   2.6732089171e+02  -5.0659674701e+01   0.06129599   0.03023793 -38.51  0.001902952    2.386    0.581
        32 -10.3653    231.1980    234.4499   2.7326103416e+02  -5.7520170659e+01   0.04443734   0.04059431  17.49  0.000832412    1.122    0.109
        33 -11.2866    162.3840    225.6637   2.7058904617e+02  -5.5522282270e+01   0.07502154   0.05549067 -71.57  0.002720624    1.432    0.302
        34  -9.9109     82.1312    227.1733   2.6842619668e+02  -5.2943669172e+01    0.0458017   0.03837455  74.57 0.0006617071    1.332    0.249
        35 -11.6904    106.4148    224.0935   2.6891019746e+02  -5.3768583663e+01    0.2006883   0.07209551  47.77  0.005002639    3.709    0.730
        36 -11.5084     98.6172    225.4870   2.6877441943e+02  -5.3497453927e+01   0.07600136   0.06223985  37.32  0.001502814    1.223    0.182
        37 -11.4883     95.8155    218.0709   2.6829963383e+02  -5.3522985819e+01    0.0789929   0.05673916 -42.45  0.001640084    1.427    0.299
        38 -10.2095     99.9852    217.4659   2.6837798235e+02  -5.3666134877e+01   0.04433162   0.03097978 -39.08  0.000669901    1.511    0.338
        39 -11.7970    126.4684    221.3266   2.6931266066e+02  -5.4452633032e+01    0.1417577   0.07189857  13.21  0.003076063    2.547    0.607
        40  -9.8787    242.8519    223.8768   2.7304305681e+02  -5.8068352829e+01   0.03940998   0.02722649  21.65 0.0008690169    1.545    0.353
        41 -11.7831     89.7253    230.3976   2.6879908557e+02  -5.3136446516e+01    0.2099356   0.09211181  23.03   0.00638196    2.411    0.585
        42  -9.9971    117.4951    227.4117   2.6939453627e+02  -5.4069543218e+01   0.05359412   0.03899027 -42.51  0.001268349    1.408    0.290
        43  -9.1041    145.0641    227.8245   2.7019979728e+02  -5.4938731593e+01   0.03181393   0.02501613 -71.44 0.0005419582    1.327    0.246
        44  -9.4933    249.8279    226.8578   2.7345483509e+02  -5.8229958344e+01   0.03896647   0.02660231  60.24  0.001432488    1.770    0.435
        45 -10.1432    182.2119    226.2169   2.7121982445e+02  -5.6137816531e+01   0.06118802   0.02661659 -53.65  0.001904589    2.181    0.541
        46  -8.2693     73.4210    224.5014   2.6805712714e+02  -5.2705494274e+01   0.01782308   0.01760694  17.61 0.0001271865    1.016    0.016
        47  -8.8399     66.5165    223.9390   2.6784981842e+02  -5.2492360414e+01   0.02811074   0.01773938  26.05   0.00102795    1.579    0.367
        48  -8.0781    178.4783    222.4860   2.7089533802e+02  -5.6083078374e+01   0.01806501   0.01763368 -28.93 -5.27325e-05    1.026    0.025
        49  -8.4166    174.4793    222.5080   2.7077522216e+02  -5.5956620758e+01   0.01787515    0.0178325  88.44 0.0008102512    1.011    0.011
        50  -9.3286    157.5774    221.4765   2.7021332019e+02  -5.5439268660e+01   0.03371786   0.03054002  75.08 0.0008677468    1.179    0.152
        51  -9.9224    114.8213    220.7634   2.6895905696e+02  -5.4089702747e+01   0.03668813   0.03063126  21.99 0.0009330353    1.212    0.175
        52 -10.7285    131.0331    214.6949   2.6907510275e+02  -5.4703835091e+01    0.1166157   0.05250958   9.97  0.002999761    3.671    0.728
        53  -9.5958    128.0355    211.7435   2.6882827881e+02  -5.4654584370e+01   0.03212986   0.02789386 -22.91 0.0003643273    1.218    0.179
        54  -9.7346    218.4361    219.2200   2.7196374006e+02  -5.7392050956e+01   0.06200082   0.04121308 -84.24  0.002214858    1.926    0.481
        55  -8.6081    149.0898    219.7142   2.6986746405e+02  -5.5198712733e+01   0.02907764   0.02387073  26.62  0.001213847    1.223    0.182
        56  -9.2590    151.7350    215.9187   2.6973237762e+02  -5.5344355828e+01   0.04428021   0.02927487  77.07  0.001237318    2.062    0.515
        57 -10.3094     84.8912    215.4891   2.6787309602e+02  -5.3211550679e+01   0.08390693   0.03888385  35.99  0.002697674    2.079    0.519
        58  -9.3236    176.0170    216.1039   2.7045998096e+02  -5.6111652131e+01   0.04079581   0.02514572  34.13  0.001134634    1.593    0.372
        59  -9.3811     24.8106    216.8524   2.6644984629e+02  -5.1253295142e+01   0.03764328   0.02321382 -44.01  0.001361674    1.665    0.399
        60  -9.8423     18.3225    213.6762   2.6613187410e+02  -5.1089169083e+01   0.03456873   0.02355236  12.55   0.00130498    1.572    0.364
        61 -10.1946    170.7427    215.1834   2.7024974342e+02  -5.5959862393e+01   0.03892579   0.03667407  70.53 0.0007402513    1.105    0.095
        62  -9.7568     75.3274    219.4565   2.6783790670e+02  -5.2843591848e+01   0.04070715   0.02978792 -43.70  0.001100909    1.386    0.278
        63  -9.7022    121.4984    222.5213   2.6923945326e+02  -5.4275078783e+01   0.03525373   0.03434335 -42.81 0.0009672468    1.018    0.018
        64 -11.2674    238.7869    230.0739   2.7326498814e+02  -5.7832351865e+01   0.07802748    0.0546882  87.63  0.002319434    1.882    0.469
        65 -10.3540    113.2164    212.5766   2.6846763103e+02  -5.4166538860e+01   0.08626349   0.04896875  70.17  0.002604228    2.791    0.642
        66 -10.7068     77.8676    211.3062   2.6746667908e+02  -5.3048600970e+01   0.06552122   0.04554126  51.49   0.00243378    1.570    0.363
        67  -9.3115    228.4923    214.0438   2.7199050966e+02  -5.7795396261e+01   0.03642254   0.01655785  34.75  0.001146486    2.116    0.527
        68  -9.7313     63.8128    213.2397   2.6721350751e+02  -5.2566159518e+01    0.0490175   0.03461451 -47.46   0.00191527    1.411    0.291
        69  -9.5437    202.2036    210.9637   2.7096961782e+02  -5.7024008350e+01   0.05242679   0.03145847  24.62  0.001870794    1.725    0.420
        70 -10.7768    212.1408    206.9094   2.7104691334e+02  -5.7405153396e+01   0.09688286   0.06389004  27.89  0.003665531    1.523    0.343
        71  -9.5806    238.2805    210.6028   2.7211142858e+02  -5.8160201840e+01   0.03571189   0.01617977 -55.18  0.001024193    2.110    0.526
        72 -10.0704    190.2213    216.1892   2.7089773717e+02  -5.6558717324e+01   0.07174457   0.04260106  37.37  0.002584385    1.660    0.398
        73 -10.1483     11.5796    206.5654   2.6560659847e+02  -5.0971562085e+01   0.05108012   0.04387122  25.02  0.001946334    1.159    0.137
        74 -11.5690     14.9054    196.4580   2.6515617669e+02  -5.1221120716e+01    0.1297955   0.04877977  49.56  0.001885994    3.655    0.726
        75  -8.6567     98.2746    205.9870   2.6770786025e+02  -5.3787196092e+01   0.03896794   0.01798873 -41.29  0.001160069    2.485    0.598
        76  -8.1758    224.3993    205.2565   2.7134193423e+02  -5.7818323880e+01   0.02440195   0.01765173  12.69 0.0004110755    1.548    0.354
        77  -9.5673    130.2903    201.9317   2.6834478052e+02  -5.4880427787e+01   0.06513736   0.03815575 -16.78  0.002046976    2.528    0.604
        78  -9.8689    167.0028    198.7947   2.6920654977e+02  -5.6106758731e+01   0.05771514   0.03280439  39.70  0.001232351    1.755    0.430
        79 -11.1932    176.0125    185.0199   2.6867234118e+02  -5.6614098166e+01    0.0881076   0.06668615 -10.38  0.002286795    1.546    0.353
        80  -9.6952    172.0091    201.6688   2.6951786260e+02  -5.6220377107e+01   0.05960638   0.03439029 -40.71 0.0009674259    1.896    0.473
        81 -11.2690    178.4163    196.6823   2.6942006194e+02  -5.6505117020e+01    0.1060852   0.06867717  40.19  0.002410475    1.549    0.354
        82 -11.1714    172.9636    195.5224   2.6919253529e+02  -5.6349610176e+01    0.1005335   0.03886307  29.28  0.002154442    2.485    0.598
        83  -8.6328    250.4225    200.0898   2.7189114851e+02  -5.8721053352e+01   0.02850997   0.01743669  31.14  0.001026332    1.618    0.382
        84  -9.1588    212.8333    198.8692   2.7059757351e+02  -5.7561944431e+01   0.02756026   0.02371013  56.75  0.000477804    1.227    0.185
        85  -9.4944    105.2741    197.5659   2.6742904636e+02  -5.4140724861e+01   0.03793211   0.03003986  60.30 0.0009636472    1.391    0.281
        86  -8.3345    144.5759    198.2172   2.6853281081e+02  -5.5397376743e+01   0.02725007   0.01571896  39.47  0.000946289    1.729    0.422
        87 -10.0689    126.5098    196.7728   2.6795267933e+02  -5.4838438912e+01   0.04729253   0.03367911  73.29  0.001401295    1.732    0.423
        88  -9.2867    112.7225    198.0101   2.6765073905e+02  -5.4374670546e+01   0.05836627   0.02750771 -40.18  0.001756401    2.485    0.598
        89  -8.9425    113.0217    194.2693   2.6745075818e+02  -5.4441043289e+01   0.02698027   0.02620738  -4.26 0.0003354188    1.035    0.033
        90  -8.2513     50.8555    197.6311   2.6606154762e+02  -5.2374821722e+01   0.02783279   0.01535993 -53.67 0.0009553303    1.744    0.427
        91  -9.0830     40.1570    193.9297   2.6560865057e+02  -5.2079398785e+01   0.06733895   0.01775287  43.84  0.001468176    4.641    0.785
        92  -9.4430    124.6129    193.1882   2.6770032343e+02  -5.4832090255e+01   0.05317933   0.02321598  42.73  0.001603315    2.394    0.582
        93  -8.0814    161.6948    194.2978   2.6879531933e+02  -5.6008342130e+01   0.01889242    0.0135447 -28.97 0.0003841971    1.587    0.370
        94 -10.2561    109.6046    184.9093   2.6683842389e+02  -5.4470464952e+01   0.06435276   0.04895829  88.72  0.001822951    1.506    0.336
        95 -11.7649     98.0203    188.6827   2.6674892729e+02  -5.4038293490e+01   0.08456925   0.05430859 -30.53  0.001659009    1.822    0.451
        96  -9.8624    104.1910    189.3486   2.6694527265e+02  -5.4228756320e+01   0.03904641   0.02898598 -56.87 0.0009528248    1.320    0.242
        97 -10.8119     93.8812    181.6512   2.6625328791e+02  -5.4006716986e+01   0.06748843   0.04245607  37.93  0.001291954    1.577    0.366
        98  -8.6012     60.4885    192.4952   2.6601910146e+02  -5.2762057297e+01   0.03110895   0.01506052 -52.81 0.0007332993    1.976    0.494
        99  -9.1456    185.5264    190.0548   2.6924589838e+02  -5.6838663399e+01   0.03531362    0.0258878 -88.00  0.001032418    1.609    0.379
       100  -7.9846    134.6709    192.3276   2.6792528298e+02  -5.5169915309e+01   0.01967589   0.01338085 -29.12 0.0007050984    1.707    0.414
       101  -8.4294    138.4436    189.2535   2.6785461112e+02  -5.5338852493e+01   0.02565645   0.01778806   6.16 0.0009016843    1.657    0.397
       102  -9.8811    203.8872    187.7113   2.6966162036e+02  -5.7462076182e+01    0.0542756   0.03271061 -34.44   0.00186518    1.967    0.492
       103  -9.2034    198.9444    185.4850   2.6937961011e+02  -5.7340585100e+01   0.02939797   0.02833351 -67.31 0.0008452882    1.041    0.040
       104  -8.6183     66.7269    195.1224   2.6631383606e+02  -5.2927039885e+01   0.03314925   0.01676053 -29.22 0.0009500477    2.833    0.647
       105  -9.9848     11.4029    187.5135   2.6460805019e+02  -5.1230025731e+01   0.03609917   0.03203047  88.18 0.0006272247    1.196    0.164
       106 -11.6958     11.8116    180.7604   2.6426154995e+02  -5.1335121799e+01     0.119481   0.07863905  51.98  0.004446528    1.673    0.402
       107 -10.8586     19.8019    181.4799   2.6447800715e+02  -5.1587186568e+01   0.08407257   0.07296641  74.44  0.003637822    1.244    0.196
       108 -11.2383      5.2728    176.9373   2.6391605869e+02  -5.1171982348e+01   0.07718676   0.05701529  30.88  0.002105763    1.331    0.249
       109  -8.2783    155.5033    187.0407   2.6820253878e+02  -5.5923064925e+01   0.02741529   0.01794554  25.30 0.0005293307    1.534    0.348
       110  -9.8428    250.3105    184.4959   2.7094322276e+02  -5.8984299808e+01   0.06501961   0.02195232  32.83  0.001806138    2.750    0.636
       111  -9.3385    231.8140    186.1984   2.7044513493e+02  -5.8372770897e+01   0.04134183   0.02764959 -58.81  0.001568812    1.472    0.321
       112  -9.1900    228.2764    184.1376   2.7020811543e+02  -5.8295062469e+01   0.04176827   0.03180166 -79.11   0.00138849    1.451    0.311
       113 -10.0431    210.0444    185.0418   2.6969208388e+02  -5.7701468543e+01   0.03747275   0.03076053   9.25  0.001558139    1.303    0.232
       114  -9.7364    183.0398    185.4918   2.6890549068e+02  -5.6831959288e+01   0.03502145   0.02579696  -2.70 0.0007570037    1.601    0.376
       115  -8.6544    165.4903    186.5373   2.6845701564e+02  -5.6252266504e+01    0.0183747   0.01737284 -30.26 0.0008084787    1.069    0.064
       116  -8.4727    217.7165    182.9807   2.6980651617e+02  -5.7979069902e+01   0.02502721   0.02489401  60.66   0.00112603    1.014    0.014
       117  -9.5809     46.0710    182.3379   2.6512692263e+02  -5.2435411190e+01   0.04817965   0.03061349  29.33  0.001023235    1.537    0.349
       118  -9.0023     47.0000    176.9609   2.6485827642e+02  -5.2540570443e+01   0.04244022   0.02425152  19.01  0.001255866    1.807    0.447
       119  -8.4318    235.3396    182.3117   2.7032315179e+02  -5.8548826390e+01   0.01928463   0.01373243  64.95 0.0003446321    1.694    0.410
       120  -9.9165    181.9232    180.2805   2.6856695721e+02  -5.6878530256e+01   0.03292764    0.0257421   6.43  0.001324044    1.400    0.286
       121  -9.0013    139.0032    180.0409   2.6734460856e+02  -5.5497255369e+01   0.04362615   0.01975888 -41.98  0.001290147    2.512    0.602
       122  -9.7253    111.3219    179.4164   2.6657473406e+02  -5.4607495067e+01   0.06056553   0.02766083 -68.48  0.001860387    2.312    0.568
       123  -9.2820    104.0069    179.7403   2.6640438392e+02  -5.4364537490e+01   0.05035128   0.03157295  32.53  0.001699731    1.558    0.358
       124  -9.3008    100.9546    178.0000   2.6622901715e+02  -5.4290447248e+01   0.04210291   0.02044335 -66.89 0.0008897452    2.097    0.523
       125  -9.4122     61.5365    200.8632   2.6649518141e+02  -5.2674943128e+01   0.04615377   0.02659038 -39.83 0.0009834738    1.895    0.472
       126  -9.4622    157.9900    177.1236   2.6769916132e+02  -5.6156197131e+01    0.0510845   0.03009712  42.17  0.001807893    1.730    0.422
       127  -8.6897    240.4969    177.9108   2.7022102126e+02  -5.8784919140e+01   0.02745195   0.01777936  28.85 0.0006515811    1.535    0.348
       128  -8.5041    219.0766    178.0367   2.6955152005e+02  -5.8102848585e+01   0.02927895   0.02099873 -24.25 0.0005467882    1.649    0.394
       129 -10.9550    150.6668    174.5759   2.6734849250e+02  -5.5957911980e+01   0.07091863   0.05644269 -70.18  0.002450889    1.284    0.221
       130  -9.2684     89.1314    177.1773   2.6588542097e+02  -5.3916437589e+01   0.03803166   0.02755796 -34.72   0.00147633    1.482    0.325
       131  -9.6813     90.4603    172.3802   2.6565121679e+02  -5.4028606746e+01   0.07066289   0.03903277 -76.29  0.001851158    2.072    0.517
       132 -11.3911    217.6097    165.2401   2.6873035676e+02  -5.8261227470e+01    0.0929976   0.06128801 -77.12  0.002937281    1.720    0.419
       133 -10.7489    204.2878    175.6194   2.6895388228e+02  -5.7669518717e+01   0.06481074   0.04908209 -78.26  0.002584249    1.439    0.305
       134 -11.3037    207.5830    168.4348   2.6862091862e+02  -5.7889110706e+01   0.08561305   0.05344664  19.47  0.003101497    1.700    0.412
       135  -9.7708    105.2680    174.8506   2.6616213488e+02  -5.4476958246e+01   0.05527483   0.03288844 -17.22  0.001795625    2.312    0.568
       136  -9.1967     77.2759    175.6633   2.6550916029e+02  -5.3550433190e+01   0.03926734   0.02634559 -30.34 0.0009325944    1.694    0.410
       137  -8.1094     59.3874    176.6719   2.6513392494e+02  -5.2950518653e+01   0.02062898   0.01266981 -33.10 0.0007007025    1.874    0.466
       138  -9.7059     29.1886    175.1358   2.6435140386e+02  -5.1981299860e+01   0.04943395   0.03183479  29.54  0.001447554    1.514    0.340
       139  -9.7411     28.5040    170.0151   2.6406129003e+02  -5.2028027669e+01   0.03578532   0.02965163 -36.67 0.0008032761    1.235    0.191
       140  -9.8009     24.1301    174.5217   2.6420478756e+02  -5.1823529667e+01   0.03336583   0.02517472  -9.87 0.0009376396    1.481    0.325
       141 -11.9218      3.8413    169.2767   2.6348056536e+02  -5.1226414546e+01   0.04699603   0.04389186  28.25 0.0002382849    1.068    0.063
       142  -8.2755    223.5004    172.4201   2.6934877227e+02  -5.8334728250e+01   0.01789688   0.01766157 -62.55 8.931465e-05    1.014    0.014
       143  -8.4263    193.2229    172.5881   2.6844286259e+02  -5.7362495975e+01   0.02454826    0.0176935 -81.74 0.0005960836    1.573    0.364
       144  -8.3015    176.7034    171.3460   2.6788952027e+02  -5.6849585861e+01   0.03268212   0.02221832 -10.04 0.0009652247    1.855    0.461
       145  -9.4629    177.5683    168.3860   2.6773907931e+02  -5.6923064192e+01   0.05356419   0.03594039 -26.70  0.001950123    1.780    0.438
       146  -8.8216    134.9897    171.0730   2.6672199542e+02  -5.5501182645e+01   0.03122962   0.02083723 -30.13  0.001132266    1.730    0.422
       147  -9.1623    121.5241    169.7105   2.6628945596e+02  -5.5082376592e+01   0.04485024   0.02718413 -33.89  0.001176585    1.915    0.478
       148  -9.2947     19.3242    166.6818   2.6367901325e+02  -5.1770435078e+01   0.02628246   0.01854056  -6.83 0.0003124113    1.627    0.385
       149  -8.4517     54.8940    169.2971   2.6462536307e+02  -5.2905387263e+01   0.03263791     0.015951 -32.22 0.0009387006    2.752    0.637
       150  -8.3339    161.2868    167.7154   2.6724162805e+02  -5.6406012898e+01   0.02854171   0.02280234 -51.89 0.0005204983    1.236    0.191
       151  -9.9912    159.3625    164.6903   2.6701086282e+02  -5.6389053354e+01   0.09224665    0.0168105  25.93  0.001900899    5.023    0.801
       152 -10.8454    247.1893    161.8747   2.6944583060e+02  -5.9259991310e+01   0.09763972   0.05679568  34.31   0.00349083    1.673    0.402
       153 -11.3896    249.4636    154.3597   2.6904755869e+02  -5.9453565598e+01    0.1133157    0.0591425  15.69  0.003600145    2.295    0.564
       154  -9.3806    200.2196    166.8301   2.6830447481e+02  -5.7677708612e+01   0.03076503   0.02820459 -79.66 0.0003433365    1.123    0.110
       155 -10.6811    150.0123    163.8211   2.6670484021e+02  -5.6097853197e+01   0.05877937   0.04654162  58.41  0.001526987    1.373    0.271
       156  -9.9397     99.8689    159.6267   2.6516652248e+02  -5.4517862213e+01    0.0489745   0.03981015  53.13  0.001217079    1.296    0.228
       157  -9.4835     98.0910    165.2099   2.6543826504e+02  -5.4380614850e+01    0.0707298   0.03464866 -27.64  0.001964035    3.121    0.680
       158  -8.8898     92.9284    160.0514   2.6501991658e+02  -5.4283816019e+01   0.03879138   0.02498605 -30.09  0.001234451    1.800    0.444
       159  -8.2848     31.4938    166.4330   2.6393532832e+02  -5.2174520076e+01    0.0179679   0.01754983  64.12 0.0008063824    1.046    0.044
       160  -9.0284    138.9959    165.1831   2.6648858638e+02  -5.5718737072e+01   0.04442468   0.02673188 -18.91  0.001253913    2.260    0.557
       161  -8.5688     81.0113    165.0754   2.6501214329e+02  -5.3821974633e+01   0.03190951   0.02033159 -29.50  0.001124226    1.837    0.456
       162  -8.5286     37.2904    164.4049   2.6395566712e+02  -5.2392647928e+01   0.03437702   0.02229692 -53.86   0.00128453    1.501    0.334
       163  -9.0307      9.3289    163.3383   2.6328329697e+02  -5.1485067503e+01   0.04377475   0.02192752  21.07  0.001249445    1.998    0.499
       164  -9.2355     21.1984    161.0013   2.6341524684e+02  -5.1907271879e+01     0.046956   0.03401268  84.57  0.001687741    1.600    0.375
       165  -9.8069     24.5123    160.4917   2.6346026633e+02  -5.2023344192e+01   0.07658277   0.03630529  84.62  0.001942375    3.876    0.742
       166  -8.4999    122.6374    162.7025   2.6591697453e+02  -5.5220573859e+01   0.01955408   0.01349234  63.37 0.0007033211    1.715    0.417
       167  -9.2123    167.1445    157.6351   2.6680853053e+02  -5.6747620626e+01   0.05750051   0.02947336 -35.12  0.001762836    2.457    0.593
       168 -10.6105    142.9294    158.4976   2.6620408168e+02  -5.5945179067e+01   0.09077333   0.02662296 -59.51  0.002400735    2.994    0.666
       169  -9.4030    105.2114    157.5989   2.6518365536e+02  -5.4721944471e+01    0.0385824   0.02672293 -26.62 0.0008469854    1.656    0.396
       170  -9.4418    225.0150    157.5159   2.6848229749e+02  -5.8620782503e+01    0.0280118   0.01788464 -63.45 0.0005292842    1.564    0.361
       171  -9.7606    206.8437    142.1562   2.6699248884e+02  -5.8270237288e+01   0.03275296   0.02945977  48.24 0.0006407243    1.133    0.118
       172 -10.1623    208.3851    156.5032   2.6791978298e+02  -5.8101381664e+01   0.06197469   0.03936576 -78.92  0.002158242    1.830    0.453
       173 -11.6119    206.0043    150.2896   2.6746915570e+02  -5.8119875825e+01   0.08982132   0.07219993  -9.31  0.003564179    1.387    0.279
       174  -9.0026    127.8978    157.0260   2.6572529239e+02  -5.5474594790e+01   0.04258549   0.02615303  24.95  0.001337698    1.617    0.381
       175  -8.6567    111.7747    167.7375   2.6592595825e+02  -5.4792533500e+01   0.02866073   0.01523802   7.78 0.0008760308    2.394    0.582
       176 -10.2329    134.3867    153.5908   2.6569358751e+02  -5.5736616856e+01   0.07319675   0.03869833 -37.14   0.00177225    2.224    0.550
       177  -8.9481    119.4896    154.7775   2.6538032352e+02  -5.5230869539e+01   0.03751881   0.02448819 -16.58  0.001114025    1.913    0.477
       178  -9.6866     81.8400    154.3331   2.6443023037e+02  -5.3997928596e+01   0.04458117   0.02891176  -5.34  0.001188024    1.882    0.469
       179  -9.8810     68.5876    154.0661   2.6410336853e+02  -5.3564286923e+01   0.05965452   0.03806804  -4.73   0.00210099    1.917    0.478
       180 -10.8156     70.1185    142.4063   2.6348561872e+02  -5.3771192541e+01   0.08508856   0.05513914  20.98  0.003183073    1.548    0.354
       181  -9.1632    233.8633    153.8840   2.6852886320e+02  -5.8961940423e+01   0.03419148   0.02582482  15.88   0.00135988    1.392    0.282
       182  -9.0432    100.0240    153.9641   2.6484849833e+02  -5.4602224938e+01   0.03295228   0.02426609  21.69 0.0008408435    1.363    0.267
       183  -9.5362     15.7633    163.4057   2.6342592429e+02  -5.1696360697e+01   0.04365301   0.02838377  87.07   0.00155896    1.877    0.467
       184 -10.5791    223.4478    148.4902   2.6787547881e+02  -5.8711135334e+01   0.05985971   0.05665258 -81.60  0.001839299    1.080    0.074
       185  -9.1536    190.0385    150.8069   2.6704018736e+02  -5.7594296769e+01   0.03564933   0.02861406 -38.55  0.001267417    1.287    0.223
       186  -9.0766     89.3351    150.9966   2.6442084875e+02  -5.4290918950e+01   0.05397563   0.02236342 -59.00  0.001648407    2.232    0.552
       187  -9.1006    121.6655    149.0142   2.6510197968e+02  -5.5383838736e+01   0.05272455   0.02872055  64.64  0.001598741    2.633    0.620
       188  -9.7735    125.4812    144.1113   2.6491281787e+02  -5.5578244903e+01   0.07135337   0.04783483  -0.74  0.002311382    1.758    0.431
       189  -9.8108    117.7487    144.9969   2.6477075475e+02  -5.5311032170e+01   0.08078847   0.02045897 -47.77  0.001495944    4.135    0.758
       190  -9.0916     28.0817    148.7912   2.6290397129e+02  -5.2294187540e+01   0.05745426   0.02860178 -10.89  0.001581048    3.218    0.689
       191  -9.4596     39.2070    146.7090   2.6303229571e+02  -5.2689909503e+01   0.06413805   0.03380884 -20.61  0.001910285    2.729    0.634
       192 -10.1203    148.7491    144.7127   2.6554630550e+02  -5.6335032823e+01   0.07284689   0.03930534 -19.68  0.002110076    2.818    0.645
       193  -9.0585    142.7082    146.8452   2.6551446104e+02  -5.6106230184e+01   0.03246335   0.02532691  85.35  0.001073656    1.445    0.308
       194  -8.9461    133.8146    147.1696   2.6530354910e+02  -5.5809441751e+01   0.02698459   0.02091153  54.87  0.001076626    1.384    0.278
       195 -10.0293     56.3162    145.4142   2.6334069713e+02  -5.3273951707e+01    0.0871444   0.03682682 -53.39  0.002202826    2.229    0.551
       196  -9.1090    195.2608    145.3170   2.6685433131e+02  -5.7846376563e+01   0.04375128   0.02207087  12.22  0.001212435    2.461    0.594
       197  -9.3202    158.4449    145.8664   2.6587164807e+02  -5.6636399135e+01   0.04598038    0.0188346  55.85  0.001077924    4.222    0.763
       198  -9.5852    106.9756    144.8042   2.6449391889e+02  -5.4958264619e+01   0.06370912   0.03233593 -27.09  0.001846943    2.842    0.648
       199  -8.1030     13.4642    146.4486   2.6246525161e+02  -5.1839662187e+01   0.01835205   0.01715409 -31.86 4.596236e-05    1.075    0.070
       200  -8.7106    190.5610    145.5093   2.6673274194e+02  -5.7690575473e+01    0.0316234   0.01816233 -82.03  0.001012318    2.184    0.542
       201  -8.2932    165.4416    143.9617   2.6594556235e+02  -5.6893137628e+01   0.02558355   0.01515258 -13.64 0.0005088656    2.360    0.576
       202  -9.1032     77.5690    147.1438   2.6392470292e+02  -5.3954574738e+01   0.02965688   0.02298716 -82.49  0.001188597    1.382    0.276
       203  -8.7926     88.0460    143.8002   2.6398150097e+02  -5.4346287314e+01   0.04156021   0.02279037 -30.12  0.001316981    2.305    0.566
       204  -8.9991      2.8349    142.5173   2.6203254867e+02  -5.1536502872e+01   0.03706975   0.02037227 -28.75  0.001185036    2.267    0.559
       205  -9.5828    192.8167    133.8215   2.6607915979e+02  -5.7936468595e+01   0.03005222   0.02462228 -25.44 0.0008656314    1.311    0.237
       206 -10.9010    197.4954    136.2453   2.6635998226e+02  -5.8053797088e+01   0.07581431    0.0493121  63.95  0.002559283    1.900    0.474
       207 -10.0489     40.9752    135.5965   2.6245780059e+02  -5.2891795910e+01   0.09044524   0.05615828 -48.44  0.003320261    1.604    0.376
       208  -9.6751     46.2990    134.6448   2.6252020979e+02  -5.3081097763e+01   0.05896775   0.03392075 -10.63  0.001556349    2.295    0.564
       209 -10.3861     42.9675    129.4333   2.6215837739e+02  -5.3036335506e+01   0.09486745   0.05441622 -22.26   0.00193354    2.238    0.553
       210  -9.1377     23.6365    138.4488   2.6224497642e+02  -5.2278874011e+01   0.05379268    0.0276244 -34.89  0.001686204    2.333    0.571
       211  -9.2536     22.0598    132.0197   2.6186025358e+02  -5.2307043925e+01   0.08839574   0.03834517  51.28  0.002499382    2.886    0.654
       212  -9.6348    234.3318    136.5655   2.6745492164e+02  -5.9245736027e+01   0.04480215   0.03201267  63.17  0.001131261    1.636    0.389
       213  -8.8087    161.4385    136.3813   2.6538288220e+02  -5.6870750635e+01   0.03379986   0.03000006 -82.24  0.001463291    1.168    0.144
       214  -8.4285    148.3418    137.3397   2.6509730694e+02  -5.6426320569e+01   0.02006799   0.01321882  59.05 0.0007049361    1.772    0.436
       215  -9.5773    107.4524    138.7579   2.6415637096e+02  -5.5056807945e+01   0.06284666   0.04012446 -35.76  0.002273151    1.727    0.421
       216  -9.1438     81.8487    136.1630   2.6340189652e+02  -5.4243031497e+01   0.02593294   0.02110402  63.87 0.0007176701    1.332    0.249
       217  -8.9296    244.6512    135.2918   2.6768797243e+02  -5.9598490143e+01   0.01951567   0.01325527 -32.42 0.0002692427    1.669    0.401
       218 -10.0221    202.9533    136.2266   2.6651355538e+02  -5.8232081319e+01   0.04431925   0.02945924 -61.40  0.000754934    1.478    0.323
       219 -10.0305     99.3039    127.9948   2.6333864787e+02  -5.4930974326e+01    0.1238417   0.05378615 -26.87  0.002969728    4.201    0.762
       220 -10.5984    106.7293    114.3421   2.6271429827e+02  -5.5356904505e+01    0.1828417    0.1174975  67.82  0.006482624    1.907    0.476
       221  -9.4447    121.4971    111.5796   2.6289639041e+02  -5.5885623035e+01   0.05974054   0.04050347  15.44  0.001741637    1.523    0.343
       222 -10.4901    107.0877    122.5464   2.6320409774e+02  -5.5261789760e+01    0.1032976   0.05370094  87.20  0.003035059    2.817    0.645
       223 -10.0822    109.7616    130.7510   2.6374688833e+02  -5.5241564185e+01   0.07740602   0.05477296 -62.71  0.003029137    1.388    0.280
       224  -9.3214    110.2438    125.4607   2.6344933617e+02  -5.5328225708e+01    0.0468345   0.03574787 -75.92  0.001043091    1.358    0.264
       225 -10.3813    116.7654    124.9009   2.6357237226e+02  -5.5552400941e+01   0.07398353   0.06159304  49.37  0.001876122    1.239    0.193
       226 -10.0306    118.2279    118.4751   2.6322822903e+02  -5.5686287690e+01   0.07533157   0.02866486  21.89  0.002156432    2.614    0.617
       227  -8.8670     49.5975    154.8510   2.6371128223e+02  -5.2926529247e+01   0.03821586   0.02492202 -28.16 0.0009870834    1.772    0.436
       228 -10.1790    132.3256    131.2989   2.6433106510e+02  -5.5981693548e+01   0.05618323   0.03296535  -1.63  0.001480439    2.194    0.544
       229  -9.7929     83.6799    131.7695   2.6319330814e+02  -5.4361808839e+01   0.05714278    0.0333272 -28.99  0.001285388    2.088    0.521
       230  -8.9240    209.0538    131.8338   2.6641425652e+02  -5.8495878094e+01   0.05096455   0.01934537 -54.48  0.001488617    2.436    0.589
       231  -8.3793    143.1540    131.2471   2.6460072357e+02  -5.6340360969e+01   0.02597963   0.02047321 -27.51 0.0005198806    1.367    0.268
       232 -10.3291    246.6217    128.9888   2.6734409512e+02  -5.9758505686e+01   0.04964696   0.02978293 -10.50  0.001531417    2.380    0.580
       233  -9.2096    168.8163    129.6964   2.6517373125e+02  -5.7208264197e+01   0.03600144   0.02232506 -18.97  0.001064745    2.084    0.520
       234  -9.0754     73.4101    129.3869   2.6282383361e+02  -5.4051235858e+01     0.042928   0.02288197 -31.95 0.0009805035    2.321    0.569
       235  -9.2938     12.8917    129.1607   2.6151533386e+02  -5.2036785944e+01   0.05951567    0.0299901 -26.22  0.001759066    2.720    0.632
       236  -9.3277    152.8032    127.6168   2.6462967024e+02  -5.6709405979e+01   0.07491268   0.02672572  17.31  0.001935626    3.309    0.698
       237  -9.9538     59.8805    124.3112   2.6223637240e+02  -5.3665269197e+01   0.08241048   0.03604782 -28.69  0.002098395    3.669    0.727
       238  -9.6825    226.7596    125.2584   2.6651167863e+02  -5.9170015636e+01   0.04173653   0.02528457 -30.08  0.001417673    2.018    0.504
       239  -9.2131    243.4890    130.5405   2.6734831877e+02  -5.9633614939e+01   0.01798217   0.01775995 -32.49 0.0002085783    1.009    0.009
       240  -9.5123    135.8442    124.3686   2.6400663613e+02  -5.6192764474e+01    0.0365768     0.023515 -76.98 0.0009395992    1.679    0.405
       241 -10.1270     44.0017    122.6392   2.6180123029e+02  -5.3156019773e+01    0.0920995    0.0438111 -24.19  0.002520189    3.218    0.689
       242 -10.1076     28.4220    122.2212   2.6145245248e+02  -5.2640546314e+01   0.07835416   0.04821511 -16.77  0.002706819    1.998    0.499
       243  -8.9657    219.2233    124.4075   2.6623883033e+02  -5.8936893626e+01   0.02689262   0.01596829 -53.10  0.000949855    1.638    0.390
       244  -8.3609     73.3251    124.3400   2.6253441200e+02  -5.4113460378e+01   0.01995894   0.01303961  56.37  0.000705125    1.728    0.421
       245 -10.1190    180.9825    120.6815   2.6494460983e+02  -5.7735989529e+01   0.08848418   0.03044512  40.90  0.002397078    2.937    0.660
       246  -8.8040     84.6484    121.7200   2.6263844632e+02  -5.4524818506e+01   0.03098572   0.01968293  55.00  0.001100739    1.775    0.437
       247  -8.7606    189.2058    121.2272   2.6519981853e+02  -5.7999072484e+01   0.03154458     0.016508  60.13 0.0009311183    2.655    0.623
       248  -9.5807    172.5552    119.0961   2.6462374274e+02  -5.7480064704e+01   0.05288956   0.02733834  33.39  0.001778537    1.855    0.461
       249  -8.8050    158.5977    121.0577   2.6438147537e+02  -5.6991566221e+01   0.03826983   0.02339345  -7.77   0.00115246    2.118    0.528
       250  -9.7132    142.0004    119.0805   2.6384262770e+02  -5.6468515135e+01   0.05875627   0.03332515 -14.23   0.00167025    2.458    0.593
       251  -8.5610     71.0326    119.8221   2.6222566355e+02  -5.4094543506e+01   0.03242153   0.01762252 -40.17 0.0007904039    2.006    0.502
       252  -9.7388    130.7104    118.5300   2.6353199159e+02  -5.6100864234e+01   0.04621027   0.02572207 -17.07  0.001370056    2.521    0.603
       253 -10.1283     22.6281    110.1450   2.6066563614e+02  -5.2592546604e+01   0.07958912   0.03127812  18.27  0.002304619    2.590    0.614
       254 -10.7059     23.3253    102.0900   2.6023133028e+02  -5.2711060506e+01    0.1221385   0.04623599 -32.40  0.002829935    4.379    0.772
       255 -10.2419     21.7592     92.3494   2.5965658330e+02  -5.2771008827e+01   0.07871938   0.03873224  50.01   0.00247301    2.297    0.565
       256 -10.5978     15.3545    113.9067   2.6072882238e+02  -5.2303836875e+01    0.0818499   0.05039701   8.88   0.00233558    1.748    0.428
       257 -11.0201     16.6718    105.1999   2.6027374691e+02  -5.2450989716e+01   0.07931653   0.05698491  69.71  0.003063581    1.580    0.367
       258  -9.5979      2.5504    116.5894   2.6062343395e+02  -5.1843075340e+01   0.07400277   0.03781997 -11.76  0.002179705    2.785    0.641
       259  -8.5938    246.3410    115.6697   2.6647312413e+02  -5.9949164538e+01   0.01994063   0.01322655 -30.39 8.684385e-05    1.744    0.427
       260 -10.5120    184.7615    113.8870   2.6462347791e+02  -5.7955514641e+01   0.06372473   0.03389334 -48.45  0.001837885    1.878    0.467
       261  -9.6968     92.7731    112.5291   2.6228917307e+02  -5.4913844880e+01   0.05728342   0.03518382 -18.68   0.00138758    2.026    0.506
       262  -9.7282     79.4570    112.6936   2.6200188645e+02  -5.4466255867e+01   0.05656127   0.03460705 -22.19  0.001535973    2.002    0.500
       263  -8.7558    141.6430    112.1468   2.6341560706e+02  -5.6549467705e+01    0.0415969   0.01622712  45.48  0.001139507    2.881    0.653
       264  -8.2740    159.3071    111.6685   2.6382640005e+02  -5.7142997558e+01   0.01961121   0.01326565 -30.36 0.0003559946    1.664    0.399
       265  -9.8231    133.8248    108.4371   2.6300190716e+02  -5.6337904702e+01   0.06938757   0.03099622  22.33  0.002155103    2.213    0.548
       266  -9.7931     66.1972    109.0127   2.6150213088e+02  -5.4067863611e+01    0.0807813   0.03650257   8.70  0.002343169    2.709    0.631
       267  -9.1624    196.9388    106.6722   2.6449562832e+02  -5.8457691003e+01   0.03102011   0.02789382 -46.60 0.0006233156    1.109    0.098
       268  -8.8174     78.3522    105.7316   2.6157504426e+02  -5.4516089429e+01   0.04386717   0.02319654  63.87  0.001330021    2.568    0.611
       269  -9.3864     61.3775    106.0199   2.6122832507e+02  -5.3942860658e+01    0.0353953   0.02594699 -59.01 0.0006873282    1.334    0.250
       270  -9.0162    140.0788    104.6765   2.6292499673e+02  -5.6595698920e+01   0.04330694   0.02507584 -26.69  0.001421042    2.158    0.537
       271 -10.1967     45.8615    102.1795   2.6068763234e+02  -5.3467874087e+01    0.1070241   0.03961332 -34.58  0.002497283    4.263    0.765
       272 -10.5384     30.5686    101.6445   2.6034954370e+02  -5.2959897210e+01    0.1166673   0.02309094 -51.37  0.002586929    4.340    0.770
       273  -9.8161    249.9870    103.4704   2.6578116216e+02  -6.0246327143e+01   0.03046892   0.02469821  21.21  0.001261856    1.239    0.193
       274  -8.9979     94.1546    103.6491   2.6180058789e+02  -5.5072054496e+01   0.06680766   0.02786222 -84.55  0.001702443    3.584    0.721
       275 -10.7724    130.5569    100.8701   2.6246752757e+02  -5.6326755117e+01   0.09057459    0.0526168  66.33  0.002678429    2.240    0.554
       276  -8.6640     82.2654    100.0835   2.6133150403e+02  -5.4717044460e+01   0.03732079   0.01974009 -40.28  0.001213301    2.066    0.516
       277 -10.2542    108.5045     98.3215   2.6180669184e+02  -5.5620042258e+01   0.07380349   0.03869046 -40.13  0.001940109    2.098    0.523
       278  -8.7051     95.0668     97.0229   2.6143084926e+02  -5.5184848464e+01   0.03020609   0.02024531 -31.97 0.0005935575    1.644    0.392
       279  -9.7999     63.8257     95.7523   2.6068983419e+02  -5.4149131132e+01    0.0636092   0.03184254 -30.50  0.001916289    2.560    0.609
       280  -9.0475    150.5741    103.8536   2.6313016912e+02  -5.6956557188e+01   0.03693605   0.02301964  -3.18  0.001271926    1.955    0.488
       281  -9.5715     44.4144     91.9564   2.6007754063e+02  -5.3539660727e+01   0.05868997    0.0301944 -86.24  0.001731314    2.383    0.580
       282  -8.6797    138.6052     91.7959   2.6210497520e+02  -5.6711895957e+01   0.03678332   0.02303965 -22.53 0.0008403938    1.928    0.481
       283  -9.3592    124.6328     90.8880   2.6172626960e+02  -5.6254346585e+01   0.04835684   0.02731979 -35.41    0.0014446    2.017    0.504
       284  -9.0066    108.6083     91.5132   2.6140280685e+02  -5.5707952164e+01   0.05200048   0.02861689  77.01  0.001604266    2.522    0.604
       285 -10.4203      4.6232     90.7787   2.5924524493e+02  -5.2210877001e+01   0.06913373   0.03973901 -12.00  0.002143118    2.163    0.538
       286 -10.1903      8.2605     84.0395   2.5893856842e+02  -5.2408876890e+01   0.07985927   0.04366615 -87.72  0.002621202    2.166    0.538
       287  -8.2333     57.6479     91.7534   2.6033250189e+02  -5.3988357394e+01   0.01878143   0.01330541  64.33 0.0002769779    1.588    0.370
       288  -9.7192     34.7363     89.1535   2.5972764900e+02  -5.3245481503e+01   0.06576326   0.03524283  -7.75  0.002052942    2.431    0.589
       289  -9.5869     36.1104     81.7701   2.5933509020e+02  -5.3375941696e+01   0.06426312   0.03217391  62.89  0.001910401    2.682    0.627
       290  -8.8016     96.9884     90.1478   2.6106615276e+02  -5.5333541629e+01   0.03281898    0.0193857  65.83  0.001084292    2.121    0.529
       291  -9.3701     86.5320     86.6472   2.6063487977e+02  -5.5023187408e+01   0.04707338   0.02551148 -40.10  0.001426296    2.003    0.501
       292  -8.7940     65.0761     86.6138   2.6018700589e+02  -5.4299353894e+01   0.03637666   0.02308317  83.73  0.001278416    1.876    0.467
       293  -9.1815    126.1376     84.3476   2.6136332596e+02  -5.6385866934e+01   0.07012022   0.02386769  54.70  0.001392287    5.839    0.829
       294  -9.4845     48.3802     83.8680   2.5969377150e+02  -5.3767026452e+01   0.05913629   0.03141776 -20.81  0.001559283    2.487    0.598
       295  -9.5849     49.6826     76.8032   2.5931296809e+02  -5.3891434271e+01   0.05546233   0.03129622  74.53  0.001321284    2.293    0.564
       296  -9.1372    116.8739     83.2433   2.6108897065e+02  -5.6087343880e+01   0.03453175     0.024403  33.06 0.0005978566    1.390    0.281
       297  -9.1914    104.6321     82.8445   2.6079657668e+02  -5.5679361643e+01    0.0469454   0.02576032 -25.69  0.001244619    2.314    0.568
       298  -8.4856    140.5552     82.5496   2.6158257141e+02  -5.6893131668e+01   0.01820209   0.01749105 -32.12 0.0001589986    1.042    0.040
       299  -8.6956    184.4998     77.5305   2.6231887895e+02  -5.8431029976e+01   0.02696861   0.01784467   1.84 0.0001639536    1.709    0.415
       300  -9.1172    192.6124     76.2429   2.6243851609e+02  -5.8718979856e+01   0.03947849   0.02294954  63.28  0.001149074    2.182    0.542
       301  -8.9438    185.3320     81.3295   2.6258267600e+02  -5.8410208169e+01   0.03103551   0.02164654  41.58  0.001187057    1.448    0.309
       302  -9.5925    188.2381     79.7596   2.6255497490e+02  -5.8527569279e+01   0.06106263   0.02117977  42.00  0.001637619    2.991    0.666
       303  -9.2598     87.2478     80.2265   2.6027050366e+02  -5.5123358419e+01   0.05478625   0.02689081  78.52  0.001519928    3.117    0.679
       304  -8.4607     74.5357     80.0715   2.5999856387e+02  -5.4695331321e+01   0.02765195   0.01436184 -16.90 0.0008084411    2.660    0.624
       305  -9.6567     24.7938     80.6952   2.5905899698e+02  -5.3005131944e+01   0.05805829   0.02994983 -25.24  0.001327922    2.511    0.602
       306  -8.6923    104.6809     76.6847   2.6042777397e+02  -5.5754403095e+01   0.03124534   0.01953844  55.53  0.001101054    1.793    0.442
       307  -8.8730    127.7313     74.7524   2.6081271124e+02  -5.6556152790e+01   0.04960978   0.02518152  -9.56  0.001207314    2.828    0.646
       308  -8.8256    128.4773     70.0307   2.6053912275e+02  -5.6637749383e+01   0.04888304   0.01879224  55.17  0.001164738    4.008    0.751
       309  -9.6310     10.0293     74.0974   2.5841566391e+02  -5.2577747023e+01   0.03144092   0.02786991 -60.19 0.0003354519    1.120    0.107
       310  -8.1775    213.9952     74.2215   2.6285367932e+02  -5.9459194023e+01   0.02504412    0.0148732 -67.97 0.0008762878    1.681    0.405
       311  -9.3178     82.6804     72.6142   2.5972519484e+02  -5.5057188009e+01    0.0508104   0.02622816 -27.71  0.001373363    2.477    0.596
       312 -10.0602     27.3039     71.4139   2.5858010496e+02  -5.3192618791e+01   0.08150743   0.03534244  69.01  0.002020612    3.931    0.746
       313  -8.8419     95.3112     71.2165   2.5990194509e+02  -5.5501271856e+01   0.04419161   0.02463573 -15.37  0.001364638    2.322    0.569
       314 -10.7346      5.4655     70.3907   2.5812637114e+02  -5.2462977248e+01   0.07363704   0.02417978  34.37  0.002048567    2.736    0.635
       315  -8.2301    105.6801     71.3446   2.6012718564e+02  -5.5850958269e+01   0.02013475   0.01287795 -32.92 0.0004423994    1.726    0.421
       316  -9.5025     51.5191     69.4789   2.5892511552e+02  -5.4035640669e+01   0.06328129   0.02933174  -9.50  0.001713766    3.236    0.691
       317  -9.3899     16.4592     68.9941   2.5824492783e+02  -5.2850905699e+01   0.06682793   0.02803005   0.14  0.001758228    3.356    0.702
       318 -10.0440     18.1918     61.7026   2.5786357956e+02  -5.2987558694e+01   0.05081757   0.03266585  41.85  0.001115436    1.565    0.361
       319  -9.0914      1.4594     69.0079   2.5797823867e+02  -5.2341863406e+01   0.02802796   0.01761493  18.85 0.0006966726    1.573    0.364
       320  -8.0911    146.7210     68.3223   2.6084044779e+02  -5.7274555699e+01   0.01913753   0.01322651 -30.56 0.0002826718    1.585    0.369
       321  -8.4549     13.6790     74.2779   2.5849198433e+02  -5.2699455439e+01   0.02564435   0.02044091  60.78 0.0002213841    1.332    0.249
       322  -8.5590    106.7600     66.4440   2.5985345605e+02  -5.5944437016e+01   0.02552907   0.01755428  88.07 0.0009419682    1.630    0.386
       323  -9.2373     83.7731     64.4978   2.5926496507e+02  -5.5186533387e+01   0.05844624   0.02347728  53.50  0.001527683    3.330    0.700
       324  -8.0289    121.3576     65.7089   2.6011870566e+02  -5.6447680696e+01    0.0200243   0.01269753 -37.62 0.0007028235    1.688    0.408
       325  -8.6731     37.4745     64.1328   2.5835206217e+02  -5.3617122699e+01   0.03773245    0.0184609 -38.28  0.001167067    2.305    0.566
       326  -8.2665    110.3039     63.6564   2.5975846839e+02  -5.6096729863e+01   0.01986989   0.01297134 -32.19 0.0005311522    1.685    0.406
       327  -8.8772     51.9600     61.1900   2.5845207057e+02  -5.4141613135e+01   0.03257944    0.0191929  66.47  0.001088795    2.057    0.514
       328  -8.9508    100.4866     59.9866   2.5933239657e+02  -5.5805192773e+01   0.02761158   0.01429883 -17.74 0.0008105437    2.624    0.619
       329  -9.3795     73.2948     59.3891   2.5875448616e+02  -5.4887184734e+01   0.04727906   0.02871024 -17.24 0.0009529637    1.971    0.493
       330  -8.2660    164.5084     59.5112   2.6068975828e+02  -5.7980878023e+01    0.0180386   0.01784039 -33.30 8.576272e-05    1.005    0.005
       331  -9.3945     25.7983     54.7600   2.5760322781e+02  -5.3319443336e+01   0.02994589   0.02433441  55.63  0.001240284    1.280    0.219
       332  -8.5358    111.0057     58.3146   2.5944730806e+02  -5.6181532297e+01   0.02591552   0.02307094 -80.98 0.0004664839    1.142    0.125
       333  -9.5002     39.4644     57.5253   2.5800795054e+02  -5.3755726394e+01   0.03757711   0.02848526  55.10   0.00117077    1.390    0.280
       334 -10.1272      7.3850     57.0117   2.5740901318e+02  -5.2669090667e+01   0.04776965   0.02641283 -22.15  0.001141306    2.217    0.549
       335  -9.9432      2.2746     56.0068   2.5726472407e+02  -5.2505574077e+01   0.04872249   0.03212814  10.50   0.00152704    1.558    0.358
       336  -8.2799    119.4910     56.0011   2.5948226402e+02  -5.6496089280e+01   0.02657382   0.01432146 -19.20 0.0008089895    2.429    0.588
       337  -8.3613    100.4336     54.7418   2.5901340322e+02  -5.5862160087e+01   0.02725633   0.01562402  33.42 0.0009485802    1.687    0.407
       338  -8.7225     62.7482     54.5917   2.5826902176e+02  -5.4580299463e+01   0.03260166   0.02112207 -17.85 0.0007353055    1.776    0.437
       339 -11.3366     45.4456     49.1894   2.5763310494e+02  -5.4047606576e+01   0.05948788   0.03277857  30.29  0.002075199    1.735    0.424
       340  -9.4651     74.5540     51.4431   2.5830676068e+02  -5.5016658214e+01   0.08862131   0.02568911  50.30  0.001799581    5.464    0.817
       341  -8.3971     54.4373     54.2526   2.5809348477e+02  -5.4300711005e+01   0.02621769   0.01726181  -4.47  0.000947497    1.696    0.411
       342  -8.9905     20.4884     52.9688   2.5740749996e+02  -5.3157167358e+01    0.0263724   0.01396738 -20.96 0.0008079805    2.392    0.582
       343  -9.3488     31.0756     51.1915   2.5749197208e+02  -5.3536518101e+01   0.03598451   0.02089069 -24.22 0.0008159634    2.039    0.510
       344 -10.3431      7.9849     50.1478   2.5703188114e+02  -5.2760008223e+01   0.06356507   0.01680128  40.50  0.001532294    3.695    0.729
       345  -8.8493     92.4932     50.7485   2.5861319759e+02  -5.5635763135e+01    0.0343624   0.01834271   7.83 0.0008191818    2.063    0.515
       346  -9.3538     64.0017     47.1649   2.5785402202e+02  -5.4702286935e+01   0.04902878   0.02259636  56.24  0.001418452    2.725    0.633
       347  -9.1378     22.5206     46.6155   2.5707971683e+02  -5.3291780986e+01   0.04027052   0.02292507 -85.43  0.001368041    1.944    0.486
       348  -8.7811      1.6940     45.8963   2.5668614700e+02  -5.2588445188e+01   0.02700004   0.02328895  47.70 0.0005772012    1.174    0.148
       349  -8.9616    149.9822     44.2248   2.5939284367e+02  -5.7665934252e+01   0.03386659    0.0228536  -4.05 0.0008371445    1.658    0.397
       350  -8.0087    130.5439     45.5155   2.5906241980e+02  -5.6989967577e+01   0.01837942   0.01739284  53.50 0.0008077828    1.073    0.068
       351  -9.9641    196.3434    248.4308   2.7290551332e+02  -5.6195062496e+01   0.04075925   0.03861591  61.94  0.001094675    1.088    0.081
       352 -10.0493      4.9514     40.5927   2.5644041400e+02  -5.2752410935e+01   0.07694868   0.03335792  -0.12   0.00214748    2.969    0.663
       353  -9.9886      6.6400     33.7134   2.5607761947e+02  -5.2877588388e+01   0.04351791   0.03261387 -75.89   0.00120625    1.346    0.257
       354  -9.0225    123.6352     40.1818   2.5858725124e+02  -5.6813213847e+01   0.03314042   0.02759044  68.40 0.0002719733    1.273    0.215
       355  -9.0760    114.0511     41.1748   2.5845582266e+02  -5.6475322741e+01   0.02772836   0.02339778  59.05 0.0003029845    1.236    0.191
       356  -9.1992     54.2592     46.5807   2.5764041525e+02  -5.4375773109e+01   0.05473442   0.02175033  51.57  0.001469528    3.116    0.679
       357  -8.5322     37.0440     40.9693   2.5700590026e+02  -5.3845385705e+01   0.03054569   0.01965642 -35.46  0.000628136    1.663    0.399
       358  -8.6968     84.2421     39.8239   2.5779413406e+02  -5.5471279184e+01   0.03525848   0.02108463  66.12  0.001059553    1.987    0.497
       359  -8.9818    106.2524     36.8540   2.5803527248e+02  -5.6255286078e+01   0.03551728   0.02128891  67.40 0.0007824223    1.997    0.499
       360  -8.8766     95.3914     37.2040   2.5784700702e+02  -5.5880168724e+01    0.0263769   0.01709952  -3.47 0.0008893315    1.722    0.419
       361  -9.0074     26.0729     36.2662   2.5654545916e+02  -5.3517383098e+01   0.03308266    0.0227363 -13.61  0.001101966    1.610    0.379
       362  -8.6789     70.3486     35.3307   2.5726661520e+02  -5.5042598968e+01   0.02035234   0.01262589  54.97 0.0007048841    1.766    0.434
       363  -8.2753     37.8868     35.1813   2.5668378703e+02  -5.3932559882e+01   0.02588159   0.02038119  55.57  0.000463573    1.324    0.245
       364  -8.7096    119.4535     33.4437   2.5808323960e+02  -5.6742955801e+01   0.03284154   0.01728332  -2.40 0.0006821712    2.318    0.569
       365  -8.7190     82.0196     46.4029   2.5814806643e+02  -5.5325512990e+01   0.03964002   0.02359505   5.19  0.001203627    1.834    0.455
       366  -9.2675    222.0877     32.0725   2.6023282287e+02  -6.0250530132e+01   0.03127541   0.01996011 -35.02 0.0007554275    1.702    0.412
       367  -8.0921     60.5468     32.5089   2.5692224505e+02  -5.4735594397e+01   0.01841354   0.01725138 -33.87 0.0001689059    1.073    0.068
       368  -8.3830     49.3883     32.6791   2.5673616312e+02  -5.4351534931e+01   0.02088959   0.01207968 -38.39 0.0007010943    1.853    0.460
       369  -9.4037     12.8040     30.9245   2.5601866931e+02  -5.3115604821e+01   0.03495208   0.02430434 -17.92 0.0008295895    1.580    0.367
       370  -9.3003    148.1953     28.5965   2.5835742884e+02  -5.7777303813e+01   0.02697258   0.01735736  88.74 0.0009598737    1.748    0.428
       371  -8.6911    101.0000     27.9879   2.5738870297e+02  -5.6168313772e+01   0.03005448   0.01034878  16.73 0.0004795131    2.909    0.656
       372  -8.8193      2.0749     27.8233   2.5566972048e+02  -5.2777999317e+01   0.03860886   0.02513571  88.88 0.0006614111    1.675    0.403
       373  -8.2701     81.6305     27.3302   2.5699007907e+02  -5.5510842317e+01   0.02079241   0.01225453 -37.43 0.0007031789    1.824    0.452
       374  -8.4321     61.5935     27.1848   2.5662386334e+02  -5.4824890996e+01   0.02718006   0.01520676  32.65 0.0009377077    1.720    0.419
       375  -8.4287     91.5009     26.0131   2.5709050285e+02  -5.5862799341e+01   0.02688429   0.01394634 -20.81 0.0008095136    2.460    0.594
       376  -8.3798     73.3369     26.3100   2.5677911922e+02  -5.5236579275e+01   0.01987746   0.01281208  55.39 0.0007044072    1.683    0.406
       377  -9.7467     44.4000     25.2021   2.5621057526e+02  -5.4254436796e+01   0.03281033   0.02872341  76.28 0.0003197459    1.184    0.156
       378  -8.6330    110.6789     24.2718   2.5734191118e+02  -5.6538414990e+01    0.0247617   0.01982865  53.95 0.0005311248    1.297    0.229
       379  -9.3263     66.8858     23.7993   2.5651419917e+02  -5.5040148035e+01    0.0256834   0.02035988 -29.24 0.0004264771    1.317    0.240
       380  -8.3942     58.5668     22.0153   2.5626326625e+02  -5.4771995794e+01   0.02701399   0.01763263  17.20 0.0003004737    1.524    0.344
       381 -10.1246     13.0915     21.0849   2.5545920585e+02  -5.3219424502e+01   0.04048526   0.03469311 -86.05 0.0007207453    1.191    0.161
       382  -9.6939    189.0466     20.5856   2.5870047816e+02  -5.9258312736e+01   0.03577809   0.02653047  29.43 0.0009100284    1.328    0.247
       383  -8.4437     92.3596     21.3137   2.5681851085e+02  -5.5939728125e+01   0.02023368   0.01269108  56.12 0.0007042857    1.749    0.428
       384  -8.6126     84.8337     21.1888   2.5667476722e+02  -5.5682483152e+01   0.02813166   0.02334889 -35.87 0.0005233344    1.230    0.187
       385  -8.3642     28.3512     26.3318   2.5600864718e+02  -5.3692847705e+01   0.02040642   0.01246745  54.30 0.0007047245    1.776    0.437
       386  -8.8696     40.9635     21.0372   2.5590815522e+02  -5.4176798870e+01   0.02729538   0.02553043  50.26 0.0003323471    1.079    0.073
       387  -8.2330    137.5009     22.5171   2.5775258078e+02  -5.7475949874e+01   0.01806671   0.01776332 -37.71 -5.094327e-05    1.012    0.012
       388  -8.2093     73.6670     19.3641   2.5636604171e+02  -5.5316831737e+01   0.02068437   0.01237262 -35.07 0.0007036222    1.817    0.450
       389  -9.7831     29.7178     18.6486   2.5558414026e+02  -5.3813268836e+01   0.04547195   0.02227074 -46.01  0.001465698    2.080    0.519
       390  -8.3451      1.4763     19.4859   2.5518622011e+02  -5.2835886667e+01   0.01787252   0.01768893  43.97 3.030722e-06    1.012    0.012
       391  -8.7291     50.5346     15.1567   2.5571971931e+02  -5.4562045570e+01     0.030161   0.02350993  64.12 0.0005788321    1.359    0.264
       392  -9.1978    154.0147    249.0173   2.7162314891e+02  -5.4867062612e+01   0.03033922   0.02154757 -24.88  0.001135509    1.685    0.407
       393  -8.9207    147.9974    248.8114   2.7143204792e+02  -5.4682075388e+01   0.03294434   0.02737058  21.72  0.001388488    1.231    0.188
       394  -9.0325     27.5070     13.4187   2.5524393495e+02  -5.3786333512e+01   0.01807277   0.01733643  61.42 -0.0001991843    1.053    0.050
       395  -9.7955    107.3620    246.9622   2.7016167609e+02  -5.3433036608e+01   0.06260611   0.03407957  11.38  0.001980297    2.396    0.583
       396  -9.8023     36.4809    248.4076   2.6835935228e+02  -5.1158410353e+01   0.03684517   0.03076654 -19.78  0.001129898    1.285    0.222
       397  -8.8152     31.9943     11.5102   2.5520366813e+02  -5.3958410716e+01   0.02700899   0.01790869 -76.43 0.0004018731    1.520    0.342
       398  -9.1357    188.4792    248.5260   2.7265994937e+02  -5.5949673589e+01   0.01797752    0.0176217  71.68 4.069128e-05    1.039    0.038
       399  -9.3571     86.8609    248.0660   2.6965623413e+02  -5.2765998108e+01   0.04517215   0.01969288 -57.77  0.001406684    2.169    0.539
       400 -10.7784     73.5885    244.5729   2.6911818960e+02  -5.2399776484e+01   0.04079088   0.03825462 -87.00 0.0005532477    1.110    0.099
       401 -11.3789    237.6446    240.4577   2.7382243270e+02  -5.7610277967e+01   0.07411237    0.0607368 -72.48  0.002221164    1.290    0.225
