#   1 NUMBER                 Running object number                                     
#   2 MAG_AUTO               Kron-like elliptical aperture magnitude                    [mag]
#   3 X_IMAGE                Object position along x                                    [pixel]
#   4 Y_IMAGE                Object position along y                                    [pixel]
#   5 X_WORLD                Barycenter position along world x axis                     [deg]
#   6 Y_WORLD                Barycenter position along world y axis                     [deg]
#   7 A_WORLD                Profile RMS along major axis (world units)                 [deg]
#   8 B_WORLD                Profile RMS along minor axis (world units)                 [deg]
#   9 THETA_WORLD            Position angle (CCW/world-x)                               [deg]
#  10 FWHM_WORLD             FWHM assuming a gaussian core                              [deg]
#  11 ELONGATION             A_IMAGE/B_IMAGE                                           
#  12 ELLIPTICITY            1 - B_IMAGE/A_IMAGE                                       
         1 -10.8080    189.4017     19.5224   2.8969925755e+02   6.4751846170e+00   0.03343505   0.02071053   8.66 0.0005677844    1.808    0.447
         2 -15.5393    242.0800     95.7286   2.8945794178e+02   5.2879555303e+00    0.3200635   0.06665324 -64.47    0.0186755    4.958    0.798
         3 -13.7806    236.5590     56.3491   2.8931205670e+02   5.7768455018e+00    0.1203986   0.05159241  42.64  0.005076993    2.331    0.571
         4 -11.8566    223.6552     29.1692   2.8932461229e+02   6.1664339370e+00   0.03107852   0.02719028  58.01  0.002687477    1.204    0.170
         5 -14.3683    170.7464     69.6412   2.9020518964e+02   6.0003227162e+00    0.1459361   0.06866623  60.38  0.008623488    3.577    0.720
         6 -14.7663    168.6642     51.9149   2.9013465245e+02   6.2181396768e+00    0.3173489     0.146595  44.26   0.02665761    2.225    0.551
         7 -13.6443    183.7090      4.1757   2.8968658858e+02   6.6859219386e+00    0.1169414   0.04471653  47.35  0.008434487    3.113    0.679
         8 -13.7847    215.6119     23.9685   2.8939652557e+02   6.2730130217e+00   0.04086862   0.03092699 -29.53  0.004407983    1.465    0.317
         9 -12.5700    123.9762     25.2800   2.9054777124e+02   6.7833464932e+00   0.02087504   0.01345525  42.73  0.002097003    1.523    0.344
        10 -14.7156    206.2579     33.6982   2.8956627030e+02   6.2138714086e+00   0.09495767   0.08293119  81.34  0.009566921    1.277    0.217
        11 -11.6213    220.6613     12.8487   2.8927286532e+02   6.3729685774e+00   0.01207976   0.01106785  44.28 0.0005380937    1.087    0.080
        12 -10.8618    151.0022     11.4212   2.9013456268e+02   6.7894729599e+00   0.01443407  0.009900114 -72.38 0.0009256529    1.632    0.387
        13 -12.2495    104.9741      1.9356   2.9065821384e+02   7.1629930552e+00   0.02458832   0.01141304  15.73  0.001976577    2.422    0.587
        14 -14.2136    118.7544      3.6039   2.9049498792e+02   7.0648370868e+00    0.1559741   0.05499593  12.42  0.008647195    5.322    0.812
        15 -10.8881    156.3786      6.0767   2.9003825978e+02   6.8206734395e+00     0.014973  0.009305842  82.66  0.001007224    2.280    0.561
        16 -12.0782    148.5505      4.7406   2.9012877327e+02   6.8810468397e+00   0.02439432   0.01198937 -41.16    0.0014984    2.371    0.578
        17 -12.0141    248.9602      3.5651   2.8886941120e+02   6.3177453688e+00   0.02560027   0.01892711  57.64   0.00272334    1.496    0.331
        18  -9.8469    237.6651      4.3100   2.8901424502e+02   6.3741470448e+00   0.01041596  0.009151824  58.78 0.0006881334    1.202    0.168
        19 -11.4074    233.8271      3.9029   2.8905986338e+02   6.4009584452e+00   0.02162451   0.01647989 -29.15  0.001411601    1.453    0.312
        20 -10.9040    229.4874      2.9712   2.8910887845e+02   6.4367379488e+00   0.01798644    0.0116692  68.36  0.001706117    2.007    0.502
        21  -9.5452    249.1006     10.2563   2.8890421394e+02   6.2393646057e+00   0.02277439  0.006915339  48.41  0.001265462    5.193    0.807
        22 -10.2540     65.6978      1.9647   2.9114973396e+02   7.3868380561e+00  0.009108195  0.008901359 -89.14 0.0004242977    1.097    0.089
        23  -9.5896    222.7773      1.6651   2.8918541480e+02   6.4904902109e+00  0.009841647  0.005591243  34.02 0.0004486489    1.610    0.379
        24  -9.1324    216.2807      1.2919   2.8926440048e+02   6.5321887981e+00  0.006794493  0.005043387 -24.52 0.0002424996    1.530    0.346
        25 -12.3146    204.9159    110.4790   2.9000129794e+02   5.3299666851e+00   0.02419284   0.01578115  -5.31  0.002194464    1.894    0.472
        26 -14.5107     57.5984    186.0202   2.9224867343e+02   5.2931719228e+00   0.05548013   0.05072774  30.33  0.002787308    1.034    0.033
        27 -11.9931    177.4256     62.5424   2.9008318672e+02   6.0444850691e+00   0.01409598   0.01214058   3.33 0.0003806237    1.175    0.149
        28 -12.3529    226.0155    175.6817   2.9009298969e+02   4.4512945049e+00   0.03070085   0.01342858 -41.43  0.002402169    2.764    0.638
        29 -10.6694    135.0790    105.3490   2.9084454831e+02   5.7895676934e+00   0.02438987   0.01279339 -50.15  0.002224099    1.972    0.493
        30  -9.0310    158.7659    105.9957   2.9055244867e+02   5.6465240847e+00  0.008157728  0.005785247 -64.62 -0.0006383859    1.502    0.334
        31  -9.3860    141.4689    100.4421   2.9073812743e+02   5.8100602700e+00  0.006815616  0.006374539  18.11 6.641327e-05    1.018    0.017
        32  -9.7665    124.5095     99.4647   2.9094454032e+02   5.9183957720e+00   0.00682707   0.00640165  17.05 9.761552e-06    1.019    0.019
        33 -12.3697    226.0844     94.0311   2.8964795048e+02   5.3995431859e+00   0.02513314   0.01452308  40.91  0.001485231    1.668    0.401
        34 -13.6996    227.7467    105.5550   2.8968999891e+02   5.2561547044e+00   0.03882215   0.02972433  77.01  0.001857683    1.559    0.359
        35 -10.8886    146.6739     94.1698   2.9063906788e+02   5.8531829481e+00   0.01566953    0.0108843 -38.27 0.0007471907    1.575    0.365
        36 -10.4887    133.4162     92.2761   2.9079427916e+02   5.9510351814e+00   0.01341226  0.009614722  49.62 0.0005268554    1.452    0.311
        37 -11.3715    154.4921     86.0268   2.9049720848e+02   5.9030639695e+00   0.01775375   0.01147643 -27.97  0.001317028    1.867    0.464
        38 -11.6720    157.6051     83.1964   2.9044295904e+02   5.9181279531e+00   0.01563092   0.01467214 -48.66 0.0008274151    1.122    0.109
        39 -11.6072    140.1410     82.5107   2.9065723722e+02   6.0260623815e+00   0.01469485   0.01393573 -68.15 0.0006608724    1.129    0.114
        40 -12.7694    153.7484     72.2267   2.9043142132e+02   6.0676688134e+00   0.01719334   0.01338079 -57.62 0.0008589624    1.347    0.257
        41  -9.5019    130.6179     66.2177   2.9068755979e+02   6.2698658263e+00  0.009619439  0.006073692 -51.77 0.0009464169    1.639    0.390
        42 -10.0543      5.2211    170.4024   2.9281815991e+02   5.7724846670e+00  0.009450309  0.005843064  35.12 0.0002498452    1.498    0.333
        43 -10.2891     76.9654    174.0318   2.9194219900e+02   5.3224101251e+00   0.01017077    0.0096072   8.39 0.0003300882    1.040    0.038
        44 -10.6312    232.9291     42.6606   2.8928262397e+02   5.9565700463e+00    0.0221553   0.01302341 -26.22  0.001961621    2.248    0.555
        45 -11.4099    151.0222     37.3237   2.9027545432e+02   6.4886751744e+00   0.01744085    0.0120693 -87.77  0.001036726    1.794    0.442
        46  -9.8061    190.2562     36.4269   2.8978077943e+02   6.2740943019e+00  0.009664005  0.005799521  36.39 0.0005103975    1.548    0.354
        47 -10.4836    249.8478     25.6965   2.8897922245e+02   6.0560215354e+00   0.01339163  0.008026033  35.52   0.00130053    1.542    0.352
        48 -10.4217    152.7746     25.9928   2.9019183874e+02   6.6101859352e+00    0.0175245   0.00850667  12.09   0.00139884    2.498    0.600
        49 -11.6771    229.4157    166.5201   2.9000087280e+02   4.5382701415e+00   0.01455154   0.01117509  63.98 0.0009371159    1.480    0.324
        50  -9.0931    214.3158    160.2673   2.9015492027e+02   4.6974961994e+00  0.006851758  0.005069418 -18.91 0.0002581442    1.551    0.355
        51  -9.8082    228.4846     22.4999   2.8922800498e+02   6.2160280283e+00  0.009559296  0.006019827  34.56 -4.147765e-05    1.467    0.318
        52 -11.2853    138.6571     21.9221   2.9034602415e+02   6.7383071355e+00   0.01250417   0.01140995  66.14 0.0004161559    1.172    0.147
        53 -11.1986    137.0114     17.5042   2.9034251969e+02   6.7990147195e+00   0.01603304   0.01025912  55.35  0.001551361    1.787    0.440
        54 -10.0233    224.9753     20.0378   2.8925831754e+02   6.2647726316e+00   0.01010795  0.009162601 -12.86 0.0004176196    1.140    0.123
        55 -10.4643    129.5028     20.4918   2.9045262588e+02   6.8073152169e+00  0.006840638  0.006393873  26.26 4.563207e-05    1.010    0.010
        56 -12.6430    191.2115     48.7755   2.8983617210e+02   6.1252610640e+00   0.02903722   0.01595403 -29.83  0.001378194    2.437    0.590
        57  -9.1259    167.7052     24.3532   2.8999644426e+02   6.5436259564e+00  0.007204382  0.004933784  58.90 0.0007032455    1.686    0.407
        58 -10.0483    221.6793     16.3163   2.8927909989e+02   6.3268947456e+00   0.01218586   0.01025189  44.17 0.0006826021    1.173    0.148
        59  -9.9468    202.1742    248.1729   2.9078303614e+02   3.7451779220e+00  0.009927669  0.008932052 -16.88 0.0003307085    1.155    0.134
        60 -12.4434     67.8440    144.3076   2.9189525055e+02   5.7201862360e+00   0.03458526   0.01836979  47.99  0.002589022    2.036    0.509
        61 -14.1638     17.8903    225.5644   2.9295728535e+02   5.0586185893e+00   0.04708525   0.04420738  28.70  0.004248923    1.018    0.018
        62  -9.1327    205.2515    223.6370   2.9061176451e+02   4.0127980411e+00  0.006933237  0.005007191  63.48 0.0003793399    1.618    0.382
        63 -10.9476    183.9586    134.9947   2.9039585875e+02   5.1651878750e+00   0.01724678  0.008669416  33.63  0.001153587    1.798    0.444
        64  -9.1619    204.6864     11.2592   2.8946344621e+02   6.4832486471e+00   0.00696293  0.004810341  50.81 0.0001756155    1.533    0.348
        65 -12.1396    211.1598    133.8880   2.9005083015e+02   5.0221552629e+00   0.02810476   0.01077648  28.44  0.002229301    2.315    0.568
        66 -12.4321    211.7290    128.6308   2.9001514565e+02   5.0799802821e+00   0.02888196   0.01175724  16.46  0.002118393    2.904    0.656
        67 -12.8987    215.3397    117.1685   2.8990779502e+02   5.1924504204e+00   0.02259139    0.0186452   8.76  0.002328242    1.215    0.177
        68 -12.3588    186.1784     53.4591   2.8992449137e+02   6.0997637124e+00   0.01708798    0.0131543 -25.41  0.001224934    1.444    0.307
        69 -12.4419    221.8210    111.2415   2.8979478202e+02   5.2241158138e+00   0.02498729   0.01085659  46.69   0.00161626    2.547    0.607
        70 -15.0883     46.7163    197.7094   2.9244756658e+02   5.2190404318e+00   0.08766025    0.0567393 -23.57   0.00276859    1.911    0.477
        71 -12.0787    198.1895    119.5035   2.9013423643e+02   5.2636771585e+00   0.03303071  0.009703995  41.35  0.001992728    3.349    0.701
        72  -9.3834    135.0000    120.9329   2.9093016593e+02   5.6088427189e+00   0.01088207  0.003947012 -65.04 0.0008021149    2.940    0.660
        73 -11.2163    185.4996    118.9867   2.9028962741e+02   5.3424176826e+00   0.01404605   0.01183116  67.19  0.001103223    1.312    0.238
        74  -9.6429    167.4986    113.0162   2.9048166486e+02   5.5149251460e+00  0.009540912  0.005696387  74.73 0.0008095565    2.475    0.596
