#   1 NUMBER                 Running object number                                     
#   2 MAG_AUTO               Kron-like elliptical aperture magnitude                    [mag]
#   3 X_IMAGE                Object position along x                                    [pixel]
#   4 Y_IMAGE                Object position along y                                    [pixel]
#   5 X_WORLD                Barycenter position along world x axis                     [deg]
#   6 Y_WORLD                Barycenter position along world y axis                     [deg]
#   7 A_WORLD                Profile RMS along major axis (world units)                 [deg]
#   8 B_WORLD                Profile RMS along minor axis (world units)                 [deg]
#   9 THETA_WORLD            Position angle (CCW/world-x)                               [deg]
#  10 FWHM_WORLD             FWHM assuming a gaussian core                              [deg]
#  11 ELONGATION             A_IMAGE/B_IMAGE                                           
#  12 ELLIPTICITY            1 - B_IMAGE/A_IMAGE                                       
         1  -9.0203     39.1834      7.4053   9.2260184037e+01   6.9057802512e+01    0.3329186    0.2282479 -15.99  0.001665256    1.356    0.263
         2 -10.2137     50.7065     36.2204   9.9762191716e+01   6.2648698989e+01    0.6587064    0.5035554 -81.05  0.003750148    2.064    0.516
         3 -10.5656     39.5746     30.0182   1.0187260423e+02   6.5113250166e+01    0.6218947    0.3191019 -55.35  0.002710435    1.951    0.487
         4 -11.7348     44.2176     21.0202   9.6367780652e+01   6.6192571222e+01     1.104648    0.9094157 -81.84  0.006796218    2.019    0.505
         5  -9.9596     97.2664      3.8918   6.9837617942e+01   5.9465712975e+01    0.5104237    0.4912641 -26.19   0.00250939    1.243    0.196
         6 -11.1074    128.7911     14.5912   6.6958937225e+01   5.1038203454e+01     1.058078    0.6198865 -12.67  0.004766045    1.790    0.441
         7 -10.7200    121.1187      4.0043   6.4179454015e+01   5.3982788794e+01    0.6501711    0.4989835  60.98  0.002543673    1.344    0.256
         8 -10.8769    109.6474      4.1685   6.6838589762e+01   5.6674246544e+01     1.016727    0.4652415  59.43  0.004310464    2.208    0.547
         9 -13.9646    163.1962     10.9725   5.9223343216e+01   4.2567005372e+01     3.744961     2.180017  62.34   0.01665783    1.622    0.384
        10 -11.2847     77.8371     14.3491   8.0640029425e+01   6.2079636097e+01     1.734064    0.6024826 -23.59  0.005942101    3.648    0.726
        11 -10.3376     71.3945      5.4025   7.8464084973e+01   6.4422035890e+01    0.5954112    0.3747368  34.43  0.002952885    1.583    0.368
        12 -11.2983     84.4593      3.8580   7.3467984587e+01   6.2130456193e+01    0.9253013    0.4947487  44.70   0.00413541    1.806    0.446
        13 -10.2313    116.9902     17.2850   7.0773964534e+01   5.3543559010e+01    0.8426715    0.3008567 -25.31  0.003071309    2.728    0.633
        14  -9.8163    111.6272     15.7154   7.1432975097e+01   5.4959766397e+01    0.4835393    0.2700206  30.89  0.002132015    1.946    0.486
        15  -9.5150     93.9854     17.7060   7.7115775780e+01   5.8508732805e+01    0.4678614    0.3427981 -39.91  0.002154083    1.486    0.327
        16  -9.3525     64.8621     16.8147   8.6348606624e+01   6.3948586941e+01    0.3171246    0.2576341 -60.14  0.001869598    1.781    0.439
        17 -10.2064    248.3522     15.4555   5.0614948254e+01   2.0112096282e+01     0.386956    0.2398964 -26.06  0.001985561    1.497    0.332
        18  -8.6095     20.7436     13.3732   1.0362774188e+02   7.0014723316e+01    0.4654284    0.1609502 -39.32  0.002168708    2.466    0.595
        19  -8.8377     69.3753     13.6784   8.3238510849e+01   6.3664513052e+01     0.326982    0.2599414  86.69  0.001770848    2.339    0.572
        20  -9.6629    103.1435     11.5689   7.1805584464e+01   5.7337747147e+01    0.4235725    0.3319063  -2.89  0.002024772    1.202    0.168
        21 -10.6593    200.6822      7.6761   5.3130773633e+01   3.2851695687e+01    0.4582986    0.3231123  48.06  0.001701133    1.386    0.279
        22  -9.5434    204.0531      3.5048   5.1485316987e+01   3.2319103650e+01    0.2998893    0.2078784  77.71  0.001370136    1.454    0.312
        23  -9.1973     55.7475      7.5896   8.5364502445e+01   6.6730290463e+01    0.4888024    0.2429276  46.18  0.002443504    2.400    0.583
        24  -8.1954     52.1677      1.9219   8.3846818297e+01   6.8059512199e+01    0.2400548    0.1835389   2.43  0.001318466    1.189    0.159
        25 -10.3299    245.0504      7.6518   4.8852855820e+01   2.1603028684e+01    0.3221962    0.2206956 -62.40  0.001708983    1.551    0.355
        26  -9.7161     60.2808      2.3192   8.0877050487e+01   6.6724183218e+01    0.5531193     0.375601  31.46  0.003273216    1.481    0.325
        27  -8.8280    230.1599      6.0513   4.9697153423e+01   2.5385320607e+01    0.2143802    0.1793417  31.23 0.0008513167    1.281    0.220
        28  -9.5250    222.1814      3.6483   4.9747505670e+01   2.7604351241e+01    0.4625754    0.1950302 -21.58  0.001893715    2.303    0.566
        29 -10.7980    131.9341      3.3489   6.1714563023e+01   5.1378177795e+01    0.9271273    0.3674141  58.46  0.003425055    2.244    0.554
        30  -9.6394    249.9833      5.0982   4.7797747732e+01   2.0656063421e+01    0.4712654    0.2113535 -20.26   0.00208953    2.149    0.535
        31  -8.8097     26.5288      2.5081   9.5736300835e+01   7.1292340201e+01    0.2201334    0.2081528 -15.23  0.001359126    1.384    0.277
        32  -8.7098     17.0201      1.7438   1.0019576989e+02   7.2351240718e+01    0.1991874    0.1449043  29.30  0.001104112    1.721    0.419
        33  -8.4778     40.2200      1.5477   8.8758447481e+01   6.9805875034e+01    0.2462925    0.1131781  36.02  0.001268965    2.416    0.586
        34  -7.7471      1.3310      1.6621   1.0865977469e+02   7.3555388775e+01   0.09630723   0.08111572 -82.34 0.0007051973    1.738    0.425
        35  -7.8625     35.2532     52.5553   1.1067378976e+02   6.1111404194e+01    0.1435814    0.1146503  -3.73 0.0006151003    1.518    0.341
        36  -8.0325     23.2097     52.3735   1.1501322896e+02   6.2191266855e+01    0.1656741     0.117421 -53.92 0.0007992952    1.120    0.107
        37 -10.0817     84.1045     48.1284   9.2407750647e+01   5.5508507441e+01    0.6561504    0.4566589  56.75  0.003395908    1.857    0.461
        38  -8.3765    111.8435     45.8983   8.3391808420e+01   5.0602254949e+01    0.2246656    0.1893035   3.57 0.0006183885    1.213    0.176
        39 -10.1875      3.3234     40.2619   1.1977905371e+02   6.5986728530e+01    0.3958195    0.3237829  78.05  0.002680089    1.478    0.323
        40  -9.5840     82.2757     40.2425   9.0113995385e+01   5.7227215405e+01     0.373015    0.2303679  49.26  0.001864507    1.896    0.472
        41  -9.5477     80.8305     36.7550   8.9248390236e+01   5.8077071860e+01     0.303019    0.2394031 -20.06  0.001431685    1.188    0.159
        42 -10.7432    164.2706    243.3019   1.1249040217e+02   8.7531953292e+00    0.3683307     0.189994  36.46  0.002362988    1.602    0.376
        43 -10.8475    173.8026    242.8178   1.1094658566e+02   7.3839216502e+00    0.3561813    0.1447717  48.99  0.002000041    2.017    0.504
        44  -8.4615    153.4855    233.5238   1.1312161809e+02   1.1481889442e+01    0.1091671   0.08038376  45.34 0.0008100147    1.009    0.009
        45  -8.6571     69.0291     37.1775   9.3417670312e+01   5.9924742578e+01    0.3362826    0.2040148 -52.22  0.001692228    1.823    0.451
        46  -9.4388     66.2989     31.0575   9.1987961277e+01   6.1414614108e+01    0.5690688    0.2222455 -37.35  0.002399628    2.326    0.570
        47  -9.2491     11.7708     33.9765   1.1476100245e+02   6.6762281312e+01    0.3361223    0.2254611 -60.41  0.001856264    1.210    0.174
        48  -8.3717     26.9226     35.3536   1.0888821634e+02   6.5334443646e+01     0.163529     0.133093 -34.74  0.001142089    1.129    0.114
        49  -9.4568    205.2104    225.5915   1.0381510679e+02   4.3253217565e+00    0.1699246   0.07710239  36.27 0.0009540798    1.724    0.420
        50  -9.7578     87.5921     30.8049   8.4686655816e+01   5.7845137942e+01    0.5100061    0.3392624  12.35  0.002497302    1.876    0.467
        51 -10.3673    225.1225     28.8263   5.6607999047e+01   2.4482978860e+01    0.5326787    0.4272237  24.98  0.001654821    1.321    0.243
        52  -9.9043    124.0049    205.9946   1.1496904676e+02   1.9611535873e+01    0.1596621    0.1266795  52.63  0.001156932    1.002    0.002
        53  -8.6505    238.8566    202.8237   9.5038764151e+01   1.1605049028e+00     0.147608    0.1261388  33.86 0.0009955252    1.336    0.251
        54  -7.8087     21.6634    171.6712   1.3056780440e+02   3.8113182998e+01   0.09078879   0.07193594 -54.01 0.0007051958    1.729    0.422
        55 -11.6473     11.1280    140.9869   1.3051366553e+02   4.4756209138e+01    0.5807852    0.2817548 -78.78  0.003695611    1.673    0.402
        56  -9.6986     17.7038    119.4255   1.2716380352e+02   4.8537491225e+01    0.2672244    0.1422203 -40.79  0.001490768    2.766    0.638
        57 -10.2582     11.8019    118.6207   1.2849381860e+02   4.9150931343e+01    0.3616042     0.173838  67.04  0.002065607    2.214    0.548
        58  -8.7638     14.6036    114.2413   1.2738989982e+02   4.9837073336e+01    0.2033451   0.06981403 -62.92  0.001043665    2.304    0.566
        59  -9.4596    132.5378     26.0468   7.0686009582e+01   4.8776992499e+01    0.3201236    0.2627357 -13.54  0.001143286    1.194    0.162
        60  -9.1299    105.2298     26.2199   7.7563045409e+01   5.5004850229e+01    0.4389012    0.2505267  57.20   0.00199077    1.997    0.499
        61  -9.0453     40.2968    142.2224   1.2432720884e+02   4.1899610330e+01    0.2964474    0.1067647  47.65  0.001487973    2.618    0.618
        62  -7.8963     19.4901     21.9944   1.0757709247e+02   6.8536094739e+01    0.1725051    0.1250967 -43.34  0.001178356    1.058    0.055
        63 -12.6839    240.6270    132.6677   8.1225273959e+01   8.4359717660e+00     1.521988     1.046358  41.92  0.005501143    1.372    0.271
        64  -9.4513     17.3844    104.3997   1.2561138708e+02   5.1664414242e+01    0.3823994    0.2306737  51.73  0.002488855    1.762    0.432
        65  -8.1637     11.3325     21.9803   1.1130684060e+02   6.9146794575e+01     0.167153    0.1168616 -47.99 0.0007486258    1.075    0.070
        66  -9.2808     29.3745    102.2663   1.2217085589e+02   5.1137597461e+01    0.2982068     0.157361 -45.66   0.00165615    2.150    0.535
        67  -8.3576    125.6485     28.9823   7.3422468925e+01   5.0043997529e+01    0.3563268    0.2588668 -10.34  0.001766465    1.410    0.291
        68  -8.6784     46.9723     99.1801   1.1690733168e+02   5.0094116103e+01    0.1841545    0.1337838 -24.17  0.001091852    1.952    0.488
        69 -11.8361     43.6814     82.6306   1.1481146900e+02   5.3961391826e+01    0.9646639    0.8681379 -16.54  0.006380793    1.348    0.258
        70  -8.2576    100.6030     83.7786   9.8502426629e+01   4.5786030508e+01     0.199944    0.1259364 -55.95 0.0009545973    1.665    0.399
        71  -9.9656     24.6504     65.5618   1.1741967021e+02   5.9316639672e+01    0.8082097    0.3367625 -54.17  0.004220515    1.873    0.466
        72  -7.5358     13.4657     15.4450   1.0796474587e+02   7.0228490230e+01    0.1133887   0.08754011 -42.93 0.0003661901    1.044    0.042
        73 -10.3899      3.6006     76.0327   1.2591487948e+02   5.8523831097e+01    0.5188522    0.3608627 -69.24   0.00365104    1.100    0.091
        74  -8.8878     97.4043     28.0155   8.0540782905e+01   5.6369567273e+01    0.4577657    0.2426248 -15.88  0.001892309    2.347    0.574
        75 -10.0130     13.5312     77.1161   1.2303856644e+02   5.7682454872e+01    0.4598384    0.2851039 -15.22  0.002784337    2.462    0.594
        76 -10.6133     12.0555     71.6946   1.2264541018e+02   5.8925253036e+01    0.7184358    0.4304724  37.61  0.004655642    1.994    0.499
        77  -9.1435    227.9646     78.8396   7.0084977810e+01   1.7924574916e+01    0.4583858     0.276815  20.69  0.001690764    2.023    0.506
        78  -9.0604      2.2277     89.0799   1.2792420492e+02   5.5873432108e+01    0.3176925    0.1799243 -87.03  0.002037734    1.520    0.342
        79  -8.6225     19.2279     89.2249   1.2314392245e+02   5.4716052877e+01    0.1564991    0.1147391  80.22 0.0009060415    1.360    0.265
        80  -8.8405     83.3757     69.9193   9.9595744990e+01   5.1446707182e+01    0.2714144    0.1955317  50.52  0.001468638    1.583    0.368
        81  -9.9968     73.8898     68.4944   1.0208906792e+02   5.3182261035e+01    0.3771584    0.3264475 -71.75  0.002194457    1.257    0.204
        82  -8.1944     63.8894     67.5105   1.0496637315e+02   5.4776417664e+01    0.4131045    0.1403597 -60.48  0.001365928    4.064    0.754
        83  -8.8812     14.7335     62.3698   1.2013577568e+02   6.0714951460e+01    0.3384705    0.2690062  49.00  0.002456757    1.531    0.347
        84  -9.2963     48.7575     61.7630   1.0839727953e+02   5.7813039961e+01    0.3546086    0.2942843 -16.75  0.002306515    1.379    0.275
        85  -8.5432     92.4610     56.8809   9.2818289499e+01   5.2439826638e+01    0.2816724    0.2242952  79.09  0.001481223    1.794    0.443
        86  -9.1462    198.8966     55.1395   6.7966325665e+01   2.8104846146e+01    0.3008802    0.2275784  37.65   0.00039398    1.316    0.240
        87  -8.9374     66.2280     53.5380   1.0009211912e+02   5.7266736147e+01    0.4144567    0.1591787 -55.77  0.001565665    3.064    0.674
