#   1 NUMBER                 Running object number                                     
#   2 MAG_AUTO               Kron-like elliptical aperture magnitude                    [mag]
#   3 X_IMAGE                Object position along x                                    [pixel]
#   4 Y_IMAGE                Object position along y                                    [pixel]
#   5 X_WORLD                Barycenter position along world x axis                     [deg]
#   6 Y_WORLD                Barycenter position along world y axis                     [deg]
#   7 A_WORLD                Profile RMS along major axis (world units)                 [deg]
#   8 B_WORLD                Profile RMS along minor axis (world units)                 [deg]
#   9 THETA_WORLD            Position angle (CCW/world-x)                               [deg]
#  10 FWHM_WORLD             FWHM assuming a gaussian core                              [deg]
#  11 ELONGATION             A_IMAGE/B_IMAGE                                           
#  12 ELLIPTICITY            1 - B_IMAGE/A_IMAGE                                       
         1  -9.5299     29.6968     13.0759   2.9166072648e+02   7.4627641016e+00   0.01199701   0.01006596  27.58  0.000286683    1.113    0.101
         2 -10.4257     12.1559     13.1676   2.9188082244e+02   7.5613418018e+00   0.03415912   0.01238161 -62.94  0.002629767    2.818    0.645
         3  -8.3271     80.4180     12.7302   2.9102411729e+02   7.1779155492e+00   0.01340349  0.009279823  74.29  0.001205013    1.840    0.456
         4  -9.1882     34.5125     10.2922   2.9158532391e+02   7.4677072120e+00   0.01199205  0.009562526  72.57 0.0008901314    1.450    0.310
         5  -9.5703    117.8123      8.8931   2.9053557837e+02   7.0088385650e+00   0.01022365  0.008927794 -19.32 0.0005040859    1.206    0.171
         6  -9.7399     17.2756      7.5016   2.9178596470e+02   7.5980617730e+00   0.01663472   0.01153441 -80.83  0.001425912    1.710    0.415
         7 -10.3253     14.6113      2.2568   2.9179084918e+02   7.6740824489e+00   0.02222866   0.01412611  17.98            0    1.556    0.357
         8 -10.5021      3.2288      4.6676   2.9194647525e+02   7.7106920240e+00   0.02314004    0.0202472 -75.49  0.001496779    1.246    0.198
         9 -10.1215    127.6267      7.0389   2.9040278894e+02   6.9742060569e+00   0.01669004   0.01110705  18.27  0.001432314    1.475    0.322
        10 -10.1538    126.9931      2.4943   2.9038594482e+02   7.0305732981e+00   0.02291202    0.0143719   0.55  0.002139986    1.941    0.485
        11  -8.8522     55.4367      4.4640   2.9129174414e+02   7.4162902448e+00   0.01123406   0.01018973 -70.46 0.0005292612    1.187    0.157
        12  -8.4069     55.7139      1.3329   2.9127124896e+02   7.4510594433e+00  0.008947683   0.00642213  11.92 0.0002748408    1.420    0.296
        13  -9.5077    153.2618      3.1238   2.9006109542e+02   6.8728035877e+00   0.01304987   0.01154847  52.09 0.0008816184    1.160    0.138
        14  -7.8934     57.6518      6.7319   2.9127635216e+02   7.3773452920e+00  0.008611991   0.00676027 -86.95 0.0002793797    1.478    0.324
        15  -9.5406    108.6947      1.7098   2.9061045478e+02   7.1443471981e+00   0.02636616   0.01046315  16.79  0.001559842    2.973    0.664
        16 -10.0938    110.9907      5.0307   2.9059983272e+02   7.0926778697e+00   0.01267807   0.01184011   4.30 0.0002999873    1.060    0.056
        17  -9.2894    114.4743      3.5101   2.9054799160e+02   7.0904060645e+00   0.01230034   0.01097535  65.58 0.0005372398    1.207    0.171
        18  -8.7829     81.8985      5.8292   2.9096804805e+02   7.2495828188e+00   0.01499573  0.007205669  47.47  0.001246381    2.287    0.563
        19  -8.1698     70.3415      6.1443   2.9111435912e+02   7.3118466197e+00  0.009498453  0.006495981 -83.69 0.0003931028    1.781    0.438
        20  -9.7544     50.8280      3.6658   2.9134508781e+02   7.4518019104e+00   0.01118626   0.01108216  21.74 0.0002267832    1.059    0.055
        21  -9.0640     30.9747      3.8312   2.9159451403e+02   7.5628363518e+00   0.01462422  0.008084801  25.11  0.001359827    1.687    0.407
        22  -9.1769    220.4992      3.4784   2.8922372659e+02   6.4825694218e+00  0.006862078  0.006361293  32.12 -3.538521e-05    1.031    0.030
        23  -8.9724    177.8591      2.2485   2.8974910830e+02   6.7418611196e+00   0.01611813  0.007609376  63.03  0.001082918    3.950    0.747
        24  -9.3290    168.3229      1.8937   2.8986625545e+02   6.8007026540e+00    0.0139879  0.009137806  55.70  0.001369171    1.743    0.426
        25  -7.9050     81.8036      1.3335   2.9094476950e+02   7.3023080912e+00  0.009668284  0.006144845  11.57 0.0004460548    1.674    0.403
        26  -8.8569     78.0653      1.4894   2.9099239034e+02   7.3218284151e+00    0.0139147  0.009440523  15.41 0.0006099305    1.479    0.324
        27  -9.2382    199.0374    225.7566   2.9070061196e+02   4.0237103530e+00   0.02362779   0.01206029 -53.23  0.002138909    1.992    0.498
        28 -11.5542    235.5845    244.4951   2.9034743254e+02   3.5967774467e+00   0.08246874   0.05752161 -21.32  0.008348408    1.700    0.412
        29 -10.1806    239.5210    217.9317   2.9015435334e+02   3.8829163193e+00   0.03698379   0.02873524 -49.15  0.004103025    1.345    0.257
        30 -10.9676    249.0441    244.3415   2.9017921845e+02   3.5215149848e+00   0.07317638   0.02014885 -65.47  0.004792902    3.950    0.747
        31 -10.4656    238.8626    206.7550   2.9010186910e+02   4.0165654050e+00   0.04535124     0.026425  74.75  0.003846671    2.624    0.619
        32 -10.1367    242.8952    199.8787   2.9001435528e+02   4.0733629541e+00    0.0287933   0.01360995 -52.55  0.001889591    2.145    0.534
        33 -13.4922    244.0633     17.0306   2.8900397611e+02   6.1898179637e+00    0.2116733    0.1046733 -51.87     0.018929    2.067    0.516
        34 -11.6730    248.0580    125.9924   2.8954832868e+02   4.9021530645e+00    0.1048206   0.03716867 -65.11  0.007848759    3.020    0.669
        35 -11.3324    247.5616    108.3905   2.8945865885e+02   5.1094285775e+00   0.07412139    0.0257823 -67.47  0.005342633    3.303    0.697
        36 -13.6512    246.4501     58.9713   2.8920313402e+02   5.6895353111e+00    0.3809341   0.04327374 -60.64   0.02029511    5.841    0.829
        37  -9.5649    210.1307    250.4953   2.9069660785e+02   3.6726790701e+00   0.02314294     0.013722  36.86  0.001120224    1.572    0.364
        38  -8.8097    219.4872    238.9657   2.9051770223e+02   3.7531617822e+00   0.01536938   0.01033957 -67.01  0.001098466    1.605    0.377
        39 -10.7094    216.2467    231.2645   2.9051627160e+02   3.8612158464e+00   0.04016815   0.01808188 -56.79   0.00345427    2.220    0.550
        40  -9.7318    210.3866    242.8457   2.9065197442e+02   3.7601313059e+00   0.02734992    0.0134791 -48.66  0.001981873    2.122    0.529
        41  -9.4224    214.0912    240.3109   2.9059213704e+02   3.7684010695e+00   0.01677293   0.01386139 -63.75  0.001192003    1.288    0.223
        42  -8.1597    201.8460    250.5781   2.9080014898e+02   3.7190953427e+00    0.0102245  0.006415066  21.14 0.0009952843    1.535    0.349
        43  -9.9864    193.3252    247.5124   2.9088959413e+02   3.8034538999e+00   0.02296714   0.01991061  83.71  0.002141997    1.292    0.226
        44  -9.2141    193.5348    243.4800   2.9086514541e+02   3.8491340627e+00   0.01576858    0.0115597  30.12 0.0007909182    1.265    0.209
        45  -8.5476    184.5175    250.5332   2.9101558553e+02   3.8186826111e+00   0.01378953  0.006501936  22.97   0.00116732    2.037    0.509
        46 -10.0934    168.1691    249.9977   2.9121622268e+02   3.9183254917e+00   0.02141583   0.01361493  -7.21 0.0003557913    2.003    0.501
        47 -10.2147    169.5399    241.2376   2.9115174627e+02   4.0123585516e+00   0.02823053   0.01745223 -61.54  0.002800532    1.691    0.409
        48  -7.3693     73.2534    250.3544   2.9240061804e+02   4.4554544493e+00  0.006989856  0.004910666 -32.24 0.0003298788    1.604    0.376
        49  -8.0357     47.7933    250.3736   2.9271804881e+02   4.6000448995e+00  0.009761314  0.006292302  10.24 0.0008370187    1.667    0.400
        50  -8.2460    201.6858    219.9908   2.9063638428e+02   4.0755884151e+00   0.01459904  0.005138077 -51.56  0.001095774    2.830    0.647
        51  -8.6172    151.2214    249.5037   2.9142459935e+02   4.0208604363e+00   0.01143783  0.009670144 -64.23 0.0006111759    1.260    0.207
        52  -8.3760    179.0435    230.8751   2.9097729159e+02   4.0785398723e+00   0.01106576  0.007676987 -24.98 0.0007553454    1.693    0.409
        53  -9.2345    235.6162    227.1154   2.9025276664e+02   3.7985578051e+00    0.0187027    0.0120176 -60.35  0.001302248    1.622    0.384
        54  -7.3592    134.3030    229.7124   2.9152832730e+02   4.3476373335e+00  0.007013321  0.004891057  53.83 0.0002588085    1.563    0.360
        55  -8.3770    229.0057    226.4987   2.9033166174e+02   3.8435737563e+00   0.02601203  0.008641257 -63.95   0.00189851    3.125    0.680
        56  -8.8843    230.0006    186.2814   2.9010096541e+02   4.3052700337e+00   0.01836562  0.009652269 -64.48  0.001667732    2.020    0.505
        57  -8.3170    230.1462    180.1506   2.9006584707e+02   4.3756837919e+00   0.02854319  0.008405675 -46.37  0.001851295    3.929    0.746
        58  -9.2221    232.6039    173.6611   2.8999999192e+02   4.4370090676e+00   0.03071207  0.006297714 -55.63  0.001938607    4.069    0.754
        59  -9.4931    230.4400    198.3463   2.9016102023e+02   4.1625401572e+00   0.02949259   0.01575884 -38.56  0.002112348    2.211    0.548
        60  -8.9238    231.1349    192.5425   2.9012085350e+02   4.2260074834e+00   0.01808296  0.008981526 -52.80  0.001485184    2.047    0.511
        61  -9.0041    229.3961    205.7421   2.9021416490e+02   4.0825682776e+00   0.01976694  0.009427232 -63.29  0.001624922    2.192    0.544
        62  -9.8598    227.7433    217.7643   2.9029998069e+02   3.9523121375e+00   0.03445088   0.01280828 -55.59  0.002721633    2.618    0.618
        63  -9.4590    230.7501    211.8784   2.9023062309e+02   4.0034982122e+00   0.01921543   0.01637433  87.40  0.001727001    1.324    0.244
        64  -8.8231    211.8644    225.8977   2.9054170932e+02   3.9486768449e+00   0.01767907  0.008119176 -51.98  0.001513361    2.210    0.547
        65  -7.8488    158.4277    229.3455   2.9122577542e+02   4.2141439623e+00   0.01387584  0.004270113 -49.81 0.0009601506    3.311    0.698
        66  -8.8786    206.3791    224.0549   2.9059999420e+02   4.0014872958e+00   0.02002469   0.01009576 -48.54  0.001778063    2.077    0.518
        67  -7.7769    130.1959    223.6356   2.9154664154e+02   4.4417669866e+00  0.009626236  0.006265517  10.77 0.0004684471    1.637    0.389
        68  -9.6920     15.7946    222.1063   2.9296480374e+02   5.1107588669e+00   0.01818163  0.009138025  34.00  0.001634607    1.802    0.445
        69  -8.1276    180.6334    221.1565   2.9090484294e+02   4.1824547070e+00   0.00986726  0.005850815 -50.65 0.0009171648    1.746    0.427
        70 -11.1793    240.8091    153.6940   2.8978930113e+02   4.6219590341e+00   0.08732956   0.02285564 -46.14  0.005235249    4.652    0.785
        71  -9.4941    192.1495    215.9064   2.9073297664e+02   4.1776332652e+00   0.02446962   0.01880167  82.32  0.002633799    1.555    0.357
        72  -8.3023    219.4560    216.5078   2.9039629555e+02   4.0143668239e+00   0.01383989  0.006896546 -66.43  0.001208037    2.179    0.541
        73  -7.9730    205.5040    216.4940   2.9056988815e+02   4.0943900545e+00   0.01228727  0.005454678 -51.04  0.001022113    2.298    0.565
        74  -8.3713    179.3585    215.8945   2.9089220722e+02   4.2509313128e+00  0.009705183  0.008892786 -50.28  0.001153679    1.148    0.129
        75  -8.9710    216.7296    211.3461   2.9040222495e+02   4.0899727953e+00   0.01761382  0.009274126 -67.68  0.001583098    2.090    0.522
        76 -10.3246    176.2538    209.6333   2.9089694734e+02   4.3414909060e+00   0.02371585   0.01770092 -28.63  0.002189826    1.495    0.331
        77  -8.4698    204.3085    211.5774   2.9055810628e+02   4.1583872000e+00   0.01238956  0.007678608 -40.37  0.001190254    1.784    0.440
        78  -7.5205    154.3176    212.3398   2.9118490927e+02   4.4354064392e+00   0.00725314  0.004986993 -26.13 0.0005620955    1.709    0.415
        79  -7.8255    212.4316    210.9762   2.9045371838e+02   4.1188792610e+00    0.0100845  0.006780306 -65.21  0.001022622    1.589    0.371
        80  -7.6700    208.4786    211.4573   2.9050553775e+02   4.1359150035e+00  0.006849066  0.006367986   1.41 0.0008076928    1.073    0.068
        81  -8.6096    210.9152    216.9688   2.9050510222e+02   4.0578999154e+00    0.0185737  0.006721741 -50.59   0.00141202    2.798    0.643
        82  -8.6604    224.6184    207.0052   2.9028048006e+02   4.0952532691e+00   0.01485059  0.006702646 -65.76  0.001236317    2.391    0.582
        83 -11.2000     12.4951    183.4260   2.9279757873e+02   5.5796544956e+00   0.03627182   0.01755624 -64.56  0.001909266    2.185    0.542
        84 -10.1984      6.4728    205.4620   2.9299146568e+02   5.3573623556e+00   0.02547142   0.01511859 -84.68   0.00221255    2.239    0.553
        85 -11.8204      4.3188    197.0306   2.9297293275e+02   5.4677076166e+00   0.04910791   0.02945737 -28.37  0.004489122    2.104    0.525
        86  -7.7426    132.6317    213.1758   2.9145969356e+02   4.5495367176e+00  0.008971389  0.006077967 -50.30 0.0002218676    1.536    0.349
        87  -9.8831    172.5861    204.3128   2.9091380225e+02   4.4243348035e+00   0.02105898   0.01060214 -49.10  0.001872938    2.069    0.517
        88  -8.2251    217.4320    203.3665   2.9035017990e+02   4.1787009988e+00   0.01427432  0.004041034 -49.78 0.0009486037    3.586    0.721
        89  -8.1396    213.0000    202.9797   2.9040325402e+02   4.2085754876e+00   0.01072417  0.003946859 -65.00 0.0005973373    2.897    0.655
        90  -7.9969    225.8240    212.1345   2.9029331398e+02   4.0287336458e+00  0.009595785  0.007604181 -33.86 0.0006235876    1.359    0.264
        91  -9.1919    223.5631    200.7282   2.9025954273e+02   4.1742521838e+00   0.01242018  0.008469176 -52.43   0.00128046    1.521    0.342
        92  -8.4665    215.0567    197.0184   2.9034529525e+02   4.2660906500e+00   0.01191547  0.009715631 -83.35   0.00132976    1.387    0.279
        93  -8.5425    176.3724    196.5755   2.9082468411e+02   4.4926515451e+00   0.01648024  0.005576512 -58.51  0.001239198    2.843    0.648
        94  -8.4727    170.4934    195.9308   2.9089443906e+02   4.5337724453e+00    0.0147366   0.00578275 -56.59  0.001178968    2.499    0.600
        95  -8.5940    165.5170    199.4707   2.9097563528e+02   4.5210629098e+00   0.01170595  0.005672588 -51.19 0.0006344454    2.113    0.527
        96  -8.1937    184.9853    194.0229   2.9070353983e+02   4.4730592655e+00    0.0110693  0.007799386 -23.70 0.0005792803    1.660    0.398
        97  -8.8510    172.4043    190.1432   2.9083924858e+02   4.5901457202e+00   0.01868944  0.005851156 -60.46  0.001355431    3.084    0.676
        98  -8.3237    179.1485    189.0577   2.9074932633e+02   4.5641877145e+00   0.01202432   0.00688037 -36.09  0.001077875    2.077    0.519
        99  -8.3786    185.7634    189.1045   2.9066716718e+02   4.5257931509e+00   0.01372345  0.008606257 -42.30  0.001337437    1.732    0.423
       100  -8.6161    183.6729    181.2442   2.9065056624e+02   4.6291479239e+00   0.01489513  0.007937014 -55.61  0.001370297    1.908    0.476
       101  -7.8401    210.8111    180.7780   2.9030998831e+02   4.4791820202e+00    0.0121026  0.006384221 -26.78 0.0009495405    2.792    0.642
       102  -8.3881    227.5649    170.7270   2.9004677747e+02   4.4999928408e+00   0.01140375  0.006694913 -65.11  0.001082612    1.819    0.450
       103  -7.8320    210.5005    174.9821   2.9028238033e+02   4.5483304268e+00   0.01019719  0.006815586 -64.09  0.001032442    1.589    0.371
       104  -8.2864    182.4111    174.7938   2.9063128483e+02   4.7113674865e+00  0.009937646   0.00596302 -50.04  0.000951496    1.730    0.422
       105  -8.5585    223.1834    173.0086   2.9011372671e+02   4.4985927430e+00   0.01539331  0.009900172 -68.08  0.001134556    1.695    0.410
       106  -7.8914    215.5541    172.7540   2.9020734307e+02   4.5452727821e+00  0.009258452  0.006771902 -85.75 0.0009551971    1.630    0.387
       107  -8.3858    192.5867    171.7175   2.9048779631e+02   4.6888810680e+00   0.01264648  0.006252101 -58.53 0.0008535109    2.051    0.513
       108  -7.6339    187.5048    171.4863   2.9054986082e+02   4.7206640018e+00  0.006839134  0.006407237   6.43 -6.564987e-05    1.052    0.049
       109 -11.0431     13.4129    167.7232   2.9270143174e+02   5.7571855697e+00    0.0284096   0.02026673 -61.34  0.002152522    1.473    0.321
       110  -8.8384    237.2036    168.8392   2.8991652956e+02   4.4666664143e+00   0.01604948  0.009606246 -62.63  0.001557172    1.754    0.430
       111  -8.4899    218.3156    168.6704   2.9015076893e+02   4.5769094952e+00   0.01090935  0.008595164  84.31  0.001181964    1.493    0.330
       112  -7.7112    218.6921    165.6800   2.9012983190e+02   4.6095061104e+00   0.01144014  0.009020677 -29.90 0.0006476665    1.381    0.276
       113  -8.5313    178.4872    168.9711   2.9064858301e+02   4.8015250544e+00   0.01033077  0.006872899 -66.43  0.001041085    1.618    0.382
       114  -8.4913    229.2082    165.6049   2.8999848131e+02   4.5500942483e+00    0.0143367  0.008659514 -51.96  0.001395824    1.708    0.415
       115  -8.3109    191.7269    165.3799   2.9046409835e+02   4.7674809320e+00   0.01891155  0.004418255 -58.53  0.001235854    3.758    0.734
       116  -9.1517    199.4464    163.7561   2.9035910026e+02   4.7421453208e+00   0.01920693  0.006984864 -66.42  0.001425548    3.038    0.671
       117  -8.4415    233.5625    163.4722   2.8993267995e+02   4.5499108914e+00   0.01328446  0.006806815 -65.36      0.00118    2.091    0.522
       118  -8.1883    212.8320    161.7171   2.9018128040e+02   4.6891501684e+00   0.01511529  0.003658637 -57.79 0.0009952879    3.649    0.726
       119  -9.1913    205.1254    160.1736   2.9026888911e+02   4.7512525512e+00   0.01926252  0.008205251 -54.81  0.001604456    2.333    0.571
       120  -8.3968    231.4768    158.4906   2.8993156314e+02   4.6197562978e+00   0.01282995  0.007287983 -43.13  0.001182087    1.929    0.482
       121  -8.7123    233.1246    153.3383   2.8988303216e+02   4.6701736715e+00   0.01881878  0.009570588 -66.96  0.001666462    2.149    0.535
       122  -8.7321    226.4986    155.9667   2.8997982670e+02   4.6776321303e+00   0.01685841  0.006664966 -63.50   0.00133315    2.629    0.620
       123  -8.6891    197.1853    155.8356   2.9034424657e+02   4.8471666528e+00   0.01617775  0.008514938 -53.47  0.001479308    1.936    0.483
       124  -8.3252    222.0000    155.9619   2.9003581960e+02   4.7034829931e+00   0.01092119  0.003946637 -64.98 0.0008036144    2.951    0.661
       125  -8.2979    221.2064    161.1389   2.9007384198e+02   4.6478688555e+00   0.01036973  0.009112223 -26.49  0.001056981    1.198    0.166
       126  -8.3781    211.7007    151.7826   2.9014138221e+02   4.8110958063e+00   0.01486377  0.006518501 -68.66  0.001194525    2.603    0.616
       127  -9.8136      7.2431    151.4729   2.9269079050e+02   5.9812886752e+00   0.01528172   0.01303278  22.51 0.0007948792    1.104    0.094
       128  -8.6979    228.3090    150.0545   2.8992513691e+02   4.7359495695e+00   0.02042167  0.006745586 -52.13   0.00150648    2.970    0.663
       129  -7.8159    202.2480    150.7138   2.9025333736e+02   4.8776938017e+00   0.01098765  0.004687675 -51.74  0.000894539    2.371    0.578
       130  -8.4950    215.0844    148.3333   2.9008048222e+02   4.8317842038e+00    0.0147981  0.009502063 -65.28  0.001245344    1.665    0.399
       131  -9.0332    214.2149    141.8546   2.9005609001e+02   4.9120592677e+00    0.0189882    0.0104826 -61.43  0.001170989    1.881    0.468
       132  -8.0018    218.5031    144.0232   2.9001446498e+02   4.8622697824e+00   0.01329771  0.006238899 -58.06  0.001079479    2.147    0.534
       133  -9.4893    218.2783    137.8373   2.8998362512e+02   4.9354409665e+00   0.02677993   0.01264565 -67.19  0.002285102    2.333    0.571
       134  -8.1434    215.6691    134.6964   2.8999904738e+02   4.9869017385e+00   0.01346812  0.008306908 -39.93  0.001054407    1.803    0.445
       135  -9.2213    191.1091    147.3776   2.9037401483e+02   4.9802902807e+00   0.01655399  0.009702004 -68.59  0.001570396    1.881    0.468
       136  -8.8725    234.5518    145.4676   2.8982245792e+02   4.7534348706e+00   0.01795714   0.01042121 -55.36  0.001306077    1.765    0.433
       137  -8.2229    124.9541    145.4467   2.9118854432e+02   5.3811905666e+00   0.00931488  0.008897558 -46.78 0.0003010354    1.104    0.094
       138  -8.0972    207.6697    143.6936   2.9014762956e+02   4.9282121705e+00   0.01103822  0.007564751 -23.59  0.001088391    1.739    0.425
       139  -8.6569    229.8623    140.5557   2.8985413306e+02   4.8374081227e+00   0.01635049  0.009373606 -68.88  0.001244121    1.934    0.483
       140  -8.7655    223.5011    145.5216   2.8996036142e+02   4.8161957988e+00   0.01515217  0.009968441 -40.36  0.001514475    1.661    0.398
       141  -8.3782    223.9880    139.5270   2.8992169655e+02   4.8830584702e+00   0.01317444  0.008670031 -45.65  0.001007425    1.609    0.378
       142  -8.5135    225.7996    132.6978   2.8986198348e+02   4.9520151494e+00   0.01209346  0.008669732 -50.97   0.00109855    1.452    0.311
       143  -8.9623    233.5084    128.4879   2.8974306945e+02   4.9566901455e+00   0.01338187  0.006839144 -65.00  0.001188809    2.088    0.521
       144  -8.2336    220.6185    129.1230   2.8990707228e+02   5.0232728173e+00    0.0097835   0.00593992 -50.54 0.0006086394    1.708    0.414
       145 -11.6465    246.0535    162.4237   2.8977150154e+02   4.4904496428e+00    0.1086209   0.02977669 -70.88  0.005919892    5.916    0.831
       146  -7.5287    180.3071    121.3688   2.9036732456e+02   5.3444826529e+00  0.007338793  0.004925393 -28.25 0.0007035313    1.756    0.431
       147  -8.2605    223.4859    111.4874   2.8977537834e+02   5.2117044813e+00  0.006850065  0.006388357  29.21 3.081883e-06    1.020    0.019
       148  -9.3226    205.6934    105.5126   2.8996458047e+02   5.3832077492e+00    0.0249725  0.008746012 -73.03  0.001607273    4.238    0.764
       149  -9.1443    209.2311     99.4470   2.8988746861e+02   5.4333764515e+00    0.0127179  0.009404015 -61.45  0.001128916    1.426    0.299
       150  -9.1166    216.3537     99.3628   2.8979823929e+02   5.3934806730e+00   0.01088249  0.007638966 -24.62  0.001093713    1.667    0.400
       151 -10.4002    221.1614     97.4421   2.8972786947e+02   5.3881930022e+00   0.02374978   0.01023182 -65.93  0.001942703    2.517    0.603
       152 -11.2066    224.9820     92.9822   2.8965597352e+02   5.4180554719e+00   0.03539427   0.01734203  39.85  0.003124449    1.939    0.484
       153  -9.7954    215.6261     93.2130   2.8977382039e+02   5.4690887707e+00   0.01892398   0.01454406   1.19   0.00180115    1.394    0.283
       154 -10.5471    217.6829     89.6659   2.8972886831e+02   5.4984792063e+00   0.02275819   0.01356351 -19.61  0.001997237    2.305    0.566
       155  -9.8224    212.7966    104.6311   2.8987125116e+02   5.3526952345e+00   0.02002807  0.009018121 -47.78  0.001671776    2.353    0.575
       156  -9.0740     14.8011     96.5842   2.9229974249e+02   6.5769084294e+00  0.009759477  0.005739116  36.31 0.0002842118    1.580    0.367
       157  -9.8521    217.7963     84.9624   2.8970183593e+02   5.5524540255e+00   0.02076802   0.01291562 -53.46  0.001838937    1.658    0.397
       158 -10.3625    225.9265     87.6509   2.8961516345e+02   5.4745454321e+00   0.01326872   0.01058821 -65.56 0.0008982565    1.340    0.254
       159 -11.9260    229.9447     81.5396   2.8953179896e+02   5.5224305327e+00    0.0362279   0.02967144  86.14  0.004077341    1.405    0.288
       160 -10.7366    249.9382    152.8559   2.8967111673e+02   4.5793142932e+00   0.05109357    0.0155905 -70.34  0.003162179    4.555    0.780
       161  -9.1590    223.5811    227.3707   2.9040388698e+02   3.8644946461e+00   0.02904755   0.01515187 -78.11  0.002457588    2.522    0.603
       162  -8.5773      9.5347     84.0183   2.9229759540e+02   6.7529187549e+00   0.01011072  0.008629793  21.66 0.0001478584    1.105    0.095
       163  -7.4822     76.5364     83.4904   2.9145709401e+02   6.3779474777e+00  0.006823959  0.006396442  26.52 0.0008094565    1.011    0.011
       164  -7.7344    214.6716     79.6873   2.8971204754e+02   5.6316547134e+00  0.007157327  0.005034107 -23.34  0.000704294    1.669    0.401
       165  -7.8746    200.8834     77.4205   2.8987160234e+02   5.7371252503e+00   0.01147029  0.007859565 -57.50  0.001184664    1.517    0.341
       166  -8.0856    184.2289     78.0008   2.9008247914e+02   5.8259228412e+00  0.008676176  0.005742235 -64.82 0.0008676019    1.611    0.379
       167  -8.3911     16.9455     75.9788   2.9216139469e+02   6.8043247721e+00  0.008336212  0.007603742  22.63 0.0004241997    1.029    0.028
       168 -11.0349    235.5402     78.9312   2.8944786962e+02   5.5205662609e+00   0.02647505   0.01501304 -72.29   0.00244683    2.043    0.510
       169  -7.6495     40.6857     73.6618   2.9185196123e+02   6.6963494906e+00  0.007225352  0.004981861 -26.28 0.0007047182    1.696    0.411
       170  -8.3270     11.6725     71.2918   2.9220196426e+02   6.8887460112e+00  0.007174703  0.004837921  53.04 0.0004218472    1.621    0.383
       171  -7.4406    102.2341     69.9773   2.9106259072e+02   6.3883966234e+00  0.007987105  0.005806774 -66.09 0.0002033667    1.475    0.322
       172  -8.3495    195.2617     66.9919   2.8988490572e+02   5.8904983280e+00  0.009581255  0.009047923 -69.45  0.001083931    1.135    0.119
       173  -9.5161      7.9990     66.0225   2.9221938143e+02   6.9708474633e+00   0.01484494  0.007784387 -55.81  0.001280943    1.934    0.483
       174  -7.4409    190.3379     66.2746   2.8994241529e+02   5.9270799839e+00  0.006995573  0.005063432 -18.76 0.0003899262    1.609    0.378
       175  -7.8317     30.9970     61.9993   2.9190990767e+02   6.8870014531e+00   0.00812801  0.007420511  23.34            0    1.027    0.026
       176  -9.4311    217.1235     58.7463   2.8956736123e+02   5.8607175324e+00   0.01847936  0.009788109 -66.45  0.001272176    2.048    0.512
       177  -8.7176     26.2141     59.9650   2.9195870678e+02   6.9378271016e+00   0.01149239  0.009135619  23.36 0.0003967955    1.183    0.154
       178  -8.3270     32.9785     58.2101   2.9186457892e+02   6.9197778387e+00  0.009348673  0.008438607  27.95  0.001102969    1.040    0.038
       179  -8.4202      9.9881     58.4703   2.9215359155e+02   7.0473407939e+00   0.01087557   0.00631831  26.26  0.001030469    1.595    0.373
       180  -8.5962     64.8258     57.0668   2.9146007678e+02   6.7518130355e+00   0.01779144   0.00926517   7.08  0.001073611    2.478    0.596
       181  -9.3756      2.8689     54.8422   2.9222301210e+02   7.1298986730e+00   0.01454196   0.01136841 -29.40  0.001156327    1.395    0.283
       182  -9.3957      6.5148     53.4916   2.9217007623e+02   7.1249123798e+00   0.01103498   0.01039719  15.49 0.0007149165    1.020    0.020
       183 -10.4865    230.6782     50.2022   2.8935181583e+02   5.8819942399e+00   0.02505626   0.01402909 -71.91   0.00182737    2.064    0.516
       184  -8.0214     91.0220     53.2477   2.9111181498e+02   6.6468069128e+00  0.009254293  0.008340925  25.55 0.0002114048    1.039    0.037
       185  -7.9779     96.3016     51.3495   2.9103550230e+02   6.6387237152e+00  0.007216959  0.004964381 -27.67  0.000386858    1.693    0.409
       186  -7.5210    100.4911     47.5156   2.9096229349e+02   6.6593420493e+00  0.006831864  0.006402403  22.88 0.0001789266    1.001    0.001
       187 -10.0869    225.3705     42.4979   2.8937594778e+02   6.0019163048e+00   0.01887738   0.01149402 -64.52  0.001847254    1.748    0.428
       188  -8.6045     47.1164     42.6024   2.9160305063e+02   7.0207281416e+00   0.01273247  0.009445135 -51.91 0.0004676831    1.403    0.287
       189  -7.9477     14.5161     39.4888   2.9199406017e+02   7.2422127154e+00  0.006820806  0.006401396  21.60 0.0001761123    1.003    0.003
       190 -12.3907    247.9711    210.8899   2.9001100957e+02   3.9163305490e+00    0.1522321   0.01221782 -61.03  0.007604185    6.639    0.849
       191  -8.6261    149.5130     35.0564   2.9028195401e+02   6.5236462694e+00   0.01237295  0.007046317 -72.57  0.001132502    2.039    0.510
       192  -7.7285     92.4524     36.5457   2.9100314060e+02   6.8326705635e+00  0.006854012   0.00632181  -4.67  2.01213e-05    1.096    0.088
       193  -8.2060     65.6971     34.2841   2.9132544621e+02   7.0115489523e+00  0.006990036  0.004882456  53.48            0    1.556    0.358
       194  -8.0233     26.5231     33.9717   2.9181387589e+02   7.2381090501e+00  0.009379461  0.006704495 -60.15 0.0003766955    1.466    0.318
       195  -7.7606    140.6853     33.6755   2.9038470336e+02   6.5902361211e+00   0.00715311  0.005015101 -25.10 0.0003346183    1.665    0.399
       196  -9.0823      7.7985     23.1348   2.9198945250e+02   7.4703196420e+00   0.01158761  0.009389751  18.85 0.0003329985    1.179    0.151
       197  -9.4413      8.8241     32.0972   2.9202521991e+02   7.3603950098e+00   0.01409308   0.01270993 -58.55 0.0004515749    1.174    0.148
       198  -9.7957      9.3791     27.2089   2.9199176319e+02   7.4140278369e+00   0.01955772   0.01323409  39.26 0.0005810002    1.411    0.291
       199  -9.7779     54.8326     30.9855   2.9144343741e+02   7.1117551363e+00    0.0161399   0.01150488  87.31 0.0004220603    1.744    0.427
       200  -8.6294      1.9569     31.5361   2.9210813461e+02   7.4058724698e+00  0.009869002  0.009173133 -61.23 0.0005272585    1.144    0.126
       201  -7.7324     93.1655     30.1847   2.9095963048e+02   6.9024798794e+00  0.009011326  0.007354788  49.32 0.0002340719    1.250    0.200
       202  -9.6139      4.3649     27.3065   2.9205505925e+02   7.4413447957e+00   0.01755726   0.01106445  51.38  0.001706487    1.735    0.424
       203  -8.1758     57.6653     27.1711   2.9138727520e+02   7.1399275085e+00  0.009888984  0.005864778 -53.14 0.0009460188    1.733    0.423
       204  -8.6623    136.9484     24.9776   2.9038401864e+02   6.7126187037e+00  0.009975573  0.009314873   7.45 0.0003198681    1.051    0.049
       205  -7.8033    109.1736     23.7907   2.9072469378e+02   6.8852831493e+00  0.008982526  0.007584218 -20.45 0.0003045171    1.266    0.210
       206  -8.4168     77.4706     24.4921   2.9112495619e+02   7.0581547514e+00  0.006871613  0.006344502  35.29 4.750326e-05    1.047    0.045
       207  -8.7459     68.5464     23.2861   2.9123003254e+02   7.1230458244e+00  0.008877731  0.006305452 -49.13 0.0004414411    1.469    0.319
       208  -9.1876     84.7740     21.5692   2.9101771126e+02   7.0504290730e+00   0.01240339   0.01187692  55.26 0.0006472079    1.087    0.080
       209  -8.1551    164.4374     21.4441   2.9002139084e+02   6.5961310845e+00  0.006815657  0.006324223  33.05 0.0001086698    1.035    0.034
       210  -8.0365     97.2615     20.9826   2.9085835184e+02   6.9859490407e+00  0.008269942  0.006019741 -65.80 0.0004084458    1.472    0.321
       211  -8.1917     74.2924     20.6905   2.9114404033e+02   7.1204273385e+00   0.01128562  0.008004477  19.30 0.0002168468    1.361    0.265
       212  -8.1726     77.3204     19.6981   2.9110076474e+02   7.1146819680e+00   0.01043177  0.008405986  19.85 0.0006586889    1.181    0.153
       213  -8.0159     59.7029     20.9758   2.9132811609e+02   7.2002721008e+00  0.008918473  0.008656218 -66.37 0.0002827455    1.102    0.092
       214  -7.6493    155.6779     20.6870   2.9012666114e+02   6.6551355400e+00  0.007126881  0.005032083 -23.70 0.0007039471    1.655    0.396
       215  -8.7018    216.6115    222.1556   2.9046233400e+02   3.9650038151e+00   0.02249782   0.01217924 -70.33  0.002037394    2.099    0.524
       216  -8.7143     27.5140     18.8190   2.9171923385e+02   7.4084790601e+00   0.01175061  0.009009751  21.84 0.0004320476    1.234    0.190
       217  -7.9968    124.7719     15.9451   2.9048698927e+02   6.8871676513e+00  0.008695473   0.00568006 -62.80 0.0006436778    1.615    0.381
       218  -8.1000     92.0171     15.6882   2.9089512721e+02   7.0773695825e+00  0.009480821  0.008359748  18.15  0.000244687    1.078    0.072
       219  -8.4554     23.5446     15.9284   2.9175322948e+02   7.4646035574e+00   0.01005715  0.008567377  24.76 0.0003376648    1.099    0.090
       220  -8.4707      2.5385     16.0024   2.9201661852e+02   7.5829949465e+00   0.01005541  0.008579967  26.59 0.0002264241    1.096    0.087
       221  -7.9917    189.4579     15.4981   2.8967660300e+02   6.5215549291e+00  0.006803434  0.006408193  20.09 2.679919e-05    1.010    0.010
       222  -7.9118     45.9955     14.0178   2.9146183534e+02   7.3591212689e+00  0.008035309  0.007525118  22.84 0.0003484371    1.001    0.001
       223  -9.4965    218.2203    246.2362   2.9057287578e+02   3.6759076627e+00   0.02579334   0.01174979 -61.36  0.002039252    2.246    0.555
       224  -9.9830    176.6586    244.6874   2.9108177847e+02   3.9315654310e+00   0.02989472   0.01393868 -46.97    0.0025399    2.293    0.564
       225  -8.2385    105.0016     13.7675   2.9072229557e+02   7.0254980520e+00  0.009206507  0.005407763  24.65 0.0003594362    1.595    0.373
       226  -8.3581    187.0760    246.1016   2.9095974221e+02   3.8555810895e+00    0.0129779  0.008017738 -45.74   0.00126279    1.719    0.418
       227  -7.8307     55.4708     13.4753   2.9134030556e+02   7.3114741455e+00  0.006830963  0.006377623  27.86 -3.63711e-05    1.017    0.017
       228  -8.6979    157.0806    245.6081   2.9133055660e+02   4.0327078455e+00   0.01262194  0.008727296 -33.03 0.0009450885    1.633    0.387
       229  -7.8446     38.4863     10.6005   2.9153725604e+02   7.4415268451e+00  0.009704544  0.006250718  15.22 0.0001341024    1.577    0.366
       230  -8.3726     98.2771     10.5544   2.9078889561e+02   7.1012187117e+00   0.01369675  0.005920694  29.46  0.001139088    2.062    0.515
       231  -8.0439    146.5108    245.5000   2.9146161882e+02   4.0943190997e+00   0.01238318  0.005399692 -51.02   0.00102127    2.338    0.572
       232  -7.4499     33.5010    246.5015   2.9287535320e+02   4.7263163222e+00  0.006896587  0.006336601  -6.64 0.0008084953    1.107    0.097
       233  -7.7892     94.2200    244.3620   2.9210698881e+02   4.4057859702e+00  0.009812159  0.005740257  33.67 0.0006206996    1.567    0.362
       234  -7.5224     81.4789    244.4691   2.9226636206e+02   4.4771076283e+00   0.00682007  0.006405536  16.08 0.0001146049    1.022    0.021
       235  -9.1315    225.0224    240.2299   2.9045568861e+02   3.7067930475e+00   0.02539126   0.01193211 -67.84  0.002152811    2.370    0.578
       236  -9.0851    201.8786    240.5490   2.9074541134e+02   3.8354933330e+00   0.02105753  0.009472696 -54.87  0.001800287    2.223    0.550
       237  -7.6370    155.3093    241.3247   2.9132944521e+02   4.0926381302e+00  0.007133562  0.005015901 -25.58 0.0002081907    1.653    0.395
       238 -12.3093    242.6946    182.5691   2.8992281221e+02   4.2756461897e+00    0.1034994   0.05149316 -65.83   0.00916375    2.167    0.538
       239  -7.6571    105.5280    240.4734   2.9194506889e+02   4.3865870073e+00  0.006820934  0.006405279   9.56 0.0001870664    1.041    0.039
       240  -7.7034    135.3122    239.3383   2.9156780595e+02   4.2299090520e+00  0.007218332  0.004990035 -26.38 0.0006041572    1.692    0.409
       241  -8.9916    184.0117    236.5277   2.9094604397e+02   3.9844122422e+00   0.01741068  0.008174803 -47.68   0.00126345    2.255    0.556
       242  -9.8365    189.2220    233.0692   2.9086243939e+02   3.9948320091e+00   0.02732443    0.0213475 -43.41  0.002878654    1.350    0.259
       243  -9.1617    189.3575    226.0385   2.9082265828e+02   4.0758006498e+00    0.0320392  0.009951865 -44.13  0.002041974    4.118    0.757
       244  -8.2997    148.9692    237.6568   2.9138857457e+02   4.1715027133e+00  0.009814152  0.008399623  25.32  0.000423155    1.094    0.086
       245  -9.3205    206.6778    233.7799   2.9064899606e+02   3.8867299048e+00   0.02925919   0.01215467 -45.98  0.002317179    2.646    0.622
       246  -7.7401    176.5031    237.4685   2.9104463201e+02   4.0163934610e+00  0.006862818  0.006370554  -0.24 1.062865e-05    1.079    0.073
       247  -8.4875    229.4556    234.7131   2.9037062111e+02   3.7455337458e+00   0.01862902    0.0078238 -61.50  0.001532571    2.422    0.587
       248  -8.2282    159.8449    234.9424   2.9123841567e+02   4.1409564274e+00   0.01071383  0.008818971 -22.39  0.000683152    1.313    0.238
       249  -7.8102    139.6971    234.6445   2.9148779281e+02   4.2594772323e+00  0.007256354  0.004954596 -27.96 0.0007039256    1.711    0.416
       250  -8.0803    153.1812    232.8357   2.9131002064e+02   4.2035207139e+00   0.00925132  0.007756329 -24.89 0.0004516123    1.277    0.217
       251  -8.6268    201.7472    231.0332   2.9069547971e+02   3.9468665712e+00   0.01367347   0.01044647 -46.87  0.001491286    1.372    0.271
