#   1 NUMBER                 Running object number                                     
#   2 MAG_AUTO               Kron-like elliptical aperture magnitude                    [mag]
#   3 X_IMAGE                Object position along x                                    [pixel]
#   4 Y_IMAGE                Object position along y                                    [pixel]
#   5 X_WORLD                Barycenter position along world x axis                     [deg]
#   6 Y_WORLD                Barycenter position along world y axis                     [deg]
#   7 A_WORLD                Profile RMS along major axis (world units)                 [deg]
#   8 B_WORLD                Profile RMS along minor axis (world units)                 [deg]
#   9 THETA_WORLD            Position angle (CCW/world-x)                               [deg]
#  10 FWHM_WORLD             FWHM assuming a gaussian core                              [deg]
#  11 ELONGATION             A_IMAGE/B_IMAGE                                           
#  12 ELLIPTICITY            1 - B_IMAGE/A_IMAGE                                       
         1 -17.1553    131.4051    177.5348   8.8588096407e+01   1.8739883224e+01     4.385028     2.071712 -36.60   0.01553505    2.760    0.638
         2 -17.9847    151.1664    120.1445   7.0527313173e+01   2.7868038124e+01     4.356728     2.351869 -44.43    0.0170586    1.819    0.450
         3 -19.2488     73.9379    198.8091   1.0640581782e+02   2.3119478233e+01     5.671018     5.639349  32.32   0.03077312    1.179    0.152
         4 -11.7905    106.8380     31.8847   5.4463312984e+01   5.3820611847e+01    0.2175035    0.1740057  23.68  0.001220336    1.245    0.197
         5 -11.8673    131.4841      3.5555   3.9434775419e+01   5.0828300550e+01    0.1294047     0.109148  66.35 8.006813e-05    1.019    0.018
         6 -11.4426    118.5490    232.0294   1.0039975037e+02   9.2660900748e+00    0.1754859    0.1329884 -59.99 0.0005049198    1.514    0.339
         7 -11.3552    172.1945    249.8606   9.1515584682e+01  -2.0842340479e+00    0.1712764     0.128599   2.27 0.0004607087    1.340    0.254
         8 -11.2878    104.7659    249.6013   1.0548291842e+02   8.0197327156e+00    0.1763161    0.1361762   3.16  0.001031451    1.760    0.432
         9 -12.5258    156.0451    198.0704   8.6516241030e+01   9.8387244674e+00     0.217862    0.1989428  14.15 0.0003128972    1.017    0.017
        10 -15.2191    189.4729    193.9686   7.8337185423e+01   4.7937329149e+00    0.6742311    0.4158828  33.19  0.001417723    1.575    0.365
        11 -14.3827    190.4890    190.4894   7.7440281081e+01   5.2707116612e+00    0.4949148    0.2645938  44.17   0.00199317    2.024    0.506
        12 -15.7767    175.7196    186.2909   7.9809082490e+01   8.7000077696e+00     1.052094    0.6337515   4.66  0.004057908    2.728    0.633
        13 -13.4810    164.5892    193.2031   8.3655349021e+01   9.3111256611e+00    0.3450661    0.2131054  19.37  0.001198477    1.915    0.478
        14 -14.1780    159.8289    192.3667   8.4584903994e+01   1.0332789056e+01     0.443421    0.3221424 -54.97  0.001128742    1.581    0.367
        15 -12.2515    228.0282    192.1912   7.0328334722e+01  -1.1787774829e+00    0.2171427    0.1661689 -24.70 0.0002599737    1.146    0.127
        16 -12.8832     20.9222    191.5354   1.1821673333e+02   3.1091292044e+01    0.3458629    0.2508363 -85.26  0.002121547    1.174    0.148
        17 -13.1792    113.8979    228.9046   1.0101572540e+02   1.0600137386e+01     0.363855    0.3079007  41.07  0.001796729    1.039    0.037
        18 -13.4893    121.2851    218.6375   9.7927673785e+01   1.1504846982e+01     0.580097    0.3696806  28.41  0.002594789    1.558    0.358
        19 -11.7618    126.1177    224.8084   9.7722724953e+01   9.4889637728e+00    0.2030305    0.1733852  16.57 0.0004321529    1.212    0.175
        20 -12.9508     19.0143    179.2997   1.1764465816e+02   3.4171904644e+01    0.6987733     0.213624  51.12  0.002666229    3.454    0.710
        21 -14.4838    167.1688    180.7228   8.0620237635e+01   1.1398028970e+01    0.5241789    0.3793712  24.50  0.001416571    1.416    0.294
        22 -13.4971     32.2002    181.6622   1.1466709253e+02   3.2329977037e+01    0.4273399    0.2043313  44.07  0.001799936    2.012    0.503
        23 -15.4342    171.2317    159.2271   7.5133932446e+01   1.5140680377e+01     1.643834    0.2774741 -47.05  0.003533828    6.694    0.851
        24 -15.2305    174.3007    175.1609   7.7861973904e+01   1.1215331796e+01    0.5974143    0.5504785  49.19  0.001502472    1.224    0.183
        25 -14.5271    191.2918    178.0109   7.4748504800e+01   7.5131129676e+00    0.4380021    0.3641251 -79.63  0.002234517    1.813    0.448
        26 -11.8324    180.3492    244.3223   8.9022268204e+01  -2.4257531235e+00    0.2058563    0.1610883   3.42 0.0005864747    1.190    0.160
        27 -12.7983    125.5228    220.7614   9.7271715526e+01   1.0390957688e+01    0.6981618     0.410475 -21.39  0.002776842    3.213    0.689
        28 -12.0926    154.5759    230.6948   9.2324469938e+01   3.8224869691e+00     0.226461    0.1418259  48.06 0.0007516332    1.705    0.414
        29 -13.7317    158.3967    172.2564   8.0926757565e+01   1.4845694936e+01    0.3269894    0.2536664 -55.63 0.0009528121    1.428    0.300
        30 -13.9082    160.3486    169.6680   7.9923330667e+01   1.5030869602e+01    0.3780863    0.2729709 -57.65  0.001750991    1.599    0.375
        31 -11.7229      9.3789    172.2475   1.1937460492e+02   3.6685775051e+01    0.1973944    0.1531047 -69.80 0.0004006307    1.201    0.167
        32 -13.2577     27.7512    171.0000   1.1470446643e+02   3.5379892164e+01    0.3395995    0.2221392  37.26   0.00149088    1.610    0.379
        33 -11.8791     26.9396    166.9588   1.1449349249e+02   3.6456450419e+01    0.2114652    0.1729166  85.71  0.001008228    1.078    0.072
        34 -13.6806    167.3921    167.3761   7.7791860649e+01   1.4161048221e+01     0.347534    0.2671723 -23.49  0.001384127    1.376    0.273
        35 -11.9108     13.4264    166.3965   1.1788158738e+02   3.7779167934e+01     0.273284    0.2237246 -70.88  0.001008925    1.147    0.128
        36 -12.3663    205.4108    165.7890   6.9271409080e+01   7.2991904307e+00    0.2125237    0.1262674 -29.72 0.0006686737    1.676    0.403
        37 -12.0328     10.8373    229.7560   1.2284027867e+02   2.3636286052e+01    0.2246415    0.1705455  44.18  0.001593725    1.341    0.254
        38 -15.5667    179.8400    178.5350   7.7328549824e+01   9.4999297604e+00    0.7502936     0.609199  66.87  0.003778283    1.698    0.411
        39 -10.9541    116.3303    235.6834   1.0136142761e+02   8.9031497629e+00    0.2013595     0.163904  83.34 0.0009620489    1.460    0.315
        40 -11.6618    165.4282    238.9815   9.1283848974e+01   6.8819102810e-01    0.1758071    0.1280152 -43.44 0.0007407729    1.581    0.367
        41 -16.3858     24.4294    149.7903   1.1325568914e+02   4.0983772148e+01      1.69783     1.539391  78.46   0.01091849    1.121    0.108
        42 -12.2938     14.5552    202.0767   1.2041038872e+02   2.9264138807e+01    0.3157272    0.1688875 -87.84  0.001174756    1.646    0.392
        43 -11.3809      1.9838    159.0606   1.2012964992e+02   4.0419162095e+01    0.2119519    0.1197904  64.85   0.00113766    1.776    0.437
        44 -12.1540    184.5019    157.5109   7.1802573901e+01   1.2880643785e+01    0.1515232    0.1407792 -14.39 8.616176e-05    1.001    0.001
        45 -15.2089    154.5852    209.8418   8.8932958109e+01   7.7373626172e+00    0.8235583    0.5344788 -45.85  0.004106537    1.657    0.396
        46 -16.3480    164.7381    149.1685   7.4361417459e+01   1.8613206109e+01     1.075424     0.957662  80.90   0.00545096    1.368    0.269
        47 -13.6623    171.6997    144.1494   7.1587462063e+01   1.8257125662e+01    0.3839096     0.283141  15.69 0.0003061395    1.656    0.396
        48 -11.9612    104.9414    233.6347   1.0359081457e+02   1.1029610813e+01    0.8296762    0.3602955  55.18  0.003271031    2.956    0.662
        49 -11.4929    218.2090    153.7940   6.4223301591e+01   7.2234261803e+00    0.1933963    0.1533991 -10.96 0.0003967788    1.286    0.223
        50 -13.8678    180.5892    150.8583   7.1155880357e+01   1.5028091214e+01    0.3870245    0.2908799  61.66  0.001743644    1.693    0.409
        51 -14.2007     70.7648    142.2183   9.8524994442e+01   3.7648915600e+01     0.724028    0.3698663  14.18 0.0008835072    3.229    0.690
        52 -13.6307    188.7862    221.6892   8.3580730614e+01  -3.1437184866e-02     0.319126    0.1805445 -35.24  0.001361146    1.825    0.452
        53 -13.9303     76.0043    145.3257   9.7548476672e+01   3.6091062067e+01     0.452397    0.3665053  87.69  0.001662073    1.364    0.267
        54 -14.2228    155.1081    144.8773   7.5664338720e+01   2.1546502925e+01    0.4497671    0.3347136 -53.82  0.002063199    1.421    0.296
        55 -12.7104    185.0614    236.1626   8.6772441555e+01  -1.8396861530e+00    0.1938853    0.1483314   7.70 0.0002684666    1.188    0.158
        56 -11.6367    204.5548    143.5340   6.4530614177e+01   1.1730546869e+01    0.1475251    0.1342287 -28.80 5.703297e-05    1.023    0.023
        57 -12.5768    174.1155    235.8657   8.8984326493e+01  -1.2827850121e-01     0.194687    0.1695967  35.18 0.0006147295    1.231    0.187
        58 -11.9195     42.1969    243.9902   1.1766455557e+02   1.7400778326e+01    0.5125353    0.3128721  67.62  0.003137108    1.447    0.309
        59 -13.8339    159.9363    137.3817   7.2714339453e+01   2.2191668945e+01    0.5184508    0.2262775 -42.57  0.001598031    2.246    0.555
        60 -13.4156     54.8403    110.5291   9.7163832284e+01   4.7820204331e+01    0.5812828    0.4709163  75.12  0.002674943    1.527    0.345
        61 -14.3666     75.5825    133.7770   9.5386181911e+01   3.9107006187e+01    0.6724939    0.2686092 -54.64  0.001629195    2.270    0.559
        62 -14.2867     72.8584    121.2508   9.3542239671e+01   4.2685041745e+01    0.4744194    0.4097313  83.78   0.00118177    1.333    0.250
        63 -15.8429     32.1310    119.0939   1.0653869766e+02   4.8091198075e+01      1.59943    0.5342596  42.13  0.005800537    3.600    0.722
        64 -16.7672     57.9266    128.1735   9.9812913134e+01   4.2979447997e+01     1.777993    0.8906857  31.60  0.007580147    2.134    0.531
        65 -13.5925     48.5096    123.0675   1.0187415734e+02   4.5412824726e+01    0.3793062    0.3135134  -7.72  0.001332989    1.404    0.288
        66 -13.5280     46.1815    118.1872   1.0170411186e+02   4.6911249752e+01    0.5933506     0.357781   9.71  0.002720324    2.153    0.535
        67 -15.2538     35.0510    132.3378   1.0775961904e+02   4.4453144589e+01    0.8142939    0.5054732 -55.04  0.003733936    1.414    0.293
        68 -11.8462    127.8071    234.7486   9.8736174167e+01   7.3067398095e+00    0.2531518    0.2007582  -9.85  0.001449405    1.576    0.365
        69 -14.8845     83.9589    133.8383   9.2823038934e+01   3.7793529387e+01    0.6727636    0.3859911  30.14  0.002369974    1.895    0.472
        70 -13.5792    125.7947    131.2448   7.9981979217e+01   3.0748945738e+01     0.338184    0.2576463 -22.37 0.0009617411    1.537    0.349
        71 -13.7696    116.0249    130.4772   8.2530307565e+01   3.2883457597e+01    0.3690298     0.291806  57.26   0.00145546    1.417    0.294
        72 -13.5118     20.8698    127.7279   1.1147442445e+02   4.6853833357e+01    0.3178412     0.155782 -70.55  0.001070799    1.735    0.424
        73 -15.0251    100.8509    119.4912   8.4280710799e+01   3.8433460621e+01    0.9504786     0.375141  48.08  0.003032489    3.097    0.677
        74 -14.6480    107.6359    122.5826   8.3018212517e+01   3.6409721711e+01    0.8264502    0.3740905  26.60  0.002571383    3.325    0.699
        75 -12.1364     31.9434    232.1680   1.1886813662e+02   2.0958964454e+01    0.3058238    0.1756294 -63.70  0.001787917    1.858    0.462
        76 -14.7957     90.5414    121.2991   8.7914116787e+01   3.9835802057e+01    0.6317341    0.4994237  61.70  0.002306473    1.505    0.336
        77 -13.3969     86.7628    115.6407   8.7720459232e+01   4.1868253386e+01    0.3759864    0.2073192  43.80  0.001480286    1.959    0.490
        78 -13.7781     81.8916    113.0122   8.8641127672e+01   4.3319173732e+01    0.3716921    0.3033624 -68.75  0.001854537    1.341    0.254
        79 -11.8448    181.9711    219.0091   8.4539273482e+01   1.5066656195e+00    0.1623736    0.1404784   7.32 0.0003447478    1.018    0.018
        80 -13.5580    119.8965    120.7663   7.8992783809e+01   3.4415454424e+01    0.3725292    0.2641225 -48.40 0.0008873148    1.392    0.282
        81 -11.6055    199.0103    119.7908   6.0041689351e+01   1.7450852013e+01    0.2279693    0.1561933 -55.97  0.001043672    1.606    0.378
        82 -11.6194      5.1373    119.9207   1.1533817945e+02   4.9859413285e+01    0.1823841    0.1244428 -50.70 0.0005507935    1.329    0.248
        83 -13.6995     19.5374    114.8345   1.1000592911e+02   5.0190088500e+01    0.3345924    0.2201018 -84.84  0.001095838    1.559    0.359
        84 -14.6080    102.9768    124.4965   8.4883616091e+01   3.6825290461e+01    0.5670076    0.4561113  79.61   0.00155193    1.592    0.372
        85 -12.5398    191.3447    113.7164   6.0032469074e+01   2.0271162826e+01    0.4281981    0.2560118  28.57  0.001694603    2.407    0.585
        86 -12.8085     12.8938    113.3118   1.1197028294e+02   5.1024931541e+01    0.2206164     0.158615 -79.78 0.0005577356    1.286    0.222
        87 -14.4287     75.4715    111.0041   9.0261978609e+01   4.4829990251e+01    0.4824397    0.3790565 -60.01  0.001179418    1.276    0.216
        88 -16.4320     65.5231    123.6470   9.6445365822e+01   4.3129238282e+01     1.836048     1.204737  75.36   0.00503575    2.298    0.565
        89 -14.0604     88.9232    110.2398   8.5649791553e+01   4.2804321130e+01    0.4486578    0.3446391 -18.19   0.00172761    1.506    0.336
        90 -11.9726     20.0399    233.4350   1.2128165538e+02   2.1965166940e+01    0.2000233    0.1429582 -70.44  0.001345252    1.486    0.327
        91 -14.2886     61.9172    108.0449   9.4149034280e+01   4.7519002200e+01    0.6036484    0.3632744   9.83  0.002574337    2.248    0.555
        92 -12.2210    173.2313    218.5891   8.6326961625e+01   2.9911957138e+00    0.1942632    0.1182137  24.44 0.0008977855    1.604    0.376
        93 -11.8271    139.1322    217.8209   9.3739882782e+01   8.7553365658e+00    0.1968305    0.1766836  52.70 0.0004345013    1.175    0.149
        94 -11.6219      6.3691    203.1252   1.2221495038e+02   2.9764175068e+01    0.3717645    0.1311717 -87.59  0.001619719    2.748    0.636
        95 -13.0740     58.2116    100.3760   9.3589475833e+01   4.9876282869e+01      0.34984    0.3220277 -61.90 0.0009869634    1.137    0.121
        96 -14.8328     60.4057     95.3605   9.1517216862e+01   5.0778885241e+01     1.032032    0.3451626 -52.43  0.003321966    2.640    0.621
        97 -14.1860     79.8645     99.7729   8.5856578949e+01   4.6816379959e+01    0.5131966    0.3144328  56.35  0.002096048    2.314    0.568
        98 -13.9869     72.3690     98.0881   8.7982328580e+01   4.8405028716e+01    0.4261154    0.2981718  -0.37  0.001952354    1.822    0.451
        99 -13.6053    177.2908    215.1358   8.4857779930e+01   2.9494897088e+00    0.2858396    0.2413399 -23.64   0.00112643    1.194    0.163
       100 -11.2036     99.6618     99.2149   7.9200085141e+01   4.3403998885e+01     0.217764     0.137215 -38.41 0.0003608079    1.589    0.371
       101 -11.9299     38.1514     96.3381   9.9952039809e+01   5.3157342608e+01    0.2517094    0.1306957   9.16  0.001078658    2.541    0.606
       102 -12.1882     69.0443     96.2050   8.8642835930e+01   4.9349982094e+01    0.2187374    0.1924365 -29.90 0.0004872375    1.059    0.056
       103 -13.1081    136.9933     87.8254   6.5142444725e+01   3.7825379159e+01    0.5948843    0.2587228 -34.67  0.002058737    2.545    0.607
       104 -11.5872     20.4691     91.4783   1.0554569948e+02   5.5836716420e+01    0.1340288    0.1094426 -50.17 7.816283e-05    1.011    0.011
       105 -12.9906     71.4918     87.5659   8.5334727373e+01   5.0954334728e+01    0.3214104    0.1871805  22.67  0.001194178    1.979    0.495
       106 -15.1721    184.2198    211.7899   8.2788236613e+01   2.4164169930e+00    0.6067676    0.4894663  80.13  0.003152444    2.166    0.538
       107 -14.7814    168.9702    205.3149   8.4919205967e+01   6.1630085605e+00    0.5679677     0.351116  46.02   0.00230762    1.736    0.424
       108 -13.5789     52.9480     84.7291   9.1427436308e+01   5.4217705823e+01    0.5677769    0.3683568  39.85  0.002811522    1.771    0.435
       109 -11.7142    100.1917    243.7426   1.0579072701e+02   9.7758232043e+00    0.3384969    0.2019733  17.08  0.001617037    2.390    0.582
       110 -11.8136    107.1227    242.2464   1.0414973650e+02   9.0412991201e+00    0.3844891    0.1695335  54.68  0.001590222    2.776    0.640
       111 -11.0764    215.3813     79.6936   4.7633462985e+01   2.1081269204e+01     0.149227   0.09932016 -70.76 6.931601e-05    1.788    0.441
       112 -11.2410    105.0837     79.4893   7.1537705461e+01   4.6513710659e+01    0.2159336     0.147486  41.94 0.0003310958    1.456    0.313
       113 -12.5006     59.0513     76.8427   8.6770216117e+01   5.5154441983e+01    0.2014246     0.198203  69.79 0.0005754757    1.262    0.208
       114 -12.7689    114.9734     74.9311   6.7135573782e+01   4.5282510189e+01    0.4927464    0.2927885   2.52  0.001560151    3.883    0.742
       115 -13.0553     75.5151     75.7009   8.0231021761e+01   5.2860620743e+01    0.2746038    0.2535294  -5.61 0.0006149045    1.037    0.036
       116 -12.3462     50.3019     75.9974   8.9952824068e+01   5.6495834406e+01    0.2034595     0.163364 -40.63 0.0005195538    1.119    0.107
       117 -11.4868    125.1157     73.3644   6.3826004892e+01   4.3296998292e+01    0.2202088    0.1893958  50.31  0.001130016    1.156    0.135
       118 -13.2909     98.6187     66.4767   6.9273669101e+01   5.0329755611e+01     0.437972    0.2686865 -55.72  0.001811304    2.219    0.549
       119 -12.0055     87.1986     68.4053   7.3689194664e+01   5.2224358886e+01    0.1963903    0.1371896  48.57 0.0004890922    1.583    0.368
       120 -12.2349     45.1323     60.6238   8.7235099882e+01   6.0356363106e+01    0.2233045    0.1772722 -48.01 0.0007542879    1.311    0.237
       121 -11.3314      1.5256     60.8919   1.0675431986e+02   6.3904523738e+01    0.1759157   0.09706318 -58.98 0.0003096448    1.455    0.313
       122 -13.4181    143.7443    210.9786   9.1588371258e+01   9.3483493683e+00    0.4684379    0.3599452 -16.82  0.002461568    1.538    0.350
       123 -11.5876    138.9505     56.4912   5.5068408830e+01   4.2872359560e+01    0.2182492    0.1389633  55.63  0.000391066    1.496    0.331
       124 -14.2792    147.1386    202.7679   8.9411888559e+01   1.0434970491e+01    0.5643888     0.485442  44.32  0.001690521    1.170    0.146
       125 -11.3033    224.6607     55.6834   4.0845880231e+01   2.2759239408e+01    0.1233911    0.1031342  25.36 0.0007048519    1.705    0.413
       126 -12.5891    136.5706    210.7394   9.3198238287e+01   1.0605587814e+01    0.5836587    0.2153817 -44.82  0.002151244    3.024    0.669
       127 -11.0997     65.5157     52.5218   7.5942114543e+01   5.8967751058e+01    0.1382752    0.1214768  -3.13 -4.890933e-05    1.027    0.026
       128 -11.4300    202.6992     47.3042   4.1549455099e+01   2.8836906880e+01    0.1405377   0.09222295 -67.46 0.0002849671    1.591    0.371
       129 -12.3528    198.3685     45.8452   4.1749524677e+01   3.0040318291e+01    0.1811428    0.1289684 -21.97 0.0005734056    1.727    0.421
       130 -13.6563    124.7588    208.5449   9.5599774462e+01   1.3038267991e+01     0.565703    0.3559908 -64.28  0.001507699    1.909    0.476
       131 -17.2002    108.3463    142.7480   8.7574320306e+01   3.1347418887e+01     2.737689     1.435394  54.69  0.009835861    2.529    0.605
       132 -12.1397    116.8326    239.5628   1.0174459545e+02   8.0903435661e+00    0.2712904    0.1952823  57.44  0.001245746    1.439    0.305
       133 -12.3357     26.9343     35.7719   8.6584562747e+01   6.7060966847e+01    0.2917238    0.1351687 -32.84  0.001368159    1.959    0.490
       134 -12.4076     11.9082     36.5947   9.4635609635e+01   6.8228911564e+01    0.2324811       0.1605 -50.38  0.001463897    1.422    0.297
       135 -11.9616     43.9922     34.4964   7.7859176437e+01   6.5225915264e+01     0.186211    0.1150849  28.41 0.0005150212    1.561    0.359
       136 -12.0355    212.8130    200.5773   7.4854881741e+01  -2.2602233404e-01    0.2270786    0.1878653 -80.43  0.001202261    2.246    0.555
       137 -11.7851     39.1358     29.0822   7.7783230327e+01   6.6726080558e+01    0.2002266    0.1416567  -5.58  0.000537426    1.265    0.209
       138 -11.7151     16.0980    242.1421   1.2251079217e+02   2.0617951617e+01    0.1579931    0.1392223  83.64   0.00121698    1.276    0.216
       139 -11.2842     20.4132     23.7284   8.4926517776e+01   6.9732641003e+01    0.1711749   0.08957916 -31.85  0.000946662    1.629    0.386
       140 -12.1641    172.5945     22.3709   3.9049487861e+01   3.9087453547e+01    0.2523719    0.1137934 -36.31  0.001142555    2.237    0.553
       141 -11.6310     84.2934     23.6350   5.7660419675e+01   5.9678232849e+01    0.1232528    0.1045804 -66.32 0.0007028896    1.712    0.416
       142 -11.3927    191.5071     21.4790   3.6529543394e+01   3.4676228519e+01    0.1290418    0.1121607 -89.05 0.0008100588    1.033    0.032
       143 -14.0722    164.8871    210.0205   8.6661027585e+01   5.9579990469e+00    0.5425389    0.2209537 -41.68   0.00214298    2.624    0.619
