#   1 NUMBER                 Running object number                                     
#   2 MAG_AUTO               Kron-like elliptical aperture magnitude                    [mag]
#   3 X_IMAGE                Object position along x                                    [pixel]
#   4 Y_IMAGE                Object position along y                                    [pixel]
#   5 X_WORLD                Barycenter position along world x axis                     [deg]
#   6 Y_WORLD                Barycenter position along world y axis                     [deg]
#   7 A_WORLD                Profile RMS along major axis (world units)                 [deg]
#   8 B_WORLD                Profile RMS along minor axis (world units)                 [deg]
#   9 THETA_WORLD            Position angle (CCW/world-x)                               [deg]
#  10 FWHM_WORLD             FWHM assuming a gaussian core                              [deg]
#  11 ELONGATION             A_IMAGE/B_IMAGE                                           
#  12 ELLIPTICITY            1 - B_IMAGE/A_IMAGE                                       
         1  -9.7061     75.1541     17.8165   7.3959437167e+01   6.3822910704e+01    0.3280651    0.2761872 -52.54 0.0005112712    1.400    0.286
         2  -8.8723     80.4324     12.6418   6.9282686831e+01   6.3459577321e+01     0.324737    0.2216825 -44.65 0.0009619081    1.631    0.387
         3  -8.6187    142.1478     11.6432   5.3974175066e+01   4.8203228175e+01    0.2555492    0.1940393 -30.25 0.0006084928    1.303    0.232
         4  -7.6684    172.1483      2.8348   4.6632465549e+01   4.0980071139e+01    0.1909544    0.1592306  28.98 0.0002427838    1.281    0.220
         5  -8.6218    138.8587      2.3324   5.0660801718e+01   4.9968605455e+01    0.2684475    0.2053571  -3.58 0.0004500062    1.361    0.265
         6  -8.2875     17.0346      2.9889   9.6108532975e+01   7.5503392466e+01    0.2011752    0.1199594 -28.11 0.0004590692    1.616    0.381
         7  -8.4812    106.7013      1.5885   5.6152434914e+01   5.8483532327e+01    0.2920192    0.1204373  58.19  0.001139072    2.207    0.547
         8  -7.9239     57.2104    247.6305   1.2315433301e+02   2.0272828402e+01    0.1321326   0.07519531  30.64 0.0005596756    1.721    0.419
         9 -11.3941    249.2671    240.3449   9.0952089457e+01  -2.5686310149e+00    0.6948149    0.4238822 -26.54  0.005400616    1.986    0.496
        10 -10.7127    240.3566    249.3781   9.3444674355e+01  -2.2296252113e+00    0.4596914    0.2705103  35.06  0.002275655    1.519    0.342
        11 -10.8191    246.2140    247.2128   9.2314296637e+01  -2.7420969922e+00    0.7142022    0.5684307  62.22  0.004573254    4.318    0.768
        12  -9.9428    190.9575    249.6595   1.0099792730e+02   3.7664837958e+00    0.6790971    0.1447872  39.09  0.003018839    3.455    0.711
        13  -9.4390    199.2336    248.0291   9.9500048004e+01   2.8785544279e+00    0.3691139     0.257993  45.38  0.002829967    1.713    0.416
        14 -10.1102    165.2968    248.5379   1.0501435783e+02   7.1497634000e+00    0.6911249    0.2459204  34.58  0.003834534    2.114    0.527
        15 -11.4690    186.0042    216.7726   9.7667252533e+01   7.8927156239e+00     1.230807    0.7270142 -46.13  0.007722224    2.418    0.586
        16 -11.6638    178.6164    241.7102   1.0206456445e+02   6.1499400796e+00    0.9969808    0.6218756  30.33  0.006545858    1.170    0.145
        17 -11.4863    190.1290    233.8841   9.9224831599e+01   5.4520899918e+00     1.112756    0.5538526  19.42  0.006370346    2.260    0.557
        18  -8.2248    144.0067    249.4954   1.0863666923e+02   9.7633260725e+00    0.1548275    0.1278995  62.04 0.0009766243    1.520    0.342
        19  -7.0346     30.3016    247.7125   1.2760395636e+02   2.2949129259e+01   0.09902573    0.0448068  55.30 0.0002716102    1.560    0.359
        20  -7.5773    142.6374    245.3028   1.0845687211e+02   1.0426121691e+01    0.1045254   0.06370245  52.63 0.0004079027    1.729    0.422
        21  -6.9444     92.2860    244.2747   1.1698534974e+02   1.6812292159e+01   0.08824739   0.06960655  21.76 0.0003385775    1.509    0.337
        22 -10.0347    221.4442    240.2538   9.5076906910e+01   8.0168552951e-01    0.3179086    0.1967196   0.39  0.002353108    1.589    0.371
        23 -10.0688    143.6335    238.2423   1.0757345037e+02   1.1142810093e+01    0.4238239    0.2453607  39.23  0.001991257    1.283    0.221
        24  -7.5229     71.6588    240.7991   1.2031239002e+02   1.9673806964e+01    0.1196814   0.08127666  79.50 0.0005633173    1.589    0.371
        25  -8.2935    158.7970    240.7010   1.0524990157e+02   8.8593277064e+00    0.1700203    0.1296487  70.44  0.001047394    2.106    0.525
        26  -9.1030     89.7781    238.2881   1.1698356582e+02   1.7935971734e+01    0.2288558    0.1572828   3.93  0.001462154    2.683    0.627
        27  -8.0580     49.5183    236.0176   1.2388025447e+02   2.2765230477e+01    0.1268423   0.08790144 -88.50  0.001021243    1.559    0.359
        28  -8.4443    151.3953    240.7906   1.0651223304e+02   9.8200820944e+00    0.1883413     0.130796  14.72  0.001103112    1.571    0.364
        29  -9.9958    147.7579    227.7174   1.0571704756e+02   1.1898260498e+01    0.3861851    0.2638796 -45.08  0.001420031    1.908    0.476
        30 -10.4157    155.0187    228.8068   1.0456508537e+02   1.0772725280e+01    0.8155388    0.4486054  56.53  0.004564211    2.633    0.620
        31  -9.7806    155.9301    223.1524   1.0373992227e+02   1.1349897658e+01    0.5490628    0.2272444  41.60  0.002994199    1.920    0.479
        32  -9.7738    153.2002    218.4711   1.0366142866e+02   1.2330534467e+01    0.6166964    0.2097598  36.58  0.002975923    2.350    0.575
        33  -8.3284    108.3703    233.9149   1.1334357126e+02   1.6264482093e+01    0.2576331    0.1416097 -75.01  0.001594982    2.803    0.643
        34  -8.8895    166.4929    234.9799   1.0330430880e+02   8.4909821271e+00    0.3047398    0.1622031  27.93  0.001886927    1.607    0.378
        35  -8.8018     53.7341    232.8808   1.2298180137e+02   2.2796331419e+01    0.2156843   0.07608997  51.76  0.001241918    2.152    0.535
        36  -8.3074    114.4666    231.5152   1.1204020140e+02   1.5818276666e+01    0.2974697    0.1258081  31.19  0.001600735    2.230    0.551
        37  -8.2073     82.6852    230.4426   1.1766692894e+02   1.9909390943e+01    0.2180696    0.1626559 -81.83  0.001712912    1.590    0.371
        38  -7.5118     72.2153    231.4659   1.1961767821e+02   2.0975285590e+01    0.1444693   0.06911066  45.84 0.0002611428    1.522    0.343
        39  -9.2251    139.8725    227.3597   1.0707735363e+02   1.3015489333e+01    0.4833945    0.2184156  31.14  0.002682467    1.986    0.496
        40 -10.2852    248.7202    225.4553   8.8928868674e+01  -1.3042789739e+00     0.291721    0.1740453 -11.55  0.002152944    1.564    0.361
        41  -7.9460    112.7985    226.4016   1.1186442470e+02   1.6747127704e+01    0.1538261   0.08493156  30.44 0.0009426922    1.672    0.402
        42  -9.7994    105.5605    223.0820   1.1288212917e+02   1.8162249668e+01    0.2441521      0.21061  34.97  0.001945472    1.190    0.160
        43  -8.8098    155.1137    249.7522   1.0681798884e+02   8.3204081651e+00    0.3172658     0.154101  32.67   0.00206093    1.561    0.360
        44  -8.0063    122.4283    221.7113   1.0963808277e+02   1.6137799720e+01      0.21287    0.1415304  -9.48    0.0012189    2.836    0.647
        45  -7.8762     85.5828    220.2865   1.1635275691e+02   2.1095807401e+01    0.1735708    0.1023838 -77.77   0.00113093    2.113    0.527
        46  -8.4545     32.1999    219.3441   1.2616300220e+02   2.7118365387e+01    0.1448869   0.06363011  43.76 0.0009212131    1.631    0.387
        47  -8.0809    127.5110    217.9664   1.0830241112e+02   1.5978024804e+01    0.1330276     0.112407 -62.06 0.0005128497    1.521    0.342
        48  -8.6323     62.0276    215.5971   1.2043197133e+02   2.4610830614e+01    0.1971473    0.1200584  70.50 0.0007047248    1.594    0.373
        49 -10.2413    248.3131    214.0238   8.7278296815e+01  -2.7333427498e-01    0.4023907    0.1814077  16.45  0.002223839    2.367    0.578
        50  -8.6046    152.5781    212.6203   1.0304782670e+02   1.3191275785e+01    0.3244793    0.1343077  37.53   0.00135679    1.917    0.478
        51 -10.1667    114.2905    200.6299   1.0890576434e+02   2.0425456459e+01    0.3319981    0.1772344 -65.48  0.001838461    2.493    0.599
        52 -10.0132    111.0245    211.2923   1.1070168912e+02   1.9207256093e+01    0.3935575    0.1765952  39.31  0.001246351    1.751    0.429
        53  -8.7837    104.0125    210.8480   1.1200402906e+02   2.0214027238e+01    0.3182121    0.1858569  22.12  0.001681736    2.171    0.539
        54 -10.5848    135.6876    201.4747   1.0481532760e+02   1.7223232591e+01    0.5415332    0.3084918  38.19  0.003200502    1.429    0.300
        55  -9.6800    157.1050    203.5958   1.0102835284e+02   1.3755305263e+01      0.22475    0.1692145  37.84 0.0003185695    1.114    0.102
        56 -11.4238    168.0957    204.3039   9.9101528076e+01   1.2026419867e+01     1.654921    0.8477987 -22.41  0.008060781    3.247    0.692
        57 -11.4714    161.1442    198.9220   9.9624879074e+01   1.3794546052e+01     1.460819    0.7696208 -23.26  0.007076255    3.150    0.683
        58  -8.6936     65.9407    211.4811   1.1940140808e+02   2.4842280992e+01    0.1660178   0.08542649  38.54  0.001025859    1.572    0.364
        59  -7.4570     53.6164    214.8081   1.2196666335e+02   2.5668522341e+01    0.1382714    0.0830905  79.51  0.000839703    1.680    0.405
        60  -9.0278     20.8119    213.0017   1.2797623735e+02   2.9238317959e+01    0.2012822     0.120806 -77.66  0.001486495    1.762    0.433
        61  -9.6292     61.1346    205.1150   1.1987744957e+02   2.6464638401e+01    0.1552794    0.1391748  47.09  0.001123864    1.246    0.197
        62  -8.6066     76.7765    205.9008   1.1686115237e+02   2.4489251203e+01    0.3533403   0.08089139  38.53  0.001508126    3.091    0.676
        63  -8.3794     24.1461    205.5643   1.2705573897e+02   3.0201939763e+01    0.2181859   0.09965051  20.54   0.00115151    3.270    0.694
        64  -9.6677    151.0003    201.4869   1.0188804477e+02   1.4958370374e+01    0.3498201    0.2420567 -79.50  0.001949481    2.790    0.642
        65 -10.5977    128.2479    205.0711   1.0669421625e+02   1.7759092092e+01    0.4661649     0.332376 -53.16  0.003133727    1.732    0.423
        66  -9.5024     71.6618    203.2117   1.1765178915e+02   2.5562264943e+01    0.1755959    0.1412842 -68.37  0.001303497    1.463    0.316
        67 -10.3310     31.0794    203.5498   1.2563913575e+02   2.9897343821e+01    0.2821503    0.1750568  73.37  0.002023858    1.382    0.277
        68  -8.9138     97.8752    202.7849   1.1239723556e+02   2.2319126271e+01     0.238652    0.1405655  27.58   0.00139185    1.809    0.447
        69  -7.1841     88.3415    201.3185   1.1415556738e+02   2.3810295037e+01    0.1044286   0.08663177   0.51 0.0003925974    1.715    0.417
        70 -10.2673    102.2228    197.4049   1.1096331607e+02   2.2623813091e+01    0.4231275     0.245305  44.23  0.002544349    1.411    0.291
        71  -9.7822     69.3443    197.4239   1.1764298627e+02   2.6843315571e+01    0.3518893    0.2381062   0.55  0.001701426    2.922    0.658
        72  -8.2929    249.5177    203.5054   8.5447307990e+01   5.1640901165e-01    0.1103803    0.0781984  11.47 0.0007782441    1.002    0.002
        73 -11.5651    181.6350    225.2659   9.9542804431e+01   7.5349760542e+00    0.8654638    0.7265399 -35.41  0.006867746    1.588    0.370
        74  -8.5913     56.9619    198.2830   1.2021531591e+02   2.8126686005e+01    0.1601831    0.1182918  48.50 0.0006134294    1.115    0.103
        75  -9.5243     14.6830    195.7588   1.2847367765e+02   3.2783415474e+01    0.3366461    0.1815551  44.43  0.002327188    1.455    0.313
        76 -11.2275    110.2067    206.3132   1.1033607992e+02   2.0090417961e+01     0.512796    0.3962936  84.98  0.002966131    1.572    0.364
        77  -9.4893    241.2135    189.9974   8.4470290091e+01   2.9401461844e+00    0.2204101    0.1668362   6.13 0.0008897478    1.062    0.059
        78 -11.8630    149.2359    176.5965   9.8597604891e+01   1.8981397226e+01      1.00817    0.6039436 -46.84  0.005558637    1.935    0.483
        79  -8.9949    114.5189    188.4974   1.0741261635e+02   2.2384608529e+01    0.2566526    0.1020593  37.67  0.001203646    2.140    0.533
        80  -7.2145    210.4493    187.4225   8.9000148661e+01   7.7246585535e+00    0.1176072   0.09379705  17.91 6.350329e-05    1.050    0.048
        81  -9.7122    155.2213    188.1381   9.9183520464e+01   1.6252169271e+01    0.2969689    0.2095417 -29.60  0.001826964    1.683    0.406
        82  -8.1374    228.9928    184.9543   8.5522970567e+01   5.2252358207e+00    0.1799219     0.134377  15.89 0.0004822483    1.044    0.042
        83  -9.2380    112.2429    184.3795   1.0736822025e+02   2.3419340227e+01    0.1856494    0.1674186  70.06 0.0006313258    1.155    0.134
        84  -7.5583     28.8353    185.6352   1.2516286944e+02   3.3366281021e+01    0.1598527   0.07268745  44.14 0.0009429239    1.724    0.420
        85  -7.4898     93.8205    183.8368   1.1120577629e+02   2.6128400906e+01    0.1665348    0.1218429  61.63 0.0005920024    1.307    0.235
        86  -7.9393     62.5217    182.4958   1.1780059244e+02   3.0377624974e+01    0.1158568    0.0947502  60.36 -8.235568e-05    1.007    0.007
        87  -8.4135    104.0939    187.5056   1.0945915024e+02   2.4048983682e+01    0.1758442    0.1020159  38.00 0.0004067106    1.484    0.326
        88  -8.0888    229.6459    180.1010   8.4569802623e+01   5.6601812902e+00    0.1652311      0.12381   3.37 0.0004781466    1.101    0.092
        89  -7.9230    139.5979    211.0341   1.0525432791e+02   1.5268641518e+01    0.2621472    0.1082083  48.37  0.001278288    2.410    0.585
        90  -9.0173     55.1380    179.1498   1.1911700591e+02   3.1869494876e+01    0.2922869    0.1465454 -81.08   0.00105852    2.128    0.530
        91  -8.9417    104.3414    179.1829   1.0839112245e+02   2.5484795095e+01    0.1755255    0.1552488 -36.51  0.001184873    1.393    0.282
        92  -7.7571     60.4837    177.9808   1.1784654759e+02   3.1478805935e+01    0.1474384   0.08734643 -45.90 -0.0001034706    2.389    0.581
        93  -9.3526    121.3522    176.6587   1.0440648969e+02   2.3392620001e+01    0.2458712    0.1432579  19.87  0.001165919    2.438    0.590
        94  -9.4814     47.8013    164.4400   1.1952302311e+02   3.5605158094e+01    0.3094284    0.1807191 -80.41  0.001689658    1.667    0.400
        95 -10.9999     72.8659    142.2030   1.1091037198e+02   3.7276508081e+01     1.022536     0.712755  14.75   0.00546382    1.990    0.498
        96 -10.3691     48.3919    157.7800   1.1878825169e+02   3.6918269108e+01     0.337369    0.2598903  79.30  0.001569764    1.147    0.128
        97 -11.3553     48.7377    150.1126   1.1796647141e+02   3.8506311283e+01     1.606768    0.5480106  43.50  0.007243473    2.505    0.601
        98 -10.1317    158.0063    172.3681   9.6143373365e+01   1.8208219140e+01     0.434908      0.32668 -42.75  0.002445724    1.522    0.343
        99 -10.8599     51.4905    170.7029   1.1921609374e+02   3.3934420167e+01    0.4725676    0.2670434 -70.67  0.002791446    1.774    0.436
       100  -9.0257    198.0332    172.2917   8.8530355955e+01   1.1570028020e+01    0.2031537     0.183167  24.61 0.0003828401    1.223    0.182
       101  -9.7206    121.4285    169.9814   1.0342316736e+02   2.4559367007e+01    0.3112875    0.1747388 -40.61  0.001571887    2.213    0.548
       102  -8.9049     78.6878    170.7420   1.1305511848e+02   3.0621266300e+01    0.2148764    0.1859708  79.02 0.0003710601    1.109    0.098
       103 -10.5002     36.3159    158.6706   1.2174076057e+02   3.7994698269e+01    0.7792481     0.316713  85.98  0.003493959    2.927    0.658
       104  -9.3447     18.8388    169.9077   1.2645477229e+02   3.7324760574e+01    0.3948826    0.1849376 -63.03  0.002257275    2.296    0.564
       105 -10.2274     25.4437    164.9551   1.2469869263e+02   3.7734728148e+01    0.3261728    0.2557747  16.04  0.002040225    1.699    0.411
       106  -8.3806    127.5062    168.9901   1.0195569672e+02   2.3771078433e+01    0.1629257     0.111024 -88.60 0.0006171172    2.381    0.580
       107 -12.0941    138.8301    187.8028   1.0236960106e+02   1.8851156094e+01     1.021444    0.4743203  36.26  0.005126359    1.872    0.466
       108  -8.1459     98.9974    168.0197   1.0812292286e+02   2.8327625574e+01    0.2125875    0.1366459  64.28  0.001147381    1.746    0.427
       109  -9.9861     57.7554    167.3093   1.1748201353e+02   3.3900852137e+01    0.3462315    0.1447172  44.42  0.001740654    2.018    0.504
       110  -9.6829     26.5812    158.7010   1.2403495824e+02   3.8917708316e+01    0.9211197    0.2714153  29.11  0.004104547    3.294    0.696
       111 -11.4956     34.5847    172.7487   1.2315314071e+02   3.5301195849e+01    0.5995446    0.4430555 -85.55  0.004232419    1.279    0.218
       112  -9.8122    111.6967    164.3334   1.0474016058e+02   2.7113572733e+01    0.3169257    0.2438926 -13.88  0.001589511    1.856    0.461
       113 -10.2447    111.0248    160.2751   1.0428416437e+02   2.7985633250e+01    0.2837498    0.2557949 -28.42  0.001712496    1.311    0.237
       114  -8.3715    120.4678    164.4942   1.0280401221e+02   2.5704433300e+01    0.1276238    0.1145372  43.59 2.628089e-05    1.010    0.010
       115 -10.5641    119.0389    159.2769   1.0230619950e+02   2.6900051912e+01    0.5173588     0.267051 -42.25  0.002435387    2.329    0.571
       116  -9.4043     96.7588    153.4794   1.0659917072e+02   3.1509081627e+01    0.2282313    0.2119355 -68.45 0.0009927306    1.154    0.133
       117 -10.5169    135.9621    158.7641   9.8455694584e+01   2.4192158362e+01    0.5441373    0.2771543  24.77  0.002233942    2.801    0.643
       118  -9.1137     78.0163    157.4995   1.1164197075e+02   3.3358183366e+01    0.1891392    0.1134776  37.92 0.0006780009    1.562    0.360
       119 -10.6829     30.1194    167.6788   1.2381472153e+02   3.6747586995e+01    0.9180161    0.2949509 -55.81  0.003965076    3.920    0.745
       120  -7.9918     19.3583    155.8202   1.2554756323e+02   4.0157065965e+01    0.1781661     0.124479  52.97 0.0003502296    1.236    0.191
       121  -9.7873    114.9964    156.6470   1.0280822181e+02   2.8048626380e+01    0.3896294    0.1634876 -43.09   0.00160043    2.987    0.665
       122  -8.2430     89.6277    157.2181   1.0883339739e+02   3.1801875334e+01    0.1690733     0.113898 -52.74 0.0004927398    1.634    0.388
       123  -7.6158    132.3063    151.6760   9.8027724774e+01   2.6101632360e+01    0.1321191    0.1022346  73.50 0.0007034373    1.645    0.392
       124 -10.1291    100.8616    157.4939   1.0622050280e+02   3.0090272534e+01    0.5261502    0.2431949 -42.54  0.002253826    2.936    0.659
       125 -10.9593     59.5738    145.2062   1.1470129470e+02   3.8315495428e+01    0.5590794    0.3390459  36.12  0.002845092    1.624    0.384
       126 -11.4070     43.1806    172.4813   1.2122533309e+02   3.4479408106e+01    0.7920818    0.3032523 -62.10  0.003973985    2.680    0.627
       127  -8.9524     91.9081    147.3180   1.0685334792e+02   3.3494712177e+01    0.2240663    0.1716735 -80.44 0.0005979431    1.396    0.283
       128  -8.0928     86.6253    150.1333   1.0856769953e+02   3.3682414606e+01    0.1778702    0.1125936 -51.11 0.0005223258    1.736    0.424
       129  -7.7435    123.0162    143.6447   9.8713535400e+01   2.9224536894e+01    0.1946542    0.1643023  43.71 0.0006082475    1.109    0.098
       130 -10.3489    101.0204    175.9911   1.0870879446e+02   2.6543996687e+01      0.17645     0.151747  47.75  0.001178749    1.031    0.030
       131  -7.6453    230.1770    175.2262   8.3612919709e+01   6.1226558220e+00    0.1441364    0.1290797  13.45 0.0003822162    1.335    0.251
       132  -8.4726     62.2111    136.9175   1.1297973857e+02   3.9814130282e+01    0.3398961    0.1624674 -46.20  0.001502503    2.686    0.628
       133  -7.3580    161.5105    106.1045   8.1544227015e+01   2.8850656995e+01      0.20309    0.1420247 -36.11 0.0004236427    1.421    0.296
       134  -8.9404    248.1796    103.2772   6.5885394944e+01   1.1612622697e+01    0.2823952    0.1519347 -32.57  0.001436366    1.668    0.401
       135  -8.6596    217.8523    100.9508   6.9740862035e+01   1.7749792882e+01    0.2426001    0.1950973 -14.19 0.0004131735    1.113    0.102
       136  -7.8500    105.6449     85.0387   8.9897305733e+01   4.4668863541e+01    0.2016838    0.1753512 -46.21 0.0003628365    1.113    0.101
       137  -7.4009    184.7689     78.3762   6.9306845645e+01   2.8261100442e+01    0.1978057    0.1342645  42.15 0.0004756769    1.519    0.342
       138  -7.8260    119.8319     63.8302   7.9179460667e+01   4.6012253807e+01    0.2287334    0.2036542   4.40 0.0006191676    1.204    0.169
       139  -8.2652    215.9463     52.3496   5.7044304514e+01   2.4591012307e+01    0.2882676    0.1978681 -12.96  0.001434139    1.449    0.310
       140  -7.9445     94.9774     52.5998   8.2560769515e+01   5.3555579583e+01    0.2473897     0.196934 -53.58  0.001010599    1.317    0.241
       141  -7.6225    189.9842     44.4549   5.8220604530e+01   3.1820388610e+01     0.197315     0.123754 -74.45 0.0004460605    2.304    0.566
       142  -7.3745     92.2986     36.6783   7.6984008459e+01   5.7097382121e+01    0.1462628     0.116041 -66.72 0.0001904199    1.623    0.384
       143  -8.4706     77.4759     29.9278   7.9144900729e+01   6.1346087190e+01    0.2294575    0.1330148 -37.21 0.0007406803    1.604    0.377
       144  -9.0108     84.8795     21.1737   7.2224614807e+01   6.1253506486e+01    0.3409395    0.2081463 -41.21  0.001413298    1.664    0.399
       145  -7.8515     30.0042     22.2979   9.7884298769e+01   7.0262223273e+01    0.1713787    0.1533505 -26.11 0.0003246468    1.103    0.094
       146  -7.0982     49.9954     21.0261   8.6554984982e+01   6.7846487278e+01    0.1634521     0.139414 -28.06 0.0003327868    1.018    0.017
       147  -8.4090    206.2107    250.5985   9.8721393833e+01   1.7738620940e+00     0.238882    0.0702109  34.04  0.001240143    2.533    0.605
       148  -8.2361    134.6270    248.3089   1.1009615511e+02   1.1090601595e+01     0.216321   0.09857435  50.64 0.0007981283    2.231    0.552
       149  -7.7159    131.3448    244.6509   1.1031130691e+02   1.1948987055e+01    0.1701224    0.1228355  64.73  0.001178797    1.724    0.420
       150  -7.3481    117.2797     12.3418   5.8997805461e+01   5.4668648314e+01    0.1560436    0.1059631  24.04 0.0007008307    1.627    0.385
       151  -7.4902    158.6900     11.3207   5.1353469842e+01   4.3799440473e+01    0.1566588    0.1045486 -55.46 0.0007035708    1.646    0.392
       152  -7.2180    104.4783     11.5586   6.1631654996e+01   5.7983776859e+01     0.147846    0.1340227  18.85 1.444317e-05    1.050    0.048
       153  -7.6298    129.1580    241.4255   1.1038355693e+02   1.2628283139e+01    0.1510041    0.1226614  61.35 0.0005300669    1.397    0.284
       154  -8.0672    109.5396    247.0671   1.1424274072e+02   1.4367627785e+01     0.228569    0.1560193  52.88  0.001222094    1.292    0.226
       155  -7.8893    104.4913    247.4917   1.1513677654e+02   1.4925870014e+01    0.1730103    0.1310933  55.30  0.001287737    1.220    0.180
