#   1 NUMBER                 Running object number                                     
#   2 MAG_AUTO               Kron-like elliptical aperture magnitude                    [mag]
#   3 X_IMAGE                Object position along x                                    [pixel]
#   4 Y_IMAGE                Object position along y                                    [pixel]
#   5 X_WORLD                Barycenter position along world x axis                     [deg]
#   6 Y_WORLD                Barycenter position along world y axis                     [deg]
#   7 A_WORLD                Profile RMS along major axis (world units)                 [deg]
#   8 B_WORLD                Profile RMS along minor axis (world units)                 [deg]
#   9 THETA_WORLD            Position angle (CCW/world-x)                               [deg]
#  10 FWHM_WORLD             FWHM assuming a gaussian core                              [deg]
#  11 ELONGATION             A_IMAGE/B_IMAGE                                           
#  12 ELLIPTICITY            1 - B_IMAGE/A_IMAGE                                       
         1 -13.3802     27.5701     60.0727   1.1828928557e+02   6.1345147007e+01      1.24021    0.9322532  59.90  0.006027882    2.297    0.565
         2 -13.0115     42.3675     21.0715   9.8494830923e+01   6.5911552914e+01    0.5431241    0.2830565  24.54 0.0008572339    1.811    0.448
         3 -12.3551    216.9207     14.6260   5.8432697981e+01   2.9567005639e+01    0.6020385    0.3568757  80.31  0.002078769    1.451    0.311
         4 -13.0301    189.8556      8.7827   5.9979656320e+01   3.6491739187e+01    0.5346246     0.297866 -85.59  0.002707445    1.868    0.465
         5 -12.2500     43.9058      8.6550   9.2606614329e+01   6.7134213183e+01     0.253488    0.1848684  24.01 0.0004306315    1.183    0.155
         6 -10.1198    109.8803      8.8291   7.2732405914e+01   5.5122613772e+01    0.1623581    0.1397217  75.32 0.0005194583    1.309    0.236
         7 -11.6873     57.5568      7.2423   8.6875664227e+01   6.5226901682e+01    0.4095595    0.3729697  -2.58  0.003097262    1.365    0.267
         8 -11.4346    166.8965      1.7211   6.1006453151e+01   4.2596362052e+01    0.4535357    0.1110793  67.16  0.001669136    3.116    0.679
         9 -10.9098    149.5078    222.1408   1.1783058222e+02   6.0282359599e+00    0.4941468     0.269962 -52.74  0.002258599    2.062    0.515
        10 -12.4160    227.0428    220.7101   1.0154865847e+02  -7.4035894028e+00    0.4327612    0.3037398 -41.90  0.002446901    1.575    0.365
        11 -10.1102    174.0000    221.9667   1.1253627642e+02   1.5713334683e+00    0.2154957   0.08061482 -46.62 0.0006823619    2.959    0.662
        12 -10.3532    211.4200    217.7854   1.0406264589e+02  -4.3358853889e+00    0.2438762    0.1283346 -45.27   0.00112603    2.113    0.527
        13 -10.7499    115.9352    209.7500   1.2332703787e+02   1.4708188491e+01    0.2563551    0.1835171 -82.36  0.001276678    1.615    0.381
        14 -10.1407    185.4401    204.2275   1.0688541954e+02   2.7908099609e+00    0.1936125    0.1394426 -57.28 0.0009463705    1.686    0.407
        15  -9.9685     48.8120    202.2209   1.3732103281e+02   2.6764028733e+01    0.2298442    0.1055768  68.45 0.0009433828    2.762    0.638
        16  -9.6799     41.3417    201.7034   1.3886885060e+02   2.7805227062e+01    0.1358952   0.07946778  68.48 0.0005311085    1.663    0.399
        17 -11.0616      5.0799    199.5605   1.4609832293e+02   3.2093084048e+01    0.2858171    0.1496559  56.68 0.0009969794    1.757    0.431
        18 -10.7038    149.1990    198.5621   1.1385182649e+02   1.0934441392e+01    0.2769529    0.1812742 -78.19  0.001145532    2.346    0.574
        19 -10.4263    112.2332    197.2192   1.2220847286e+02   1.8170988554e+01      0.22995    0.1190414 -70.19 0.0008875739    2.485    0.598
        20 -10.0901    133.2207    195.8232   1.1705359369e+02   1.4607255347e+01     0.278892    0.1750023 -72.03  0.001183706    2.081    0.519
        21 -12.2844    159.6199    191.7395   1.1019664965e+02   1.0344974513e+01    0.7550062    0.5182924 -88.03  0.002808483    2.420    0.587
        22  -9.8672    217.6637    188.3181   9.7112409175e+01  -2.4325562349e-01    0.1352516    0.1150414 -88.83 0.0007048866    1.701    0.412
        23 -10.2292    108.4267    185.2105   1.2111921370e+02   2.1639349876e+01    0.2147449    0.1391014 -73.45 0.0009548502    1.756    0.430
        24 -10.2462    183.1416    183.3057   1.0326084416e+02   7.3947604953e+00    0.3029341    0.1726109 -31.38  0.001227346    2.112    0.527
        25 -10.9663    224.0100    183.2278   9.4841391469e+01  -4.7100653196e-01    0.2023256     0.153197 -57.05 0.0007344206    1.629    0.386
        26  -9.5623    215.5269    194.5176   9.8779114682e+01  -9.8391687958e-01    0.1378654    0.1296932  -1.24 0.0008089172    1.067    0.063
        27 -10.0723    191.6607    178.3204   1.0038943134e+02   6.6956584487e+00    0.1497554    0.1207802  85.97 0.0007050083    1.714    0.417
        28  -9.5446     28.2550    176.9988   1.3917905976e+02   3.4991043727e+01     0.162284    0.0918534 -73.47 0.0003698819    1.479    0.324
        29 -11.2692     34.6174    173.3459   1.3729185100e+02   3.5184673466e+01    0.2428434    0.1394906  86.92  0.001059162    1.806    0.446
        30 -10.9922     55.5183    167.7721   1.3148034983e+02   3.4066799608e+01    0.3963951    0.2287822 -76.31  0.001898266    1.697    0.411
        31 -11.6928    120.8533    167.5606   1.1477755305e+02   2.3525028252e+01    0.5136892     0.204056 -61.15  0.001613891    3.243    0.692
        32  -9.6526     88.3182    167.9756   1.2316733976e+02   2.9238527503e+01    0.2434308    0.1180781 -81.40 0.0007049211    4.330    0.769
        33  -9.9476     44.3395    168.3170   1.3432822562e+02   3.5299955861e+01    0.1319551   0.09473282 -40.89 0.0007048685    1.706    0.414
        34 -10.1476    138.7074    164.7007   1.0972938214e+02   2.0643058081e+01    0.3269037    0.1972052 -74.24  0.001181529    2.615    0.618
        35 -11.6352    106.4335    157.6581   1.1652054362e+02   2.8625023846e+01    0.6976992    0.4670375  84.09  0.002893303    2.128    0.530
        36 -11.2814     24.2988    159.5259   1.3814120861e+02   3.9504890451e+01    0.2395098    0.1674373 -41.45 0.0009166086    1.708    0.414
        37 -10.9888    167.3436    157.0995   1.0120609192e+02   1.6304041519e+01    0.4221896     0.272049 -74.72  0.001572751    2.538    0.606
        38 -10.6674    119.2086    156.8181   1.1301271225e+02   2.6416307778e+01    0.4627732    0.2774002  51.55  0.001930511    1.752    0.429
        39  -9.9523     23.4843    153.5274   1.3761766402e+02   4.1002619043e+01    0.1280569    0.1040965 -79.89 0.0001150717    1.022    0.021
        40 -10.5568    189.4891    150.4614   9.4773762486e+01   1.2916347155e+01    0.2851583    0.1418764 -53.63  0.001032575    2.343    0.573
        41 -10.4609    218.2688    156.4028   9.0276403716e+01   5.6875944587e+00    0.4079476    0.1142167 -46.22  0.001211674    3.704    0.730
        42 -10.4425    234.0000    147.0198   8.5353657659e+01   4.3704395981e+00    0.2424217   0.07522363 -40.85 0.0006598507    2.948    0.661
        43 -10.4163     56.1390    146.4657   1.2800273347e+02   3.9191825721e+01    0.3339656    0.1595449  66.01  0.001090272    4.239    0.764
        44 -10.8979    106.7623    145.3340   1.1387274492e+02   3.1557339687e+01    0.4384703    0.2751546  85.69  0.001589247    2.830    0.647
        45 -10.0727    148.2993    144.6460   1.0291551722e+02   2.3256538621e+01     0.164991    0.1265345 -88.75 0.0007036684    1.699    0.411
        46 -10.1164    181.4212    141.2397   9.4390003848e+01   1.6646857870e+01    0.2310351    0.1456075 -55.20  0.000950163    1.739    0.425
        47 -11.6689     83.1131    130.5941   1.1730267494e+02   3.9217788026e+01    0.6847224    0.2627154 -61.86  0.002258997    3.100    0.677
        48 -10.5923     59.0134    124.5164   1.2311939511e+02   4.4138316730e+01    0.2856967    0.1645477  81.66  0.001037337    3.531    0.717
        49 -11.0475     43.2632    122.8512   1.2749784624e+02   4.6377412533e+01    0.5329145    0.2586209 -82.53  0.001908929    3.656    0.727
        50 -11.2621     26.9031    120.6877   1.3196797071e+02   4.8458875661e+01    0.5319545    0.2500824 -89.93  0.001859297    4.333    0.769
        51 -10.6641     13.2996    121.2712   1.3600715227e+02   4.9387484111e+01    0.3074412    0.1018218 -39.79  0.001143839    3.955    0.747
        52 -11.6717    193.1620    118.4121   8.6464454759e+01   1.8706271663e+01    0.5713646    0.4260076 -74.15  0.001883611    1.641    0.391
        53 -12.2660     98.6219    127.6674   1.1217431364e+02   3.7284856134e+01      0.86808    0.5160389 -86.09  0.002797769    3.818    0.738
        54 -11.1634    141.0000    117.5184   9.8099703404e+01   3.0978237462e+01    0.5318323    0.2279668 -39.52  0.001801257    2.535    0.605
        55 -10.9233      1.9037    116.4098   1.3856591708e+02   5.1223239669e+01    0.2949202    0.1344461 -65.15  0.001572441    1.640    0.390
        56 -10.6703    108.1596    112.2685   1.0563683235e+02   3.9058431791e+01    0.5648797    0.2426109 -59.13  0.001770614    3.384    0.704
        57 -10.9632     78.7521    112.5011   1.1445152333e+02   4.4167273077e+01    0.4068726    0.1995916 -67.04  0.001432698    3.083    0.676
        58 -12.0647    160.1270    111.0268   9.1750963781e+01   2.7968052316e+01    0.6300471    0.4039364 -60.11  0.002583482    1.864    0.463
        59 -11.8638     14.9047    110.0143   1.3378519719e+02   5.1842442563e+01     0.587631    0.3536369  82.44  0.003043852    2.273    0.560
        60 -10.0303    117.3470    125.6530   1.0643523765e+02   3.4185535059e+01    0.1647721    0.1237883  84.41 0.0007042438    1.808    0.447
        61 -12.5758    140.9807    102.7048   9.4185369904e+01   3.4139150086e+01    0.6802408    0.4738642 -46.02  0.003075092    1.458    0.314
        62 -12.1835    150.5176    102.9492   9.1897883436e+01   3.1885496257e+01    0.4285216    0.2930691 -89.33  0.001674648    2.332    0.571
        63 -12.1188    127.7892    100.5505   9.7027264455e+01   3.7534097742e+01    0.6269385    0.2806711 -52.19  0.002180522    2.620    0.618
        64 -10.6101    174.2248    111.1337   8.8608398310e+01   2.4617076219e+01    0.3600189    0.2028821 -49.39  0.001053702    1.826    0.452
        65 -13.2586    110.5919     99.4376   1.0149616833e+02   4.1374674998e+01     1.430756    0.6763831  57.82  0.004672828    3.392    0.705
        66 -10.8360     62.8602     95.7264   1.1533021839e+02   5.0228510042e+01    0.4393365    0.2075167 -70.19  0.001281367    5.394    0.815
        67 -12.5767    170.3948     90.8288   8.4163151367e+01   2.9511692559e+01    0.4233113    0.3541689  84.95  0.001172214    1.287    0.223
        68 -11.6903     42.2146     87.8763   1.2032919608e+02   5.4385349115e+01    0.6819865     0.340449  -0.66  0.002635373    3.788    0.736
        69 -10.8342     45.4868     82.4485   1.1780549398e+02   5.5171953729e+01     0.273178     0.183924 -63.85  0.001048339    1.699    0.411
        70 -11.5207     87.0287     86.8851   1.0505673881e+02   4.8379079272e+01    0.4496786    0.3470321  89.10  0.002166651    2.058    0.514
        71 -11.1070    104.3624     83.1587   9.8643679941e+01   4.5912624708e+01    0.3878951    0.2542698 -69.56  0.001578362    2.599    0.615
        72 -10.8396     24.3025     80.6595   1.2488618091e+02   5.7549656346e+01    0.3802663    0.2064647 -78.23  0.001676969    3.163    0.684
        73 -11.2802     82.0099     72.6577   1.0240915890e+02   5.2001297994e+01    0.4031233    0.2665659 -70.11  0.001708741    2.883    0.653
        74 -10.9687     62.4031     71.8490   1.0882389285e+02   5.5175979476e+01    0.5443999    0.1174202 -47.32  0.001685019    4.310    0.768
        75 -10.7711     82.0374    100.6575   1.1043967023e+02   4.6305842092e+01    0.2008693    0.1856692  22.36 0.0007121427    1.123    0.110
        76 -11.3285    223.5169     71.5643   7.0174113494e+01   2.0189478464e+01     0.264985    0.2336701 -74.11 0.0001787018    1.013    0.013
        77 -12.1480     44.7577    101.2919   1.2262742514e+02   5.1188034085e+01    0.7071394     0.426191 -89.63  0.002946272    3.178    0.685
        78 -10.6313     51.9960     70.2451   1.1206026232e+02   5.6847259627e+01    0.2321718    0.1719026 -40.35 0.0008411736    1.219    0.180
        79 -11.8165     39.5478     52.8638   1.1135638770e+02   6.1466345295e+01    0.5647424    0.1452283 -41.26  0.001925354    3.398    0.706
        80 -11.4747     19.4612     59.3581   1.2127693258e+02   6.2142442495e+01    0.3020993     0.195191 -38.63 0.0009530114    1.226    0.184
        81 -11.8260    221.8371    248.6257   1.0745486526e+02  -1.0786014277e+01     0.511059     0.227609  42.20  0.002448874    2.227    0.551
        82 -12.4411     35.7059     57.2773   1.1426496596e+02   6.1088796091e+01    0.4235026    0.2958602  30.37  0.002628571    1.622    0.383
        83 -10.8301    237.3336     63.6770   6.6632049863e+01   1.8350473345e+01    0.1447429   0.08940659 -70.43 0.0006622967    1.707    0.414
        84  -9.8259      4.3911     62.2360   1.2791571226e+02   6.2568611728e+01    0.1529803    0.0946288 -63.92 0.0006403283    1.597    0.374
        85 -11.5738      9.3644     57.3516   1.2474236325e+02   6.3213125735e+01    0.4809502    0.3667973  73.89  0.003051884    2.293    0.564
        86 -11.4786    149.5542     52.3847   7.7873712447e+01   4.1009821792e+01    0.2890649    0.2247517  62.83 0.0006977991    1.203    0.169
        87  -9.4438    205.9814     47.0157   6.6936980795e+01   2.8018081753e+01    0.1621114    0.1394439 -87.90 0.0003135826    1.005    0.005
        88 -10.3812     82.1101     47.0900   9.3909834949e+01   5.6262309715e+01    0.1867234    0.1676885 -84.61 0.0009492232    1.668    0.400
        89 -10.3675    156.9801     44.9666   7.4272778446e+01   4.0244729830e+01     0.216905    0.1869186  60.67 0.0004516563    1.047    0.045
        90 -11.1189      7.3836     43.1382   1.2157557965e+02   6.5909982598e+01    0.4343016    0.2402105  36.83  0.002572842    2.585    0.613
        91 -11.4997     70.9643     42.3852   9.5971986965e+01   5.8850313908e+01    0.5014111    0.2799894  52.08  0.002324101    2.429    0.588
        92 -12.0071     42.1993     37.5609   1.0498689724e+02   6.3649771835e+01    0.6478709    0.2926663  16.78  0.002689737    2.963    0.663
        93 -11.9455     46.3793     35.8874   1.0269373163e+02   6.3379280984e+01     0.353265    0.2180673  11.60 0.0006771074    1.644    0.392
        94 -10.1092     83.7963     38.3791   9.0271782946e+01   5.7186628749e+01    0.1876116    0.1061459  35.05 0.0009435369    1.640    0.390
        95 -10.8843    119.9565     34.2272   7.8867099119e+01   5.0311819511e+01    0.2848759    0.2486318  71.60 0.0008577923    1.255    0.203
        96 -10.5061     73.9586     32.8222   9.1429693528e+01   5.9657859557e+01    0.2280426    0.1753948  54.30  0.001359676    1.659    0.397
        97 -11.0210    104.8404     30.5829   8.1419773588e+01   5.4016481402e+01    0.5310327    0.1844177  52.31  0.001914418    2.527    0.604
        98  -9.4049    154.3117     24.2940   6.8919321510e+01   4.3410538326e+01    0.1355542   0.09115575  40.24 0.0003392504    1.593    0.372
        99  -9.8304     26.3575     24.7070   1.0678536237e+02   6.7282730986e+01   0.09476246   0.08847823  28.64 0.0007030262    1.692    0.409
       100 -11.7120     22.9497    239.9354   1.4559685446e+02   2.1750297332e+01    0.3251672    0.1410678  72.02  0.001663375    2.247    0.555
       101 -10.9882    239.9560     20.5568   5.7502096918e+01   2.3750858058e+01    0.2239726    0.1730737 -81.65 0.0004911381    1.026    0.026
       102 -10.1739     89.1884     19.0387   8.1559858726e+01   5.8444906990e+01    0.1906451    0.1427393 -56.59  0.001089204    2.069    0.517
       103 -10.5401      7.9937    240.5147   1.4821031409e+02   2.3255099779e+01    0.1512875   0.09419776  45.85 0.0006955663    1.575    0.365
       104  -9.8277    134.4664     18.4171   7.0767455803e+01   4.8722168019e+01    0.1320456    0.1104493  56.87 0.0001093072    1.012    0.012
       105 -10.7007      6.1688    235.6508   1.4823987436e+02   2.4409400316e+01    0.1854897    0.1113728  82.55   0.00052637    1.270    0.212
       106 -10.7782     12.7377    227.4468   1.4658586033e+02   2.5403977655e+01    0.2040137    0.1451557 -81.35 0.0006228839    1.254    0.202
       107 -10.1316    104.4702    224.9834   1.2802801162e+02   1.3411203762e+01    0.1969696    0.1317489 -65.40  0.001031776    1.593    0.372
       108 -10.8962     95.4886    224.7126   1.2991558437e+02   1.4947663387e+01    0.2979791    0.1756231  62.81   0.00144814    1.748    0.428
