#   1 NUMBER                 Running object number                                     
#   2 MAG_AUTO               Kron-like elliptical aperture magnitude                    [mag]
#   3 X_IMAGE                Object position along x                                    [pixel]
#   4 Y_IMAGE                Object position along y                                    [pixel]
#   5 X_WORLD                Barycenter position along world x axis                     [deg]
#   6 Y_WORLD                Barycenter position along world y axis                     [deg]
#   7 A_WORLD                Profile RMS along major axis (world units)                 [deg]
#   8 B_WORLD                Profile RMS along minor axis (world units)                 [deg]
#   9 THETA_WORLD            Position angle (CCW/world-x)                               [deg]
#  10 FWHM_WORLD             FWHM assuming a gaussian core                              [deg]
#  11 ELONGATION             A_IMAGE/B_IMAGE                                           
#  12 ELLIPTICITY            1 - B_IMAGE/A_IMAGE                                       
         1 -11.1021     49.5255     14.3132   5.4600650312e+01   6.6041378925e+01    0.2591365    0.1729412  15.61  0.000894676    1.374    0.272
         2 -11.1186     35.0546     13.7455   6.0487783972e+01   6.8381243567e+01    0.2558726     0.169024  26.44  0.001569269    1.233    0.189
         3 -10.6569     32.0186     11.0042   6.0619036526e+01   6.9126644303e+01    0.1878716    0.1295161  10.87 0.0006445537    1.191    0.161
         4 -10.8328     45.0169     12.0850   5.5420861720e+01   6.7017292370e+01    0.1850489    0.1440189  20.97 0.0006022942    1.028    0.027
         5 -10.2179     27.4785     11.6317   6.3092458563e+01   6.9688780242e+01    0.2101982    0.1028045 -29.40  0.001181015    2.068    0.516
         6 -12.1200     56.5292      9.4318   4.9866607462e+01   6.5299846221e+01    0.3733411    0.2491364  32.93  0.001291389    1.196    0.164
         7 -10.9816    114.2207      9.1979   3.4836222727e+01   5.3502378206e+01     0.210222    0.1672531  56.12  0.000576061    1.046    0.044
         8 -10.1170    213.6422      8.8722   2.2822586766e+01   3.1942688225e+01    0.1488289    0.1124055 -65.44 0.0003829726    1.133    0.117
         9 -11.9552     97.8311      7.9321   3.7718666246e+01   5.7183402065e+01    0.3231392    0.2058952 -55.82  0.001790214    2.248    0.555
        10 -10.4690     69.4594      9.4670   4.5630035795e+01   6.2880764907e+01    0.1226452   0.09643647  35.46 0.0001393951    1.007    0.007
        11 -10.3583      3.5758      8.7694   7.4821049909e+01   7.2766435101e+01    0.1952177    0.1201463  13.76 0.0008793168    1.358    0.264
        12 -11.5265    124.2016      7.3988   3.2550507869e+01   5.1430358208e+01    0.3034523    0.1889338  82.03 0.0009258395    1.650    0.394
        13 -11.2612     85.5498      7.5545   4.0451264777e+01   5.9807700001e+01    0.2387556    0.1856184  63.01 5.903315e-05    1.267    0.211
        14 -11.4020     88.6766      6.2926   3.9230642894e+01   5.9256042416e+01     0.212871    0.1642983  48.71 0.0004796049    1.036    0.034
        15  -9.9455     23.0006      5.4792   6.2354597652e+01   7.0974021326e+01    0.1640464   0.09188593  32.65 0.0005737372    1.542    0.352
        16 -11.6067    183.5910      3.9987   2.4357534060e+01   3.8612945016e+01    0.1802597    0.1175048  79.43  0.001161152    1.264    0.209
        17 -10.5799    144.8624      2.8177   2.8283074293e+01   4.7186449800e+01    0.1623451    0.1211338 -82.03 0.0004003098    1.309    0.236
        18 -11.2872     38.6518      2.7270   5.3738380865e+01   6.8948553878e+01     0.279155     0.174197  41.02  0.001416362    1.410    0.291
        19  -9.7362    233.4916      2.5727   2.0304097477e+01   2.8772985432e+01    0.1072341   0.07800236 -75.64   0.00011193    1.011    0.010
        20 -10.4739    134.7539      4.2539   3.0036237249e+01   4.9326749428e+01    0.1628437     0.118358  50.09 0.0004818912    1.324    0.245
        21 -10.3903    169.3151      2.3290   2.5369217175e+01   4.1834964584e+01    0.1135993   0.07789995  48.60 0.0007045015    1.676    0.403
        22 -10.4989    152.3399      2.3039   2.7230677075e+01   4.5566999494e+01    0.1199914    0.0754912  48.46 0.0007039728    1.676    0.403
        23 -11.4997    113.9543      1.9590   3.2639854108e+01   5.4128022356e+01    0.3701961    0.1413592  63.44  0.001094437    2.046    0.511
        24 -11.5599    243.1947      4.6018   2.0061342512e+01   2.6787510529e+01    0.1592369    0.1083517  55.65  0.001120388    2.076    0.518
        25 -13.4234     15.2223    239.7548   1.1311505634e+02   1.9876559257e+01      0.90916    0.5252787 -71.05   0.00528674    1.662    0.398
        26 -10.6976     49.3501    249.7597   1.0668541565e+02   1.4014310751e+01    0.2138532    0.1373449  88.29 0.0006940612    1.645    0.392
        27 -10.8938     34.4213    248.7073   1.0975458078e+02   1.5948576315e+01    0.3407521    0.2528165 -28.01  0.002008664    2.061    0.515
        28 -10.7948     30.9644    246.6712   1.1032630926e+02   1.6759640416e+01    0.2375114    0.1555314 -83.82 0.0005405796    1.475    0.322
        29 -14.7671     37.9136    218.3461   1.0647109432e+02   2.2375973192e+01     1.596781     1.002213 -87.66  0.008417871    1.589    0.371
        30 -14.3900     21.8820    199.1650   1.0855073870e+02   2.8670975963e+01      1.59509    0.6762676  43.00  0.007190763    2.256    0.557
        31 -14.9204     27.2845    189.6094   1.0627876544e+02   3.0540040088e+01     1.784415    0.9601268  27.23  0.008622854    2.005    0.501
        32 -13.3114      6.8604    249.5270   1.1535421693e+02   1.8607278430e+01     1.805429    0.3576163  25.63  0.005658138    6.767    0.852
        33 -13.7486      7.3995    241.1215   1.1478322257e+02   2.0332151788e+01     1.212309    0.3879226 -71.28  0.005530361    2.775    0.640
        34 -14.2612      3.0426    234.0144   1.1525792874e+02   2.2271841934e+01     1.960853    0.3447613 -70.36  0.007127111    4.234    0.764
        35 -12.8117     26.2950    178.5117   1.0536008862e+02   3.3466660500e+01    0.6529365    0.4173293 -33.50  0.002510131    1.955    0.489
        36 -13.2679     52.9860    218.4572   1.0290135831e+02   2.0601653966e+01    0.5216604    0.2778847 -59.20  0.001518559    1.860    0.462
        37 -12.1041      2.6679    199.2255   1.1313188437e+02   3.0325806644e+01    0.6386576    0.3416075 -49.70  0.003269506    2.101    0.524
        38 -11.2386     62.0572    177.4762   9.5330045128e+01   2.9740935663e+01    0.2201783    0.1463732  27.61  0.001032886    1.596    0.373
        39 -12.1729     72.6831    179.8026   9.2701430423e+01   2.7705467500e+01    0.5525416    0.3006762  66.24    0.0019798    2.952    0.661
        40 -10.5164     55.3984    174.7987   9.6816599364e+01   3.1281866927e+01    0.2130668    0.1811098  17.26 0.0005387405    1.309    0.236
        41 -10.3719    243.6335    179.8363   5.2940614678e+01  -1.5024397028e-01    0.1886188    0.1015254 -47.23 0.0009475859    1.759    0.432
        42  -9.5079     15.4506    173.5184   1.0774113649e+02   3.5703201540e+01    0.1348083    0.1152092 -75.80  0.000119174    1.031    0.030
        43 -11.7145     24.4715    163.5012   1.0412767110e+02   3.7523445686e+01    0.2875827     0.203475 -45.25   0.00152974    1.435    0.303
        44 -11.2844     19.1614    160.1654   1.0524811037e+02   3.8844931050e+01    0.1963975    0.1503754  74.47  0.001087127    1.356    0.262
        45 -10.0561     62.9908    155.6743   9.1492162876e+01   3.5350782762e+01    0.2039226    0.1966303 -43.15 0.0005178006    1.044    0.042
        46  -9.4567    153.5060    114.5587   5.6317563824e+01   2.8894085998e+01    0.1516274    0.1448205 -73.55 0.0001201565    1.080    0.074
        47  -9.6227     21.7884    114.5903   9.7727774821e+01   5.0362059803e+01    0.1743526    0.1258454  32.44  0.000501063    1.589    0.371
        48 -10.1788      2.8387    111.7640   1.0399018768e+02   5.2286086169e+01    0.1950191    0.1469806 -46.07 0.0004129706    1.143    0.125
        49 -10.9656     64.8093     96.3832   7.7694526333e+01   4.9906639892e+01    0.2464357    0.2148364 -15.97  0.000299907    1.072    0.067
        50 -10.6144      3.6300     96.4180   1.0119574814e+02   5.5953695998e+01    0.3281033    0.2199063  -1.99  0.001712186    1.650    0.394
        51 -10.8231    132.4716     93.0153   5.5752353513e+01   3.7779957334e+01    0.2733572     0.212187  47.15 0.0001697211    1.273    0.215
        52 -11.0948     53.9581     78.3505   7.6619678206e+01   5.5342224995e+01    0.4054289    0.2951931  60.91  0.001543019    2.222    0.550
        53  -9.5722      6.0318     80.0459   9.7018262953e+01   5.9600080767e+01    0.1574755    0.1211957 -44.51 0.0003499396    1.049    0.046
        54  -9.8882    216.2203     78.5938   3.6671338421e+01   2.2293856319e+01    0.1537943    0.1193345  54.47 0.0003235503    1.480    0.324
        55  -9.6401     77.8884     78.1447   6.7645528284e+01   5.1624684235e+01    0.1924465    0.1556181  -1.53 0.0002803574    1.257    0.205
        56  -9.1933    201.2442     74.6972   3.7874572115e+01   2.5944246935e+01    0.1309945   0.08969336 -66.18 0.0006863866    1.491    0.329
        57 -11.1303     22.0070     73.5148   8.8554855431e+01   5.9915854938e+01    0.1876013    0.1217669  11.03 0.0005496776    1.577    0.366
        58  -9.8991     63.8182     69.8190   7.0121791607e+01   5.5564346439e+01    0.1678591    0.1565247  31.19 0.0002493612    1.243    0.196
        59  -9.9783      7.9930     68.5549   9.3482527582e+01   6.1988235331e+01    0.2020373    0.1424127 -48.61 0.0008736374    1.210    0.174
        60 -10.2289    192.2374     66.0379   3.7214913469e+01   2.9186030794e+01     0.172999    0.1480776 -67.88 0.0002173292    1.058    0.055
        61  -9.6173    151.0297     66.5095   4.4320832428e+01   3.8270760372e+01    0.2086965    0.1207016  81.62 0.0008094689    2.768    0.639
        62 -11.4799     67.0010     65.1192   6.7374546655e+01   5.5914902263e+01    0.2083681    0.1830322 -13.40 0.0002613362    1.079    0.074
        63 -10.4101      4.1144     64.3674   9.4196382041e+01   6.3095003611e+01    0.2190116    0.1311774 -44.19   0.00062121    1.308    0.235
        64 -11.2112      3.1376     60.0570   9.3542401717e+01   6.4038197661e+01    0.3209993     0.188035  17.42  0.001847342    1.827    0.453
        65 -10.6360     99.3140     62.1979   5.5619127886e+01   5.0359146437e+01    0.3545394    0.2325544 -61.29  0.001380032    2.356    0.576
        66  -9.8515     43.5042     62.9607   7.6047460474e+01   5.9766810247e+01    0.1934565    0.1217988 -42.56 0.0006010497    1.527    0.345
        67  -9.5406     89.6129     59.1652   5.7581902053e+01   5.2804710831e+01    0.1737796    0.1281623 -18.56 0.0001984787    1.478    0.324
        68  -9.6317     21.6934     58.2892   8.4285191600e+01   6.3040920717e+01    0.1094864    0.1001586  47.92 0.0001843859    1.573    0.364
        69  -9.4491     78.2581     55.9907   6.0233379951e+01   5.5486791110e+01    0.1620258    0.1156855 -32.72 0.0003339853    1.456    0.313
        70  -9.1849     40.2779     55.2645   7.4841944570e+01   6.1591015004e+01    0.1294101   0.08684994 -10.43            0    1.479    0.324
        71 -10.4559      6.7575     46.0280   8.7692828485e+01   6.6550988433e+01    0.1740353    0.1234774 -35.83 0.0006526951    1.157    0.136
        72 -10.5289    249.5303     44.9905   2.6616757880e+01   2.0885269966e+01    0.1737015   0.09183301 -44.34 0.0009973404    1.617    0.381
        73 -10.2775     39.0019     44.0246   7.1346992189e+01   6.3670310957e+01    0.2150646    0.1338143  -7.35  0.001137134    1.714    0.417
        74 -10.4257    235.9130     42.7719   2.7381747628e+01   2.3656219708e+01    0.1845804    0.1671809  41.99  0.001340865    1.669    0.401
        75  -9.4191    185.7565     41.9884   3.2589951490e+01   3.3958767579e+01    0.1443293    0.1020264 -42.06 0.0008397668    1.451    0.311
        76  -9.8674    118.8461     41.9694   4.4089381102e+01   4.9049197294e+01    0.2141964    0.1488316  13.40 0.0009524923    1.957    0.489
        77 -10.1431     95.7247     39.0778   4.8958753727e+01   5.4433468176e+01    0.1829412    0.1604797   6.68 0.0009783302    1.178    0.151
        78 -10.3301     40.4495     36.3816   6.7738222904e+01   6.4659248372e+01    0.2291154    0.1663363  15.19 0.0006783384    1.180    0.152
        79 -10.4437     50.8218     32.4851   6.1727899048e+01   6.3664571031e+01    0.2755258    0.2293315  78.25  0.001305264    2.363    0.577
        80  -9.2335    154.2715     32.2976   3.4649739898e+01   4.2173147499e+01    0.1204429   0.09242672  38.66 0.0001919707    1.524    0.344
        81 -10.2138     17.6728     31.8916   7.6970530483e+01   6.8069901574e+01    0.1622524    0.1258636 -18.27 0.0004326786    1.114    0.102
        82  -9.9070      3.7222     31.5767   8.4344122020e+01   6.9317790087e+01    0.1436706   0.09701559  17.38 0.0006162777    1.508    0.337
        83  -9.7107    153.1571     27.8580   3.3661067769e+01   4.2926352500e+01    0.1635266     0.133688  51.62  0.000313813    1.253    0.202
        84  -9.3348    160.4678     27.4053   3.2482226661e+01   4.1324094064e+01    0.1261925    0.1053897  84.39 9.178789e-05    1.050    0.048
        85 -11.4038     87.5913     23.8228   4.5843406803e+01   5.7883771649e+01    0.4063788     0.227278 -55.01  0.001806459    3.281    0.695
        86 -10.2380     98.6626     23.0578   4.2701130420e+01   5.5632378528e+01    0.1713944    0.1495687  34.10 0.0005013982    1.091    0.083
        87 -10.7130     72.8718     22.6236   4.9759001613e+01   6.0949983639e+01    0.1998441    0.1558674   6.70 0.0005073257    1.289    0.224
        88 -11.0461     21.4323     17.0578   6.8676409053e+01   6.9794538621e+01     0.298234      0.14214  29.30  0.001659202    1.864    0.464
        89 -10.5967    248.6704     15.6805   2.1589214356e+01   2.4605273431e+01   0.08951577   0.08008524  59.64 0.0006543057    1.688    0.408
        90  -9.9298     53.0153    246.8426   1.0564367365e+02   1.4194229842e+01    0.1931216    0.1425762  -0.66 0.0009700427    1.973    0.493
        91 -10.3948    128.2351     14.4060   3.3926276432e+01   4.9921059199e+01    0.1768412    0.1050034  75.57 0.0005000574    1.633    0.388
        92 -10.5018     45.3964    241.5648   1.0684532106e+02   1.6237649006e+01    0.3272771    0.1492292  44.35 0.0009950926    1.901    0.474
        93  -9.8706     82.8806    238.1942   9.8031909163e+01   1.2215891349e+01     0.320261   0.07210074  36.57 0.0007382014    3.459    0.711
        94 -10.6455     79.7830     12.6176   4.3857393076e+01   6.0560771912e+01    0.1674604    0.1046147  62.07 0.0003140689    1.641    0.390
        95 -11.9381     26.6401    232.7429   1.1022011707e+02   2.0267538820e+01     0.488939    0.2783925 -42.52  0.001918203    2.504    0.601
        96  -9.9960     48.2643    233.3625   1.0547900494e+02   1.7719005911e+01    0.1244692   0.09480238 -41.60 0.0002422321    1.641    0.391
        97 -10.1774    162.3369     11.6925   2.8352199345e+01   4.2516351836e+01    0.1257346   0.07873253 -74.12 0.0004709433    1.677    0.404
        98 -15.0384     19.4878    213.9737   1.1036626787e+02   2.5317473925e+01     1.919881     1.143268 -68.72   0.01049853    1.549    0.355
        99 -12.4941     44.5041    214.5419   1.0453630330e+02   2.2539483786e+01     0.357273    0.2613856  27.55  0.001081928    1.464    0.317
       100 -12.3428     45.6829    211.6885   1.0395754133e+02   2.3091304376e+01    0.4451688    0.2398432 -69.90  0.002126142    1.779    0.438
       101 -10.3614     75.8016    227.3962   9.8430956041e+01   1.5583793658e+01    0.1895858    0.1284387  19.02 0.0008470459    1.675    0.403
       102 -10.4007     65.7421    226.7703   1.0075611165e+02   1.7056991891e+01     0.231133    0.1574149  29.02 0.0005399244    1.478    0.324
       103 -10.9178     60.5131    224.4983   1.0174911484e+02   1.8250419000e+01    0.1338991    0.1219906  65.49 -3.154381e-05    1.005    0.005
       104 -10.6337     61.3209    220.3114   1.0109461316e+02   1.9127768650e+01    0.1334869    0.1036069 -29.06 0.0003867768    1.649    0.394
       105 -13.1825     52.2506    207.8077   1.0191439956e+02   2.3260526209e+01    0.6955153    0.3246456 -51.26  0.002975875    2.259    0.557
       106 -13.7368     59.8274    212.3504   1.0055047711e+02   2.1217869612e+01    0.6349421    0.3972225 -38.54  0.003004429    2.031    0.508
       107 -13.0844     56.9417    208.9666   1.0087468252e+02   2.2402167214e+01    0.8960677    0.1515802 -59.82  0.002646904    4.427    0.774
       108 -10.0866      1.8706    211.4800   1.1414462581e+02   2.7478942402e+01    0.1662744    0.1159471  33.73 0.0007348966    1.537    0.349
       109 -11.6646     11.8437    181.1401   1.0942405950e+02   3.4059205423e+01    0.2827373    0.2669544   9.53 0.0007737798    1.288    0.224
       110 -12.0950      7.8225    188.7964   1.1110075209e+02   3.2466881397e+01    0.7415935    0.2542821 -48.13  0.002808992    3.480    0.713
       111 -11.7482      8.1767    205.2371   1.1229513512e+02   2.8427141903e+01    0.4085447    0.1716945 -66.38  0.001927565    2.066    0.516
       112 -11.8459      4.8702    204.6988   1.1301376747e+02   2.8833778300e+01    0.4087586    0.2782154 -28.00  0.001850197    2.122    0.529
       113 -11.3640     81.5247    214.0281   9.5343197077e+01   1.7913603872e+01    0.2378578    0.1807928  79.07  0.001026043    1.493    0.330
       114 -13.8565     31.1171    238.3593   1.0967927950e+02   1.8544220685e+01     1.166688    0.7740053  31.14  0.006856184    1.545    0.353
       115 -12.9097     26.3764    225.0338   1.0968385300e+02   2.2046480913e+01    0.8898959    0.3332929 -53.33   0.00325747    3.028    0.670
