#   1 NUMBER                 Running object number                                     
#   2 MAG_AUTO               Kron-like elliptical aperture magnitude                    [mag]
#   3 X_IMAGE                Object position along x                                    [pixel]
#   4 Y_IMAGE                Object position along y                                    [pixel]
#   5 X_WORLD                Barycenter position along world x axis                     [deg]
#   6 Y_WORLD                Barycenter position along world y axis                     [deg]
#   7 A_WORLD                Profile RMS along major axis (world units)                 [deg]
#   8 B_WORLD                Profile RMS along minor axis (world units)                 [deg]
#   9 THETA_WORLD            Position angle (CCW/world-x)                               [deg]
#  10 FWHM_WORLD             FWHM assuming a gaussian core                              [deg]
#  11 ELONGATION             A_IMAGE/B_IMAGE                                           
#  12 ELLIPTICITY            1 - B_IMAGE/A_IMAGE                                       
         1 -12.9307      6.1623    130.4479   1.1184974967e+02   4.7417160529e+01     1.356126    0.5624961 -48.73   0.00591176    2.331    0.571
         2 -11.8883    249.6122     61.9295   3.5911058073e+01   1.7604057252e+01     0.578885    0.2756442 -33.66  0.002984616    1.944    0.486
         3  -9.9798    199.3745     42.1122   3.6632682610e+01   3.0394752579e+01    0.4407406    0.3023006 -70.11  0.002469931    1.430    0.301
         4 -10.6285    165.0452      5.0256   3.0825830745e+01   4.2418256359e+01    0.4598255    0.3415627  14.81  0.002698186    1.933    0.483
         5  -8.4841     25.2138      4.3658   6.6181301893e+01   7.2922270367e+01    0.1542893    0.1005095  39.79 0.0006703555    1.599    0.375
         6 -10.3063    235.5891      2.0653   2.4911175435e+01   2.7440084849e+01     0.365483     0.155651 -83.64  0.001912223    2.386    0.581
         7 -10.5275    100.3252    245.4979   9.9997789012e+01   9.7008860888e+00    0.3063426    0.2097128 -55.00  0.001822935    1.707    0.414
         8 -14.7505     91.7203    207.1989   9.7385023103e+01   1.8653135975e+01     3.805971      2.34841  26.60   0.01866999    1.646    0.392
         9  -9.4710     82.4037    246.8143   1.0397735754e+02   1.1823668207e+01    0.2655853    0.2004188 -35.91  0.001629414    1.750    0.429
        10 -10.0217     62.5696    240.6143   1.0766908742e+02   1.5520251082e+01    0.3772726    0.2801536   6.42  0.001001523    1.821    0.451
        11 -10.4117     66.8949    248.1319   1.0738370716e+02   1.3530549733e+01    0.6272087    0.2216903 -47.02   0.00239284    4.706    0.788
        12 -10.5315     60.9735    247.1536   1.0854718354e+02   1.4438855232e+01     0.590349    0.1589552  43.92  0.002426442    2.842    0.648
        13 -10.6453     48.1076    249.6721   1.1140239210e+02   1.5467008831e+01     0.509951    0.1812129  39.39  0.002307684    2.122    0.529
        14 -11.0752     49.7503    244.3833   1.1068493696e+02   1.6303071662e+01    0.3994026    0.3139259  32.18  0.001920756    1.278    0.218
        15 -10.1054    139.6247    245.1880   9.1564652518e+01   4.3445872638e+00    0.1657415    0.1109859 -33.98 0.0009469755    1.719    0.418
        16  -9.1794    152.9220    243.7859   8.8594524776e+01   2.7356049297e+00    0.1994287    0.1460872   7.30  0.001149336    1.340    0.254
        17 -10.7388    145.6684    240.1867   8.9614532938e+01   4.3466865745e+00    0.3555959    0.1655114  27.19  0.001664632    1.995    0.499
        18  -8.7212    160.4570    238.5267   8.6283363428e+01   2.5517262888e+00    0.1273378    0.1056162  14.02 0.0008084857    1.008    0.008
        19  -8.5785    231.5040    237.5421   7.2558990105e+01  -6.4236701112e+00    0.1171939   0.08662404  -3.22 0.0008091463    1.009    0.008
        20 -10.8533    131.3774    236.0883   9.2118292916e+01   7.0908683846e+00    0.3037888    0.1631765 -55.41  0.001518644    2.237    0.553
        21 -10.5439    125.6930    236.3909   9.3396028696e+01   7.8470997183e+00     0.268539    0.1780661  42.07   0.00150035    1.392    0.282
        22  -9.9654    227.4604    234.6565   7.2796865121e+01  -5.5703480666e+00    0.3738557    0.1594542 -27.35  0.000976279    2.300    0.565
        23  -9.2165    189.1436    235.9404   8.0110416078e+01  -9.5379550511e-01    0.2121147    0.1501638 -24.84 0.0009042579    1.370    0.270
        24 -12.0403    137.9488    235.3078   9.0588916509e+01   6.2898484400e+00    0.5383957    0.2987675  37.60  0.002783343    1.589    0.371
        25 -11.5583    128.7817    229.8385   9.1838240989e+01   8.6088825477e+00     0.455992    0.2262429 -48.35  0.002181984    2.236    0.553
        26 -11.4630    123.0816    230.1057   9.3139065563e+01   9.3869211319e+00    0.3970229    0.2971663 -36.47  0.001570502    1.520    0.342
        27 -11.4651    118.6232    227.8759   9.3837753281e+01   1.0458599991e+01    0.4531662    0.2389762 -45.64  0.002187539    2.148    0.534
        28 -11.2840    122.7344    223.0615   9.2253351023e+01   1.0787342066e+01    0.3674145     0.275223  42.42  0.001168447    1.257    0.204
        29 -11.7183    122.6318    219.1417   9.1723404950e+01   1.1571956981e+01     0.367654    0.2999713  82.43  0.002090607    1.597    0.374
        30  -8.5170    192.2879    230.5972   7.8649713562e+01  -5.5565892313e-01    0.1088833    0.1011267  75.48 0.0006991747    1.796    0.443
        31 -11.5031     53.7358    229.6372   1.0866835537e+02   1.8819573177e+01     0.844244     0.523887 -70.79  0.004819337    1.700    0.412
        32 -10.0680    131.9536    222.3198   9.0067885651e+01   9.5588926182e+00    0.1934522    0.1569596  25.18 0.0006089009    1.103    0.093
        33  -8.9329    115.4913    222.4802   9.3822481307e+01   1.1970375212e+01    0.1336737    0.1190742  28.48 8.078581e-05    1.023    0.023
        34  -8.6200     57.7578    218.4689   1.0676015698e+02   2.0716697661e+01    0.2279268    0.1518413  24.78   0.00124314    1.602    0.376
        35 -10.6486    116.4003    216.9389   9.2847299540e+01   1.2946307281e+01    0.2708972    0.1873504  25.79  0.001432619    1.386    0.278
        36  -8.7623    166.5744    214.2885   8.1215974468e+01   5.8232269011e+00    0.1816283    0.1181177 -30.37 0.0009462669    1.599    0.375
        37  -9.2855    224.0356    216.3172   7.0334810766e+01  -2.5606032540e+00    0.1676597    0.1304308   7.63  0.000310991    1.134    0.118
        38 -14.0394     95.1722    235.5039   1.0002215617e+02   1.2292014573e+01      2.86068     1.510646  29.31   0.01427722    1.753    0.429
        39  -9.2130    139.0529    216.5190   8.7604548151e+01   9.5977326474e+00    0.2078628    0.1217459  32.05 0.0006091729    1.546    0.353
        40  -8.5901    207.2960    211.3409   7.2530314520e+01   4.1454326346e-01    0.1331589   0.08464623  -7.66 0.0004345734    1.660    0.398
        41 -13.0046      7.8357    210.1534   1.1748670139e+02   2.7840444459e+01    0.9990647    0.6658937 -57.33  0.006097995    1.731    0.422
        42 -11.2374    126.5544    206.2795   8.8889816418e+01   1.3570985378e+01    0.3183992    0.2277181 -76.79  0.001576669    1.958    0.489
        43 -11.5288    133.1674    208.2566   8.7658193704e+01   1.2132136844e+01    0.4467717    0.3367869 -32.28   0.00227459    1.444    0.307
        44 -11.4579     63.4091    229.4146   1.0649468380e+02   1.7687535030e+01     2.102108    0.4959994 -69.01  0.006986313    4.982    0.799
        45  -8.6467    153.3053    205.6556   8.2654219591e+01   9.4722797470e+00    0.1320275    0.1093677  69.54 0.0007041716    1.690    0.408
        46 -10.4834    234.5430    203.8899   6.6328889901e+01  -2.0600422683e+00    0.2282537    0.1451504   9.10 0.0009769708    1.604    0.376
        47 -10.1592     51.5181    200.8190   1.0652386534e+02   2.5457014144e+01    0.3774587    0.2153502  33.09  0.001455448    1.678    0.404
        48  -8.8713     52.9831    198.2362   1.0589435414e+02   2.5885123197e+01    0.2141045    0.1609557  61.46  0.000499186    1.251    0.200
        49 -10.0672     45.8069    193.9754   1.0725464473e+02   2.7741281263e+01    0.4544153    0.2109581  29.75  0.001443114    2.137    0.532
        50 -10.9334     46.5199    197.8192   1.0746010315e+02   2.6748406270e+01    0.6193123    0.2135008  33.69  0.002513465    2.569    0.611
        51 -10.3263     43.4114    201.7817   1.0860350732e+02   2.6177753813e+01    0.2974373    0.2273298 -61.59  0.001105512    1.384    0.277
        52 -13.4668     19.4012    241.2688   1.1671604589e+02   2.0189440549e+01    0.7275773     0.490012  63.99  0.004452694    1.212    0.175
        53  -9.3547    243.3316    201.6671   6.4468293370e+01  -2.8369843700e+00    0.1046564   0.09364003 -49.13 0.0007052172    1.726    0.421
        54 -12.9435     25.5784    233.1542   1.1499598870e+02   2.1210099546e+01      1.64872     0.616619  71.17  0.006819888    3.379    0.704
        55 -15.1477     35.7912    212.6060   1.1133569217e+02   2.4552529456e+01     3.506813     1.996963  84.50   0.01835583    1.813    0.448
        56 -13.8816      6.3037    227.7060   1.1870054021e+02   2.4199197076e+01     1.020576    0.5609054 -46.60  0.005493802    2.742    0.635
        57 -10.2646    249.7551    196.5933   6.2527676252e+01  -2.8920350303e+00    0.2303181    0.1689002 -37.07  0.001515681    1.424    0.298
        58  -9.7035     68.4305    195.0484   1.0163672308e+02   2.4673898636e+01    0.3494067    0.2146696 -26.99  0.001504143    2.640    0.621
        59  -8.6748    123.3241    192.2854   8.7395774130e+01   1.7055964596e+01    0.1440511    0.1099088  -6.85 0.0002812386    1.601    0.375
        60 -10.6368    242.4576    190.3598   6.2565720650e+01  -1.0544230054e+00    0.2441352    0.1563175  -0.57   0.00074449    1.677    0.404
        61  -9.2214     82.2633    250.6293   1.0436740853e+02   1.1130577563e+01    0.2535343     0.142345  23.60 0.0006799519    1.874    0.467
        62 -13.3963    101.2345    169.8466   8.9183153184e+01   2.5851617031e+01    0.9588944    0.5338601  33.35  0.004084307    1.788    0.441
        63 -14.3441     85.1908    176.2580   9.4603330155e+01   2.6819392399e+01     1.185753     1.079849  44.38  0.006673467    1.072    0.067
        64  -9.3696      2.1262    186.6253   1.1745794533e+02   3.3709927234e+01    0.2073968    0.1631609 -42.72 0.0007926426    1.602    0.376
        65 -13.6700      6.6744    219.3348   1.1821772872e+02   2.5937832221e+01    0.6045824    0.2871728  46.12  0.002203113    1.730    0.422
        66 -10.8430    100.1379    183.8786   9.1855438807e+01   2.2691696594e+01    0.2288575    0.1959817  68.15 0.0009235357    1.252    0.201
        67 -12.4730     78.8772    183.1100   9.7329108960e+01   2.6082202772e+01    0.5074214    0.4596303 -87.14  0.002911871    1.101    0.092
        68  -9.2547    191.1103    183.1096   7.0470611880e+01   7.6376378885e+00    0.2075282    0.1664516  -5.91 0.0002898016    1.192    0.161
        69 -12.5118    114.1547    178.1386   8.7252789271e+01   2.1749132333e+01    0.7106537    0.4223274 -29.20  0.002881665    2.339    0.572
        70 -14.3380      5.2417    248.8120   1.1982274622e+02   2.0071993175e+01     1.171071    0.6219383  24.61  0.006673455    2.128    0.530
        71 -12.3414     10.9318    158.3902   1.1312610475e+02   3.9945401370e+01    0.7767497    0.7054471 -27.34  0.005027051    1.339    0.253
        72  -9.0944    141.9560    249.5424   9.1646441971e+01   3.2997034832e+00    0.1892672    0.1033308  31.19 0.0005378064    1.528    0.345
        73 -13.8012     19.4242    123.5595   1.0663227728e+02   4.8256041011e+01     2.185681    0.6752232  35.59  0.008230951    3.229    0.690
        74 -12.3054     19.5374    162.9429   1.1114535631e+02   3.8088286477e+01    0.9466791     0.412296 -75.95  0.004161957    2.065    0.516
        75 -13.7012     27.8886    155.4238   1.0797740537e+02   3.9251327933e+01     1.205708    0.6919259 -67.26  0.005938892    1.546    0.353
        76 -14.2022     27.5123    141.6978   1.0642734513e+02   4.2843640260e+01     1.478673    0.9678638  80.75  0.007380723    1.637    0.389
        77 -10.2605      4.0211    180.5149   1.1661688382e+02   3.5018568786e+01     0.445758    0.3350672  52.84  0.001802898    1.254    0.202
        78 -11.8974     12.8990    176.4690   1.1408734921e+02   3.5285033972e+01    0.7627605    0.5713145 -43.44   0.00253853    1.600    0.375
        79 -12.8980      6.9046    146.8404   1.1324217954e+02   4.3171543347e+01     1.204917    0.7807732 -59.15  0.005924582    1.424    0.298
        80 -10.0990      6.3882    170.4432   1.1532109711e+02   3.7286599793e+01    0.5012584    0.1360089  46.24  0.001399267    3.391    0.705
        81 -11.6483      6.4460    165.9881   1.1497248853e+02   3.8383367087e+01    0.7267311    0.3379471  26.27  0.002288765    2.292    0.564
        82  -9.4228     18.6769    180.6078   1.1293188213e+02   3.3770226138e+01    0.2315596    0.1297906 -64.23 0.0009712811    1.675    0.403
        83 -11.2570    121.3899    187.7671   8.7104928105e+01   1.8366364056e+01    0.3597608    0.2582762 -30.78  0.001750241    1.598    0.374
        84  -8.4606    202.2369    179.6014   6.7608176246e+01   6.4900897824e+00    0.1271416    0.1023773 -58.24 0.0006914572    1.666    0.400
        85 -14.1193      8.7744    237.9524   1.1867523005e+02   2.1876031665e+01     1.073519    0.5472485 -46.85  0.005034997    3.201    0.688
        86  -8.9512    206.9032    176.3435   6.6085970394e+01   6.3264734104e+00     0.180364    0.1545932   4.29 0.0003437344    1.113    0.102
        87 -10.6364    121.4321    174.8438   8.4788407621e+01   2.1271923840e+01    0.2927063    0.1969991  15.20 0.0006116802    1.835    0.455
        88  -8.9455     51.4952    175.0395   1.0363941207e+02   3.1703537512e+01    0.2035441    0.1305925 -70.89 0.0003093782    1.497    0.332
        89  -9.4578      3.0225    173.9187   1.1643255743e+02   3.6689381340e+01    0.2160051    0.1572451 -80.33 0.0008591807    1.191    0.160
        90 -12.3131    105.9495    180.6752   8.9815798554e+01   2.2511765064e+01    0.4371274    0.3615527  47.72  0.002314512    1.199    0.166
        91 -10.8361     69.8834    172.1555   9.8174229247e+01   3.0045168531e+01    0.2224274    0.1881698  66.59  0.000420044    1.183    0.155
        92 -10.5317     47.7541    169.2764   1.0395632969e+02   3.3600081685e+01    0.4095332    0.2600905 -17.65  0.001801832    2.495    0.599
        93 -11.8825     58.6921    167.9407   1.0070264929e+02   3.2598676270e+01    0.3991297    0.3268298  41.34  0.002187527    1.221    0.181
        94 -10.4584     45.7712    166.3459   1.0414585808e+02   3.4574687416e+01     0.252266    0.1601597  38.98  0.001248566    1.562    0.360
        95 -10.9730     42.2866    164.9993   1.0496592588e+02   3.5311947635e+01    0.2226858    0.1996508   8.98 0.0004531257    1.310    0.237
        96 -13.5024     79.9380    161.1327   9.3585340329e+01   3.1365175373e+01    0.8527232    0.6464458  45.24  0.004279152    1.320    0.242
        97 -13.1590     45.0287    149.8891   1.0214441986e+02   3.8903647798e+01    0.8930877    0.5003948  70.34   0.00369657    2.358    0.576
        98 -13.1324     54.5078    149.9865   9.9273136213e+01   3.7745548859e+01     1.003758    0.5267871  60.48  0.003925084    2.541    0.606
        99 -13.2436     95.7749    156.6797   8.8262939128e+01   2.9973569406e+01    0.7728559    0.5689275  49.65  0.003698045    1.414    0.293
       100 -10.7565    246.2025    155.0340   5.5262074294e+01   3.9100724330e+00    0.3389473    0.2066958  39.20  0.001596427    1.951    0.488
       101  -8.6029    206.9726    158.0957   6.2374408105e+01   9.5576733854e+00    0.1662522    0.1355748 -30.01 0.0004289304    1.083    0.077
       102 -13.3847     45.1123    157.7048   1.0320934828e+02   3.6867242619e+01     1.137422    0.4175601  44.55   0.00422306    2.808    0.644
       103  -9.9910    227.7997    153.3758   5.7798474356e+01   6.9720598890e+00    0.2476725     0.198243  -4.93  0.001492173    1.279    0.218
       104  -8.9820    236.5065    152.5098   5.6236313145e+01   5.7609535966e+00    0.1305081      0.10669 -26.96 3.373143e-06    1.004    0.004
       105 -12.4335     50.9945    143.1822   9.9276069029e+01   3.9951950874e+01    0.6730158    0.3515176 -38.93  0.002716383    2.345    0.574
       106 -11.4339     94.2708    148.2534   8.7042441924e+01   3.2321162076e+01    0.4098413    0.2246903  27.24  0.001624016    2.065    0.516
       107  -9.6684    239.6220    146.7553   5.4602056062e+01   6.2227896499e+00    0.1861063    0.1012031 -43.51 0.0009453262    1.646    0.393
       108 -12.0738     81.1920    143.8077   9.0040187876e+01   3.5572706745e+01    0.5626578    0.3850394  35.77  0.002616526    1.486    0.327
       109  -9.6199    226.1109    161.8977   5.9800130307e+01   5.8027691450e+00    0.1966895    0.1770996  -0.57 0.0003706499    1.147    0.128
       110 -12.1595     89.3774    136.8732   8.6131507807e+01   3.5997643371e+01    0.5867104    0.3428852 -59.62  0.002448239    1.742    0.426
       111 -12.1859     43.8204    135.7616   1.0036404698e+02   4.2732332696e+01    0.5759149    0.2973208  30.15  0.002524014    2.028    0.507
       112  -9.6523    248.9787    134.9238   5.0873256519e+01   6.6872152635e+00    0.1913145    0.1397679 -59.14 0.0009386732    1.684    0.406
       113 -11.6497    241.8400    130.1182   5.0894743547e+01   8.5771096307e+00    0.4729142    0.4064046  25.10  0.002764603    1.378    0.274
       114 -11.4308     65.6308    134.3639   9.3051438215e+01   4.0327450034e+01    0.5520278    0.3151497  51.93  0.002292317    2.062    0.515
       115 -12.7924     58.5794    127.3266   9.3983621864e+01   4.3119913024e+01    0.8600076    0.4846628 -50.50  0.003760203    1.665    0.400
       116  -9.6763     97.7383    129.4752   8.1948614800e+01   3.6381508002e+01    0.2083442     0.153139  20.42 0.0003848778    1.567    0.362
       117 -10.5711     72.8249    129.3456   8.9714770393e+01   4.0564807455e+01    0.3167278    0.1222559  39.98  0.001104036    2.632    0.620
       118 -11.5033    249.6556    122.2002   4.8218336914e+01   8.5925185910e+00    0.4807021    0.3644463 -13.63  0.002959548    1.479    0.324
       119 -10.4200    228.3006    122.9818   5.1362132967e+01   1.2021488900e+01    0.4174408    0.2119807 -26.04  0.001814075    2.319    0.569
       120  -9.3111     78.3059    125.6677   8.7145631003e+01   4.0645647157e+01    0.1563138    0.1192028  75.89 0.0002350929    1.663    0.399
       121  -9.3062     74.6718    124.6770   8.8105844180e+01   4.1470756927e+01    0.1596285    0.1150483 -24.21 0.0007049117    1.693    0.409
       122  -9.5692     76.5357    250.3666   1.0554963199e+02   1.1907848259e+01    0.2577711    0.1464693  31.66  0.001433147    1.547    0.354
       123  -9.4060     93.4871    121.9878   8.1474419774e+01   3.8983013784e+01    0.2396224    0.1496452 -51.12 0.0004884661    1.554    0.356
       124 -10.8129      3.1982    121.3305   1.1182430985e+02   4.9932134740e+01    0.3844988    0.2623487 -29.56  0.002139815    1.675    0.403
       125 -11.0485     44.2203    130.4293   9.9345080063e+01   4.4082464731e+01    0.2872021    0.2559719 -42.25  0.001622319    1.141    0.124
       126 -10.9069    235.0901    126.5929   5.1129421216e+01   1.0260582938e+01    0.4519564    0.1561568 -42.50   0.00175724    2.448    0.591
       127 -12.2488     27.7591    113.4517   1.0214339782e+02   5.0172409158e+01    0.5946448    0.3783348  68.21  0.002802353    2.003    0.501
       128 -11.1547      6.7658    110.5604   1.0927718517e+02   5.2474284249e+01    0.3849925    0.1869378 -86.27  0.001088871    2.194    0.544
       129 -10.6611      2.2164    111.9413   1.1106870593e+02   5.2379497625e+01    0.3431652    0.2226386 -73.94  0.001685982    1.303    0.233
       130 -10.0533      2.1564    106.9931   1.1047254745e+02   5.3636617009e+01    0.2614264    0.2197023 -31.70  0.001567224    1.273    0.214
       131 -10.2518    228.2722    110.8596   4.8754401269e+01   1.4046211661e+01    0.3466128    0.2508237 -13.54  0.001878242    1.712    0.416
       132  -8.7925     49.9662    113.0000   9.4037539144e+01   4.7920083274e+01    0.2310691   0.08430997  27.20 0.0008050203    2.960    0.662
       133 -10.3738      9.7280    104.4469   1.0733055995e+02   5.3847863311e+01    0.2819956    0.2378653  64.08  0.001060386    1.330    0.248
       134 -12.0856    240.2241     89.0781   4.2530622957e+01   1.5356185399e+01    0.4495569    0.2965443 -39.36  0.002181677    1.264    0.209
       135  -9.2607     91.5192     96.4876   7.5374176105e+01   4.5386230155e+01    0.1533917    0.1467222 -18.34 2.825177e-07    1.020    0.020
       136 -10.3297     14.6236     94.0671   1.0372640204e+02   5.6137453211e+01    0.3657672    0.1550433 -70.43  0.001539472    2.190    0.543
       137 -13.3808     14.2923    136.8772   1.0998305491e+02   4.5197883045e+01    0.9707739    0.7898231 -89.39  0.005791524    1.123    0.110
       138 -13.3591    244.0470    105.1217   4.5430938500e+01   1.2201755574e+01     1.324912    0.6491615 -37.56  0.006331881    1.677    0.404
       139  -9.6875    213.1450     70.2789   4.1668501202e+01   2.3462547369e+01    0.3337928    0.1838389 -31.61  0.001610055    1.841    0.457
       140  -9.1037     11.7753     71.4006   1.0031906357e+02   6.1810922854e+01    0.1733998    0.1160467  -9.72 0.0008938682    1.612    0.380
       141 -11.5034    127.6453    243.0628   9.3833627045e+01   6.3788001962e+00    0.5856391    0.1723207  29.18   0.00207306    3.487    0.713
       142  -8.3733     30.3125     55.6703   8.6957561102e+01   6.3693852836e+01    0.1226469    0.1058415  71.05 0.0005454051    1.672    0.402
       143 -11.8717    112.6295    245.2928   9.7327854115e+01   8.0634483267e+00    0.6260282    0.4213224  45.12  0.003667583    1.366    0.268
       144  -8.7838    231.4854     40.4783   3.3079697726e+01   2.3876325526e+01    0.1222876    0.0989863 -60.44 8.068871e-06    1.010    0.009
       145 -11.2179    233.9422     47.5412   3.4361527580e+01   2.2480928325e+01    0.4516118    0.2732761 -21.84  0.002388521    2.204    0.546
       146  -8.9607     67.1066     24.8555   5.7883362286e+01   6.3162592289e+01    0.1862352    0.1806596  49.42 0.0008834547    1.252    0.201
       147  -8.8719     25.4696     22.5348   7.5930080945e+01   7.0360999944e+01    0.1259551    0.1005146  -5.38 7.540338e-05    1.024    0.024
       148  -8.6083      6.0382     21.5235   8.7334091006e+01   7.2557361959e+01    0.1612792    0.1047055  13.41 0.0003367926    1.492    0.330
       149  -8.9978    202.6490     18.6826   3.0739709567e+01   3.2484243794e+01    0.1743008    0.1391045  40.44  0.001089682    1.704    0.413
       150  -9.2813     13.9837     18.8805   8.0979177924e+01   7.2267731960e+01    0.2734025    0.1369683  -3.82  0.001243902    2.783    0.641
       151  -9.4030    249.0266     17.0000   2.7047737330e+01   2.3310156695e+01    0.1676189   0.05772268  75.67 0.0004468815    3.001    0.667
       152 -10.5510    238.5785     15.5883   2.7414158023e+01   2.5437828234e+01    0.2161454    0.1813143  22.06  0.001492976    1.967    0.492
       153 -11.4677    119.8655    245.0029   9.5740922686e+01   7.1180504254e+00    0.4669813    0.2986567  37.90  0.002674921    1.330    0.248
       154 -12.5825      4.1540    199.5780   1.1772911584e+02   3.0537096362e+01     1.378959    0.3558023 -67.74  0.005570726    3.251    0.692
