#   1 NUMBER                 Running object number                                     
#   2 MAG_AUTO               Kron-like elliptical aperture magnitude                    [mag]
#   3 X_IMAGE                Object position along x                                    [pixel]
#   4 Y_IMAGE                Object position along y                                    [pixel]
#   5 X_WORLD                Barycenter position along world x axis                     [deg]
#   6 Y_WORLD                Barycenter position along world y axis                     [deg]
#   7 A_WORLD                Profile RMS along major axis (world units)                 [deg]
#   8 B_WORLD                Profile RMS along minor axis (world units)                 [deg]
#   9 THETA_WORLD            Position angle (CCW/world-x)                               [deg]
#  10 FWHM_WORLD             FWHM assuming a gaussian core                              [deg]
#  11 ELONGATION             A_IMAGE/B_IMAGE                                           
#  12 ELLIPTICITY            1 - B_IMAGE/A_IMAGE                                       
         1 -12.6386     74.8633     51.2009   7.6945503742e+01   5.7458784806e+01     1.377763    0.8264409 -46.00  0.006644237    1.824    0.452
         2 -13.4032     41.9562     45.4126   8.7986821094e+01   6.3220597101e+01      1.12172    0.7067795  41.12 0.0009373498    2.064    0.515
         3 -12.1986    104.6654     12.8065   5.2439554270e+01   5.6670296273e+01    0.5934674    0.4296136 -23.23   0.00207825    1.492    0.330
         4 -12.0514    124.8415     28.0191   5.3436343889e+01   5.0454336691e+01    0.8363258    0.5021527  43.73  0.002637507    1.546    0.353
         5 -12.4831    120.7211     57.6484   6.4843187321e+01   4.7256013072e+01     2.253828     1.423348 -72.13  0.008094518    3.513    0.715
         6 -11.1584    105.9167     20.4153   5.5114171720e+01   5.5623879842e+01    0.4094614    0.2855853 -34.83  0.001214448    1.598    0.374
         7 -12.8316    116.2093     41.2759   6.0291485346e+01   5.0749177639e+01    0.9790826    0.7581444  89.80  0.004273518    1.875    0.467
         8 -12.3548    113.3701     25.3191   5.5132367546e+01   5.3410127274e+01    0.8553167     0.383325  50.85   0.00274226    1.954    0.488
         9 -11.5497    157.0990     52.7132   5.4793876498e+01   3.9454750630e+01     1.645396    0.9600932 -12.81  0.006690556    2.436    0.589
        10 -12.6124    131.4807     15.2040   4.7563012671e+01   5.0239337230e+01     1.431039    0.5116402  60.53  0.004054147    2.399    0.583
        11 -11.8819    149.3772     24.5805   4.7416377204e+01   4.4953060984e+01     1.804947    0.6853078  59.20  0.007237715    2.281    0.562
        12 -10.7422    146.8643     16.3492   4.5212806331e+01   4.6420164215e+01    0.5154092    0.3172823  51.25  0.002649409    1.472    0.321
        13 -11.1563      6.4303     33.2522   1.0053258722e+02   6.8611054221e+01     1.661964    0.3862052 -47.87  0.007187648    2.703    0.630
        14 -10.3757     47.0285     19.0581   7.4614485670e+01   6.6830317848e+01    0.3604729    0.2912515 -14.58   0.00175352    1.155    0.134
        15 -10.1855     31.9488     12.1946   7.8359316993e+01   6.9793022160e+01    0.2093359    0.1798028  13.49 0.0006978093    1.356    0.263
        16 -11.8684     26.2753     27.7194   8.8350894190e+01   6.8043991206e+01    0.4640533    0.3964863  12.91  0.002383406    1.349    0.258
        17 -11.8213     20.1747     21.8817   8.8979264250e+01   6.9601284787e+01    0.7223938    0.2301609 -42.77  0.003291016    2.557    0.609
        18 -11.8230     36.6021     18.1034   7.8963862855e+01   6.8381596704e+01    0.9869133     0.466223 -26.82   0.00497447    2.012    0.503
        19 -12.8624     16.4166     13.2933   8.7097998150e+01   7.1313224963e+01      1.13274    0.5876878 -21.07  0.004298185    1.789    0.441
        20 -11.9883     22.9016     11.5442   8.2714592563e+01   7.0927481686e+01    0.5270733    0.3218884  -3.67  0.002278239    1.537    0.349
        21 -11.5999    145.8203     47.2351   5.5379843798e+01   4.2977411718e+01    0.9773856    0.4275744 -21.53  0.003475084    3.083    0.676
        22 -11.2613    183.0483     25.2431   4.2498812928e+01   3.6666287899e+01    0.5262507    0.3429452  47.56  0.002737069    1.622    0.384
        23 -10.5577    214.8305     23.4583   3.8365674102e+01   2.9410897030e+01    0.4928528    0.3524983   5.95  0.002642777    2.175    0.540
        24 -12.2985     48.9580     12.8951   7.0800796802e+01   6.7343769397e+01    0.5737091    0.2923393  40.31   0.00304459    1.943    0.485
        25 -10.9411    198.5285     29.1187   4.1576177128e+01   3.2522387346e+01    0.5547309    0.3520764 -19.68  0.002432455    1.903    0.474
        26 -11.0078     75.1721      4.3571   5.6955730906e+01   6.3633530237e+01    0.6857497    0.4439404  54.06  0.003930079    1.559    0.359
        27 -10.9585     86.9319      7.3430   5.4808508564e+01   6.0991870235e+01    0.5576869    0.3185121  55.92  0.002555867    1.674    0.403
        28 -11.3957     90.5718     20.9255   5.9531693065e+01   5.8858013658e+01    0.6132953    0.3865218 -20.10  0.002521416    1.639    0.390
        29 -11.1077     86.0150     14.2043   5.8040151788e+01   6.0519054245e+01    0.7788332    0.4240676  16.80  0.003389132    2.273    0.560
        30 -11.3763    137.1730     22.5596   4.8986352473e+01   4.8129837913e+01    0.9400216    0.3186809  50.97  0.003600152    2.522    0.604
        31 -10.8815    178.9220     21.0230   4.1877203735e+01   3.8128820747e+01    0.5792522    0.2595996  46.59  0.002035907    2.469    0.595
        32 -11.9920     68.1800     17.9692   6.5598376311e+01   6.3530264059e+01    0.5379082    0.4522472  34.10  0.002246387    1.234    0.190
        33 -10.0515    125.1007     20.9543   5.0862500278e+01   5.1173896440e+01    0.4205229     0.223061  68.27  0.001861924    2.057    0.514
        34 -12.1406    237.4152     15.8822   3.4614438017e+01   2.5321509455e+01    0.6067349    0.3376893  72.09  0.002696483    1.753    0.430
        35  -9.6340    191.4707     16.5851   3.9151813467e+01   3.5590726122e+01    0.2945476    0.2165947   5.83  0.001617609    1.901    0.474
        36 -11.4984    192.7254      7.7935   3.6749664299e+01   3.6177280747e+01    0.6441813    0.4477169  10.98  0.002994221    2.130    0.530
        37 -10.5606    226.3649     15.4584   3.5434985821e+01   2.7738859921e+01    0.3964568    0.2221495 -50.92  0.002180018    1.605    0.377
        38 -11.3120    165.1972     17.8450   4.2847825284e+01   4.1799765919e+01    0.4774487    0.2636158  43.77  0.001546211    1.939    0.484
        39  -9.5100      4.3655     12.5784   9.3649144031e+01   7.2397489272e+01    0.2337616    0.1407508  25.70   0.00150882    1.951    0.487
        40  -7.7600      5.3224      9.3350   9.1598467964e+01   7.2849137759e+01    0.2421153    0.0995901 -28.22 0.0009958808    2.175    0.540
        41 -11.4412    211.9548      9.3832   3.5300841926e+01   3.1582141890e+01    0.5393539     0.334015   1.38  0.002118485    2.824    0.646
        42 -12.1388    246.0160      6.1058   3.1935309183e+01   2.4590321900e+01    0.5923331    0.4861782 -80.40  0.003021928    1.098    0.089
        43 -10.6951    237.1143      5.3727   3.2399738355e+01   2.6505809258e+01    0.2712523    0.2035093 -43.21  0.001812792    1.279    0.218
        44 -11.7471    232.4982      7.4675   3.3183497962e+01   2.7265236851e+01    0.6806133    0.2987505 -70.12  0.003118835    2.635    0.620
        45 -10.9237    218.7424      3.6312   3.3401985348e+01   3.0639007860e+01    0.3025871    0.2650333 -38.79 0.0009657307    1.271    0.213
        46 -11.0254    223.6176      1.9042   3.2639627975e+01   2.9738691539e+01    0.5144278    0.2061431  80.18   0.00240657    2.440    0.590
        47  -9.9046     65.8954     10.2979   6.2858832855e+01   6.4804707183e+01    0.2973416    0.1875775  49.36 0.0009208972    1.659    0.397
        48  -9.8591     62.6257      6.9196   6.2422666506e+01   6.5741840622e+01    0.3318179    0.1965666  22.92  0.001472346    1.589    0.371
        49  -9.2447    163.1234     10.0689   4.0848680213e+01   4.3061327875e+01    0.2000751    0.1627021  47.46 0.0007172987    1.237    0.192
        50  -9.6144    168.7865      9.6606   3.9988328269e+01   4.1725423517e+01    0.3425553    0.1366135  51.47  0.001454557    2.377    0.579
        51 -10.9632     41.5167      4.5597   6.9844712744e+01   6.9446364387e+01     0.423295    0.2283902  -1.68  0.002202813    2.118    0.528
        52  -9.4782      1.2011      7.5329   9.3239982163e+01   7.3422725357e+01    0.2290915   0.07032108 -48.84 0.0006361699    2.850    0.649
        53 -11.2857      3.0296      1.9375   8.9353186421e+01   7.4147341142e+01    0.4036961    0.1709802  11.84  0.002180039    2.537    0.606
        54  -9.8576     13.2731      1.8771   8.3096725038e+01   7.3265550959e+01    0.3308009    0.1434501  24.18  0.001834896    2.258    0.557
        55 -10.4280    183.9348      4.9782   3.6936303082e+01   3.8519248655e+01    0.4113983    0.2807455 -36.73  0.001844141    1.528    0.346
        56  -9.8805    153.9974      7.2643   4.1269324358e+01   4.5529703568e+01     0.419588     0.159628  67.91  0.001739323    2.329    0.571
        57 -10.9470    114.1687      3.8070   4.6856619898e+01   5.5297924183e+01    0.3952711    0.2898678  56.30 0.0005387465    1.186    0.157
        58 -11.1612    106.3047      1.9751   4.7801166188e+01   5.7231447948e+01    0.5846962    0.3123826  67.87  0.001887515    1.919    0.479
        59  -8.8525     50.6829      7.2723   6.7262436964e+01   6.7730485847e+01    0.1000982   0.09810837  14.24 0.0002898686    1.562    0.360
        60 -11.0202    176.7977      5.7559   3.7931080099e+01   4.0152379243e+01    0.3885204    0.2092541  83.19  0.001319473    1.868    0.465
        61 -10.0310    169.2733      2.4668   3.7889665370e+01   4.2248721975e+01    0.2489334    0.1754365 -61.01 -7.703051e-05    1.496    0.331
        62  -9.5387    121.9621      5.1935   4.5838986056e+01   5.3377179734e+01    0.1857414    0.1616077  76.54 0.0003258694    1.206    0.171
        63 -12.2626    134.2940      2.5141   4.2739788229e+01   5.0672210456e+01    0.4409376    0.2568249  68.89 0.0006847334    1.559    0.358
        64 -10.0769    142.3983      3.2764   4.1718176430e+01   4.8668711884e+01    0.3693458    0.2218655  58.99  0.001313177    1.415    0.293
        65  -9.0785     55.0739      4.3623   6.4013532470e+01   6.7314450127e+01    0.1491425    0.1075235  50.46 9.321285e-05    1.673    0.402
        66 -10.9842    206.8053      2.4352   3.4112537927e+01   3.3430830610e+01    0.4610915    0.2102613  83.88  0.001605868    2.192    0.544
        67  -9.6530    158.2259      2.4174   3.9235713101e+01   4.4917498713e+01    0.2935454    0.1769931  40.43   0.00152657    1.797    0.443
        68  -9.0465    152.2141      1.3141   3.9698053992e+01   4.6459065912e+01    0.1845441    0.1072433  78.91 0.0004869363    1.671    0.402
        69  -9.1650    122.7668      1.3594   4.4315341385e+01   5.3489477515e+01    0.3262384   0.09886643  62.37  0.001267495    2.658    0.624
        70  -9.2817     82.0843      1.1355   5.3435960431e+01   6.2521270252e+01    0.1675272    0.0729808  54.21  0.000425944    2.001    0.500
        71  -9.5451     41.7841    149.1367   1.1178598756e+02   3.9333686936e+01    0.2085826    0.1926689  46.73 0.0005682976    1.212    0.175
        72 -10.5238    143.1966    248.9202   1.0160682630e+02   3.9725164238e+00    0.3324545    0.2288981 -27.61  0.001960775    1.907    0.476
        73  -9.6627    214.9456    150.8684   6.9197157465e+01   9.0900713280e+00    0.2471329    0.2141904  69.46 0.0008850766    1.568    0.362
        74  -9.6633    234.3405    150.3771   6.5574091047e+01   5.6489544694e+00    0.2217666    0.1546905  -1.53  0.001118561    1.668    0.400
        75 -10.2730    239.7016    146.6073   6.3841027598e+01   5.3443639604e+00    0.2454387    0.1905466 -23.79 0.0006068373    1.120    0.107
        76 -10.8628    249.6279    143.0376   6.1451447469e+01   4.2274148366e+00    0.6441829    0.2237598 -35.52  0.002527457    2.485    0.598
        77  -9.1629    107.6833    145.9855   9.3110735677e+01   3.0961977930e+01    0.2117406    0.1916328 -58.74 0.0004460965    1.086    0.079
        78 -10.7582     33.5672    144.5363   1.1340615617e+02   4.1264560354e+01    0.4265911    0.2620392  53.52  0.001931265    1.781    0.439
        79  -9.7697    133.0086    140.5357   8.5179784329e+01   2.7550819921e+01    0.3195697    0.2349216 -45.77 0.0009034429    1.338    0.253
        80 -11.3386     22.7040    127.1612   1.1417980071e+02   4.6445305856e+01    0.2810259    0.2218151  38.14 0.0002911589    1.467    0.318
        81 -11.0569     27.3048    140.0202   1.1454457569e+02   4.2927649683e+01    0.5072408    0.3644027  37.54  0.002426686    1.563    0.360
        82 -11.5862     25.2782    135.4102   1.1452409411e+02   4.4223927997e+01    0.6755355    0.2815334  28.11  0.003119786    2.673    0.626
        83 -12.1505     30.0974    132.9048   1.1282749523e+02   4.4430558828e+01    0.5916513    0.4755725 -80.07 0.0003423177    1.108    0.097
        84 -10.0714    216.6198    137.6596   6.5897930912e+01   1.1154834201e+01     0.418749    0.2222807 -43.37  0.001818171    1.817    0.450
        85  -8.6228     53.3075    139.6530   1.0719646237e+02   4.0424591995e+01     0.143338   0.09911425  74.68 0.0007043444    1.701    0.412
        86 -10.4544     47.2563    135.8658   1.0832907000e+02   4.2034855676e+01    0.5200667    0.1770589 -59.50  0.001440014    2.385    0.581
        87  -9.8721     80.1008    136.8754   9.8988546763e+01   3.7613742405e+01    0.4705655      0.28263 -28.70  0.001939679    2.354    0.575
        88 -10.9994     67.1545    135.8918   1.0255601392e+02   3.9656713439e+01    0.3750839    0.2428243 -46.80 0.0007284112    1.503    0.335
        89 -10.0721     39.8823    138.0423   1.1076731439e+02   4.2256009093e+01    0.2808354    0.1945941  29.13 0.0006617904    1.650    0.394
        90 -10.6732     94.0134    131.9958   9.3955163948e+01   3.6647322608e+01    0.5552256    0.1883699 -48.71  0.001589819    2.756    0.637
        91  -9.1144     92.3245    128.6831   9.3717427958e+01   3.7727516322e+01    0.2402227    0.2180642  50.18 0.0009353267    1.174    0.148
        92  -9.8513     74.0555    132.4962   9.9888849004e+01   3.9561416071e+01    0.3138647    0.2580315 -35.31  0.001682891    1.281    0.219
        93 -10.0086     61.6388    132.2328   1.0350493882e+02   4.1270453748e+01    0.4172222    0.3199668 -27.40  0.002207041    1.525    0.344
        94  -9.2973    103.9917    130.7747   9.0822359995e+01   3.5248949741e+01    0.2055005    0.1932092  28.75 0.0003251157    1.107    0.097
        95 -10.4419     10.4934    129.5391   1.1795359759e+02   4.6737160640e+01    0.2722147    0.2232935 -44.68 0.0008585781    1.315    0.240
        96 -10.5041     10.6603    126.6938   1.1758126030e+02   4.7412009586e+01    0.3862047    0.2117941 -47.85  0.001523059    1.762    0.432
        97  -9.5456     78.8426    128.8439   9.7731803049e+01   3.9775809862e+01    0.2628103    0.1799358 -48.59 0.0005486028    1.367    0.269
        98  -9.7903     82.0895    125.1662   9.5977759296e+01   4.0193812579e+01    0.3836507    0.2768992   6.55  0.001469127    1.812    0.448
        99  -9.6981    241.5317    127.8155   5.9404814513e+01   8.1649694822e+00    0.2374031    0.1693093  26.46  0.001253863    1.663    0.399
       100 -10.3856      3.2373    126.4712   1.1964155291e+02   4.7915821301e+01    0.3343962    0.2061483  59.18  0.001363878    1.814    0.449
       101  -9.8717      4.5030    121.2910   1.1872070871e+02   4.9081941013e+01    0.3059044    0.1681293  87.40  0.001252732    1.840    0.457
       102  -9.5460     49.5271    122.9841   1.0547581230e+02   4.4981652088e+01    0.2740895    0.1838605 -37.79  0.001057031    1.584    0.369
       103 -11.2379     45.4934    120.2629   1.0623178741e+02   4.6084446761e+01    0.6484105    0.3558866 -85.89   0.00231128    2.518    0.603
       104  -9.4762     53.5970    124.8049   1.0456140506e+02   4.4075167858e+01    0.3348891    0.2495021 -73.13  0.001059024    1.297    0.229
       105  -9.9710     56.4634    122.4676   1.0324401693e+02   4.4319454359e+01    0.3782607      0.25874  55.14  0.001897316    1.746    0.427
       106  -9.1666    224.0030    126.9543   6.2110575093e+01   1.1626261474e+01    0.2167329    0.1658238 -61.24 0.0005478511    1.632    0.387
       107  -9.9941     39.0051    132.8847   1.1025721390e+02   4.3615979081e+01    0.2454105    0.2259063   5.17 0.0007901321    1.301    0.231
       108 -11.9312     18.8627    122.1441   1.1463349325e+02   4.7955294324e+01    0.2535999    0.1904697 -69.10 0.0003128003    1.085    0.078
       109 -11.9785    104.1029    122.3662   8.8817225869e+01   3.7232771586e+01    0.4614516     0.401556 -31.36 0.0009927709    1.153    0.133
       110  -9.2280     71.4970    120.8434   9.8270321063e+01   4.2788755783e+01     0.219028    0.1324578 -56.49 0.0006672608    1.505    0.336
       111 -11.0444     33.5535    119.5241   1.0980130441e+02   4.7417447804e+01    0.7426082    0.3090816 -64.82  0.001421227    1.993    0.498
       112 -11.3315     51.0094     96.2232   9.9468271601e+01   5.1321126884e+01     1.466788    0.4560808 -59.92  0.005051916    3.077    0.675
       113 -11.1074     16.5489    109.7295   1.1358729560e+02   5.1124291724e+01    0.3922525    0.2522061  48.31   0.00105256    1.868    0.465
       114 -11.6946     17.0813    101.0041   1.1205456449e+02   5.3184535640e+01    0.3891161    0.2934636  11.99 0.0003424327    1.618    0.382
       115 -10.9188     26.1371     86.7463   1.0623415300e+02   5.5911972214e+01    0.7658556    0.5962781  24.13   0.00471856    1.516    0.341
       116 -10.7123     18.7104    106.0428   1.1233091135e+02   5.1866642668e+01    0.2176124    0.2096861  -1.39 0.0002863377    1.252    0.201
       117 -12.1576     34.9549     93.4833   1.0449255537e+02   5.3595650807e+01     1.457723    0.7445071 -64.00   0.00551581    1.769    0.435
       118 -11.8807      7.0985     88.6014   1.1342059870e+02   5.6696834162e+01    0.5824569    0.4817889  36.88  0.002846387    1.513    0.339
       119 -12.3022     25.1334    108.3177   1.1062094475e+02   5.0850412605e+01    0.8599493    0.5449833 -49.38   0.00466333    1.375    0.273
       120 -11.7210     22.6106     94.8654   1.0910149059e+02   5.4265536994e+01    0.5586786    0.3170072  12.15  0.001467023    2.178    0.541
       121 -11.7344     18.1510     90.2859   1.0981420580e+02   5.5654462158e+01     0.423827    0.2726225 -71.51 0.0004548614    1.429    0.300
       122 -11.7631     22.5733    114.0246   1.1234198103e+02   4.9658912781e+01    0.3710254    0.2482976  -2.20 0.0009033913    1.957    0.489
       123 -11.4209     28.3469    113.1333   1.1038678734e+02   4.9425410142e+01     0.482468    0.2977259   4.72  0.002509808    2.147    0.534
       124 -11.1278     37.8973     86.2257   1.0180433411e+02   5.5024144758e+01    0.2740766    0.2358354  71.42 0.0005415238    1.481    0.325
       125  -9.1310    221.4661    120.5060   6.1044601124e+01   1.3263638130e+01    0.1447736    0.1294879 -29.88 9.708342e-05    1.011    0.011
       126  -9.5887     62.9039    120.1825   1.0079620150e+02   4.4092636206e+01    0.1941465     0.176749 -81.05 0.0002253491    1.136    0.120
       127  -9.1000     13.6906    118.9637   1.1574914047e+02   4.9082053543e+01    0.1750902     0.126595 -70.26 0.0002935065    1.115    0.103
       128  -9.3135     58.5530    117.7890   1.0167167889e+02   4.5222440504e+01    0.2845275    0.1153626 -54.96  0.001130816    2.092    0.522
       129  -9.7205    113.7772    115.7657   8.4380822256e+01   3.6985795013e+01    0.2864065     0.231518  -8.53   0.00097309    1.448    0.310
       130  -8.6993    109.2773    116.3649   8.5828413231e+01   3.7697112371e+01    0.1607022    0.1172953 -19.67 0.0007009351    1.674    0.403
       131 -10.4167    107.4749    111.7616   8.5167811044e+01   3.9097666061e+01    0.4450379    0.3672344  85.26  0.001371812    1.582    0.368
       132 -10.8304    102.5792    109.1657   8.5940245046e+01   4.0597122261e+01     0.686439    0.5152544 -24.88  0.002677917    1.475    0.322
       133  -9.3222     79.2814    114.3201   9.4388218814e+01   4.3252797441e+01    0.2847651    0.1593167 -44.93  0.001231019    1.687    0.407
       134  -9.6098     66.8518    114.0083   9.8243245841e+01   4.5091216148e+01    0.3656578     0.263752  88.86  0.001747546    1.853    0.460
       135  -9.8119     67.1687    110.5771   9.7373401790e+01   4.5881906243e+01    0.3748032    0.1943603  27.89  0.001610949    2.180    0.541
       136 -10.0818      7.0482    114.4918   1.1716625923e+02   5.0565469155e+01    0.2283711    0.2216384 -69.82 0.0008338777    1.221    0.181
       137 -12.1474      2.1361    111.4203   1.1826888603e+02   5.1564207940e+01    0.4178303    0.2275605 -71.70 0.0006791551    1.433    0.302
       138 -11.3039      4.0360    104.8388   1.1685090635e+02   5.3030936494e+01    0.4210452    0.3423386  46.69  0.002327579    1.490    0.329
       139  -9.1891    126.9653    113.6758   8.0149922588e+01   3.4848351085e+01    0.2203314    0.2037997  30.88 0.0007005958    1.103    0.093
       140 -11.9777     43.9383     85.1354   9.9317119780e+01   5.4675242453e+01    0.5301608    0.4557915 -12.30  0.001940405    1.207    0.171
       141  -9.8136     94.9393    112.1438   8.9017078323e+01   4.1252130546e+01    0.3659572    0.2908857  -5.85  0.001790588    1.496    0.331
       142  -9.7680     48.7715    112.4446   1.0371983688e+02   4.7658408066e+01    0.2404814    0.2097896 -70.84 0.0009346727    1.117    0.105
       143 -10.9476    170.3458    110.5230   6.8565335614e+01   2.6108879455e+01     0.447755    0.3635617 -26.67  0.001304604    1.241    0.194
       144 -10.5883    130.1936    110.3192   7.8376555425e+01   3.4924082287e+01    0.4480604    0.2394714  54.11  0.001670795    2.302    0.566
       145 -10.2514    120.4883    109.3239   8.0779226056e+01   3.7130141478e+01    0.3802042     0.281471 -19.90  0.001715741    1.587    0.370
       146 -11.4412     79.3232    108.2240   9.2911375094e+01   4.4707275827e+01    0.6641452    0.3870571  30.08   0.00155564    1.886    0.470
       147 -10.5108     89.7611    104.4223   8.8631234873e+01   4.3934882497e+01    0.4608156    0.3346318   3.52  0.001568627    1.768    0.434
       148 -10.5072     85.9803    103.9689   8.9709536518e+01   4.4663741659e+01    0.5464857    0.3355504 -24.76  0.001768561    2.144    0.534
       149  -9.2163     58.5294    108.9479   9.9816879193e+01   4.7385550863e+01    0.2208371    0.1282384 -60.04  0.001021278    1.578    0.366
       150 -10.1066    147.7367    111.2738   7.4085532975e+01   3.0968087113e+01    0.2994215    0.1966157 -44.89  0.001294767    1.504    0.335
       151 -10.2934    157.1123    106.8057   7.0602325775e+01   2.9820289900e+01     0.412987    0.3086315   0.38  0.001700659    1.755    0.430
       152 -10.3566    143.2997    105.9907   7.3764069464e+01   3.3049556707e+01    0.3271466     0.276703  55.89  0.001373535    1.283    0.220
       153 -11.7236    145.4848    100.3867   7.1655371959e+01   3.3727513640e+01    0.5593334    0.5001934 -20.31  0.001114539    1.124    0.110
       154  -8.5824     45.5565    105.5220   1.0337560392e+02   4.9685619278e+01     0.138777    0.1183811 -52.44 0.0001385101    1.011    0.011
       155  -9.4176    181.0170    103.4879   6.4423825684e+01   2.5073840403e+01    0.3551627    0.1818999 -53.81  0.001284727    2.498    0.600
       156 -10.0477     57.2193    102.6766   9.8843530530e+01   4.9056986733e+01    0.3760492     0.169728 -51.09  0.001526786    1.892    0.471
       157  -9.3113    246.3130    103.3164   5.3194644926e+01   1.1302904917e+01     0.132575    0.1015482  -1.01 0.0007034971    1.643    0.391
       158  -8.9720     82.2430    102.4194   9.0504128879e+01   4.5623317864e+01    0.1859258    0.1412946  44.84 0.0003294192    1.469    0.319
       159  -8.8997    208.7935    100.9701   5.8510943899e+01   1.9356507457e+01    0.2731399    0.1788831 -23.61 0.0006510039    1.673    0.402
       160  -9.6671    209.6703     97.6881   5.7541916164e+01   1.9739022306e+01    0.3169729    0.2506608 -20.91   0.00102658    1.325    0.245
       161 -11.6667     76.5278     79.9527   8.6092612778e+01   5.1565853666e+01     1.032887     0.785808  85.59   0.00484024    2.229    0.551
       162 -10.0832     63.6681     74.8237   8.9138362631e+01   5.4572027026e+01    0.5276286    0.3655749  48.32  0.002219528    1.855    0.461
       163 -11.5275     67.3580     95.5223   9.3652959880e+01   4.9433226384e+01    0.5733588    0.4614578 -29.55  0.002247856    1.209    0.173
       164 -11.0746     89.9995     89.4156   8.4388048405e+01   4.7284700341e+01    0.7269593    0.3747211 -32.51   0.00282252    2.253    0.556
       165 -10.1110     66.7894     88.6139   9.2007320299e+01   5.1098646072e+01     0.333911    0.2072946 -28.66   0.00101742    1.783    0.439
       166 -10.3425     66.9985     82.0257   9.0073399307e+01   5.2541968452e+01     0.432321    0.3704529   0.66  0.002458244    1.197    0.164
       167 -10.0614     80.7807     98.2340   8.9875113889e+01   4.6824038408e+01    0.3006758    0.2376058  -3.48  0.001271703    1.450    0.310
       168  -9.6710     77.2730     96.6363   9.0605697319e+01   4.7735006129e+01    0.2553524    0.2061121  27.86 0.0005082869    1.326    0.246
       169 -11.4937     79.2283     92.8881   8.8932167684e+01   4.8289123099e+01    0.8818254    0.3400804  36.81  0.003007458    2.738    0.635
       170  -9.5628    120.9518    101.0289   7.8358753445e+01   3.8859993762e+01     0.254751    0.1912245  -4.05  0.001132363    1.698    0.411
       171 -10.8409    124.6726     93.7560   7.5225822445e+01   3.9629328168e+01    0.7064698    0.3310345  43.06  0.001849722    2.176    0.540
       172 -10.0757    117.1786     93.4517   7.7251249529e+01   4.1253726912e+01    0.3492758    0.2737701   2.67  0.001646225    1.517    0.341
       173 -11.0823    120.6926     87.3052   7.4417575519e+01   4.1796825850e+01    0.7212063    0.4022932 -40.89  0.002983212    1.755    0.430
       174  -9.8175    159.5259     93.1732   6.6264689952e+01   3.1967842932e+01    0.5436497    0.3068046  74.15  0.001699861    3.813    0.738
       175 -10.7735    151.9537     91.6566   6.7594910732e+01   3.4002653988e+01    0.4515009    0.3727743 -88.09    0.0016559    1.554    0.356
       176  -9.0934    138.4635     92.9992   7.1321018177e+01   3.6788025343e+01     0.339649    0.1961255  15.30  0.001047586    3.729    0.732
       177  -9.2393    111.5331     88.0807   7.7298509070e+01   4.3525724552e+01    0.2913403    0.2304177 -60.93  0.001402074    1.498    0.333
       178 -10.8414    100.7534     91.3112   8.1529951798e+01   4.4933290477e+01    0.5922277    0.5524137  47.72  0.003135324    1.186    0.157
       179 -10.3965    105.0245     86.4573   7.8763136206e+01   4.5151852242e+01    0.6046283    0.3466599 -19.42  0.002197005    2.739    0.635
       180 -10.7541    113.5691     83.5273   7.5308497571e+01   4.4045411483e+01    0.4159732    0.4074066  85.88  0.001903565    1.164    0.141
       181 -10.1289    109.0128     80.9372   7.5851227957e+01   4.5494341058e+01    0.3234759    0.2944313  -3.76 0.0009676117    1.069    0.064
       182 -10.5162    183.4356     85.7645   5.9188258380e+01   2.7760427891e+01     0.756547    0.2971814 -46.54  0.002590575    2.741    0.635
       183 -10.3740    165.5295     83.6812   6.2239851665e+01   3.2334462365e+01    0.4110059    0.3387804 -57.02  0.001366582    1.311    0.237
       184 -11.3337    143.2221     83.9426   6.7447015385e+01   3.7483215050e+01    0.3575359    0.3164858 -45.37 0.0009149847    1.156    0.135
       185  -9.1031    138.0582     86.0000   6.9358211994e+01   3.8261280960e+01    0.5146743    0.0879062  48.38  0.001154646    5.918    0.831
       186 -10.3812    127.3929     82.7874   7.1187463418e+01   4.1255578916e+01    0.4056834    0.2881785 -36.72  0.001426597    1.389    0.280
       187 -10.3958    127.3012     77.2119   6.9480379306e+01   4.2343995083e+01    0.3277522    0.2961331   5.18 0.0004296379    1.117    0.104
       188  -9.4520     60.4039     83.2084   9.2782586870e+01   5.3178458410e+01    0.2749693    0.1848283 -50.09  0.001111389    1.349    0.259
       189 -10.9491     46.9998     74.3612   9.5297045157e+01   5.6765526182e+01    0.3959161    0.2174689 -54.20  0.001913483    1.660    0.398
       190 -11.9536     52.7204     74.6709   9.3196117590e+01   5.6030991233e+01    0.6867954    0.3602985 -58.35  0.001101982    2.015    0.504
       191 -11.0968     58.0009     77.7898   9.2119602702e+01   5.4689933370e+01    0.3146576    0.2530562 -51.39 0.0004048965    1.216    0.178
       192  -9.9202    103.3535     79.3200   7.7063188635e+01   4.6943421211e+01    0.3849348    0.2211991 -30.25 0.0008544512    1.896    0.473
       193 -10.5570    103.9730     74.4020   7.5295165645e+01   4.7795708460e+01    0.3961315    0.3204679 -55.48 0.0008447693    1.435    0.303
       194  -9.5465     21.2718     80.7628   1.0676623811e+02   5.7653701075e+01    0.1972334    0.1743897 -21.87 0.0008454714    1.201    0.167
       195  -8.9949    118.5913     80.2406   7.2837513073e+01   4.3650397646e+01    0.2098765    0.1425971 -29.21  0.000938381    1.527    0.345
       196 -11.8819     14.1584     74.6222   1.0817349128e+02   5.9515237650e+01     0.511739    0.3369669 -55.08  0.002284553    1.190    0.160
       197  -9.8751     14.8932     67.4394   1.0627409987e+02   6.1072804548e+01    0.2898883    0.2404608  -9.47  0.001513034    1.305    0.234
       198 -10.4163    232.6550     76.7421   4.8956208850e+01   1.8241432102e+01    0.5399545     0.257336 -53.17  0.002258684    2.341    0.573
       199  -9.8040    174.8259    247.1347   9.5145738191e+01  -4.6767385936e-01    0.2294631    0.1833124  26.68  0.001517332    1.041    0.040
       200 -10.1566     94.4527     76.2508   7.8898147440e+01   4.9257829865e+01    0.5003449    0.3451281  32.13  0.001867579    1.496    0.331
       201 -10.4548     84.1700     63.8000   7.8180652654e+01   5.3555055532e+01    0.5101924     0.254098 -29.19  0.001268816    2.295    0.564
       202 -11.7385     86.1058     73.5014   8.0770356585e+01   5.1316431124e+01    0.7665939    0.5176962  35.59  0.003414426    1.529    0.346
       203 -11.0459     79.6799     68.0208   8.1176304219e+01   5.3512192772e+01    0.5182201    0.4327448  60.55  0.001881155    1.609    0.379
       204 -11.2760     91.2076     62.7647   7.5449885271e+01   5.2467002276e+01    0.6082243    0.4647213  60.40  0.001271583    1.754    0.430
       205 -12.0626     89.3780     57.2601   7.4110763924e+01   5.3803325134e+01     1.067755    0.7025689  54.08  0.005054582    1.911    0.477
       206 -11.4391     42.0950     93.9035   1.0206013141e+02   5.2819517431e+01    0.3498971    0.2791694 -85.72 0.0003179065    1.489    0.328
       207 -11.5903      9.6445     97.1352   1.1391861043e+02   5.4556782032e+01     0.522288    0.4839359  86.78  0.002017501    1.231    0.188
       208 -11.6278      1.9378     71.2435   1.1224391935e+02   6.0906380287e+01    0.5598481    0.1694257 -64.43  0.002442762    2.424    0.587
       209 -12.3643      6.1955     62.7326   1.0876933986e+02   6.2588878989e+01    0.7497244    0.4093276 -23.27  0.004189289    1.910    0.476
       210 -12.2501    186.0865     70.0033   5.4391566585e+01   2.9789412617e+01     1.125339    0.6119931 -40.57  0.003892399    1.769    0.435
       211  -9.3343     24.5034     72.9238   1.0372837356e+02   5.9193190261e+01    0.3856362    0.1635752 -67.29  0.001527522    2.581    0.613
       212  -9.4998     22.6826     66.0589   1.0274496994e+02   6.0844715869e+01    0.3606581     0.324622  27.59  0.001710751    1.379    0.275
       213 -11.6767     32.4912     72.1557   1.0037073394e+02   5.8706432990e+01    0.6930099    0.2580384  27.15  0.002193116    2.939    0.660
       214 -11.2876     40.7501     70.4902   9.6641284845e+01   5.8281006887e+01    0.4724903    0.2859883 -55.19  0.001609154    1.519    0.342
       215  -9.4887    154.0226     72.4781   6.1466190320e+01   3.7036295305e+01    0.3299813    0.1756204  32.18  0.001197881    2.611    0.617
       216 -11.8048    122.7291     68.8430   6.8036200254e+01   4.4891578731e+01    0.6264045    0.4763541  38.94  0.001674819    1.299    0.230
       217 -10.4311    172.0563     67.3913   5.6235970368e+01   3.3565283295e+01    0.6113173     0.310729 -33.77  0.002505284    1.972    0.493
       218  -9.3714    169.4917     63.4546   5.5587932967e+01   3.4811514206e+01    0.2333225    0.1884623 -42.06 0.0006346093    1.238    0.192
       219  -9.8168    162.0775     70.7533   5.9215147933e+01   3.5408367171e+01    0.3209978    0.2628202 -87.67  0.001165406    1.471    0.320
       220 -11.3563    219.8278     66.4947   4.8231863521e+01   2.2565757683e+01    0.5258526    0.3686321  62.77  0.002022843    1.511    0.338
       221  -8.4068    147.3155     68.3137   6.1710829580e+01   3.9337881712e+01    0.1552307    0.1160715  16.63 0.0007034881    1.642    0.391
       222  -9.6669    192.4695     65.7403   5.2146022384e+01   2.8951419321e+01    0.2797627    0.2125331 -73.64 0.0008908726    1.518    0.341
       223 -10.9135     59.4859     63.5450   8.7129141512e+01   5.7490923646e+01    0.6122475     0.369864   5.40  0.002808881    2.188    0.543
       224 -10.0524     57.3155     61.3105   8.7228229773e+01   5.8233794872e+01    0.2947768    0.2011486  -3.60 0.0009076898    1.660    0.398
       225  -9.6946     53.0552     66.0809   9.0456921962e+01   5.7816490195e+01    0.2539051    0.1880969  36.62  0.001039328    1.567    0.362
       226 -10.4477    200.4780     63.8473   5.0368884095e+01   2.7363568946e+01    0.5967764    0.3243406  82.98  0.002280361    2.926    0.658
       227 -10.0402    105.8772     64.1814   7.1307120621e+01   4.9324496077e+01    0.3881684    0.2842579 -46.52  0.001154205    1.487    0.328
       228 -11.0886    106.6811     58.6596   6.9158337483e+01   5.0124832970e+01    0.3835245    0.3351132  60.70 0.0002943467    1.348    0.258
       229 -11.4502    234.2621     61.2407   4.5126926569e+01   2.0212372012e+01     0.533682    0.4117053  78.20  0.002561002    1.393    0.282
       230 -10.6552     12.8818     47.7402   1.0196281155e+02   6.5374820449e+01    0.4011768    0.1553354 -36.27  0.001890247    2.245    0.555
       231 -10.3213     22.6158     37.0836   9.3825118161e+01   6.6722954506e+01    0.5694528    0.3213054  47.12  0.002733486    3.347    0.701
       232  -9.7178     17.2419     41.0870   9.7818982793e+01   6.6394558216e+01    0.3222495    0.2324347 -31.01  0.002096934    1.088    0.081
       233 -10.5869     25.9280     48.4887   9.6222010955e+01   6.4250778602e+01    0.4934146    0.1737696 -39.53 0.0004599325    2.418    0.586
       234 -11.8507     21.3967     46.4530   9.7631550505e+01   6.5027207290e+01    0.5177075    0.2903125 -32.68  0.002888263    1.524    0.344
       235 -11.5567    127.6034    242.0675   1.0385953448e+02   7.4336907839e+00    0.3453443    0.3146053 -73.86  0.002391115    1.299    0.230
       236 -10.5739     33.7247     58.2401   9.5899797874e+01   6.1571824276e+01    0.6082274    0.3008159 -31.61 0.0008780109    2.007    0.502
       237 -11.5541     41.1365     57.1603   9.2424079322e+01   6.1036494369e+01    0.5313367    0.4022348 -74.96   0.00211005    2.007    0.502
       238 -11.5091     25.3778     57.4154   9.9229057697e+01   6.2479780171e+01    0.8187978    0.4542748 -34.68  0.003950809    1.578    0.366
       239 -10.6289     20.2281     55.0983   1.0079935893e+02   6.3360681573e+01    0.2945438    0.2298999 -79.75  0.001073151    1.737    0.424
       240 -11.3375     50.8017     61.1306   8.9754909014e+01   5.9111408551e+01    0.3586991     0.323444  38.97  0.001760916    1.393    0.282
       241 -11.5393     46.0226     58.5242   9.0840294190e+01   6.0211299227e+01    0.6554944     0.256572 -41.46  0.002776193    2.227    0.551
       242 -10.2451    158.9428     62.3585   5.7358546450e+01   3.7533546361e+01    0.5352743    0.2262699  44.99  0.001954665    2.482    0.597
       243  -9.7835     68.1102    240.3082   1.1548849522e+02   1.6045125767e+01    0.1743003    0.1391233  28.52 0.0008811659    1.461    0.315
       244  -8.6687    221.6706    239.6701   8.5078359173e+01  -6.1711054389e+00    0.1282324   0.07759775   3.38 0.0007051546    1.713    0.416
       245 -11.3226    148.9384    237.6380   9.8958014791e+01   4.9471188473e+00    0.4789495    0.2483179  34.48  0.002436671    1.662    0.398
       246  -9.5551    172.4816    238.5046   9.4343715306e+01   1.1933768133e+00    0.1279628     0.104492  19.30 7.642783e-05    1.052    0.049
       247 -10.7938    198.7046    232.6957   8.8275126450e+01  -1.8955182741e+00    0.4150628    0.3059911  17.89  0.002575552    1.149    0.129
       248 -11.9703    105.8633     32.8669   5.9935103673e+01   5.4167699236e+01    0.5343977    0.3085585  19.86  0.001628516    2.278    0.561
       249 -10.1848    242.9271    231.7462   7.9921088941e+01  -7.9992831945e+00    0.2098078    0.1560986  34.50   0.00137789    1.587    0.370
       250 -10.6048    136.4513     56.6313   6.0531492124e+01   4.3809112639e+01     0.642587    0.3775605 -14.33  0.002600062    2.332    0.571
       251 -10.3611    134.5290     50.3319   5.8904997286e+01   4.5222790346e+01    0.3746078    0.2960685 -72.24  0.001874632    1.650    0.394
       252  -9.4095    163.5045    243.4949   9.6853341483e+01   1.7802661657e+00    0.2307271   0.09600753  44.28  0.001034538    2.315    0.568
       253 -10.7650    138.1062     33.6598   5.2532620358e+01   4.6631244780e+01    0.5055854    0.3393625 -60.86  0.001735021    1.975    0.494
       254  -9.4411     23.7830    231.7947   1.2322886012e+02   2.2738857448e+01    0.1606213   0.09734717  62.58 0.0007794946    1.333    0.250
       255  -9.5436    108.3157    229.8855   1.0632865464e+02   1.2494801711e+01    0.1919699    0.1510502  81.35 0.0006566969    1.431    0.301
       256  -9.3932     15.2677    233.7867   1.2487387748e+02   2.3194284723e+01    0.1857733    0.1102173 -88.45    0.0010662    1.457    0.314
       257 -11.0085    155.6850     42.2200   5.1825195652e+01   4.1269506897e+01     0.648478    0.4458903  35.07   0.00317163    1.612    0.380
       258 -11.9257    153.0631     35.9655   5.0359470634e+01   4.2717684137e+01    0.3283291    0.2900101  -4.71 0.0003566635    1.245    0.197
       259 -11.7759    160.0442     29.5207   4.7141652102e+01   4.1786214430e+01    0.4654907    0.3619217  -7.42  0.001244616    1.520    0.342
       260 -11.5147    164.0695     27.7914   4.5968812229e+01   4.0999495703e+01    0.3405527    0.2707404 -19.50 0.0004355036    1.407    0.289
       261  -8.4503      2.2771     56.2966   1.0895914528e+02   6.4160268369e+01    0.1254162   0.06473219 -40.92  0.000187694    1.532    0.347
       262  -9.6276    187.6247     55.1798   5.0062388718e+01   3.1691734906e+01    0.2880626    0.1954855  57.32  0.001428546    1.462    0.316
       263  -9.4544     68.5758     32.7433   7.1940174643e+01   6.1495844420e+01    0.5781675    0.4480107  50.33  0.003272413    1.638    0.389
       264 -11.8317     60.9105     36.6390   7.6544911858e+01   6.2151209075e+01    0.7686816    0.4465742 -13.96  0.003685703    2.019    0.505
       265 -11.8175     57.9473     30.0770   7.4964778799e+01   6.3620419895e+01    0.4137684    0.2837065   1.08  0.001343175    1.453    0.312
       266 -11.7409     49.0401     30.2037   7.8771567852e+01   6.4914181815e+01    0.6004048    0.2721037  27.61  0.001565491    2.327    0.570
       267 -11.2065     63.9051     53.5123   8.1921842053e+01   5.8793947862e+01    0.5989419    0.2976883  39.02  0.001423452    2.167    0.539
       268 -11.7019     60.8459     46.6533   8.0558408526e+01   6.0486637645e+01     0.772041    0.3962459 -33.38  0.003245827    1.839    0.456
       269  -9.9788    211.2471     52.9787   4.6037171292e+01   2.6464685366e+01    0.2511876    0.1680419  49.65   0.00128605    1.642    0.391
       270 -10.6508    201.5578     49.9151   4.6572898386e+01   2.9135512912e+01     0.605091    0.2402843 -32.19  0.002393746    2.488    0.598
       271 -10.6536    240.1162     50.3072   4.1961988587e+01   2.0508294069e+01    0.3116943    0.2893631 -63.18  0.000995321    1.102    0.093
       272 -10.8325    244.8844     51.1532   4.1648878570e+01   1.9407012625e+01    0.3349753    0.1849422  73.98  0.001711083    2.041    0.510
       273 -11.0989    200.4135     45.2534   4.5517826524e+01   3.0040322761e+01    0.5827455    0.2717041  71.91  0.001926356    2.416    0.586
       274 -10.7999    174.0438     48.3728   5.0384252043e+01   3.5945081319e+01    0.5220422    0.3779022  85.24  0.002434599    1.582    0.368
       275  -9.9375    176.1225     43.8683   4.8744116174e+01   3.6053980966e+01    0.3227691    0.2382432  57.84  0.001187211    1.308    0.235
       276 -12.6114    119.3727     37.7509   5.8214998117e+01   5.0511279828e+01    0.8232367     0.595018  88.37  0.003328347    2.093    0.522
       277  -8.7833    215.6514     49.2914   4.4551837385e+01   2.5974889331e+01    0.1424985   0.09383556 -67.66 0.0004691371    1.668    0.400
       278  -9.9727     91.0349     47.8405   7.0098046361e+01   5.5075297248e+01    0.3061512    0.2105824 -47.22  0.001521185    1.731    0.422
       279  -9.2900    181.3277    228.3081   9.0994977139e+01   1.4318053064e+00    0.1328163   0.09026204   4.77 0.0007038626    1.657    0.397
       280  -9.7607    234.0705    222.9661   7.9974549838e+01  -5.6350041898e+00    0.2036601    0.1245793   2.49 0.0009870629    1.666    0.400
       281 -10.0062    247.7297    231.9017   7.9108360016e+01  -8.6430802214e+00    0.1587086    0.1356094 -42.91  0.001075387    1.913    0.477
       282  -9.3890      9.7728    217.9609   1.2503412767e+02   2.6823408191e+01    0.1433764   0.07542782 -81.67  0.000844456    1.633    0.388
       283 -10.3901    164.9565    212.4528   9.1777862298e+01   6.7459611155e+00    0.2867886    0.2131586  46.62 0.0009258588    1.402    0.287
       284 -10.6434     14.0491     23.2770   9.2815681521e+01   6.9892240008e+01    0.2797323    0.1550821 -27.43  0.001195152    1.499    0.333
       285  -8.8995    172.6671    212.2996   9.0125651285e+01   5.4957420119e+00    0.1286428    0.1045786  62.43 0.0004538627    1.650    0.394
       286  -9.3678    204.6603    208.3330   8.2903005920e+01   9.4270947746e-01    0.1207334     0.108254  72.02 0.0007051585    1.748    0.428
       287  -9.6142    153.0888    207.8334   9.3560148825e+01   9.5760278771e+00    0.2092302    0.1823215  55.26 0.0009095885    1.271    0.213
       288  -9.4611     61.1631    206.7929   1.1380044101e+02   2.3678680508e+01    0.1919584    0.1483663  66.45 0.0007101446    1.155    0.134
       289 -10.9403    135.4918     45.5606   5.7089305870e+01   4.5685487721e+01    0.5454571    0.2303046  54.84  0.001368155    2.233    0.552
       290 -10.0039    139.6852     43.6664   5.5528520246e+01   4.4949785847e+01    0.2800041    0.2244899  46.34  0.001493594    1.179    0.152
       291 -11.0243     93.9663     41.1509   6.6611820457e+01   5.5525300460e+01    0.6742314     0.299822  48.07  0.002749019    2.216    0.549
       292  -9.7024     94.7111     36.0929   6.4414752843e+01   5.6097575224e+01     0.255669    0.2240188  84.74  0.001448965    1.608    0.378
       293 -10.5007    189.1384     41.5363   4.6106082288e+01   3.3212885709e+01    0.4685267    0.1942328 -27.95  0.001301903    2.629    0.620
       294  -9.4814     77.1625     42.5657   7.2795714341e+01   5.8500886074e+01     0.332007    0.1653104 -31.52  0.001489803    1.982    0.495
       295 -10.0337     85.7848     31.0284   6.5197076059e+01   5.8575615419e+01    0.3228313    0.2242623 -17.82  0.001380065    1.439    0.305
       296 -10.7116     81.8743     40.1453   7.0186438022e+01   5.8020383229e+01    0.4866427    0.2942913  59.73  0.001562519    2.563    0.610
       297 -10.9208     78.1124     34.9636   6.9400663388e+01   5.9484264025e+01    0.4416926    0.3286617  44.29  0.001564316    1.427    0.299
       298 -10.4986     81.6870     31.8336   6.6883560326e+01   5.9257934076e+01    0.4129382    0.2965663 -56.88   0.00208674    2.218    0.549
       299 -10.2150    231.9761     39.4248   4.0345550058e+01   2.3673366908e+01    0.3991603    0.2091538 -56.24  0.001951463    1.903    0.475
       300  -9.9474    193.8318     39.0358   4.4777351315e+01   3.2414284986e+01    0.2109468     0.184079  74.02 0.0003518364    1.107    0.097
       301  -8.8090    184.4662     38.4798   4.5945804296e+01   3.4732999974e+01    0.1371018    0.1273828 -83.41 0.0001422272    1.021    0.021
       302 -11.0906    176.7504     36.2518   4.6470491668e+01   3.6886644423e+01    0.4948286    0.3509656  38.61  0.001294437    1.597    0.374
       303 -10.0827    238.3477    204.5601   7.5856666988e+01  -3.6328247201e+00    0.2545179    0.1419754 -29.78  0.001358893    1.639    0.390
       304  -9.8155    171.5584     33.1429   4.6374135734e+01   3.8536361686e+01    0.3963411    0.1826635  64.30  0.001502482    2.053    0.513
       305 -10.6600    176.4855     29.9803   4.4727825409e+01   3.7711868949e+01    0.4865068    0.2391287  49.55  0.001915508    2.053    0.513
       306  -9.5158    133.2929     36.8956   5.4653048287e+01   4.7374920427e+01    0.3938138    0.2774415 -88.18  0.001848213    2.027    0.507
       307  -9.2241    227.1698     36.6368   4.0201674361e+01   2.5072572827e+01    0.2044278    0.1470621 -76.75 0.0007491136    1.383    0.277
       308  -9.7130    206.7797     37.1025   4.2611257552e+01   2.9615456167e+01    0.2219069      0.18423  78.56 0.0006719633    1.166    0.142
       309 -10.3073    145.4933     39.4804   5.2943043831e+01   4.4111034389e+01    0.2256975    0.2043889  52.51 0.0005922186    1.042    0.040
       310 -10.5668    240.0683     32.0113   3.7895152273e+01   2.2881786028e+01    0.3656809    0.3197974 -86.99  0.002472679    1.132    0.117
       311  -8.7816    148.2956     32.2996   5.0081563479e+01   4.4330168153e+01     0.142075    0.1005368  31.25 0.0003574265    1.572    0.364
       312  -9.4538    148.6005     60.9584   5.9133800464e+01   4.0242381034e+01    0.4832522    0.1825046  61.81  0.001518281    3.441    0.709
       313  -9.4938    221.6844     29.8748   3.9188649615e+01   2.7118062944e+01    0.1839844    0.1457582 -47.75 0.0008752436    1.172    0.147
       314 -10.7066    189.4901     27.6185   4.2305487777e+01   3.4845792352e+01    0.3719418    0.2867269  11.16  0.001623964    1.744    0.427
       315  -9.2216     99.5159     30.3734   6.0746203793e+01   5.5852309834e+01    0.2212915     0.122136  50.45 0.0007538307    1.715    0.417
       316  -9.5226     97.7153     26.6120   5.9771873825e+01   5.6699044372e+01     0.280014      0.21899 -43.76   0.00113471    1.554    0.357
       317 -10.1217    230.4921     27.5189   3.7782375012e+01   2.5466143131e+01    0.3254673     0.184809 -43.48  0.001333727    1.563    0.360
       318  -9.7773    211.4956     27.4912   3.9687851063e+01   2.9701780490e+01    0.2320801    0.1943911  -9.59  0.001066445    1.502    0.334
       319  -9.6155      4.5260    204.4720   1.2529252248e+02   3.0055228811e+01    0.2601046   0.06700902 -68.53  0.001154194    3.124    0.680
       320 -11.1195      5.9927    198.8076   1.2468149568e+02   3.1129532267e+01    0.3192383    0.1386505 -65.42  0.001740228    2.109    0.526
       321 -10.1932     16.9875    203.7000   1.2278945450e+02   2.9122487413e+01    0.2467856   0.08981284 -65.13  0.001209191    2.471    0.595
       322  -8.7452      1.2684     26.6714   1.0097336420e+02   7.0128571202e+01   0.09569327   0.08676666 -71.53 0.0006974456    1.578    0.366
       323  -9.1443    250.5609     25.4815   3.5597363176e+01   2.1508723269e+01    0.1202049   0.09898317 -61.69 2.012905e-05    1.017    0.017
       324 -10.8478    234.2314    197.2983   7.5221399445e+01  -1.9396134518e+00    0.4723447    0.3239973 -21.06  0.002703873    1.298    0.230
       325 -10.3713    245.8076    200.8837   7.3844253681e+01  -4.1747861129e+00    0.2018524    0.1442329  -2.96 0.0006383479    1.226    0.184
       326  -8.6990    207.2958    201.3140   8.1083981244e+01   1.6579245755e+00     0.137968   0.09358974  -0.75  0.000560856    1.601    0.375
       327  -9.0133    195.4764    199.9620   8.3194630950e+01   3.8316721542e+00    0.1715873    0.1227519 -65.45 0.0008087941    2.446    0.591
       328  -9.0955     44.9739     24.2718   7.7942600766e+01   6.6377298267e+01    0.2017412     0.151974 -41.93 0.0007975784    1.619    0.382
       329  -9.3488     82.6023    196.1514   1.0778216470e+02   2.3166495106e+01    0.3087856    0.1919882  11.74  0.001383773    2.634    0.620
       330  -9.6605     59.5309     23.9356   7.1610727200e+01   6.4245625301e+01    0.2265536    0.1625713  -1.92 0.0004998125    1.289    0.224
       331 -10.1661     60.2205     19.9312   6.9512536884e+01   6.4662457124e+01    0.3035258    0.2401792 -52.77  0.001196359    2.005    0.501
       332 -10.0437    169.8201    191.5229   8.7018859430e+01   9.7843182548e+00    0.3527991    0.2169538  22.72  0.001128742    1.805    0.446
       333  -9.0919    223.4714     22.0526   3.7194192762e+01   2.7638874208e+01    0.1949693    0.1476329  82.59 0.0006354813    1.251    0.200
       334 -12.2352      4.8817    184.3453   1.2401615905e+02   3.4361616459e+01     0.599464    0.4328393  80.51  0.003063832    1.110    0.099
       335  -9.4754     74.5227     19.5554   6.4069029484e+01   6.2179519615e+01    0.1926227    0.1138424  41.62  0.000117639    1.545    0.353
       336  -9.7404    214.3300    184.9945   7.6539051554e+01   3.2124872921e+00    0.2121728    0.1071383 -56.01 0.0007052095    4.379    0.772
       337  -9.9306    250.4147    177.8564   6.8561359047e+01  -1.4209451837e+00    0.3931942    0.1090543 -33.64  0.001402842    3.352    0.702
       338  -9.8146    211.3049     18.6300   3.7561673966e+01   3.0752903366e+01    0.2069091    0.1945863 -18.90 0.0003211626    1.286    0.222
       339  -8.9398    205.4896     17.5074   3.7874765227e+01   3.2209166633e+01     0.127033    0.1128789 -82.58 1.107922e-05    1.023    0.023
       340  -8.7191    198.5817     17.7227   3.8656242046e+01   3.3793248233e+01    0.1343993   0.08782127  44.15  0.000511126    1.808    0.447
       341  -9.7590     27.9460    176.2560   1.1827976022e+02   3.4207791038e+01    0.2449665    0.1601983 -71.74  0.001177526    1.332    0.249
       342 -10.3156     52.0628    173.6543   1.1225009938e+02   3.2287016982e+01    0.5115982     0.226983 -89.04  0.001860907    3.482    0.713
       343 -10.1776    239.5611    184.9839   7.1860233266e+01  -8.6072441455e-01    0.3752827    0.2098862  -8.97  0.001350895    2.314    0.568
       344 -10.1841    186.3737     15.2237   3.9378868120e+01   3.6945318079e+01    0.2427142    0.2045042  81.88  0.000408176    1.073    0.068
       345  -9.8444    247.4573    174.1879   6.8322264832e+01  -4.0168951653e-01    0.4593487     0.203066  22.51  0.001682615    3.867    0.741
       346  -9.9494    231.2583    175.5016   7.1434930056e+01   1.9754338724e+00    0.3836681    0.1289787  40.89  0.001401568    3.136    0.681
       347  -9.7488     39.5046    173.4834   1.1527684003e+02   3.3707875268e+01    0.2140067    0.1555786  87.64 0.0007320407    1.252    0.202
       348 -11.0869     35.5109    170.6849   1.1594209003e+02   3.4775099251e+01    0.4205325    0.2635409 -85.83  0.002316268    1.473    0.321
       349  -9.3224     94.5224     12.3796   5.4859753203e+01   5.8923435540e+01    0.1962483    0.1128175  53.43 0.0002704457    1.583    0.368
       350  -8.4269    170.6552    171.7185   8.2930184996e+01   1.3511678146e+01    0.1516949    0.1115021   2.94 0.0007012792    1.638    0.389
       351 -10.1545      8.9790    156.1651   1.2097782958e+02   4.0490903633e+01    0.2936199    0.1590635 -66.37  0.001301071    1.529    0.346
       352 -11.7331      9.7559    166.9019   1.2168543288e+02   3.7930566980e+01    0.4967324    0.3778286  87.69  0.002171382    1.069    0.065
       353 -11.2318     13.4932    159.6258   1.2018861048e+02   3.9339142841e+01    0.5487898    0.2153332 -71.08  0.002614443    2.031    0.508
       354  -8.9373    197.9911    167.9971   7.6285046633e+01   9.1121009472e+00    0.1782987    0.1573567 -15.37 0.0007378416    1.044    0.042
       355  -9.6235    188.9931    163.9740   7.7296178828e+01   1.1559985164e+01    0.3001111    0.1841337 -16.33  0.001056316    2.173    0.540
       356  -8.6461    156.4779    166.4758   8.5083006090e+01   1.7277988791e+01     0.148636      0.14219   6.26 0.0001136945    1.011    0.011
       357  -8.8627    152.4300    166.5170   8.6042657262e+01   1.8038449121e+01    0.1491163    0.1409224  -1.68 9.293687e-05    1.031    0.030
       358 -10.3923     19.1154    164.9187   1.1931546724e+02   3.7641519921e+01    0.2971185     0.261053 -36.87   0.00136596    1.440    0.305
       359 -10.2045    205.1174    162.9846   7.3769191487e+01   8.7183956902e+00    0.5231673    0.2872403  53.41  0.001895074    2.464    0.594
       360  -9.7281    208.4830    160.4996   7.2564516290e+01   8.5492570528e+00    0.2965651    0.1328014 -38.75 0.0009846657    2.107    0.525
       361 -10.7845     28.4296    161.9485   1.1675838757e+02   3.7526901966e+01    0.4866528    0.1920232 -70.16  0.002197061    2.123    0.529
       362  -9.3674     39.8763    162.1604   1.1391711967e+02   3.6364447227e+01     0.379603    0.1446285 -85.20  0.001255633    4.068    0.754
       363  -9.5073     78.8287    160.0308   1.0349183291e+02   3.2120183996e+01    0.2282939    0.1804224  79.62  0.001210065    1.363    0.266
       364  -9.3751    215.4646    158.0157   7.0673267333e+01   7.7121469683e+00    0.2227143    0.1294378 -34.86  0.001028445    1.592    0.372
       365  -9.2693    223.6267    156.7851   6.8879085436e+01   6.4511868057e+00    0.1956404    0.1210911 -42.23  0.000750201    1.590    0.371
       366 -10.8719     22.4099    155.2358   1.1756504152e+02   3.9660084620e+01    0.4958713    0.2374858  34.53  0.001089708    2.217    0.549
       367 -11.0087     15.8045    147.7593   1.1848120666e+02   4.1979981513e+01    0.4723958    0.3003731  66.22  0.001500127    1.629    0.386
       368 -11.6317     13.0781    138.2605   1.1820503163e+02   4.4461333173e+01     1.014312    0.4476338 -83.70  0.004663931    2.189    0.543
       369 -11.1057     21.2960    150.7018   1.1737400100e+02   4.0840189618e+01      0.21493     0.182794  88.69 0.0003559907    1.070    0.065
       370 -12.0395     24.7576    147.0435   1.1606963299e+02   4.1435014190e+01     0.385346    0.2266385 -55.48  0.000915186    1.565    0.361
       371 -10.3466    104.7294    154.2666   9.5570519027e+01   2.9488778565e+01    0.3726915    0.3010218 -44.19  0.001917999    1.251    0.201
       372 -10.8956     31.7616    153.4873   1.1498026883e+02   3.9252593918e+01    0.4465573    0.3270035  68.92  0.002635176    1.376    0.273
       373 -11.8096      3.7105    147.4526   1.2151958008e+02   4.2903087218e+01    0.7550752    0.3535084 -79.75  0.002979167    1.747    0.427
       374 -11.6581      3.3585    141.3524   1.2106590525e+02   4.4366995966e+01    0.6053777    0.3251777  67.80  0.001484762    2.001    0.500
       375 -10.0631     71.4061    151.4957   1.0408148505e+02   3.5233612926e+01     0.529928     0.233065  47.14  0.002100782    2.529    0.605
       376 -10.7516     62.9092    150.7765   1.0628653739e+02   3.6518901066e+01    0.3735523    0.3029541 -12.55  0.001420687    1.589    0.371
       377 -11.2467     46.5022    146.9197   1.1019847171e+02   3.9383132359e+01    0.7900257    0.3019462 -61.93  0.003287872    2.190    0.543
