#   1 NUMBER                 Running object number                                     
#   2 MAG_AUTO               Kron-like elliptical aperture magnitude                    [mag]
#   3 X_IMAGE                Object position along x                                    [pixel]
#   4 Y_IMAGE                Object position along y                                    [pixel]
#   5 X_WORLD                Barycenter position along world x axis                     [deg]
#   6 Y_WORLD                Barycenter position along world y axis                     [deg]
#   7 A_WORLD                Profile RMS along major axis (world units)                 [deg]
#   8 B_WORLD                Profile RMS along minor axis (world units)                 [deg]
#   9 THETA_WORLD            Position angle (CCW/world-x)                               [deg]
#  10 FWHM_WORLD             FWHM assuming a gaussian core                              [deg]
#  11 ELONGATION             A_IMAGE/B_IMAGE                                           
#  12 ELLIPTICITY            1 - B_IMAGE/A_IMAGE                                       
         1 -13.0291    196.6873     33.7641   6.0758647296e+01   3.1728834029e+01     1.305957     1.060938  44.70  0.006732203    1.239    0.193
         2 -13.8832    210.7566     17.3506   5.3885220973e+01   2.9899377895e+01     1.696784     1.100187  25.78  0.007786155    1.882    0.469
         3 -10.8915      2.2603      5.2373   1.1053638559e+02   7.3285181309e+01    0.5665128   0.06735841 -57.41  0.001947442    4.805    0.792
         4 -12.3573    126.4862    248.0104   1.1772225682e+02   1.2456653499e+01    0.3660329     0.300934  66.41  0.003141409    1.241    0.194
         5 -12.1253    139.7299    248.5996   1.1570339074e+02   1.0525982788e+01    0.3558506     0.254047  57.37  0.002804863    1.236    0.191
         6 -14.3907     34.8511    247.2362   1.3158346550e+02   2.3753587931e+01     9.495507     2.827363  31.75   0.02741322   13.971    0.928
         7 -14.2852      9.7424    207.2808   1.3375652226e+02   3.2308618017e+01     1.960071    0.7565212 -89.14  0.008617012    2.263    0.558
         8 -15.5152     42.7070    199.4301   1.2783617413e+02   3.0396433337e+01     9.537057      3.23554  75.78   0.03695009    5.358    0.813
         9 -10.8267     95.2750    242.0040   1.2212951924e+02   1.7447231910e+01    0.1389755    0.1044292  63.34 0.0004510925    1.108    0.097
        10 -11.7808     55.2594    239.3001   1.2816451290e+02   2.2695035112e+01    0.3084309    0.1693275 -89.95  0.001103557    1.821    0.451
        11 -14.1943     40.6347    215.7033   1.2916068017e+02   2.7915294115e+01    0.8670244    0.5867497  74.06  0.004944537    1.138    0.121
        12  -9.9106     28.5751    234.7707   1.3197665108e+02   2.6204220213e+01    0.1295587   0.06432513  79.65 0.0009556997    1.720    0.419
        13 -12.0056     92.8559    248.9518   1.2301408590e+02   1.6819882098e+01    0.4566325    0.2046272  57.00  0.002971001    1.814    0.449
        14 -11.7191    102.2736    244.3715   1.2121271518e+02   1.6210112460e+01    0.2293824     0.194422 -63.45   0.00199631    1.629    0.386
        15 -10.9036    150.2818    228.6775   1.1195413829e+02   1.1442557500e+01    0.1989796    0.1400154  55.42  0.001395155    1.268    0.211
        16 -11.6284    106.9283    243.0533   1.2037600242e+02   1.5767099306e+01    0.2237963    0.1882553 -48.10  0.001196837    1.803    0.445
        17  -9.1166     95.5207    219.4487   1.2025338555e+02   2.0670692266e+01    0.1080617   0.08089551  58.12 4.623416e-05    1.005    0.005
        18  -9.7613     62.7746    250.4704   1.2765105254e+02   2.0260369723e+01    0.1729582   0.06207403  46.07 0.0007014528    1.914    0.478
        19 -10.1132    198.4922    246.4889   1.0631724803e+02   2.1882153538e+00    0.1070791   0.07586736  36.50 -3.386967e-05    1.010    0.010
        20 -10.4297    226.2737    201.5248   9.5588108026e+01   2.4676410023e+00    0.3262032    0.2209882 -53.06  0.001842833    2.705    0.630
        21 -10.5480    101.6215    249.1383   1.2167963021e+02   1.5664675581e+01    0.2000058    0.1157287  42.85 0.0009957267    1.395    0.283
        22 -14.8767      9.1771    243.7433   1.3511194142e+02   2.6743836383e+01     6.080925      1.00858 -81.18   0.02795871    6.081    0.836
        23 -11.6523     60.7371    192.3108   1.2409548390e+02   2.9587232701e+01     0.272779    0.2305167 -46.02  0.001700839    1.810    0.448
        24  -8.6044    181.5069    192.4633   1.0175176988e+02   1.1145368145e+01    0.1236113    0.1003494  36.16 4.231847e-06    1.024    0.023
        25 -11.7113     66.7092    185.0603   1.2236107208e+02   3.0150589410e+01    0.2282515    0.1979676 -70.51 0.0007301688    1.394    0.283
        26 -10.9453     76.7305    173.4531   1.1926262162e+02   3.0997944980e+01    0.1989295    0.1738802  83.19 0.0002928047    1.137    0.121
        27 -13.2104     63.5937    170.7190   1.2161740222e+02   3.3186018371e+01    0.4033994    0.2433951 -49.48  0.001668949    2.241    0.554
        28 -10.5210    106.3460    173.7239   1.1334144153e+02   2.6716643194e+01    0.4041479   0.06349971  45.77  0.001216896    5.252    0.810
        29 -11.9616     84.2266    164.8112   1.1674533962e+02   3.1615272191e+01    0.6366636    0.4226828  61.19   0.00391327    1.371    0.271
        30 -11.2729     32.6928    155.9397   1.2659430289e+02   3.9463606189e+01    0.3448644    0.1563871  72.50  0.001837001    2.307    0.566
        31 -12.7291     67.2599    143.9569   1.1783528571e+02   3.8020044105e+01    0.8628781    0.4874262  76.58  0.003358152    2.083    0.520
        32 -11.8350     57.1472    130.7411   1.1847881133e+02   4.2014435426e+01     1.672134    0.5070922 -77.23   0.00411453    8.906    0.888
        33  -9.3179    100.4782    145.5414   1.1055995765e+02   3.2983562329e+01    0.2180319    0.1707083 -17.54  0.001206489    2.049    0.512
        34 -11.9589     85.9467    148.3410   1.1422414075e+02   3.4602808157e+01     0.247039    0.2157107 -60.47 0.0005146719    1.275    0.215
        35  -9.5315    109.3526    135.3458   1.0683375092e+02   3.3587823431e+01     0.262668    0.2134124 -10.91  0.001345258    1.823    0.452
        36  -9.8649     68.6838    134.9467   1.1630500250e+02   3.9707335922e+01    0.1731449    0.1418187 -83.80 0.0004200864    1.081    0.075
        37 -10.4713     96.4699    132.3615   1.0932271081e+02   3.6283780392e+01    0.2272683    0.2111679 -28.50 0.0008944925    1.345    0.256
        38  -9.1579    106.6093    122.7904   1.0514256736e+02   3.6611113528e+01    0.1754718    0.1526277 -70.28 0.0004912532    1.120    0.107
        39 -10.2089    167.8139    112.8478   8.8898735275e+01   2.6489594075e+01    0.3608483    0.2819829 -82.79  0.001109616    1.772    0.436
        40  -9.9034     97.4973    149.5036   1.1182983616e+02   3.2659034232e+01    0.2536231    0.2388689 -63.18   0.00084019    1.226    0.185
        41  -9.3135    204.0928    111.0633   8.1318018517e+01   1.8732307382e+01    0.3405072    0.1692866  28.95  0.001227264    2.885    0.653
        42 -12.6633     33.3896    224.5521   1.3077754309e+02   2.7272742103e+01    0.2616157    0.2049533  71.34 0.0007351681    1.209    0.173
        43  -8.8476    158.6677     78.3092   8.1652318077e+01   3.4702220585e+01    0.1538708    0.1208164 -76.08 0.0003536612    1.670    0.401
        44 -11.2790    176.9060    249.6081   1.1001047374e+02   5.0399507254e+00     0.368701   0.07243649  42.58  0.001503926    3.642    0.725
        45 -10.8386    162.3055    249.2301   1.1223840971e+02   7.2086758376e+00     0.198387    0.1164709  44.30  0.001402579    1.215    0.177
        46  -8.6219    104.8548     39.8796   8.2418823566e+01   5.3452353143e+01    0.1783632    0.1656335 -65.20  0.000285476    1.258    0.205
        47 -10.4916    189.6549     15.4695   5.5919090787e+01   3.5670859275e+01    0.2641971    0.2071996 -73.41 0.0007553438    1.413    0.293
