#   1 NUMBER                 Running object number                                     
#   2 MAG_AUTO               Kron-like elliptical aperture magnitude                    [mag]
#   3 X_IMAGE                Object position along x                                    [pixel]
#   4 Y_IMAGE                Object position along y                                    [pixel]
#   5 X_WORLD                Barycenter position along world x axis                     [deg]
#   6 Y_WORLD                Barycenter position along world y axis                     [deg]
#   7 A_WORLD                Profile RMS along major axis (world units)                 [deg]
#   8 B_WORLD                Profile RMS along minor axis (world units)                 [deg]
#   9 THETA_WORLD            Position angle (CCW/world-x)                               [deg]
#  10 FWHM_WORLD             FWHM assuming a gaussian core                              [deg]
#  11 ELONGATION             A_IMAGE/B_IMAGE                                           
#  12 ELLIPTICITY            1 - B_IMAGE/A_IMAGE                                       
         1 -13.7441    184.6545     79.4112   7.9240673256e+01   2.8124425451e+01     3.941227     1.919968 -40.93   0.01289647    2.034    0.508
         2 -15.5915    245.6861     98.9085   7.4004356970e+01   1.0889368487e+01     9.172941     2.597478 -39.23   0.03113658    3.231    0.691
         3 -14.9467    207.5813     65.7245   7.2009257799e+01   2.4938009875e+01      5.47234     2.849754 -78.58   0.01888943    3.589    0.721
         4 -16.9537    242.9995     30.0401   5.9872480555e+01   2.2093956477e+01     6.149691     2.234328  62.39    0.0278027    2.629    0.620
         5 -15.0475    247.9011      7.4314   5.5079952593e+01   2.3831692431e+01    0.8898478    0.6626108 -25.93  0.003857746    1.932    0.482
         6 -13.5771    169.9918     71.8565   8.0040928259e+01   3.2967355035e+01     2.184612     1.126198 -45.66  0.001787315    1.992    0.498
         7 -14.1503    122.4711     12.1242   7.1943145387e+01   5.1984754438e+01     3.762715     1.686964  32.80   0.01119978    2.903    0.656
         8 -11.7049    143.4890      5.6805   6.6204562095e+01   4.7794233960e+01     1.166583    0.3588657 -18.48  0.004129897    5.047    0.802
         9 -11.7147    136.1142      4.8733   6.7179538065e+01   4.9553217933e+01    0.7938216     0.484266  27.10  0.004250974    2.023    0.506
        10 -11.6248    216.9828      4.9633   5.7148389735e+01   3.0799686146e+01    0.2336941    0.1827258 -31.57 0.0005440147    1.609    0.378
        11  -9.8669    179.4132      5.7009   6.1232607163e+01   3.9386451613e+01    0.2559173    0.2072939  -7.11  0.001325755    1.693    0.409
        12  -9.4994    209.8151      4.7082   5.7759054605e+01   3.2443388167e+01     0.355375    0.1558624 -50.32  0.001760296    2.214    0.548
        13  -9.2107    203.5437    160.9108   9.5048082925e+01   7.8277953083e+00    0.3035124    0.2016954 -71.01   0.00100939    2.376    0.579
        14 -14.0423    240.5298    234.7156   1.0242075138e+02  -1.1436324718e+01     2.533627     1.482701  -5.75  0.001664935    2.137    0.532
        15 -11.2191     13.7830    249.1960   1.4753643466e+02   2.0775495126e+01    0.3695161     0.196349  55.65  0.002419607    1.497    0.332
        16  -9.1753     13.1465    234.2042   1.4673371974e+02   2.3790684746e+01    0.1565468    0.1261118  84.98 0.0005690361    1.210    0.173
        17  -8.9005    173.7941    151.9873   9.9361615313e+01   1.5972311939e+01    0.2143801    0.1975281 -50.88            0    1.075    0.070
        18 -10.1043    190.6163    149.8768   9.5252652141e+01   1.2795432179e+01    0.4396794    0.2359467 -68.22  0.001269771    4.414    0.773
        19  -9.6893    133.7354    146.9041   1.0769334965e+02   2.5656011649e+01    0.5493854    0.1448052 -49.11  0.001523322    3.734    0.732
        20  -9.5755    192.1381    143.9418   9.3585049773e+01   1.3704286700e+01    0.2372188     0.227893 -70.13 0.0005028013    1.057    0.054
        21 -11.0328    193.1532    139.8961   9.2444237768e+01   1.4323001529e+01    0.4581681    0.2812329 -46.62   0.00120415    1.587    0.370
        22 -11.8249    188.8409    137.9879   9.2893296367e+01   1.5667668857e+01    0.5394186    0.3781772  45.83  0.001899546    1.471    0.320
        23 -10.9047    209.6474    136.9390   8.8501799752e+01   1.1356275371e+01    0.3480282    0.2753207 -71.04  0.001716863    1.483    0.325
        24  -9.0379    168.7361    138.4668   9.7373699570e+01   2.0029061161e+01    0.2232649    0.1511443  34.96 0.0009059935    1.659    0.397
        25 -11.5205    204.4859    122.7890   8.6206857116e+01   1.5293031673e+01    0.4478742    0.4312473   3.57  0.001570302    1.150    0.131
        26 -11.1576    203.6833    128.6543   8.7733689641e+01   1.4302291405e+01    0.4722025    0.3333451 -13.82  0.001890016    2.031    0.508
        27 -11.4062    188.4588    130.3606   9.1176314668e+01   1.7341243789e+01    0.4286315    0.3749329 -64.94  0.002190179    1.174    0.149
        28 -12.8792    185.3908    121.7798   8.9748923626e+01   1.9809387226e+01    0.8463432    0.7957839  81.50  0.004406734    1.079    0.073
        29 -10.9140    176.1065    116.0231   9.0286622334e+01   2.3133610119e+01    0.6072031    0.3755697 -73.28  0.002208088    2.663    0.624
        30 -10.6091    135.7858    129.8203   1.0319074455e+02   2.9181784410e+01    0.8506137    0.1918624 -44.93  0.002146214    4.494    0.778
        31  -9.9836    160.1966    214.6889   1.1482455814e+02   5.5080444315e+00    0.2297329    0.2243109  48.11 0.0003231796    1.064    0.060
        32 -10.8122    196.3893    129.1479   8.9278418141e+01   1.5817319000e+01    0.3298609     0.255157  73.80  0.001372415    1.529    0.346
        33 -11.0548    160.3404    128.8976   9.6998473871e+01   2.3999167642e+01    0.4139014    0.3786323 -13.34  0.002100377    1.225    0.184
        34  -9.9619    131.9832    119.5168   1.0160932393e+02   3.2318769050e+01    0.3929191    0.2748131  88.50  0.001196958    2.212    0.548
        35 -11.1669    218.3081    126.0904   8.4429807737e+01   1.1634457436e+01       0.4839    0.2889068 -22.18  0.001000598    2.436    0.589
        36  -8.8861    172.3202    125.2892   9.3401248220e+01   2.2063183260e+01    0.1550051    0.1264926   7.11 0.0002272874    1.601    0.375
        37 -11.0087    198.5505    121.0429   8.6931857287e+01   1.6968913770e+01    0.4602626    0.2486744 -36.68  0.001832176    1.908    0.476
        38 -10.9284    194.2169    117.7323   8.6985280846e+01   1.8614270989e+01    0.3629927    0.2683823  65.38 0.0007966381    1.485    0.327
        39  -9.6014    222.0186    120.3211   8.2464672363e+01   1.1947433823e+01     0.261236    0.1895589 -63.45 0.0006791361    1.509    0.337
        40 -11.3587    167.6326    113.8711   9.1593915021e+01   2.5544040991e+01    0.4722785    0.4455717  35.06 0.0007537327    1.128    0.113
        41 -10.4659    135.0000    111.6220   9.8804128165e+01   3.3407892696e+01    0.6736168    0.1797833 -41.21  0.001801758    4.121    0.757
        42  -8.9746    156.7654    112.6752   9.3761555664e+01   2.8302701116e+01    0.2897247    0.1965441 -69.94  0.001075718    1.968    0.492
        43  -9.9476    127.0076    111.9998   1.0097480967e+02   3.5037949949e+01    0.3480873    0.2194486 -56.86 0.0007505737    1.738    0.425
        44 -10.2937      3.3268    112.3391   1.3725451942e+02   5.1750551209e+01    0.1988975    0.1059887 -45.17  0.001126805    1.723    0.420
        45  -9.9290    196.0555    111.5005   8.5118718540e+01   1.9429857308e+01    0.2272464    0.1506735  54.00 0.0005867418    1.554    0.356
        46 -10.3934      2.3984    197.4995   1.4619897998e+02   3.2555427047e+01     0.334398   0.08787742 -75.47  0.001404969    3.019    0.669
        47  -8.5602    140.6689    105.6471   9.5797550861e+01   3.3433551503e+01    0.1616579    0.1252425   1.61 0.0007046383    1.779    0.438
        48 -10.1917    123.3013    102.9796   9.9562552952e+01   3.7765105362e+01    0.2192922    0.2008488 -47.98 0.0009641728    1.083    0.076
        49 -10.3101    118.9912    101.8439   1.0041663427e+02   3.8901800142e+01    0.3790821    0.2177519 -56.71  0.001527637    2.027    0.507
        50  -9.0496    155.4306    101.4762   9.1142803490e+01   3.0925594100e+01    0.2723718    0.1411699 -51.88 0.0005953014    2.120    0.528
        51  -9.4952    146.6287    101.4168   9.3205390129e+01   3.2965124254e+01    0.2860716    0.2636275  17.93 0.0005868254    1.191    0.160
        52 -11.2230    195.7767     95.7575   8.1313053272e+01   2.2514427475e+01    0.6436344    0.4659525 -51.55  0.002717145    1.346    0.257
        53  -9.2569    133.4143     97.5875   9.5445222395e+01   3.6713186250e+01    0.2849023    0.2457141 -70.43 0.0005720487    1.287    0.223
        54  -9.9705    209.3837     96.6089   7.9110200278e+01   1.9197430258e+01    0.3879137    0.2730986 -80.98 0.0005852613    1.757    0.431
        55 -10.7618    156.0192     95.9305   8.9525539525e+01   3.1895080575e+01    0.4829074    0.3189822  36.41  0.002093629    1.728    0.421
        56  -9.9153    140.0598     91.6624   9.2138846723e+01   3.6415708228e+01    0.3445114    0.2838687 -62.28 0.0005958273    1.327    0.246
        57 -11.1797    170.1823     86.9617   8.4045512790e+01   3.0247573810e+01    0.5807802    0.4730408  19.54   0.00284093    1.569    0.363
        58 -10.8616    159.7255     86.1052   8.6037674823e+01   3.2902745930e+01    0.4761804    0.3321626 -48.91  0.001324114    1.468    0.319
        59  -9.8443    163.8833     83.7280   8.4497115018e+01   3.2350048375e+01    0.4013616    0.3121863  64.34  0.001977803    1.298    0.229
        60  -8.4762    204.9960     89.2999   7.8102930813e+01   2.1538698512e+01    0.1996528    0.1821868  80.45 0.0001710513    1.081    0.075
        61 -11.1803    153.5247     86.0470   8.7401354067e+01   3.4379751725e+01    0.3217654    0.2679676 -38.22 0.0005893543    1.237    0.191
        62  -9.3305    146.1245    157.0005   1.0688559827e+02   2.0747972531e+01    0.3342086    0.2195544  57.69 0.0006483706    1.692    0.409
        63  -9.6316    191.2791    192.0686   1.0405270999e+02   4.0668677814e+00    0.5696016    0.2866345 -64.30  0.001667914    5.092    0.804
        64  -8.7961    137.5069     73.0699   8.7452459647e+01   4.0451218601e+01    0.2220662    0.1449436 -41.06  0.001022067    1.578    0.366
        65 -10.8013    213.7651    188.1673   9.8720798690e+01   5.7705295898e-01    0.4635274    0.2663642  51.97 0.0007831143    2.078    0.519
        66  -8.5867    108.4550    157.4964   1.1635596842e+02   2.8044617496e+01    0.1505465    0.1428151 -76.68 0.0001155798    1.027    0.027
        67 -11.0040    119.5135     65.6843   8.9753932135e+01   4.5709007657e+01    0.3905652    0.3143205 -77.30  0.001114258    1.670    0.401
        68 -12.3727     69.4716    145.4305   1.2429236538e+02   3.7332180826e+01     1.297719     1.150271 -65.02  0.005498384    1.039    0.038
        69 -12.0049     60.3481    155.1307   1.2836017593e+02   3.6208695117e+01    0.6631536    0.4398641 -72.58  0.001428221    1.400    0.286
        70 -13.2430     18.2147    181.5529   1.4167116457e+02   3.4660861308e+01     0.874025    0.6597273 -89.03  0.003763833    1.041    0.039
        71 -11.8461     46.7933    164.4584   1.3315303364e+02   3.5638829614e+01    0.3979829    0.3607185 -34.98  0.001252095    1.383    0.277
        72  -8.9992    190.9792    180.7478   1.0183789342e+02   6.3651113295e+00    0.2731871    0.1852216 -56.37 0.0008050563    1.702    0.412
        73  -9.6665    180.9825     31.2315   6.7420973872e+01   3.6222200074e+01    0.4322626    0.2611201  -8.76 0.0005843323    2.884    0.653
        74  -9.2586    177.8827     25.7102   6.6455561738e+01   3.7628483773e+01    0.3061933    0.2071135  72.17 0.0006911937    1.312    0.238
        75  -8.6001    181.6845     23.6371   6.5398093337e+01   3.6958024488e+01    0.2792314    0.2353974 -45.46  0.001086054    1.296    0.229
        76 -12.7038     53.7724    159.7527   1.3075097951e+02   3.5927498400e+01    0.9227946    0.7278661 -74.56  0.003053406    1.101    0.092
        77  -8.6010     53.5161     23.9504   9.5679650421e+01   6.3701631139e+01    0.1717433    0.1039658 -26.24  0.000676585    1.564    0.361
        78  -9.6683     56.9664     21.5764   9.3478967795e+01   6.3486705421e+01    0.2654146    0.1467965 -28.82  0.001071288    1.768    0.434
        79  -8.7899    195.0024     20.1182   6.2828870905e+01   3.4196721662e+01    0.2690845    0.1469555  40.31  0.001223705    2.660    0.624
        80  -8.3471    159.6082     20.5290   6.7824054015e+01   4.2578375995e+01    0.1294989    0.1139978  68.03 0.0007996804    1.031    0.030
        81 -10.9910    222.3221    177.4814   9.4889191590e+01   9.7499388803e-01    0.4650916    0.3515468  51.83  0.001674731    1.515    0.340
        82  -9.4523     36.3231    163.3256   1.3554144127e+02   3.7091759973e+01    0.1295973   0.08895718 -44.81 0.0007048158    1.687    0.407
        83  -8.7974    165.4167     13.0179   6.4926856142e+01   4.1975825664e+01    0.1911165    0.1491648  71.34 0.0003914134    1.087    0.080
        84  -9.7541    204.1072    176.8125   9.8320282786e+01   4.5642261980e+00    0.2931713    0.1738812  62.93  0.001155177    2.643    0.622
        85 -10.4495    228.2731    172.6405   9.2770057342e+01   7.7146457428e-01    0.2780498     0.225041 -28.07  0.001510286    1.160    0.138
        86 -10.6031    217.4804    168.9995   9.4043824523e+01   3.4818324966e+00    0.8369391     0.366944  60.24  0.002312168    5.692    0.824
