#   1 NUMBER                 Running object number                                     
#   2 MAG_AUTO               Kron-like elliptical aperture magnitude                    [mag]
#   3 X_IMAGE                Object position along x                                    [pixel]
#   4 Y_IMAGE                Object position along y                                    [pixel]
#   5 X_WORLD                Barycenter position along world x axis                     [deg]
#   6 Y_WORLD                Barycenter position along world y axis                     [deg]
#   7 A_WORLD                Profile RMS along major axis (world units)                 [deg]
#   8 B_WORLD                Profile RMS along minor axis (world units)                 [deg]
#   9 THETA_WORLD            Position angle (CCW/world-x)                               [deg]
#  10 FWHM_WORLD             FWHM assuming a gaussian core                              [deg]
#  11 ELONGATION             A_IMAGE/B_IMAGE                                           
#  12 ELLIPTICITY            1 - B_IMAGE/A_IMAGE                                       
         1 -12.1951    180.0652     33.4567   2.8997742197e+02   6.2981370748e+00   0.06821738   0.04604272  30.06  0.007146723    1.434    0.303
         2 -12.8983    185.0363     22.9302   2.8985434563e+02   6.3881082535e+00   0.04335328   0.03561252  39.57  0.003354219    1.200    0.166
         3 -13.4477    192.3719     16.7233   2.8972978286e+02   6.4140786257e+00    0.0672736   0.06211868 -54.28  0.006743707    1.100    0.091
         4 -13.2183    198.0675      8.9897   2.8961522622e+02   6.4675636768e+00   0.07354112   0.04503717  -1.47  0.001425072    2.308    0.567
         5  -9.4495     45.4992      2.9937   2.9138209361e+02   7.4704551578e+00  0.009698819  0.005835369  82.75 0.0008106519    2.641    0.621
         6 -11.9614    125.8316    240.4642   2.9187846451e+02   4.2567093363e+00   0.03241929    0.0206157 -57.52  0.003296973    1.572    0.364
         7  -9.6589    143.5315    249.4695   2.9172454644e+02   4.0452733288e+00   0.01324075  0.006647105 -62.70 0.0008898201    2.050    0.512
         8 -10.6253    134.3300    249.4225   2.9183266898e+02   4.1020231217e+00   0.01869429   0.01206306  33.16  0.001504354    1.490    0.329
         9  -9.7186     93.2142    244.8448   2.9228946801e+02   4.4055180695e+00   0.01228904  0.008880097  54.32 0.0005995695    1.521    0.343
        10 -10.8851    108.4803    242.9673   2.9209814399e+02   4.3339202139e+00   0.02153456   0.01233216 -80.55  0.001889358    2.377    0.579
        11 -10.0441    104.3862    237.7788   2.9211494241e+02   4.4184458635e+00   0.01412156  0.008535913 -41.24  0.001345406    1.797    0.444
        12 -10.4330    115.0129    249.6426   2.9206162481e+02   4.2174508530e+00   0.02221041   0.01077851  32.23  0.001982324    1.945    0.486
        13 -10.6664    101.5681    241.7767   2.9217240003e+02   4.3897632571e+00   0.02329401   0.01165503 -69.09  0.001980218    2.297    0.565
        14 -11.3075    108.8728    248.1696   2.9212505598e+02   4.2718288853e+00   0.03272133   0.01857908  32.58  0.003153421    1.680    0.405
        15 -10.4010    101.0129    250.0106   2.9222884889e+02   4.2986629520e+00    0.0248818    0.0116787  27.00  0.001998184    2.096    0.523
        16 -10.9918     99.1855    246.1898   2.9222723285e+02   4.3536573422e+00   0.03116408   0.01049758  35.87  0.002367117    2.692    0.629
        17  -9.1622     92.9018    232.3088   2.9221717109e+02   4.5512920082e+00   0.01210085  0.009365769  70.88  0.001064618    1.522    0.343
        18 -11.6004     96.3934    239.1376   2.9221740297e+02   4.4516217585e+00   0.02528468    0.0228566  45.27  0.003051125    1.110    0.099
        19 -11.9500     86.4097    237.0233   2.9232228917e+02   4.5367826875e+00   0.04157409   0.02025599  14.43  0.003336868    2.683    0.627
        20 -11.2674     87.8665    249.2104   2.9237895252e+02   4.3880314739e+00   0.02720063   0.02158924  78.16  0.002147147    1.479    0.324
        21 -10.9732     81.8729    247.3988   2.9243863107e+02   4.4453678504e+00   0.02862764   0.01745269 -78.73  0.002068453    2.060    0.515
        22 -12.6743     53.7622    228.0076   2.9265266391e+02   4.8392340158e+00   0.04826666   0.03120328 -27.90  0.003341281    1.913    0.477
        23 -16.6656     61.0163    215.5003   2.9249133427e+02   4.9386149661e+00      1.62727    0.6824193 -80.64   0.08701532    6.621    0.849
        24 -10.7924     91.5859    219.4113   2.9215448016e+02   4.7073412411e+00   0.02221911   0.01692765   3.71  0.001423695    1.470    0.320
        25  -8.6623    163.5472    221.4946   2.9131883882e+02   4.2438239696e+00  0.006605474  0.006474595   3.53 0.0001006417    1.014    0.014
        26  -9.8709    149.9601    222.2212   2.9148335930e+02   4.3185742196e+00   0.01126704  0.009333948 -51.16 0.0002128623    1.219    0.180
        27  -9.1440    177.7074    218.0905   2.9113131868e+02   4.1962391872e+00  0.009288761  0.008788858 -66.18 0.0005625937    1.087    0.080
        28  -8.1407    156.2693    218.2919   2.9138513280e+02   4.3250726239e+00  0.006665166   0.00499772 -27.21 0.0002390669    1.510    0.338
        29  -8.7779    134.0624    217.8563   2.9164422020e+02   4.4658234604e+00   0.01044271  0.008756883  59.29 0.0005257321    1.283    0.221
        30  -9.1805    233.0695    216.3162   2.9046865314e+02   3.8775643407e+00  0.009321275  0.008471556  32.36 0.0005415669    1.076    0.071
        31 -10.4045    101.5034    212.6221   2.9199633377e+02   4.7247369182e+00   0.02693703    0.0175213  45.27  0.002735807    1.581    0.367
        32  -8.8709     86.9608    214.8311   2.9218124690e+02   4.7881229849e+00    0.0192622  0.008864243  17.45  0.001105729    2.686    0.628
        33  -9.2559    151.6116    212.8647   2.9140704305e+02   4.4158141962e+00   0.01849386  0.009165156 -50.44 0.0008851982    2.011    0.503
        34  -9.0020    183.0049    213.5076   2.9104104310e+02   4.2163791497e+00  0.009945809    0.0065326  25.23  0.001003824    1.510    0.338
        35  -9.0922    140.9364    212.4902   2.9153059409e+02   4.4853768563e+00     0.010282  0.006504283  26.58 0.0007736617    1.555    0.357
        36  -8.8784     33.1939    211.2195   2.9279365442e+02   5.1571682252e+00  0.009132799  0.007525749  54.29 0.0004224763    1.282    0.220
        37  -8.1916    186.2856    210.3016   2.9098289602e+02   4.2330659640e+00  0.006797449  0.005014034 -26.39 0.0001864338    1.557    0.358
        38  -8.3317    183.2495    205.9795   2.9099236880e+02   4.3012185765e+00  0.008719033  0.005749752 -62.62 0.0008784034    1.556    0.357
        39  -9.3950    126.2280    205.3354   2.9166053124e+02   4.6573581669e+00   0.01237398   0.01076533  32.11 0.0006790281    1.122    0.108
        40 -16.0632      8.4617    246.9414   2.9330141132e+02   4.8974551453e+00    0.3455146   0.08580324 -64.55   0.01550592    4.742    0.789
        41  -9.4687     93.5555    204.9897   2.9204375490e+02   4.8608361588e+00    0.0192232   0.01077716 -52.73  0.001833099    1.767    0.434
        42  -9.0463     89.0428    204.7117   2.9209529874e+02   4.8915629160e+00   0.01175247  0.008239287  39.77 0.0007214709    1.403    0.287
        43  -9.8234    247.2128    205.5737   2.9023680128e+02   3.9140004811e+00  0.009704708  0.006476495  11.53 0.0009575007    1.698    0.411
        44  -8.6429    174.9688    205.2681   2.9108560372e+02   4.3600633229e+00   0.00941447  0.008292662  28.63 0.0004120105    1.109    0.098
        45  -9.6628    171.5221    205.4133   2.9112710044e+02   4.3794902790e+00   0.01036267  0.008966601 -40.43 0.0001267293    1.185    0.156
        46  -8.8203    163.3105    204.9703   2.9122117323e+02   4.4348168209e+00  0.009240763  0.008669106 -48.48 0.0005080698    1.081    0.075
        47  -8.4472    148.4703    205.4914   2.9139925469e+02   4.5196090247e+00  0.006617348  0.006480522  10.12 0.0001089456    1.009    0.009
        48  -8.1521    107.2831    205.3104   2.9188378824e+02   4.7733605771e+00  0.006837186  0.004997469 -27.44 0.0003302674    1.569    0.363
        49 -10.9175    146.2107    240.3448   2.9163760063e+02   4.1335787850e+00   0.01526901   0.01138769  35.56 0.0003597176    1.303    0.232
        50  -9.5845    102.9345    203.4957   2.9192405919e+02   4.8207362002e+00     0.012616   0.01129261 -36.66 0.0008453506    1.146    0.128
        51  -9.2821    167.1132    203.1117   2.9116505689e+02   4.4328689318e+00   0.01037712  0.009064921  68.31 0.0005819699    1.245    0.197
        52  -9.2564    169.8599    200.0815   2.9111425615e+02   4.4508175740e+00  0.009804572  0.009326037 -23.90 0.0003297084    1.069    0.064
        53  -9.1696    133.1878    202.5683   2.9156165637e+02   4.6465760102e+00   0.01167457  0.009256017 -65.50 0.0005383846    1.307    0.235
        54 -10.0132     70.9268    202.1246   2.9229332617e+02   5.0317437811e+00    0.0176444  0.009782374  46.63 0.0003282174    1.930    0.482
        55 -10.1820    197.3897    200.3260   2.9079139394e+02   4.2794700380e+00   0.01849038    0.0115516  34.59 0.0009397275    1.538    0.350
        56 -10.0869    141.5489    198.2667   2.9143693236e+02   4.6448159089e+00   0.01749395     0.012234 -18.59 0.0008982184    1.773    0.436
        57  -8.7816    123.1910    200.5822   2.9166746806e+02   4.7304538050e+00  0.009239654  0.006423089   9.74 0.0003568292    1.624    0.384
        58  -8.5207    250.6493    199.6887   2.9016051141e+02   3.9603731920e+00  0.007135932  0.005020885 -22.73 0.0007045258    1.720    0.419
        59 -10.2137    245.9896    240.5026   2.9046386384e+02   3.5212017734e+00   0.01596644  0.006928216  19.37  0.001225731    2.773    0.639
        60  -8.9863    192.1168    197.8623   2.9083851076e+02   4.3400143653e+00    0.0100445  0.008839697  60.35 0.0004634593    1.205    0.170
        61  -8.9310    173.1475    239.2166   2.9131343156e+02   3.9818357052e+00   0.01342779  0.009168991 -77.64  0.001102069    1.711    0.416
        62  -8.7784     95.8249    196.6382   2.9196629170e+02   4.9428318852e+00  0.009283138  0.008175688 -41.06 0.0004883875    1.160    0.138
        63 -11.0898     75.2813    194.4859   2.9219560831e+02   5.0928690593e+00    0.0236169   0.01508245 -38.21  0.002339568    1.736    0.424
        64 -11.0738     79.6272    187.6067   2.9210257705e+02   5.1453175522e+00     0.017246   0.01260391 -32.10 0.0008826544    1.523    0.344
        65  -8.2861    217.9348    194.9742   2.9051685149e+02   4.2149620448e+00   0.00781064  0.007379235  22.91 0.0003279493    1.037    0.036
        66 -10.2383    159.7468    193.9524   2.9119616774e+02   4.5830042020e+00    0.0180674   0.01190719  41.87  0.001044982    1.513    0.339
        67  -8.5616    135.4724    195.0326   2.9148892085e+02   4.7190710573e+00  0.009738157  0.006576996 -60.52 0.0004225447    1.501    0.334
        68  -8.5169    113.8017    195.6624   2.9174831368e+02   4.8442663634e+00   0.01019169  0.005565712  37.47 0.0009440076    1.762    0.432
        69 -10.6810    135.5296    240.8626   2.9176659682e+02   4.1929014918e+00   0.01335103   0.01131661  10.69 0.0008070761    1.218    0.179
        70  -9.3564    118.9590    236.4660   2.9193520750e+02   4.3445529141e+00   0.01743198  0.009107424 -87.38  0.001273598    3.538    0.717
        71  -9.8021    191.4914    191.2064   2.9080536195e+02   4.4201708619e+00    0.0122642   0.01154516  24.82  0.000548496    1.040    0.039
        72  -9.1090    175.0013    191.2131   2.9099970871e+02   4.5210657448e+00  0.009356973   0.00859377  26.43 0.0004150385    1.066    0.061
        73  -8.4186    101.8436    191.6475   2.9186498447e+02   4.9633650703e+00  0.009244787  0.005784419  37.74 0.0003189075    1.551    0.355
        74  -9.9639    250.2505    187.5718   2.9009135479e+02   4.1016761526e+00   0.01518327   0.00705851 -47.77  0.001296903    2.207    0.547
        75 -11.6242    134.5005    235.1265   2.9174391158e+02   4.2649990959e+00    0.0285623    0.0148761 -66.97  0.002561793    2.100    0.524
        76  -8.1999     82.2526    194.3132   2.9211230451e+02   5.0523314065e+00  0.006712038  0.004932564 -30.99 0.0001758226    1.522    0.343
        77  -8.8839     67.5387    186.2634   2.9223708519e+02   5.2344532594e+00   0.01149946  0.008506661  27.93 0.0004946408    1.320    0.242
        78  -8.9582     89.5791    184.6603   2.9196725384e+02   5.1184137753e+00   0.01289175  0.009226608  78.54 0.0008791684    1.786    0.440
        79  -8.7932     79.4756    182.1063   2.9207097542e+02   5.2093706457e+00   0.01030756  0.008701886  51.72 0.0003959482    1.229    0.186
        80 -10.8039    130.3441    235.1941   2.9179330572e+02   4.2896153727e+00   0.01813348  0.008681155 -71.88  0.001472974    2.627    0.619
        81  -9.0412    134.6627    180.1922   2.9140823825e+02   4.8942844406e+00   0.01015669  0.008437447  85.92 0.0005211144    1.368    0.269
        82  -8.9268    128.9403    179.3292   2.9147048423e+02   4.9391701739e+00    0.0092044   0.00823799  24.27 0.0002308535    1.097    0.088
        83 -10.9315     87.2712    176.0370   2.9194211573e+02   5.2314620764e+00   0.01911936   0.01369084  -3.49  0.001292447    1.691    0.409
        84 -13.9660     21.2289    238.5556   2.9310018152e+02   4.9161245299e+00   0.04377313   0.03384969  64.80  0.003464358    1.484    0.326
        85 -10.3987    181.9379    176.7079   2.9082965836e+02   4.6449463280e+00   0.01838864   0.01198685   8.96  0.001427504    1.812    0.448
        86 -10.4786     75.0181    173.7451   2.9207281774e+02   5.3325212039e+00   0.02094203    0.0114312 -46.25  0.001151611    1.901    0.474
        87 -11.6686    111.3237    229.8934   2.9198533641e+02   4.4665897907e+00   0.02428009   0.02317217 -37.10  0.002044277    1.062    0.059
        88 -11.1474     98.6311    231.0736   2.9214213194e+02   4.5305129549e+00   0.02290719   0.01777756 -24.94 0.0009989154    1.446    0.309
        89 -10.9013    249.3259    171.4306   2.9000381937e+02   4.2923177361e+00   0.01969566   0.01381874  57.23  0.002034179    1.631    0.387
        90 -10.2125    104.8027    229.5892   2.9206036768e+02   4.5098853671e+00   0.01463223   0.01025311  42.83  0.001201196    1.431    0.301
        91 -11.3338     93.4529    167.0536   2.9181457700e+02   5.2968202011e+00   0.03177465   0.02056202 -33.62  0.002309721    1.794    0.443
        92  -9.3987     96.3562    158.9945   2.9173132108e+02   5.3715716792e+00    0.0154317  0.009663942 -48.40 0.0008431795    1.619    0.382
        93  -8.1428    122.7318    168.9882   2.9148083572e+02   5.0957654127e+00  0.007925489  0.005856482 -61.02 0.0002114268    1.378    0.274
        94  -9.7821    107.5133    168.2544   2.9165594005e+02   5.1971772817e+00   0.01472159   0.01013469   8.14 0.0002600794    1.673    0.402
        95 -10.0718    155.5722    232.1354   2.9147745384e+02   4.1705310352e+00   0.01253527   0.01040306  29.39 0.0007092564    1.175    0.149
        96  -9.3512    175.9413    166.2736   2.9083679329e+02   4.8013332019e+00  0.009395618  0.008429216  29.42  0.001115162    1.089    0.082
        97 -13.7213     45.9710    247.0899   2.9286002710e+02   4.6676279770e+00   0.09321412   0.04426045  26.15   0.00652372    2.096    0.523
        98 -11.2643    245.2063    161.8068   2.8999360861e+02   4.4278791706e+00   0.02624746   0.01504465  10.04  0.002329917    2.230    0.552
        99 -11.6233    242.2493    153.8426   2.8997983314e+02   4.5372906481e+00    0.0298651   0.01909384  77.44  0.002740956    2.271    0.560
       100  -8.7544    203.0613    161.3588   2.9048722270e+02   4.6915142692e+00   0.01418726  0.008888263  -1.03  0.001290912    2.177    0.541
       101  -8.4935    171.3912    159.2259   2.9084750637e+02   4.9100235288e+00  0.008699337  0.006507164 -79.17 0.0003001222    1.520    0.342
       102  -9.3027     82.4950    159.1576   2.9189593936e+02   5.4543121404e+00   0.01100938  0.008963643  26.42  0.000260145    1.204    0.169
       103 -12.6985     43.1356    237.1906   2.9283357422e+02   4.7985222974e+00   0.02634414   0.02177348  27.47 0.0003657394    1.183    0.155
       104 -13.2273     27.6998    234.6239   2.9300009184e+02   4.9219091747e+00   0.03652907   0.02984031 -28.05 0.0003434279    1.324    0.245
       105  -8.4801    115.5701    157.5085   2.9149551247e+02   5.2712449706e+00  0.006580575  0.006462689  -5.51 8.844228e-05    1.019    0.018
       106  -8.8642     88.8632    156.8987   2.9180703062e+02   5.4413665266e+00  0.009593799  0.008636223 -22.59            0    1.159    0.137
       107  -9.3498     72.6117    156.6242   2.9199723251e+02   5.5436822048e+00   0.02184808  0.009409554  25.04   0.00178655    2.374    0.579
       108  -8.8027    134.6529    155.9111   2.9126062227e+02   5.1728997854e+00  0.009168678  0.008715369 -76.91 0.0004454919    1.093    0.085
       109 -14.8600     25.8109    248.2811   2.9310493493e+02   4.7766140082e+00     0.069698   0.04433772  13.38  0.006839895    1.778    0.438
       110  -8.1633    124.7016    154.2756   2.9136808550e+02   5.2525158375e+00  0.006744077  0.004977343  58.64 0.0001816902    1.533    0.348
       111 -10.0087    142.7376    228.4947   2.9160657714e+02   4.2907520885e+00   0.01720118   0.01130151  89.76  0.001455707    2.052    0.513
       112  -9.1741    113.9570    152.3329   2.9148306221e+02   5.3404830499e+00   0.01120738  0.009223265 -79.85 0.0005263444    1.334    0.250
       113 -10.7881    249.7525    150.2781   2.8986975470e+02   4.5320778674e+00   0.02043969   0.01322873 -83.40  0.001962933    1.987    0.497
       114  -9.7774    104.1676    150.6608   2.9158843688e+02   5.4194819062e+00    0.0173598     0.012572 -26.16  0.001476041    1.604    0.377
       115  -9.0298    107.1824    145.9899   2.9152443240e+02   5.4546517620e+00    0.0146935  0.007922527 -35.41  0.001266406    2.320    0.569
       116  -8.0018    119.7214    151.2942   2.9140871140e+02   5.3171655110e+00  0.006692923  0.005032613  62.29 0.0002163352    1.530    0.346
       117  -8.9734     93.0531    150.5268   2.9171882717e+02   5.4889010156e+00   0.01000825  0.009355736 -37.50  0.001215086    1.087    0.080
       118 -10.7577     58.7250    146.4114   2.9209917325e+02   5.7455592431e+00   0.02516804   0.01143848 -38.49  0.001962666    2.841    0.648
       119 -12.2027     67.7569    144.0022   2.9197786085e+02   5.7181345775e+00   0.03735466   0.02444597  56.49  0.003700408    1.792    0.442
       120 -11.4375     71.6763    138.7584   2.9189969408e+02   5.7543990289e+00   0.03802399   0.01702944  40.03  0.002664014    2.184    0.542
       121  -8.9656    142.4673    147.5249   2.9111737030e+02   5.2212885616e+00   0.01213973  0.009018038 -50.63  0.001317981    1.356    0.263
       122 -10.2841    133.5521    142.5847   2.9119247793e+02   5.3324972187e+00   0.03795287   0.01358178 -67.34  0.002672178    3.437    0.709
       123  -9.3368    127.9510    229.4842   2.9178685565e+02   4.3697464600e+00  0.009881272  0.004796644  48.94 0.0005795541    2.402    0.584
       124 -11.2192    248.3876    140.8483   2.8982826969e+02   4.6485006822e+00    0.0254529   0.01872891   2.43  0.002690669    1.570    0.363
       125 -10.7694    248.2546    135.8466   2.8979930135e+02   4.7066224778e+00   0.02139601   0.01399306  41.55  0.001918847    1.521    0.342
       126 -10.9304    249.3236    131.3435   2.8975922301e+02   4.7516477975e+00   0.01761331   0.01693875  74.42  0.002187297    1.082    0.076
       127 -12.0770     48.4689    137.1728   2.9216419210e+02   5.9140816351e+00   0.02678034    0.0225744   5.74   0.00310194    1.250    0.200
       128 -11.7096     44.9180    129.7962   2.9216132334e+02   6.0203609435e+00   0.02657515   0.01522017 -63.99  0.001542961    1.816    0.449
       129  -8.8022    119.4081    138.1552   2.9133243561e+02   5.4698056121e+00   0.01351919  0.009023302 -28.39  0.001331523    1.804    0.446
       130  -9.2645    190.9050    227.9921   2.9103607870e+02   4.0019173281e+00  0.009808005  0.009533864  54.19 0.0003241631    1.047    0.045
       131 -10.0592    113.8086    136.1463   2.9138630412e+02   5.5270819478e+00   0.01497576   0.01454178  83.50  0.001378983    1.069    0.065
       132  -8.8469     97.9684    134.4791   2.9156317221e+02   5.6429996211e+00  0.009475587  0.006486868  26.85 -1.438305e-05    1.433    0.302
       133  -8.7905     72.2893    133.3215   2.9185939668e+02   5.8130418077e+00  0.006926508  0.004986781 -27.70 0.0003174939    1.604    0.376
       134 -10.8175     65.9985    127.1048   2.9189590273e+02   5.9227428388e+00   0.02187878   0.01334838 -75.32  0.002077875    1.959    0.490
       135 -10.8728    135.2714    226.3373   2.9168147067e+02   4.3611290599e+00   0.02633208   0.01306756  54.37  0.002117004    2.722    0.633
       136 -10.0933    164.2531    226.2074   2.9133916256e+02   4.1854474750e+00   0.01258114  0.009093383 -74.39 0.0005527698    1.538    0.350
       137  -9.6322    209.8182    125.6237   2.9018964605e+02   5.0597015813e+00   0.01169255   0.01048114 -65.55 0.0004978246    1.149    0.130
       138  -7.9947     85.7077    126.7383   2.9166086050e+02   5.8066773295e+00  0.006590284  0.005043174 -21.17 0.0001532073    1.499    0.333
       139 -10.5730    116.8837    224.4032   2.9188647820e+02   4.4956422897e+00   0.02170038   0.01235346  16.41  0.001458095    1.995    0.499
       140 -11.3286    142.1759    221.2272   2.9156906027e+02   4.3775619032e+00   0.01997457   0.01673521 -78.09  0.002303089    1.293    0.226
       141  -8.1977    238.3322    122.3128   2.8983350397e+02   4.9226088541e+00  0.007065404  0.005027191 -23.75 0.0003131988    1.679    0.404
       142  -9.5521    130.9285    118.9697   2.9107958747e+02   5.6193930329e+00  0.009744246  0.009448132   2.63 0.0003154193    1.027    0.026
       143  -9.1657    249.5389    117.4924   2.8967209708e+02   4.9089963579e+00   0.01108758   0.00648688  27.99 0.0005664449    1.668    0.400
       144 -11.3656    248.5626    112.7299   2.8965449927e+02   4.9695463254e+00   0.02469223   0.02078394 -27.83  0.001838725    1.269    0.212
       145  -8.4175     80.5059    117.4846   2.9166599219e+02   5.9445882296e+00  0.006647018  0.006455083  -2.81 -0.0001277125    1.029    0.029
       146  -8.6008     70.5386    117.2156   2.9178211132e+02   6.0085012249e+00  0.009460554  0.005983176 -47.88 0.0004277593    1.608    0.378
       147  -9.3850    168.5273    113.5006   2.9060254159e+02   5.4518635219e+00   0.01486483   0.01026774  61.38  0.001499162    1.739    0.425
       148  -8.6422     82.4642    114.4308   2.9162427071e+02   5.9676641673e+00  0.006670749  0.006351836  45.25 4.603343e-05    1.054    0.051
       149 -10.7890     60.4323    112.0179   2.9186990480e+02   6.1297730343e+00   0.02440542   0.01522059  63.38  0.002265048    2.130    0.530
       150  -8.4681    149.5305    111.4944   2.9081445603e+02   5.5912429998e+00  0.006614891  0.006481617  22.98  0.000150557    1.005    0.005
       151  -9.3268    102.6701    110.6939   2.9136283540e+02   5.8871045258e+00   0.01049269  0.009434778 -20.57  0.000438644    1.163    0.140
       152 -10.0247     70.0810    111.0430   2.9174995762e+02   6.0821025664e+00   0.01015232  0.009718634  26.18 0.0004215809    1.023    0.022
       153  -8.6262     79.8509    108.8554   2.9162120473e+02   6.0475707066e+00  0.008952924  0.007683718  68.47 0.0003368696    1.280    0.219
       154  -9.5168    114.6163    107.2017   2.9120047205e+02   5.8541255544e+00  0.009306105  0.005971535 -50.10  0.000229415    1.567    0.362
       155  -9.7843    134.5065    104.9424   2.9095184272e+02   5.7583465849e+00   0.01760031   0.00656269 -61.60  0.001358308    2.712    0.631
       156  -8.5103     76.5043     99.0287   2.9160091785e+02   6.1807068053e+00   0.00942628  0.006588985 -60.52 0.0009847864    1.452    0.311
       157  -8.6554     63.9339     98.0293   2.9174339311e+02   6.2688726787e+00   0.01067825  0.007575155  57.13 0.0005933989    1.603    0.376
       158 -10.7233     59.0015    133.1068   2.9201505374e+02   5.8965434275e+00   0.01797202  0.009893838 -61.26  0.001105581    1.841    0.457
       159 -10.9472    247.8988    100.1801   2.8958563398e+02   5.1173639389e+00   0.02674194   0.01831744 -34.94   0.00274681    1.634    0.388
       160  -8.2341    102.1945     87.9169   2.9122965817e+02   6.1512039016e+00  0.008513807  0.005297044 -64.28 0.0003339993    1.672    0.402
       161 -10.7057     98.6728    222.7879   2.9209138990e+02   4.6253478895e+00   0.01766369   0.01655718  81.08 0.0002208775    1.128    0.114
       162  -9.8958    105.1822    222.5133   2.9201297058e+02   4.5887700369e+00   0.01835128   0.01088512 -15.52  0.001558142    2.583    0.613
       163 -10.3964    126.5655    248.6713   2.9191959951e+02   4.1580620456e+00   0.02324171   0.01209328  51.44  0.001999317    2.314    0.568
       164  -9.7525    115.0012    244.4789   2.9203045387e+02   4.2767727611e+00   0.01164897  0.008758592  76.28 0.0008106303    1.625    0.384
       165 -10.6273    115.7546    239.7820   2.9199308881e+02   4.3260681988e+00   0.01841574    0.0129128  80.17  0.000791483    1.860    0.462
       166  -9.4243    121.4849    244.5077   2.9195421651e+02   4.2368580093e+00   0.01393631  0.008815502  60.89 0.0008627776    2.005    0.501
