#   1 NUMBER                 Running object number                                     
#   2 MAG_AUTO               Kron-like elliptical aperture magnitude                    [mag]
#   3 X_IMAGE                Object position along x                                    [pixel]
#   4 Y_IMAGE                Object position along y                                    [pixel]
#   5 X_WORLD                Barycenter position along world x axis                     [deg]
#   6 Y_WORLD                Barycenter position along world y axis                     [deg]
#   7 A_WORLD                Profile RMS along major axis (world units)                 [deg]
#   8 B_WORLD                Profile RMS along minor axis (world units)                 [deg]
#   9 THETA_WORLD            Position angle (CCW/world-x)                               [deg]
#  10 FWHM_WORLD             FWHM assuming a gaussian core                              [deg]
#  11 ELONGATION             A_IMAGE/B_IMAGE                                           
#  12 ELLIPTICITY            1 - B_IMAGE/A_IMAGE                                       
         1 -13.4883    248.4557    125.6228   7.7292656669e+01   7.3925138300e+00     3.287471    0.1384726 -30.87  0.006629185   10.572    0.905
         2 -14.7054    241.5645     80.7750   6.7534161704e+01   1.4612578101e+01     2.704942    0.9907635 -39.49  0.009996896    2.728    0.633
         3 -12.8208    249.6541     59.1204   6.0875620620e+01   1.5522565450e+01     1.770921    0.4091295 -23.70   0.00496709    4.639    0.784
         4 -13.8970    242.0018     53.5440   6.0352495118e+01   1.7960205823e+01     1.473999    0.6233844 -41.94  0.005825518    2.357    0.576
         5 -13.6459    247.5468     41.9610   5.6631081740e+01   1.8040193978e+01     1.806492    0.7668814 -16.37  0.006844001    2.700    0.630
         6 -14.7784    235.1635     27.6118   5.4114758128e+01   2.2617386372e+01     2.600593       1.1727 -15.89   0.01020708    2.487    0.598
         7 -14.0839    246.5743     16.4228   4.9984614818e+01   2.1041840833e+01     2.396242    0.9301797 -22.15  0.009575339    2.475    0.596
         8 -13.6591    226.4991     51.0002   6.1658179729e+01   2.1986766266e+01    0.9106785    0.5416186 -31.97  0.004192528    1.569    0.362
         9 -12.8502    222.3941     18.6907   5.2979233280e+01   2.6763479327e+01    0.6219201    0.3771295 -28.78  0.002959063    1.562    0.360
        10 -10.5938      1.7498      7.4537   1.1166510528e+02   7.2896054235e+01    0.2147842    0.1139128 -55.53 0.0009275976    1.410    0.291
        11 -11.4496    218.0537      4.7295   4.9395001582e+01   2.9255120534e+01    0.4088961    0.2069194 -18.68  0.001774444    2.037    0.509
        12  -9.6473     50.6631      3.7842   8.5295668702e+01   6.8653127759e+01    0.1628889   0.09885217 -36.98 0.0003283551    1.499    0.333
        13 -11.0529    230.7607    237.2641   1.0019815026e+02  -1.6939185330e+00    0.2542802    0.2045822  72.33  0.001779653    2.491    0.599
        14 -11.1176    193.5553    249.2254   1.0740009973e+02   2.6445650074e+00    0.2254705    0.1981426  60.03  0.001916658    1.503    0.335
        15 -11.3717    191.6970    236.7352   1.0618564352e+02   4.1886199411e+00    0.4220295    0.2802114  71.57  0.002459557    2.983    0.665
        16 -10.7595    206.8168    237.2133   1.0387041747e+02   1.8579232726e+00    0.2580068    0.1670508  58.31  0.001666664    2.095    0.523
        17 -11.0997    216.1313    234.1530   1.0201804000e+02   7.5597561683e-01    0.2800266    0.2037134  48.53  0.001704017    1.471    0.320
        18 -10.1217    170.5875    234.8302   1.0933350790e+02   7.6070444797e+00    0.1238938    0.1038833 -73.79 0.0009533408    1.727    0.421
        19 -10.2593    240.5587    232.0356   9.7989930447e+01  -2.6657282373e+00    0.1570223    0.1374004  52.23   0.00123579    1.741    0.426
        20  -9.8486    225.5103    231.9634   1.0026947584e+02  -4.4201614828e-01    0.1296628    0.1018617 -18.15 0.0006391398    1.541    0.351
        21  -9.5725    245.4920    231.5220   9.7177137496e+01  -3.3358985773e+00    0.1071993   0.07737305  26.97 0.0003329439    1.062    0.059
        22 -10.8422    235.3915    229.6271   9.8427792288e+01  -1.6973895419e+00    0.2160776    0.1885807  -5.77  0.001391295    1.422    0.297
        23 -10.5208    229.5905    228.4443   9.9147042890e+01  -7.2688480414e-01    0.1832682    0.1669665  78.33  0.001113778    1.935    0.483
        24 -10.1342    211.7545    227.7332   1.0183052056e+02   2.0504422577e+00    0.1623549    0.1303381 -10.77  0.001157504    1.454    0.312
        25 -10.9802    199.0033    227.0106   1.0376563440e+02   4.0979117874e+00    0.2066413    0.1660485 -47.67  0.001228514    1.797    0.443
        26 -10.9289    247.0393    226.3837   9.6195471533e+01  -3.1233477662e+00     0.302237     0.179027  49.33  0.001643433    1.969    0.492
        27 -11.6524    240.4590    221.8293   9.6514157414e+01  -1.7500765298e+00    0.3841288      0.23836  54.70  0.002339102    2.305    0.566
        28 -10.1504    223.1778    226.9361   9.9926105031e+01   3.8249055586e-01    0.1576123    0.1283982  37.63 0.0007573207    1.273    0.215
        29 -10.5957    205.9273    225.7477   1.0248434144e+02   3.1546396880e+00    0.1921255    0.1599539 -35.92    0.0013703    1.625    0.385
        30 -10.8437    228.4190    222.1804   9.8424378649e+01   3.9255182421e-02    0.3049542    0.1483792  47.47  0.001750725    1.950    0.487
        31 -10.4144    186.0000    222.0391   1.0522134015e+02   6.6936829630e+00    0.1482195   0.06550086 -40.24  0.000741291    2.936    0.659
        32 -10.2127    190.5768    226.2981   1.0503339599e+02   5.4899783848e+00    0.1676187    0.1096893 -44.10  0.001128391    2.082    0.520
        33 -11.9585    248.0706    217.6096   9.4715148967e+01  -2.5080813853e+00    0.3504374    0.2969472 -21.95  0.001980773    1.579    0.367
        34 -10.9943    193.4387    219.0916   1.0359719676e+02   5.8488178083e+00    0.2440555    0.1915282 -80.48  0.001598648    2.303    0.566
        35 -11.5530    211.4294    202.4009   9.8160079398e+01   4.8171575972e+00    0.4710307    0.2769288 -58.85  0.002130892    4.397    0.773
        36 -11.1211    219.4203    217.2239   9.9114692551e+01   1.9252356351e+00    0.1945057    0.1898744  17.93  0.001569948    1.462    0.316
        37 -11.9892    217.1172    212.3040   9.8750841959e+01   2.8025760603e+00    0.3994629    0.3506506 -77.76  0.002845868    1.982    0.495
        38 -11.4112    217.3177    223.1717   1.0031158248e+02   1.6506472082e+00    0.2816595    0.2623315 -71.32  0.001487676    1.763    0.433
        39  -9.8326    179.6465    217.3120   1.0565004807e+02   8.2677237312e+00     0.111898   0.07925703  62.50 0.0007044851    1.729    0.422
        40  -9.8983    170.6711    217.3355   1.0716619915e+02   9.7030506636e+00    0.1117408   0.07928346  64.83 0.0007051988    1.726    0.421
        41 -11.3017    232.9738    213.5378   9.6414757758e+01   1.7262647723e-01    0.2503338    0.2164728 -32.33  0.001189726    1.628    0.386
        42 -10.2931    210.8521    218.9199   1.0073536162e+02   3.0995497372e+00    0.1695649    0.1543677 -10.50  0.001259373    1.370    0.270
        43 -10.7645    230.0758    187.3668   9.2597778149e+01   3.3800184715e+00    0.2797002    0.1722736 -38.49  0.001396173    2.046    0.511
        44 -10.1109    237.1428    199.1472   9.3458902703e+01   9.5241314833e-01     0.178193     0.142468  35.07 0.0007508529    1.232    0.188
        45 -11.6003    240.5749    208.5962   9.4454042771e+01  -5.3054624005e-01    0.4019858    0.2937553 -55.81  0.002432346    2.891    0.654
        46 -10.7774    231.0100    194.4637   9.3658842563e+01   2.4459087960e+00    0.2619895    0.1680409 -19.51  0.001303017    1.700    0.412
        47 -11.0203    235.1140    203.4003   9.4476944112e+01   8.4447292873e-01    0.2744667    0.2023957 -37.31  0.001083656    1.838    0.456
        48 -11.5751    231.5185    199.5017   9.4414106948e+01   1.8267130192e+00     0.301162    0.1960358 -44.77  0.001808668    2.332    0.571
        49 -10.4795    192.8056    210.0777   1.0243229771e+02   7.0011908694e+00    0.1995273    0.1632996 -56.30  0.001008594    1.760    0.432
        50 -10.9838    247.1371    207.0813   9.3196478335e+01  -1.4019917276e+00    0.2845591    0.1821436 -40.07  0.001792258    2.316    0.568
        51 -11.0336    243.4666    201.2812   9.2817615053e+01  -2.7104997196e-01    0.3033332    0.2329117 -19.88  0.001700163    1.466    0.318
        52 -11.4138    229.5689    207.4634   9.6006805934e+01   1.3159604009e+00    0.2377259    0.1817851 -36.48  0.001188449    1.761    0.432
        53 -10.8880    206.1350    207.9233   9.9887710580e+01   5.0633570842e+00    0.1729563    0.1436857  45.48  0.001232801    1.276    0.216
        54 -10.0633    197.4017    204.2586   1.0079798850e+02   6.9365302516e+00    0.1934777    0.1135103 -29.35  0.001134397    2.113    0.527
        55 -10.5759    187.0425    203.5159   1.0245501620e+02   8.7605565905e+00    0.2149643    0.1496271 -64.40  0.001252601    2.441    0.590
        56  -9.8536    172.7768    203.9824   1.0499740761e+02   1.1085171852e+01     0.130497   0.09935419 -40.24 0.0007277645    1.636    0.389
        57 -10.8490    250.0983    201.2545   9.1786812248e+01  -1.3080272849e+00    0.3135775    0.1602849 -26.59  0.001431114    2.128    0.530
        58 -11.8761    247.1060    193.8552   9.1001279019e+01  -1.1296835608e-01    0.3627615    0.3314703 -86.75  0.001833889    2.019    0.505
        59 -11.0163    243.8327    188.1858   9.0532328038e+01   9.9639299360e-01    0.2207591    0.1647661  30.55 0.0009454224    1.129    0.114
        60  -9.9412    224.6444    207.8502   9.6855018715e+01   2.0639526092e+00    0.1393798    0.1041184 -37.27 0.0009451043    1.784    0.439
        61 -10.4433    223.5101    201.1214   9.5971146263e+01   2.9634392652e+00    0.1537876    0.1108675 -21.23  0.001021301    1.556    0.357
        62 -10.1006    215.4313    197.7390   9.6752800377e+01   4.6803138620e+00    0.1919598    0.1130415 -36.85  0.001124589    2.069    0.517
        63  -9.5333    176.3215    197.6763   1.0346164423e+02   1.1332077958e+01    0.1161176   0.08775956  67.71 0.0006942739    1.679    0.404
        64  -9.8568    219.5907    194.7578   9.5575516024e+01   4.3203330696e+00    0.1406539    0.1121976 -36.40 0.0009397555    1.604    0.377
        65 -10.3414    212.6323    211.7948   9.9401782242e+01   3.5773750803e+00    0.2320526    0.1591847 -31.91  0.001311119    1.787    0.440
        66 -11.1930    237.2241    187.7706   9.1511134550e+01   2.1339897252e+00    0.3129428    0.1964664 -24.17  0.001167845    1.710    0.415
        67 -10.2933    202.2559    197.4231   9.8918069647e+01   6.9435627723e+00     0.176207    0.1507311 -66.45  0.001082906    1.786    0.440
        68 -11.4995    224.4211    192.8133   9.4454882799e+01   3.7263409669e+00    0.2975045    0.2082909 -43.81  0.001253174    2.001    0.500
        69 -10.4905    210.4054    188.7453   9.6114651408e+01   6.5964996507e+00    0.2032762    0.1154904 -38.08  0.001075365    2.109    0.526
        70 -10.1764    220.4123    187.7358   9.4256671244e+01   4.9876414458e+00    0.1978714    0.1139859 -34.71 0.0008538241    2.018    0.504
        71 -10.9035    249.5391    185.0288   8.9079606180e+01   3.8844562757e-01    0.3280014    0.1621188 -33.37  0.001784978    2.301    0.565
        72 -11.8382    247.8177    178.4520   8.8160505364e+01   1.3608003343e+00     0.444874    0.2173936 -36.46  0.002206569    2.450    0.592
        73 -10.0341    215.0702    187.0285   9.5032646489e+01   5.9939692414e+00    0.1671764    0.1500663  79.87 0.0006801251    1.676    0.403
        74 -10.5596    223.9945    184.2457   9.3055230181e+01   4.7761235615e+00    0.2553968    0.1723108 -37.02  0.001104177    1.804    0.446
        75 -10.7661    225.6114    179.2473   9.1899272080e+01   5.0795236289e+00    0.4152719    0.2057449  -6.99  0.001677135    3.751    0.733
        76 -10.6035    203.4827    183.4937   9.6416355400e+01   8.4660345619e+00    0.1988249    0.1150376 -47.60  0.001035902    2.393    0.582
        77 -11.0730    183.5564    182.6874   9.9820792829e+01   1.2127724691e+01    0.2716765    0.2042128 -43.81  0.001682526    1.607    0.378
        78 -11.7410    241.5033    180.9003   8.9605957142e+01   2.1587507781e+00    0.4059272    0.2411375 -38.21  0.002308058    2.127    0.530
        79  -9.9141    218.0000    182.9941   9.3840288841e+01   5.9670196751e+00    0.2131019    0.1545937 -24.10  0.001333061    1.517    0.341
        80 -10.7046    218.5419    178.9778   9.3038558879e+01   6.3572802490e+00    0.3173169    0.1854657 -29.46  0.001766474    1.895    0.472
        81 -10.4939    210.4753    183.0406   9.5129446497e+01   7.2849393882e+00    0.1690134    0.1199164 -27.23 0.0008800107    1.583    0.368
        82 -11.0539    235.5578    181.0858   9.0595661362e+01   3.1478383440e+00    0.2444359     0.210203 -28.79  0.001178905    1.453    0.312
        83  -9.8824    229.6710    182.3011   9.1773747317e+01   4.0205880844e+00    0.1804677    0.1106268 -36.03 0.0008491754    1.938    0.484
        84  -9.9591    231.3293    178.7175   9.0858204237e+01   4.1441514899e+00    0.1737638    0.1483581 -14.40  0.000890932    1.280    0.219
        85 -10.5614    204.4672    177.1720   9.5145040696e+01   9.1070927140e+00     0.265412    0.1221384 -37.85  0.001111727    2.493    0.599
        86 -10.1200    210.5693    176.2072   9.3908894551e+01   8.1288420981e+00    0.2083337      0.11987 -37.57 0.0009013592    2.011    0.503
        87 -11.1855    182.1097    176.2034   9.8997083417e+01   1.3308462167e+01    0.2507494    0.1877694 -44.22  0.001050808    1.589    0.371
        88  -9.4936    197.7021    176.3696   9.6200320408e+01   1.0441814276e+01    0.1179073   0.09988843  84.10 0.0007030264    1.734    0.423
        89 -10.3042    232.6927    174.7383   8.9906671584e+01   4.3655645308e+00     0.206428    0.1417796 -17.08  0.001243009    1.506    0.336
        90 -10.4373    223.3079    173.3325   9.1208008222e+01   6.1956917440e+00    0.2270695    0.1638184 -37.32  0.001169024    1.665    0.399
        91 -10.4943    241.4901    173.0669   8.8168461588e+01   3.0247534614e+00    0.1697766    0.1131428 -22.48 0.0007582571    1.543    0.352
        92 -10.1425    227.7069    171.3351   9.0099507301e+01   5.6500863570e+00    0.2061395    0.1451867 -37.58  0.001021577    1.711    0.416
        93  -9.9971    231.3718    159.7446   8.7261627168e+01   6.3957762586e+00    0.1855413    0.1209893 -25.96  0.000543471    1.585    0.369
        94 -11.4055    237.3494    169.1747   8.8104002233e+01   4.1912564827e+00    0.3505806    0.1956983 -36.47   0.00157131    2.073    0.518
        95 -10.4312    233.8779    164.2723   8.7732212879e+01   5.3887924323e+00    0.3205796    0.1590035 -41.60  0.001202993    2.608    0.617
        96 -11.1924    246.1590    169.2815   8.6710114416e+01   2.6403870403e+00    0.2749047    0.2203753 -27.78  0.001620085    1.445    0.308
        97 -10.3157    205.1656    169.4663   9.3629628620e+01   9.9993807594e+00    0.2335943    0.1678558 -52.79  0.001302091    1.963    0.491
        98 -10.8312    218.5791    168.1818   9.1051580212e+01   7.6927683057e+00    0.2802139    0.2302102 -28.05  0.001299157    1.367    0.269
        99 -10.1016    229.2527    166.0199   8.8835418159e+01   6.0146749700e+00    0.1769696    0.1506374   0.36 0.0009962379    1.132    0.116
       100 -10.5936    233.2621    153.9193   8.5783159588e+01   6.7662905032e+00    0.2746217    0.2141559 -37.76  0.001276732    1.534    0.348
       101 -10.4617    240.0135    164.2884   8.6734272302e+01   4.2864852246e+00    0.2171495    0.2018268 -18.59  0.000961086    1.346    0.257
       102 -10.8907    237.6876    158.8966   8.6053966304e+01   5.3425180235e+00    0.3286351    0.2320816 -45.75  0.001357177    1.959    0.490
       103 -10.4276    199.4736    164.6318   9.3748662941e+01   1.1726670979e+01    0.2415138    0.1282323 -35.01  0.000880693    2.094    0.523
       104  -9.7133    191.4769    165.5027   9.5370071103e+01   1.3113517556e+01    0.1311326    0.1136081  32.72 -2.326469e-05    1.013    0.013
       105 -10.8107    212.9137    162.8352   9.1015117923e+01   9.4377858594e+00    0.3349974    0.1902761 -31.99  0.001732926    1.910    0.476
       106 -10.3068    246.9564    162.9499   8.5363145824e+01   3.2119759991e+00    0.2126744    0.1776365 -28.48  0.001186407    1.420    0.296
       107 -11.0884    245.8703    157.7618   8.4511332381e+01   3.9990638753e+00    0.3573664    0.2065998 -29.86  0.001307996    1.780    0.438
       108 -10.8066    241.8352    153.5545   8.4310005045e+01   5.2251664104e+00    0.3056481    0.2261035 -38.53  0.001121193    1.642    0.391
       109 -11.2941    243.9707    149.0762   8.3051075620e+01   5.3694728557e+00    0.3738307    0.2434665 -28.75  0.001516361    1.563    0.360
       110 -11.1218    205.4784    161.3734   9.2049154575e+01   1.1040826302e+01    0.3263141    0.2338954 -33.43  0.001403466    1.538    0.350
       111 -10.1212    221.2928    161.6595   8.9337381749e+01   8.0228471587e+00    0.2132322    0.1516878 -38.56 0.0008941762    1.655    0.396
       112 -10.7057    226.6251    157.3596   8.7583963781e+01   7.5750359744e+00    0.3773975    0.1397471 -33.58  0.001588951    2.826    0.646
       113  -9.9562    222.2818    156.8012   8.8210974210e+01   8.4634812820e+00    0.2333873    0.1051888 -38.67 0.0007935047    2.507    0.601
       114  -9.9766    196.7573    156.9923   9.2782331179e+01   1.3334856068e+01    0.1656025    0.1121318 -32.69 0.0007691142    1.615    0.381
       115  -9.5078    216.2641    156.6168   8.9213490250e+01   9.6303685611e+00    0.1197863    0.1040829 -67.17 0.0006982636    1.687    0.407
       116  -9.7561    187.5183    155.4883   9.4211550828e+01   1.5353884818e+01    0.2299224    0.1275017 -24.07  0.001036421    2.383    0.580
       117 -10.0057    224.4369    248.6954   1.0265721119e+02  -1.7726612721e+00    0.1413893   0.09837899 -30.61 0.0008571394    1.941    0.485
       118 -12.2088    245.8133    100.6326   7.1862936568e+01   1.1109669854e+01     1.604862    0.4141317 -43.22  0.003949454    6.972    0.857
       119 -10.1879    218.7539    248.8316   1.0352505262e+02  -9.7235454740e-01    0.1827592    0.1127971  53.99  0.001099622    2.030    0.507
       120 -13.3519    241.1910    116.7471   7.6395008458e+01   9.9739903245e+00     2.423205    0.4356709 -28.48  0.006360634    5.837    0.829
       121 -10.4427    210.5063    247.9914   1.0466502368e+02   2.9229931100e-01    0.2045711    0.1153299  48.12  0.001374094    1.626    0.385
       122 -11.3371    176.2284    247.0706   1.0983484831e+02   5.4068823189e+00    0.2232618    0.2076383 -71.59  0.001958553    1.547    0.354
       123  -9.8827    232.7922    247.5769   1.0127100271e+02  -2.8630630171e+00    0.1403763   0.07599118  45.00 0.0009354342    1.632    0.387
       124 -10.3707    157.3613    153.1391   9.9675647202e+01   2.1563800627e+01    0.1845268      0.12465 -58.08 0.0009486147    1.801    0.445
       125 -10.5021    228.3840    151.1746   8.6038123424e+01   8.0321300033e+00    0.3726382    0.1590786 -24.60  0.001578811    2.661    0.624
       126  -9.8978    221.1623    152.1917   8.7474813790e+01   9.2801046091e+00    0.1633945    0.1616581  86.28 0.0008345937    1.338    0.253
       127  -9.7786    211.5800    151.7633   8.9061960302e+01   1.1192355426e+01    0.1736162    0.1240499 -41.51 0.0008923902    1.638    0.390
       128  -9.3757    202.2794    151.6389   9.0709097676e+01   1.3030811238e+01    0.1247315    0.1073363 -78.38 0.0005145855    1.670    0.401
       129  -9.4662    196.4703    150.4854   9.1544761914e+01   1.4345057568e+01    0.1356237    0.1197585  27.29 9.688214e-05    1.003    0.003
       130 -11.7229    235.2115    147.1315   8.4066718227e+01   7.2483666702e+00    0.4242248     0.310839 -34.08  0.001642914    1.507    0.337
       131 -10.1968    208.5308    149.5053   8.9145243826e+01   1.2104749028e+01    0.1357419    0.1175061  22.23 0.0001267007    1.019    0.019
       132  -9.5782    172.3235    148.6943   9.5822031717e+01   1.9407496137e+01    0.1325601    0.1063816  80.35 0.0004284292    1.642    0.391
       133 -10.4693    223.4870    146.6671   8.5936995020e+01   9.5626961754e+00    0.2426391    0.2221907 -33.53  0.001142397    1.307    0.235
       134 -10.0460    207.5513    144.9829   8.8385053348e+01   1.2941827527e+01    0.1993865    0.1308789 -30.76  0.001032337    1.605    0.377
       135  -9.4047    200.3214    145.6358   8.9839576417e+01   1.4294970034e+01    0.1317249    0.1094846 -82.62 0.0007040156    1.783    0.439
       136 -10.7773    163.4635    144.0033   9.6675240620e+01   2.1943285927e+01    0.1972805    0.1364059 -42.91 0.0006801283    1.574    0.365
       137 -10.6519    230.0129    141.0876   8.3653234473e+01   9.0251767973e+00    0.3076426    0.1788073 -35.86   0.00143604    1.833    0.455
       138  -9.6962    182.2883    142.6418   9.2638075218e+01   1.8396401115e+01    0.1331095    0.1097346 -84.06 0.0004207246    1.683    0.406
       139 -10.5548    233.5783    129.2620   8.0473740348e+01   9.8740231469e+00    0.3188438    0.1209593 -32.67  0.001277988    2.576    0.612
       140 -10.4998    238.5535    140.4454   8.2108908127e+01   7.4521933889e+00     0.243782    0.2282552 -24.93 0.0008059346    1.290    0.225
       141 -11.5317    234.7570    135.6817   8.1699065699e+01   8.7992151494e+00    0.5499058    0.2537311 -35.68  0.002003339    2.238    0.553
       142 -10.7503    224.1666    140.0712   8.4423666139e+01   1.0311542254e+01    0.2975172    0.1865488 -27.47  0.001028007    1.620    0.383
       143 -10.2184    166.3120    140.6497   9.5416042393e+01   2.1950228575e+01    0.1379389    0.1091388  88.63 0.0007045667    1.721    0.419
       144 -11.0341    219.0834    137.9340   8.4838249801e+01   1.1619556388e+01    0.3122713    0.1965425 -27.56  0.001592658    1.625    0.385
       145 -10.1375    208.3999    137.7432   8.6689611445e+01   1.3815008768e+01    0.2546374    0.1265261 -37.89  0.001128017    2.137    0.532
       146  -9.6123    192.7589    137.0104   8.9428949630e+01   1.7142619883e+01    0.1774024    0.1169968 -34.07 0.0008824378    1.605    0.377
       147 -10.0553    198.6198    136.2233   8.8154354650e+01   1.6052077695e+01     0.188775    0.1297347 -20.53 0.0009479402    1.608    0.378
       148  -9.7498    187.6386    135.8397   9.0157621246e+01   1.8386624403e+01    0.1921148    0.1281514 -46.44 0.0009444169    1.715    0.417
       149 -10.2344    163.0000    135.9415   9.5123142292e+01   2.3430953300e+01    0.2199146   0.08018744 -42.19 0.0008019828    2.939    0.660
       150 -10.2545    225.3504    133.6113   8.2814864323e+01   1.0948762612e+01    0.2590741    0.1629628 -24.67  0.001117685    1.603    0.376
       151 -10.1434    220.9433    128.9560   8.2530479390e+01   1.2490107442e+01    0.2061817    0.1729088 -64.95  0.001080172    1.678    0.404
       152  -9.6169    186.3600    129.1464   8.8931940131e+01   1.9729601861e+01    0.1975491    0.1287598 -46.86 0.0008363882    1.747    0.428
       153 -10.4555    227.6991    125.1041   8.0508729679e+01   1.1629120699e+01    0.2649812    0.2004853 -29.93  0.001109923    1.340    0.254
       154 -10.1695    199.9595    126.2075   8.5669416213e+01   1.7303142742e+01    0.1967457    0.1548857 -53.80 0.0007206594    1.573    0.364
       155 -10.7167    179.8855    124.3237   8.9120036373e+01   2.1901750436e+01    0.3679483    0.2086863 -36.19  0.001658451    1.852    0.460
       156 -10.5010    234.9957    123.4667   7.8931877459e+01   1.0354444912e+01    0.2163728      0.16846 -19.66 0.0007381486    1.231    0.188
       157 -10.7271    220.7316    121.6089   8.0885676762e+01   1.3568164745e+01    0.4099379    0.1604287 -46.26   0.00137282    3.830    0.739
       158  -9.9446    212.6007    122.2308   8.2450344475e+01   1.5203551012e+01    0.2022827    0.1306829 -17.12 0.0009597801    1.698    0.411
       159 -10.8745    230.4784    114.7811   7.7649002763e+01   1.2460896677e+01    0.4096704     0.104741 -36.16  0.001316837    3.719    0.731
       160  -9.2090    238.2927    245.6126   1.0019919236e+02  -3.4766104192e+00   0.08761598   0.07540528  51.93 0.0003460537    1.767    0.434
       161 -12.4847    229.0319    104.9219   7.5510713142e+01   1.4127676876e+01    0.6480386    0.3151853 -26.43  0.002755963    2.032    0.508
       162  -9.6154    160.6740    108.3493   8.9326321099e+01   2.8854360959e+01    0.1505053    0.1170409 -82.00  0.000704902    1.755    0.430
       163  -9.0696    218.6709    109.6759   7.8399546912e+01   1.5718268475e+01    0.1521396    0.1034635  17.02 0.0007049826    1.698    0.411
       164  -9.9356    222.3932    104.7552   7.6562173840e+01   1.5605178601e+01    0.2730458    0.1265327 -34.08  0.001121565    2.092    0.522
       165  -9.6223    205.6770    105.3382   7.9611940562e+01   1.9253332840e+01    0.1453804    0.1155851 -68.43 0.0007050854    1.718    0.418
       166 -10.1189    166.7006    100.4719   8.6029132604e+01   2.8928812260e+01    0.2702296    0.1341452 -37.41  0.001076097    2.051    0.512
       167 -10.5719    212.7160     96.4554   7.6111776589e+01   1.8986431939e+01    0.4194619    0.2317489 -54.50  0.001608228    2.754    0.637
       168 -10.5178    210.6207     91.8073   7.5265584850e+01   2.0158762753e+01    0.3517222    0.2166194 -52.11  0.001509586    2.076    0.518
       169 -10.3971    236.5025     90.0219   7.0627797992e+01   1.4516961975e+01    0.3216282    0.2239716 -13.61  0.001289821    1.432    0.302
       170 -11.9345    235.0294     95.0363   7.2113598552e+01   1.4167938543e+01    0.4052488    0.2715411 -41.82  0.001277494    1.597    0.374
       171 -12.0152    231.1898     90.8633   7.1653318841e+01   1.5587190212e+01    0.3878011    0.2743264 -35.78  0.001100018    1.402    0.287
       172 -10.5716    189.0046     93.1316   7.9559700131e+01   2.5019568047e+01    0.3305003    0.2099419 -38.68  0.001365374    1.592    0.372
       173 -11.8368    225.9996     87.5744   7.1620004624e+01   1.7216087002e+01    0.3967868    0.2392406 -22.09  0.001371146    1.649    0.394
       174 -12.0801    225.1504     81.7032   7.0216798335e+01   1.8226716991e+01    0.6326562    0.4142703  82.62  0.002730379    2.369    0.578
       175 -10.7867    175.6982     88.0930   8.0826788031e+01   2.8991907413e+01    0.2857967    0.2272033 -40.97 0.0007800012    1.286    0.223
       176  -9.9726    188.3935     87.2248   7.8077296101e+01   2.6117149809e+01    0.2141288     0.135717 -42.18 0.0009427045    1.637    0.389
       177  -9.2375    218.0000     84.9647   7.2220391021e+01   1.9434342469e+01    0.2402663   0.08054187 -29.38 0.0007952222    2.893    0.654
       178 -10.2294    225.4379    243.9876   1.0189976071e+02  -1.5102946575e+00    0.1985407    0.1185244  47.44  0.001361195    1.638    0.390
       179 -10.3497    159.0918     81.7301   8.2552830081e+01   3.4001577520e+01     0.279482    0.2019083 -44.84  0.001316857    1.425    0.298
       180 -10.1363    203.2535     66.6753   6.9612346987e+01   2.5627294596e+01    0.3732328    0.1874872 -35.27  0.001305107    1.911    0.477
       181  -9.9507    206.5035     78.0646   7.2272185077e+01   2.3170376390e+01    0.2869735    0.1357669 -34.40  0.001102748    2.026    0.506
       182 -10.6776    206.1581     74.1506   7.1243091382e+01   2.3828182616e+01    0.3308588    0.2330154 -49.73   0.00104035    1.597    0.374
       183  -9.7046    214.6541     80.1963   7.1491786095e+01   2.0906512788e+01    0.2105927    0.1349947 -16.88 0.0009402128    1.659    0.397
       184  -9.8549    201.0162     78.0577   7.3219798525e+01   2.4500735660e+01    0.2755505    0.1351591 -48.31  0.001009948    2.521    0.603
       185 -10.5425    130.3760     78.2090   8.8305749956e+01   4.1106652324e+01    0.2156434    0.1339874 -49.87 0.0009057206    1.680    0.405
       186 -10.2078    203.3861     71.1629   7.0870915950e+01   2.4943462876e+01    0.2375494    0.1459845 -29.10 0.0008486055    1.587    0.370
       187 -10.1811    157.4780     75.9897   8.1230456996e+01   3.5388164013e+01     0.240174    0.1479308 -35.94  0.001038988    1.613    0.380
       188 -10.9159    205.6229    154.5414   9.0685296152e+01   1.1964278168e+01    0.2771811    0.2262791  16.78 0.0009522939    1.165    0.142
       189 -10.1781    163.2547     71.6558   7.8676753661e+01   3.4749814968e+01    0.3025083    0.1735267 -43.24  0.001254172    1.797    0.444
       190 -12.2762    223.2873     66.3908   6.6376099845e+01   2.0760613997e+01    0.5600677    0.2517327 -13.87  0.001903533    3.111    0.679
       191  -9.4640      2.0391     71.2311   1.2574728108e+02   5.9659151894e+01    0.1096597    0.0954404  15.35 0.0003190898    1.542    0.352
       192  -9.6632    187.5665     68.7825   7.2983797845e+01   2.9221668519e+01    0.2203069    0.1364894 -41.29 0.0009477696    1.647    0.393
       193  -9.2209    218.2808     68.6079   6.7744040243e+01   2.1667066180e+01    0.1561029    0.1068674 -54.53 0.0004425339    1.748    0.428
       194 -10.3974    193.5460     67.9668   7.1660810584e+01   2.7854538160e+01    0.2351949    0.1460299 -29.64  0.001025808    1.583    0.368
       195 -11.9470    242.9309    137.2460   8.0717501277e+01   7.0130554654e+00    0.9841909    0.2403946 -35.91  0.003318519    4.090    0.755
       196 -10.1463    163.5292     65.0193   7.6584322101e+01   3.5785180020e+01    0.2380404    0.1490876 -32.18  0.001030028    1.586    0.370
       197 -10.1464    111.6780     64.3546   8.9023771112e+01   4.7639560934e+01    0.1486626    0.1144217 -76.75 0.0007046568    1.758    0.431
       198 -10.7577    158.0419     62.1070   7.6838968841e+01   3.7607731670e+01    0.3500999    0.2125555 -39.05  0.001509282    1.637    0.389
       199 -10.3973    242.2374    242.5789   9.9208955541e+01  -3.7852456899e+00     0.187747    0.1622108  53.68  0.001526474    1.837    0.456
       200 -10.7939    192.5358     55.2641   6.8053229240e+01   2.9962580601e+01    0.2956715    0.1373994 -33.40  0.001130342    2.052    0.513
       201  -9.3726    182.4981     62.4863   7.2040814553e+01   3.1452600136e+01    0.1508136     0.148068 -35.22 0.0001808508    1.056    0.053
       202 -11.0926    153.1497     53.1348   7.4981958243e+01   4.0258518982e+01    0.2160294    0.1815208 -58.58 0.0007272147    1.344    0.256
       203 -10.4771    169.3811     44.6805   6.8859383870e+01   3.7429764010e+01     0.299072    0.1356029 -33.12   0.00112228    2.123    0.529
       204 -10.1252    191.9573     40.7220   6.3658582349e+01   3.2090826677e+01    0.2831485    0.1773972 -40.77  0.000963106    1.612    0.380
       205 -10.5230    153.4020     59.7389   7.7094090880e+01   3.9128555329e+01     0.297564    0.1387642 -37.54  0.001125746    2.092    0.522
       206  -9.3896    179.3173     37.6641   6.4756821429e+01   3.5801712767e+01    0.1598992    0.1133071 -60.42 0.0004769286    1.698    0.411
       207 -11.4532    169.7156     31.2491   6.4270506966e+01   3.9152901564e+01     0.486987    0.2066769  -8.49  0.001376436    4.378    0.772
       208  -9.5162    125.5148     30.5020   7.3222962299e+01   5.0369306605e+01    0.1463567    0.1380826   2.78  0.000810486    1.010    0.010
       209  -9.8817    197.7751     28.0120   5.8805751678e+01   3.2128574429e+01    0.1982937    0.1201966 -24.03 0.0007598848    1.640    0.390
       210  -9.8647    166.5002     27.9983   6.3714769148e+01   4.0406147829e+01    0.2243771     0.106847 -47.28 0.0008101207    2.500    0.600
       211 -10.3309    202.0373    242.5502   1.0528896881e+02   2.0485907845e+00    0.1616665    0.1505017 -88.98  0.001359378    1.694    0.410
       212 -11.5122    208.3069     21.8316   5.5525241857e+01   3.0060222660e+01    0.3898398    0.2233624   2.18  0.001580897    2.347    0.574
       213 -10.2622    155.7137     16.3541   6.1445099174e+01   4.4610327233e+01    0.2830381    0.1642338 -33.37   0.00124061    1.726    0.420
       214 -10.3102    140.5146     16.9735   6.4555024696e+01   4.8460070116e+01    0.2268678    0.1430645 -21.33   0.00103514    1.598    0.374
       215  -9.6326    248.5515    240.5262   9.7998577923e+01  -4.5055432108e+00    0.1047733   0.07308199  26.42 0.0003271143    1.034    0.033
       216  -9.7777    220.1524    240.4329   1.0223432609e+02  -4.2578547420e-01    0.1442605   0.07920611  46.81 0.0008909152    1.649    0.394
