#   1 NUMBER                 Running object number                                     
#   2 MAG_AUTO               Kron-like elliptical aperture magnitude                    [mag]
#   3 X_IMAGE                Object position along x                                    [pixel]
#   4 Y_IMAGE                Object position along y                                    [pixel]
#   5 X_WORLD                Barycenter position along world x axis                     [deg]
#   6 Y_WORLD                Barycenter position along world y axis                     [deg]
#   7 A_WORLD                Profile RMS along major axis (world units)                 [deg]
#   8 B_WORLD                Profile RMS along minor axis (world units)                 [deg]
#   9 THETA_WORLD            Position angle (CCW/world-x)                               [deg]
#  10 FWHM_WORLD             FWHM assuming a gaussian core                              [deg]
#  11 ELONGATION             A_IMAGE/B_IMAGE                                           
#  12 ELLIPTICITY            1 - B_IMAGE/A_IMAGE                                       
         1 -10.4369     33.0633      1.9408   3.0481435735e+01   7.3101365754e+01    0.2451918    0.1698572  46.91   0.00127707    1.177    0.150
         2 -11.7939      7.6812     30.1187   6.2975690714e+01   7.2760460302e+01     1.022301    0.3210037 -61.29  0.003678248    4.193    0.761
         3 -11.8073     23.9948      2.5894   3.6010464253e+01   7.4770486137e+01     1.139798    0.4407339  41.84  0.005240493    2.171    0.539
         4 -12.8624      3.2767     12.5025   5.8299978445e+01   7.6445452724e+01      1.01926    0.3540601 -49.40  0.004531842    2.996    0.666
         5 -12.3670     14.4494     17.7684   5.1850275651e+01   7.4177785799e+01    0.4566833    0.3456672  28.66  0.001325654    1.170    0.145
         6 -11.5448    111.8770     26.6592   1.7865145685e+01   5.2644247094e+01    0.4093702    0.3581211  18.31  0.001481266    1.534    0.348
         7 -11.9426    249.3635     21.0145   3.7666909588e+00   2.6287081446e+01    0.3352512    0.1336605 -43.20 0.0003397347    1.738    0.425
         8 -12.7941     28.4763     20.0858   4.3512881886e+01   7.1634631390e+01    0.3279239    0.2529381  30.35 0.0003805959    1.118    0.105
         9 -10.7482     81.7824     19.0882   2.1585152597e+01   6.0560442327e+01    0.3763981    0.2471722 -31.63  0.001437843    1.777    0.437
        10 -11.1033     68.7519     20.7895   2.5966785509e+01   6.3352113072e+01    0.3473411    0.2489368 -55.59  0.001945841    1.672    0.402
        11 -12.0564    168.9055     14.5325   7.4154085469e+00   4.1300593096e+01    0.4830494    0.2225337 -74.01  0.002460524    2.231    0.552
        12 -12.0350    137.1267     14.9273   1.0624468474e+01   4.8129737046e+01     0.483463    0.2544743 -59.75 0.0003315749    1.860    0.462
        13 -11.4939    139.7394     11.0167   9.2444767473e+00   4.7939382392e+01    0.3245154    0.2148531  49.24  0.001856177    1.859    0.462
        14 -11.8018    145.4116     12.0710   8.9421229200e+00   4.6574604378e+01    0.3884311    0.2575321 -25.34  0.002340755    1.885    0.469
        15 -10.6152    145.0519      8.0008   7.8877470661e+00   4.7055041457e+01    0.2522752    0.1475834 -74.41 0.0005284005    1.554    0.357
        16 -11.0856    132.1638     16.4069   1.1644386855e+01   4.9098573883e+01    0.2897817    0.1654732 -61.44 7.462934e-05    1.724    0.420
        17 -12.1690    235.3856      7.9624   2.1392889958e+00   2.9800281581e+01    0.4449884    0.2673832 -19.36  0.002837589    2.883    0.653
        18 -11.9020    240.3463     14.6159   3.0837685042e+00   2.8337069370e+01    0.2628031    0.1220678 -66.58  0.001765445    1.780    0.438
        19 -12.9328    243.5158      5.2643   1.3492384464e+00   2.8791292600e+01    0.6424714    0.3216655 -44.77  0.004725257    1.449    0.310
        20 -11.7075    249.5546      9.8114   1.8814469433e+00   2.7417289879e+01    0.3344687    0.1251564 -41.29  0.001943917    1.884    0.469
        21 -10.8795    176.9329     12.7844   6.3819235709e+00   3.9847252455e+01    0.3640155    0.2112713  57.31  0.001730383    2.081    0.519
        22 -10.3086    124.5234     13.9903   1.1915164889e+01   5.1096622207e+01    0.3471395    0.1974539 -84.71  0.001204827    1.763    0.433
        23 -11.7940     82.1974      6.9209   1.6599924593e+01   6.1704278698e+01    0.2133384    0.1818262  68.10 0.0002612602    1.052    0.050
        24 -12.4554     76.0301     10.4507   1.9496391960e+01   6.2810219100e+01    0.4730322    0.2998296  39.86  0.001002047    1.732    0.423
        25 -13.1929     65.4866     11.6570   2.2928670146e+01   6.5113915090e+01    0.4873997    0.2605089  58.19 0.0005167518    1.541    0.351
        26 -11.0842     54.0195     13.8261   2.7835216290e+01   6.7427181203e+01    0.3428788    0.2554847  40.91  0.001411667    1.246    0.197
        27 -10.4110     26.8199     13.1925   4.0735621525e+01   7.2914986515e+01    0.2412014    0.1564989 -15.86 0.0008787781    1.985    0.496
        28  -9.5635    100.9810     10.1586   1.4211197699e+01   5.6973043253e+01    0.2209695    0.1228861 -82.56 0.0004623975    2.048    0.512
        29  -9.6877     90.5109      9.5551   1.5915484446e+01   5.9500479393e+01    0.2049296    0.1027859 -43.83 0.0009288306    2.172    0.540
        30 -11.6431    154.9117      8.6157   7.1491123783e+00   4.4849136193e+01    0.3312742    0.1872512  85.31 0.0009310274    1.547    0.354
        31  -9.3971    117.4009      9.5110   1.1487001511e+01   5.3186592961e+01    0.4383283   0.05603722  64.68  0.001390056    4.509    0.778
        32  -9.7255     96.4728      6.4793   1.3667392258e+01   5.8379380473e+01    0.1966788    0.1783318  54.90 0.0001359248    1.231    0.188
        33 -10.4579     97.4878      3.4487   1.2395086195e+01   5.8407673719e+01      0.25954    0.1809008  85.89 0.0006628131    1.257    0.204
        34 -10.1844     35.6165      6.3761   3.1846944770e+01   7.2109713108e+01    0.3426921    0.1510216  36.26  0.001517299    2.448    0.592
        35 -10.3042     68.2389      5.4130   1.9307559875e+01   6.5095424796e+01    0.2093395    0.1853093  68.25 0.0004043267    1.070    0.065
        36 -10.4866     58.4969      5.3589   2.2119593168e+01   6.7321314895e+01    0.2790962    0.1833711  74.43   0.00143584    1.521    0.343
        37  -9.6271    222.9254      5.1710   2.1750404558e+00   3.2124183039e+01    0.1585351   0.09255292 -59.20 0.0008084808    1.220    0.180
        38 -11.4236    179.5965      3.5837   4.1301224013e+00   4.0231868067e+01     0.332557    0.1967514  67.92 0.0007443772    1.756    0.430
        39 -11.1230    164.4449      4.5660   5.3855886697e+00   4.3222108472e+01    0.1974721    0.1498858 -67.12  0.000161811    1.070    0.065
        40 -10.0421    159.6034      3.7458   5.5490520721e+00   4.4316449574e+01    0.1512277   0.08795916 -49.06 0.0003378934    1.510    0.338
        41 -12.4907     10.2462     10.7574   5.1216187186e+01   7.5873407285e+01    0.6482325    0.4781747  14.52   0.00407418    1.196    0.164
        42  -9.4374    126.3741      2.7556   8.3141827569e+00   5.1737484799e+01    0.1400442    0.1181618 -11.18   0.00054241    1.627    0.385
        43  -9.4549    114.0308      8.7657   1.1714870673e+01   5.4042310198e+01    0.2140453    0.1288657  77.55 0.0003566524    1.415    0.293
        44  -9.9849     91.0805      2.0700   1.2963693669e+01   6.0036861196e+01    0.1881129    0.1523316  72.57  0.000470985    1.047    0.045
        45 -10.2082    230.1883      1.4008   1.1910610791e+00   3.1288323505e+01    0.1571102    0.0803578  81.04 0.0007916563    1.950    0.487
        46  -9.6818    120.9420      1.4421   8.5223608424e+00   5.3098796510e+01    0.1897534   0.09951999  75.53  0.001023631    1.587    0.370
        47 -10.3222     73.2689      1.4141   1.6275753044e+01   6.4279035674e+01     0.284658    0.1060796  69.30  0.001222087    2.314    0.568
        48  -9.4204     28.1625    205.2049   8.3202993174e+01   2.6201983976e+01     0.192647    0.1402298  50.79 0.0003655147    1.297    0.229
        49 -11.5569    248.2669    247.9792   4.0223526733e+01  -3.7030143272e+00    0.4296697    0.1674761 -32.62  0.002774517    1.869    0.465
        50 -11.5191    225.0269    247.4340   4.3600339252e+01  -1.9819901411e+00    0.5121364    0.1851362 -31.82  0.002893788    2.253    0.556
        51 -11.6677     21.8521    248.8494   8.7482057096e+01   1.6867314423e+01    0.5861338    0.1882683  32.49  0.002594121    2.209    0.547
        52 -10.6959     11.8192    248.9243   8.9914441048e+01   1.7661720913e+01    0.4160102    0.1310679  41.30  0.001842855    2.336    0.572
        53  -9.6804      6.8175    249.1940   9.1123606313e+01   1.7992519397e+01    0.1942706    0.1323759  46.58 0.0005368863    1.226    0.184
        54  -9.1650    174.3212    202.2880   4.5791442573e+01   9.6748628926e+00     0.127275   0.08223104 -14.06 0.0003496353    1.600    0.375
        55  -9.9683    238.3083    200.9338   3.4975437036e+01   3.2961713005e+00    0.1521549    0.1003285 -31.50  0.000489914    1.124    0.110
        56  -9.3143    186.3154    200.3632   4.3231435533e+01   8.6387618156e+00    0.1303727   0.07784978 -18.15 0.0007040947    1.764    0.433
        57  -9.3808    120.4437    200.0661   5.7252962819e+01   1.6780120276e+01    0.1932155    0.1311693 -49.81  0.000551679    1.513    0.339
        58 -10.4789     21.9431    198.5369   8.4531200884e+01   2.8396765414e+01    0.4170114    0.2612846 -18.34  0.001746246    2.017    0.504
        59  -9.8498    134.9585    196.4822   5.3229432096e+01   1.5637603867e+01    0.2321422    0.1771574 -42.49 0.0005454344    1.291    0.225
        60  -9.8545    177.5006    197.5839   4.4428280666e+01   1.0128419484e+01     0.254178    0.1089148 -46.02  0.001206755    2.153    0.535
        61  -9.3590    236.6006    196.8012   3.4590083712e+01   4.0403377692e+00    0.1465803   0.08181615 -44.52 0.0005852886    1.645    0.392
        62  -9.2010     50.4995    197.4993   7.6021457698e+01   2.5919285577e+01    0.1433111    0.1309883  34.32 -0.0003867076    1.016    0.016
        63  -9.4262     40.3735    196.8125   7.8943443068e+01   2.7133397732e+01    0.1910411    0.1249096 -57.40 0.0001999421    1.611    0.379
        64 -11.6969     15.4625    192.2570   8.6030282283e+01   3.0516395943e+01    0.4408879    0.3562136  -5.19  0.001642107    1.368    0.269
        65  -9.2205    209.6237    193.1995   3.8087933773e+01   7.2602378600e+00    0.1545825   0.08512429 -33.30 0.0002048833    1.495    0.331
        66 -10.5116    187.3861    189.7863   4.1323293082e+01   1.0316609587e+01    0.2923239    0.1310417 -26.44  0.001247205    2.912    0.657
        67  -9.1241    149.6873    192.6578   4.9294724132e+01   1.4482405064e+01     0.140687   0.09168389 -17.55 0.0007046615    1.702    0.413
        68  -9.2970    223.5089    191.4765   3.5662514179e+01   6.0884600963e+00     0.111921   0.08488689 -26.57 0.0008101047    1.016    0.016
        69 -11.0000    244.3947    188.8852   3.2316799986e+01   4.4462923087e+00    0.2566719    0.1593149 -55.99   0.00160808    2.410    0.585
        70 -11.5218     15.5180    182.1380   8.5322413275e+01   3.3130932368e+01    0.5225599    0.2703393  54.92  0.002145636    1.953    0.488
        71  -9.9322     62.0668    184.6570   7.1101007787e+01   2.7830357471e+01    0.2696454    0.2116002 -51.56 0.0008547039    1.330    0.248
        72 -10.7407     23.8241    180.8181   8.2603666835e+01   3.2793040400e+01    0.4524311    0.1757498  43.91  0.001160493    2.420    0.587
        73 -11.3100     28.5474    180.4904   8.1078463457e+01   3.2459524337e+01    0.5252165    0.2576466  33.39  0.001290282    1.822    0.451
        74  -9.4304    183.3953    180.8113   4.0543473193e+01   1.2364815832e+01     0.182402   0.09795739 -35.42 0.0005728623    1.674    0.402
        75  -9.1496      1.4757    180.4783   8.9601764256e+01   3.4566667172e+01    0.1357195    0.1279012  60.77 0.0008096335    1.027    0.027
        76  -9.5258    175.4937    178.9817   4.1704372724e+01   1.3701616542e+01    0.1888964    0.0905511 -28.45 0.0008098484    2.534    0.605
        77 -10.2193    101.0103    176.0340   5.8499887898e+01   2.4794784042e+01    0.2057491    0.1926783   0.72            0    1.019    0.019
        78  -9.7591    216.9099    173.2228   3.3700815139e+01   9.6191810563e+00    0.2127868    0.1305464 -50.53  0.001290861    1.699    0.411
        79 -10.3239     17.9420    173.1549   8.3866006512e+01   3.5318152527e+01    0.2340647    0.1757254  52.06 0.0007670594    1.287    0.223
        80  -8.8531    155.2873    172.3109   4.4594057562e+01   1.7718441410e+01    0.1359001    0.0953284 -17.74    0.0002312    1.578    0.366
        81  -9.9694    176.6646    168.7007   3.9676966481e+01   1.5423910413e+01    0.3288692    0.1666638 -22.26  0.001326876    3.151    0.683
        82 -10.3273      5.2760    167.4014   8.7614472507e+01   3.7789567481e+01    0.2071699    0.1183895  30.56 0.0009541282    1.640    0.390
        83  -9.1327     67.3765    165.6820   6.6829151265e+01   3.2025453469e+01    0.1662275    0.1069553  56.39 0.0007028603    1.808    0.447
        84  -9.2427     56.3510    162.6926   6.9960116202e+01   3.4213051899e+01    0.1640872    0.1067575  55.39 0.0007043078    1.711    0.416
        85 -11.9734     17.5717    159.6859   8.2841195028e+01   3.8993313168e+01    0.4390023    0.3589143 -42.01  0.002156304    1.294    0.227
        86  -8.8344    117.2805    161.7058   5.1608072462e+01   2.5678164620e+01    0.1381793    0.1144044  72.16 0.0001793983    1.534    0.348
        87  -9.3174     55.2851    159.3524   6.9833073541e+01   3.5231196113e+01    0.1598462    0.1098343 -32.56 0.0006675037    1.662    0.398
        88  -9.9603      1.9990    157.4309   8.8069713089e+01   4.0696035110e+01    0.2090394    0.1369297  14.69 0.0006004408    1.566    0.362
        89 -10.4260    250.5606    155.7183   2.6349140242e+01   8.5616860271e+00    0.2145393   0.07621155 -38.41   0.00114227    2.114    0.527
        90  -9.4330    216.3768    155.1359   3.0712718446e+01   1.2561717763e+01    0.1604352    0.0900437 -48.32 0.0003407731    1.620    0.383
        91  -9.3786    158.4092    153.7787   4.0499149256e+01   2.0914741102e+01    0.1924108    0.1150541 -37.05 0.0003497593    1.614    0.380
        92 -10.0290     11.4389    153.3354   8.4441508115e+01   4.1198840795e+01    0.4548624    0.1745611  40.18  0.001699399    2.451    0.592
        93 -12.1036     13.7513    147.9631   8.3123111888e+01   4.2512920441e+01    0.3008631    0.2569883  88.81 0.0002933484    1.160    0.138
        94  -8.7126    106.3003    152.3959   5.2806652704e+01   2.9576503203e+01    0.1605732    0.1106177 -22.70 0.0007004841    1.812    0.448
        95  -9.4869    222.8198    151.6017   2.9196515780e+01   1.2327385232e+01    0.1319644    0.1095992  59.68 0.0009424452    1.715    0.417
        96  -8.9154     26.7060    151.3419   7.8756950635e+01   4.0505477077e+01    0.1600389    0.1033356  57.87 0.0007029713    1.658    0.397
        97 -10.8215    233.8975    146.7227   2.6905553852e+01   1.1742550750e+01    0.1969256    0.1166714 -35.29 0.0004932414    1.350    0.260
        98  -9.4666     23.9329    147.0000   7.9275838940e+01   4.1953576590e+01    0.2458702   0.08340276  18.11 0.0008043311    2.956    0.662
        99 -10.3549    217.4417    144.9353   2.8780732806e+01   1.4055471379e+01    0.2631193    0.1388569  24.41  0.001305416    3.275    0.695
       100 -10.5834      5.7570    145.3759   8.5840075135e+01   4.3775179714e+01    0.4872891    0.1327114  20.97  0.001607134    3.256    0.693
       101 -10.9879     17.2182    143.0812   8.1348164255e+01   4.3600460277e+01    0.3081112       0.1904  56.95   0.00127739    1.728    0.421
       102 -11.2805    239.7212    140.3150   2.5111622311e+01   1.2008385136e+01    0.2236234    0.1453941 -38.24 0.0005239776    1.162    0.140
       103  -9.3315    189.1408    140.1320   3.2190427191e+01   1.8783561267e+01    0.1649279    0.1353774 -57.88 0.0004910117    1.281    0.219
       104  -9.8205    235.4691    137.9702   2.5226969754e+01   1.2867567398e+01    0.1744717   0.08448175 -41.69 0.0004922011    1.566    0.361
       105 -12.5453     37.6308    135.3596   7.2578257344e+01   4.3813028401e+01    0.2893158    0.2746606  29.97 0.0003330305    1.043    0.042
       106 -10.9381     36.4987    131.4839   7.2419559405e+01   4.5000466784e+01    0.3289327    0.2681986 -67.01  0.001030497    1.229    0.186
       107 -11.4656    241.5600    134.2593   2.3877678416e+01   1.2679014299e+01    0.2443167    0.1434426 -39.11 0.0007568297    1.285    0.222
       108 -10.8773     16.4352    131.3477   8.0347763792e+01   4.6920151642e+01    0.3954263    0.2717963  16.97  0.001504863    1.475    0.322
       109  -9.6477     47.3946    133.6732   6.8598991676e+01   4.3127641244e+01    0.2520986    0.1803064  -6.99 0.0008324871    1.661    0.398
       110 -10.4229     53.1907    132.7705   6.6276464803e+01   4.2625354673e+01    0.3297135    0.2002317 -54.45 0.0003844697    1.627    0.385
       111 -10.1908     20.1849    134.3929   7.9225069912e+01   4.5771824677e+01    0.3033345     0.171485  65.33  0.001103148    2.105    0.525
       112 -11.3961      4.8704    130.0872   8.4845810319e+01   4.8063336196e+01    0.2850531    0.2347982 -53.55 0.0003020896    1.186    0.157
       113 -10.2542    216.9924    129.2493   2.6037635015e+01   1.6604727337e+01    0.2055829    0.1356481 -41.63 0.0003774345    1.207    0.171
       114 -10.6114     73.5628    128.9797   5.8246169719e+01   4.0644212551e+01    0.3161698     0.278432 -60.55 0.0007223658    1.161    0.138
       115 -10.8573     24.5505    127.6244   7.6603927055e+01   4.7265527582e+01    0.3736633    0.2623188 -89.87  0.001561415    1.553    0.356
       116  -9.7083     59.7577    126.4544   6.2654106142e+01   4.3391717791e+01    0.2157449    0.1502428  12.26 0.0009488024    1.616    0.381
       117 -10.0413     82.8215    124.6366   5.4199877430e+01   4.0216894169e+01    0.2888134    0.2225683 -65.19 0.0008698437    1.384    0.278
       118 -11.3900     47.1697    124.0870   6.6984622922e+01   4.5740274402e+01    0.3174184    0.2358089  16.57  0.000462595    1.389    0.280
       119  -9.8881    229.4906    124.4921   2.3612294404e+01   1.5652368423e+01    0.1134849   0.08746232 -41.80 0.0001837609    1.013    0.012
       120 -11.2647      9.6392    121.5081   8.1995564824e+01   5.0138615790e+01    0.5477809    0.2671446  64.59  0.001281863    2.581    0.613
       121 -10.6574     68.3103    121.9198   5.8602689360e+01   4.3275717012e+01     0.217059     0.196269 -56.54 0.0006539113    1.124    0.110
       122 -10.0726     61.1838    121.3094   6.1080006532e+01   4.4525769711e+01    0.2591788    0.2018458 -47.15 0.0004774778    1.306    0.234
       123 -10.3151     56.1814    121.0974   6.2921948539e+01   4.5311507378e+01       0.3253    0.2934908  48.43  0.001551916    1.121    0.108
       124  -9.6766     35.4716    121.7514   7.1248024353e+01   4.7773306269e+01    0.2264956    0.1756362  12.99 0.0005821698    1.324    0.245
       125  -9.5753     25.2438    118.6184   7.4997422987e+01   4.9679878937e+01    0.2061981    0.1416684   3.44 0.0009455789    1.576    0.365
       126 -11.7693    248.7361    118.0266   2.0363481357e+01   1.4138842629e+01    0.2771999    0.1638948 -27.60  0.001784698    1.839    0.456
       127 -12.4471    247.7057    112.1891   1.9483380604e+01   1.5088794129e+01    0.4028358    0.3247234  25.36  0.003147622    1.836    0.455
       128  -9.6200     85.1811    118.1643   5.1963691866e+01   4.1391272425e+01    0.4138173    0.1516858 -41.36   0.00124155    3.566    0.720
       129  -9.7747      1.4625    117.9904   8.5094061351e+01   5.1595168176e+01    0.2391904     0.159696 -54.68 0.0007957903    1.415    0.293
       130 -10.1758      4.7835    115.1945   8.3366855815e+01   5.2180792871e+01    0.2820292    0.1549305 -29.25 0.0006332395    1.994    0.498
       131  -9.3690     73.4399    116.5962   5.5598705611e+01   4.3788400702e+01    0.2511875    0.1987108 -54.82 9.049715e-05    1.283    0.221
       132 -10.1274     70.6830    114.3339   5.6064562858e+01   4.4809184952e+01    0.3148935    0.2452717 -79.87 0.0009403161    1.506    0.336
       133 -10.6273     16.5571    115.3576   7.8249406152e+01   5.1328642286e+01     0.300947     0.251234   6.26 0.0007734649    1.226    0.184
       134  -8.7514    182.2973    115.2771   2.8396309384e+01   2.4212861849e+01    0.1176705   0.09639936 -11.88 0.0002562245    1.533    0.348
       135 -10.9543     55.2787    109.9440   6.0899129314e+01   4.8337894673e+01    0.3014537     0.250333 -41.92 0.0008426309    1.236    0.191
       136 -11.8124     12.3181    109.3186   7.9287662176e+01   5.3300475004e+01    0.4392493    0.3312501 -60.77  0.001330178    1.266    0.210
       137 -10.7190     44.3830    108.8641   6.5111759264e+01   5.0141534794e+01    0.3446375    0.2801775 -31.11  0.001476709    1.298    0.230
       138 -11.6159     31.0999    107.3352   7.0533573941e+01   5.2141304954e+01    0.5405619    0.3945253  83.21   0.00181118    1.634    0.388
       139 -11.1868     62.1144    107.2863   5.7615116576e+01   4.7960932970e+01    0.3480386    0.2013922 -41.93  0.001432766    1.888    0.470
       140 -10.4913     20.2593    108.2063   7.5533529989e+01   5.2969328873e+01    0.2704685    0.1902974   1.70   0.00129111    1.511    0.338
       141 -10.1665      3.3714    105.7433   8.2913267667e+01   5.4841288635e+01    0.3986219    0.2572454 -84.33  0.001905256    1.594    0.373
       142 -11.7155     75.0305    104.2577   5.2082069990e+01   4.6528259464e+01    0.3959237    0.2991447  67.60 0.0002919089    1.604    0.377
       143 -10.1775     76.5249     98.1986   4.9992718956e+01   4.7686882823e+01     0.392324    0.2368634 -32.64  0.001005247    2.153    0.535
       144  -9.3547    106.0000    103.2239   4.1943489402e+01   4.0906382162e+01    0.1985972    0.1846692  49.34            0    1.070    0.065
       145  -9.4945     42.4018    103.7627   6.4864522785e+01   5.1730456522e+01    0.2025285    0.1355125 -49.53 0.0004498509    1.490    0.329
       146  -9.8537     50.0633    103.4854   6.1555293039e+01   5.0750019202e+01    0.2314836    0.1451171  30.43 0.0004955288    1.545    0.353
       147 -12.1978    248.7747     99.3339   1.7195958344e+01   1.6735652424e+01    0.3090019    0.2160105 -46.41  0.002050356    1.041    0.039
       148  -9.4073     22.3150    102.3243   7.3596924504e+01   5.4364765642e+01    0.1595931    0.1020065 -33.43 0.0007042544    1.665    0.399
       149 -11.0828     62.3780     98.2359   5.5291327207e+01   5.0147328406e+01    0.3826024    0.2771257 -45.49 0.0008787355    1.426    0.299
       150  -9.6863     33.9478     98.2242   6.7423704750e+01   5.4218202321e+01    0.2867228    0.1732951 -47.23  0.001267725    1.646    0.393
       151  -9.4763     10.1817     99.1595   7.8813314754e+01   5.6195610104e+01    0.1892733    0.1595692  57.58 0.0002502101    1.288    0.224
       152 -10.1691     51.9603     97.2041   5.9265497408e+01   5.2050810171e+01    0.2906674    0.2173935 -28.17 0.0006586597    1.515    0.340
       153 -11.1061     15.4965     96.7963   7.5866025699e+01   5.6428067706e+01    0.3392277    0.2236108 -38.28  0.001202772    1.518    0.341
       154 -11.9357     57.6041     90.6944   5.5238391077e+01   5.2745160420e+01    0.4895346    0.3509562 -36.96 0.0008896696    1.526    0.345
       155 -10.6278      8.3337     93.6790   7.8877566654e+01   5.7779218711e+01    0.4510733    0.2132065  59.22  0.001670043    2.946    0.661
       156 -10.4584     14.6592     91.8811   7.5417189604e+01   5.7791178438e+01    0.3852603    0.1934343 -40.33  0.001510267    2.027    0.507
       157  -9.3585     31.5220     92.5367   6.7312083803e+01   5.5966730926e+01    0.1453596    0.1410613   7.11 9.239953e-06    1.025    0.025
       158 -10.3475     92.0042    101.3339   4.5632294697e+01   4.4058999529e+01    0.3068034    0.2613997  69.98  0.001309915    1.276    0.216
       159 -10.6169     35.2135     90.5650   6.5115795069e+01   5.6024612517e+01    0.2715332    0.2421781  75.29 0.0003003636    1.265    0.209
       160  -9.2488      1.3922     91.2199   8.2006863221e+01   5.8836371372e+01    0.1967131    0.1302554  88.09 0.0009458617    1.670    0.401
       161 -10.1668     49.0312     89.9741   5.8687973362e+01   5.4268071045e+01    0.2189791    0.2101034  16.89 0.0003009273    1.004    0.004
       162 -10.2433     22.5181     88.7645   7.0879137287e+01   5.7899053667e+01    0.4176764    0.2486975 -87.86  0.001761253    2.235    0.553
       163  -9.2773    114.6230     88.2641   3.5706723399e+01   4.2229710074e+01    0.1819063     0.136025 -38.39 0.0001598402    1.438    0.304
       164  -8.9951     94.4944     88.5539   4.1416919152e+01   4.6336322405e+01    0.1465393     0.141049  57.99 0.0002029281    1.019    0.019
       165 -11.2122    184.8165     85.2754   2.1719110469e+01   2.8750254114e+01    0.2058248    0.1679278 -53.63 0.0002730438    1.048    0.046
       166  -9.6904    109.1975     85.9382   3.6489367477e+01   4.3823252733e+01    0.2164016    0.1866209 -89.24 0.0004151752    1.230    0.187
       167 -10.2792      8.5296     85.2275   7.7381122748e+01   5.9978633059e+01    0.2778274    0.1999749  45.99   0.00107727    1.529    0.346
       168 -11.5281    239.7583     84.6268   1.5470813338e+01   1.9974060124e+01    0.2096944    0.1603304 -66.30  0.000884197    1.257    0.204
       169  -9.4023     34.6566     84.5666   6.3923362914e+01   5.7590118026e+01    0.2566781    0.1376801 -61.31  0.001081655    1.928    0.481
       170  -9.8983    116.9022     83.8429   3.3941250716e+01   4.2602358514e+01    0.1923804    0.1889564  30.32            0    1.141    0.123
       171 -10.5527     76.0868     82.6703   4.5827898823e+01   5.1247229338e+01    0.4221562    0.2413594  37.16  0.000758133    1.736    0.424
       172  -9.4003     52.8720     82.3811   5.4942740265e+01   5.5470055436e+01    0.3302715    0.1152913  41.24   0.00111048    2.776    0.640
       173 -10.6038     26.4367     70.6818   6.4478686565e+01   6.1945628512e+01    0.4458643    0.3149473 -59.46  0.002267477    1.477    0.323
       174 -10.7663     17.4968     81.4798   7.1913015087e+01   6.0228239279e+01    0.3517295    0.2663225 -77.53  0.001106672    1.461    0.316
       175  -9.6909     26.4955     78.4336   6.6481097493e+01   6.0074039637e+01    0.2743441    0.2122795  -6.12  0.001062728    1.344    0.256
       176 -11.7906     22.2406     76.5240   6.8252119263e+01   6.1002394862e+01    0.3774387    0.3669203  -4.50 0.0002513779    1.057    0.054
       177 -11.0814    249.3144     80.9899   1.4013099671e+01   1.9128011609e+01    0.1564445    0.1060845 -46.97 0.0009144372    1.075    0.070
       178 -10.0895     64.5088     80.7327   4.9624666351e+01   5.3840907275e+01    0.2872671     0.141329 -46.35  0.001145231    2.135    0.532
       179 -10.0472      1.7165     80.5801   8.0252688496e+01   6.1590510219e+01    0.3565773    0.1157739 -52.75  0.001331343    2.561    0.610
       180 -10.3792    119.9669     79.9305   3.2135712811e+01   4.2680781405e+01    0.2387623    0.2078474  41.75 0.0007695955    1.254    0.203
       181  -9.6501      4.0198     85.6992   7.9834016692e+01   6.0140022729e+01    0.1976452    0.1786899  -2.13 0.0006673175    1.099    0.090
       182 -12.1522     88.2385     77.2585   4.0100542848e+01   4.9932390113e+01    0.2896842    0.2829193 -77.34 0.0002348925    1.059    0.056
       183 -10.2424    100.3915     77.5409   3.6530443678e+01   4.7321120743e+01     0.319891    0.2443622 -77.48  0.001591632    1.569    0.362
       184  -9.3040     49.7897     77.9887   5.5033400136e+01   5.6978208505e+01    0.1873901    0.1188932 -53.98 0.0003405699    1.646    0.393
       185  -9.4759    211.9767     76.2439   1.6609334725e+01   2.5398389833e+01    0.1523779    0.1229077 -56.93 0.0003504633    1.029    0.029
       186  -9.3927     37.0260     76.5227   6.0631210485e+01   5.9219352722e+01      0.21495    0.1377127  26.95   0.00039111    1.498    0.332
       187 -10.1826     55.4812     75.0000   5.1628545980e+01   5.6702411268e+01    0.3320027    0.0800809  36.20 0.0009345888    3.934    0.746
       188  -9.9264     44.5095     74.4529   5.6417196721e+01   5.8613275605e+01    0.2411085    0.1937553  38.02 0.0001081395    1.208    0.172
       189 -10.1914     44.9958     70.7257   5.5053311882e+01   5.9377195731e+01    0.2096029    0.2006627  25.76 0.0002507204    1.041    0.039
       190  -9.8962    168.6102     74.8805   2.1710498195e+01   3.3443796777e+01    0.3125482    0.1524965 -54.46  0.001462366    2.047    0.512
       191  -9.3285    123.9944     73.0712   2.9332642969e+01   4.3040940901e+01    0.1640925    0.1490574 -66.39 0.0005375709    1.071    0.066
       192 -11.5169    102.8119     69.6619   3.3527058401e+01   4.8270934321e+01    0.3577343    0.2570106 -45.20  0.000639688    1.451    0.311
       193 -13.5242     16.4145     67.3291   6.9191606688e+01   6.3806075024e+01    0.4777895    0.3522773 -57.21 0.0006117087    1.364    0.267
       194 -10.1882      6.9745     73.2853   7.5995474025e+01   6.3118880970e+01      0.32376     0.161013   0.55 0.0009694807    2.182    0.542
       195 -10.5241    249.7624     72.2445   1.2478692915e+01   2.0201687573e+01    0.1634966   0.07192599 -32.57 0.0008925124    2.444    0.591
       196  -9.5448    160.0501     71.7323   2.2268758471e+01   3.5646939514e+01    0.1681424    0.1504104 -76.68 0.0002822819    1.040    0.039
       197  -8.9889      1.2764     72.3334   7.9097918379e+01   6.3704467726e+01    0.1487827   0.08723311 -38.70 0.0001871477    1.603    0.376
       198  -9.6331     78.7478     69.3688   4.0803295270e+01   5.3449767725e+01    0.2130243    0.1302911  38.03 0.0007709257    1.657    0.397
       199 -11.2598     50.4461     68.0695   5.1674828833e+01   5.9068556199e+01    0.3046508    0.2513825 -27.18 0.0008261236    1.320    0.242
       200 -10.6723     92.6366     67.7776   3.5835332424e+01   5.0823815739e+01     0.286609    0.2445339  56.45 0.0005655678    1.103    0.093
       201 -11.6571      5.1257     61.2931   7.4512217710e+01   6.6168406550e+01    0.8467154    0.3529789   0.91  0.002801885    2.774    0.640
       202  -9.2654     15.2498     58.5490   6.7506561857e+01   6.5970705100e+01    0.1883675    0.1240769   1.50 0.0007675861    1.556    0.357
       203 -11.2708      6.3807     67.8180   7.5205077150e+01   6.4508481027e+01    0.2595111    0.2129815 -13.56 0.0002746144    1.151    0.131
       204  -9.5312      2.4600     67.5158   7.7487639036e+01   6.4831877812e+01    0.2319726    0.1675308 -47.39 0.0008967763    1.278    0.218
       205 -10.6879    129.6156     66.0906   2.6222799558e+01   4.2995364326e+01    0.3196328    0.2539196  37.43 0.0008160232    1.548    0.354
       206  -8.9710     75.2939     67.3552   4.1365832975e+01   5.4548058763e+01     0.144939    0.1149598   0.53 0.0007031386    1.689    0.408
       207 -12.3696     30.0336     62.9193   6.0240858593e+01   6.3283417349e+01    0.5456291     0.504012   9.91  0.001359083    1.017    0.016
       208 -11.1677    160.2045     63.7553   2.0319322958e+01   3.6844567310e+01    0.3715835    0.2760081  10.23  0.001474148    2.548    0.607
       209 -10.0577     81.6356     64.8869   3.8373675526e+01   5.3706416367e+01    0.2492941    0.1866823  39.73  0.000547192    1.324    0.245
       210 -10.4603    209.9814     63.1306   1.4225700297e+01   2.7552425631e+01    0.1833823     0.131086 -51.04 0.0003573611    1.116    0.104
       211 -10.4299    155.0761     63.3375   2.0993364694e+01   3.7969848257e+01     0.258238    0.1772845 -46.91 0.0006757661    1.361    0.265
       212 -11.5867    122.8619     63.1234   2.6791922829e+01   4.4969102819e+01    0.3484212    0.2140273 -42.43   0.00116357    1.661    0.398
       213  -9.5897    109.1381     64.1786   3.0246703140e+01   4.7841857921e+01    0.2056186    0.1895072  34.60 0.0007241897    1.243    0.196
       214 -11.8071     46.6387     60.6423   5.0966645251e+01   6.1274166245e+01    0.4443922    0.3248821 -16.71  0.001026526    1.705    0.413
       215 -10.1847     90.6950     61.0740   3.4277743212e+01   5.2452857261e+01    0.3344305     0.189614  54.08 0.0008011798    1.668    0.401
       216  -9.6806    189.1012     60.0080   1.5742604943e+01   3.1710150181e+01    0.1728174    0.1412849 -63.26 0.0003472713    1.008    0.007
       217  -9.6991    167.2645     59.1347   1.8215880678e+01   3.6085759840e+01    0.2343064    0.1374249 -56.65 0.0006175893    1.595    0.373
       218  -9.1937    150.4828     60.5369   2.1010076681e+01   3.9359948261e+01    0.1312441    0.1139974 -76.08 1.767784e-05    1.012    0.012
       219 -10.6320    135.4632     58.5813   2.3045951551e+01   4.2903379310e+01    0.3101222    0.2116987 -85.47  0.001462805    1.655    0.396
       220  -9.5527    114.9196     60.1455   2.7672476684e+01   4.7224809027e+01    0.1857228    0.1517508  45.74 0.0003468998    1.319    0.242
       221 -10.5007     58.4524     59.7926   4.5352073332e+01   5.9333317954e+01    0.2884416     0.202539  62.26 0.0007310836    1.730    0.422
       222 -11.2278     89.5157     54.5621   3.2474688701e+01   5.3828340991e+01    0.5593523    0.3485572 -47.89  0.002310144    1.729    0.422
       223 -11.3840     17.0154     42.1818   6.1003985460e+01   6.9335921139e+01    0.7397079    0.3291324 -46.95  0.003299277    2.236    0.553
       224 -11.5976      3.4149     53.0414   7.3605457662e+01   6.8217043888e+01    0.6562636    0.3503794 -66.42  0.002974556    1.950    0.487
       225 -11.1047      8.0002     51.5427   7.0132192315e+01   6.8213875079e+01    0.4255771    0.2989843  87.07  0.001214112    1.995    0.499
       226 -11.2763     13.0519     53.2354   6.7325334204e+01   6.7385020577e+01    0.5110857    0.2706113 -26.02  0.001617993    2.198    0.545
       227 -13.4624     12.3216     47.6035   6.6039215420e+01   6.8695828184e+01    0.7354379    0.4488454  45.95  0.001469129    1.971    0.493
       228 -11.5446     27.6722     37.5586   5.2327997193e+01   6.8819829182e+01    0.2620325    0.2300789  31.58 0.0001724035    1.121    0.108
       229 -11.0474     24.1703     34.7959   5.3320866277e+01   6.9843437300e+01    0.3997875    0.2806227  -5.24   0.00150943    1.649    0.394
       230 -13.4077    149.5837     51.2603   1.8771036876e+01   4.0907742716e+01    0.3446447    0.3035649 -76.75 0.0006338099    1.038    0.037
       231 -11.3300    105.0967     52.6072   2.7668137764e+01   5.0644732794e+01    0.3138575    0.2598236  30.89 0.0003776534    1.481    0.325
       232  -9.2876     99.5051     55.4361   2.9985441125e+01   5.1454535542e+01    0.2064321     0.121187  48.09  0.000143239    1.657    0.396
       233  -9.6956    128.7602     53.3232   2.2822514413e+01   4.5186370348e+01    0.3148732    0.1599507 -73.43 0.0009201103    3.729    0.732
       234 -12.2714     44.6043     43.6846   4.5594062983e+01   6.4907754516e+01    0.5499895    0.3996404 -59.81 0.0001981201    1.742    0.426
       235 -11.8288     54.8453     48.9633   4.2925612762e+01   6.2055648372e+01    0.5525962     0.464016  33.03  0.002104508    1.115    0.103
       236 -11.9210     52.8744     42.8353   4.1373583343e+01   6.3512593896e+01    0.6583704    0.3691495  35.27  0.003050386    1.773    0.436
       237  -9.9227     40.4754     47.9981   4.9398018095e+01   6.4823485372e+01    0.4712599    0.2794897   5.90  0.001850098    2.987    0.665
       238  -9.5641    133.8834     51.1078   2.1270282858e+01   4.4369399379e+01    0.2260747    0.1279684 -62.66  0.001006593    2.015    0.504
       239  -8.9186    177.3602     56.7141   1.6372007340e+01   3.4417622991e+01    0.1296402   0.07977267 -70.70 8.111421e-05    1.682    0.406
       240  -9.5586    201.9620     49.0015   1.2125556027e+01   3.0824608019e+01    0.1378733    0.1055805 -58.66            0    1.033    0.032
       241 -10.5591    180.2413     47.0874   1.3864905870e+01   3.5157397910e+01    0.2020887    0.1512768 -72.39  0.000223825    1.162    0.140
       242 -12.0750    121.4107     46.8128   2.2333912642e+01   4.7799185285e+01    0.2674477    0.2101815  77.89 0.0003803141    1.177    0.151
       243 -10.2342    106.0466     47.8410   2.5922967196e+01   5.1158624157e+01    0.2408178    0.1743801  82.76 0.0006181518    1.466    0.318
       244  -8.8248     72.6724     48.3299   3.5684182619e+01   5.8537933629e+01    0.1419299     0.108007  87.89 0.0007051149    1.709    0.415
       245 -12.1761    247.5213     35.5024   6.3218485832e+00   2.4973163360e+01    0.3343756    0.1779619 -43.40  0.001438287    1.410    0.291
       246 -11.8494    246.2667     41.9407   7.5016627381e+00   2.4420742195e+01    0.4023833    0.2713229 -73.95  0.001812621    1.355    0.262
       247 -11.1658    115.6072     55.1621   2.6031166099e+01   4.7865107300e+01    0.2596359    0.2091186  77.33  0.001467902    1.184    0.155
       248  -9.9390     78.9348     47.0227   3.3097611340e+01   5.7396092009e+01    0.2194028    0.1628561  26.24 0.0007118124    1.671    0.402
       249 -10.1676    222.1483     45.8685   9.8372678136e+00   2.7736133268e+01    0.1618386     0.109299 -60.99 0.0002875178    1.159    0.137
       250 -10.8926    142.4295     44.1524   1.7971828818e+01   4.3451763550e+01    0.5124705    0.4046289  39.96  0.003033109    1.665    0.400
       251 -10.1466    237.1652     44.2068   8.4739958508e+00   2.5534792888e+01    0.1855277    0.1300857 -56.61  0.001069815    1.025    0.024
       252  -8.8881     91.7197     45.6470   2.8809784326e+01   5.4755664744e+01    0.1411748    0.1274856  70.56 0.0002486666    1.013    0.012
       253  -9.7114     90.7177     41.8677   2.7764529090e+01   5.5547567531e+01     0.305496    0.2019785  89.25  0.001445085    2.003    0.501
       254 -11.3400    108.3418     42.3695   2.3649551298e+01   5.1427222022e+01    0.3454593    0.2544683  38.08 0.0005281914    1.648    0.393
       255 -10.1805     72.8429     43.0854   3.3660259301e+01   5.9350699387e+01    0.2011421    0.1769652  79.87 0.0002518474    1.205    0.170
       256  -9.4670    131.3603     42.2171   1.9197492040e+01   4.6183821631e+01    0.1834663    0.1086456 -49.26 0.0007786606    1.657    0.396
       257 -10.0079     98.1894     40.9226   2.5516689457e+01   5.3971925502e+01     0.317416    0.2875969 -84.49  0.001944896    1.091    0.084
       258 -11.7679     56.1506     36.8557   3.7486729615e+01   6.3844770613e+01    0.5552083    0.3934218  -5.96  0.002773642    2.054    0.513
       259 -10.5719    148.7813     39.7570   1.5891605390e+01   4.2642664769e+01    0.2503273    0.1884221 -56.03 0.0006671647    1.222    0.182
       260 -11.9422     84.4251     36.6757   2.7631679078e+01   5.7726526546e+01    0.6537488    0.4410861  16.56  0.002410223    2.469    0.595
       261 -10.3977     68.4844     41.5248   3.4590613839e+01   6.0534976373e+01    0.2380165    0.1242711  60.18  0.001016405    2.079    0.519
       262 -11.0095    225.3974     38.5327   8.2261883738e+00   2.8084666503e+01    0.2491668    0.0938665 -32.67  0.001247054    2.865    0.651
       263  -9.7882    118.9924     40.0238   2.0750232266e+01   4.9298665978e+01    0.2227282    0.1453091 -72.38  0.001134103    1.725    0.420
       264  -9.3981    102.9014     40.5286   2.4267199917e+01   5.2941185947e+01    0.2041034    0.1217012  62.20 0.0004249616    1.519    0.342
       265 -10.1607    233.2350     39.2426   7.8377411696e+00   2.6737115908e+01    0.1619763    0.1176666 -69.90 0.0006731325    1.172    0.147
       266 -10.1480    109.6201     35.1265   2.1043283361e+01   5.2115656411e+01    0.4073153    0.2593432  31.35  0.001931868    2.417    0.586
       267  -9.6279    214.2644     36.0104   8.5248430721e+00   3.0258153720e+01    0.1527071    0.1094182 -53.61 0.0002134469    1.100    0.091
       268 -10.7698    240.6957     34.7704   6.5834047004e+00   2.6089473156e+01    0.1915391    0.1145355 -78.50   0.00095992    1.602    0.376
       269  -9.2356    128.9805     35.7847   1.7735408190e+01   4.7571031699e+01    0.1694167   0.09507047  67.55 0.0003936839    1.628    0.386
       270  -9.7530    192.2267     34.3633   9.9165023934e+00   3.4443199443e+01    0.1509895   0.09271487 -88.36 0.0005007731    1.575    0.365
       271  -9.2457    101.6190     33.8537   2.2314923368e+01   5.4142216470e+01    0.1740877    0.1159861 -52.22 0.0003211697    1.604    0.377
       272 -10.3205     93.3675     33.2185   2.4015711742e+01   5.6142297017e+01    0.3634939    0.2391343  33.40  0.001809172    2.003    0.501
       273 -10.4607     75.9242     33.4481   2.8926060974e+01   6.0099356258e+01    0.3049291    0.2068689  57.15 0.0009067341    1.302    0.232
       274  -9.6355     64.0686     34.5219   3.3390699459e+01   6.2547801705e+01    0.2017222    0.1208812  52.27 0.0003270878    1.480    0.324
       275  -9.9605     34.2962     33.1848   4.6514047833e+01   6.8542426983e+01    0.2189602    0.1983069  19.48 0.0007823801    1.043    0.042
       276 -10.8489    182.9509    246.5300   5.0628518814e+01   1.6048593843e+00     0.188163    0.1250478 -14.63  0.001268894    1.233    0.189
       277 -10.4519    218.7291    246.8947   4.4521634986e+01  -1.4307808464e+00    0.2274303     0.077839 -44.23  0.001195521    2.785    0.641
       278 -10.0438     12.0229     29.0041   5.9185465272e+01   7.2503159939e+01     0.265747    0.1698406  13.00 0.0007170423    1.486    0.327
       279 -11.1580     10.1292     24.7887   5.8725034054e+01   7.3504982723e+01    0.5146648    0.2640417  14.80  0.002457798    2.019    0.505
       280  -9.5111     83.7666    248.3906   7.2273472493e+01   1.1138697384e+01    0.1730495    0.1059667  13.08 0.0004263304    1.474    0.321
       281 -10.6933     72.8644    244.8894   7.4602441773e+01   1.2934583439e+01    0.2929899    0.2296842  12.59 0.0009388779    1.131    0.116
       282 -10.0818    119.9032     31.0377   1.7830369945e+01   5.0250526235e+01    0.2535783    0.1849366  35.10 0.0004610653    1.859    0.462
       283 -10.6324    119.5317     27.2963   1.6738271001e+01   5.0788804922e+01     0.432121    0.1726122  58.28  0.001914892    2.235    0.552
       284 -10.4458     19.0460     30.9617   5.5016758767e+01   7.1260010940e+01    0.2606555    0.1924149  18.06 0.0009639697    1.222    0.182
       285  -9.8581    196.4887     31.5117   8.9617265509e+00   3.3980775016e+01    0.1132436   0.08857838 -65.31 -2.198951e-05    1.029    0.028
       286 -10.2679    162.9707     29.3074   1.1533723285e+01   4.0895898100e+01    0.2512986    0.1610553 -29.03 0.0009847439    1.863    0.463
       287  -9.8744     39.1644     52.2575   5.1695047474e+01   6.4206518599e+01    0.3184323    0.2465932  22.47  0.001184382    1.236    0.191
       288 -11.3195    213.2112     27.1755   6.8756037171e+00   3.1462410051e+01    0.2948062    0.1199627 -40.93  0.001691118    1.941    0.485
       289 -10.6621    198.2568     28.4031   8.1757167645e+00   3.4013116295e+01    0.2634519    0.1419294 -78.55  0.001569138    1.818    0.450
       290  -9.5124    125.5340     29.3086   1.6377512498e+01   4.9164083038e+01    0.2138504    0.1048653  68.36 0.0005760635    1.836    0.455
       291 -10.2390     49.4859     28.0572   3.6495735977e+01   6.6526364879e+01    0.3496341    0.2157771  20.75  0.001096866    2.313    0.568
       292  -8.7650     30.3547     29.2860   4.6986282683e+01   6.9857909156e+01    0.1356741   0.09493292   8.76 0.0007021985    1.669    0.401
       293 -12.0238     74.7339    239.4091   7.3626453512e+01   1.3850698256e+01    0.5471328    0.4670611 -47.79  0.002840518    1.329    0.247
       294 -12.0959    231.5921     26.5327   5.6365482570e+00   2.8449475533e+01    0.3274312    0.1755286 -84.16  0.001152281    1.858    0.462
       295 -10.1080     61.1197     27.3569   3.1437427176e+01   6.4197816062e+01    0.2238472    0.1828369 -16.45  0.001315338    1.481    0.325
       296  -9.7364      4.3204    243.9377   9.1538885040e+01   1.9278176983e+01    0.1640559    0.1403217  59.35  0.000478143    1.134    0.118
       297  -9.2435    187.8229     27.3984   8.7816306843e+00   3.6103076720e+01    0.1356343   0.09648347  71.77 0.0002780702    1.476    0.323
       298 -10.3322    176.7273     26.7513   9.5875470027e+00   3.8364142562e+01    0.1992248    0.1512318 -62.35 0.0002716013    1.081    0.075
       299 -10.1704    218.9929     25.6246   6.2097590051e+00   3.0639408981e+01    0.1465351    0.1064706 -70.21 0.0004339939    1.115    0.103
       300 -10.4595     69.1025     25.8105   2.7993979785e+01   6.2649509270e+01    0.4341756    0.1330184  51.86  0.001628244    2.699    0.630
       301  -9.9531     91.1376     24.8490   2.1514318677e+01   5.7712681216e+01    0.3403214    0.1414692  55.25  0.001490872    2.065    0.516
       302  -9.9065     55.0488     24.9505   3.2709029020e+01   6.5818149543e+01    0.1894872    0.1659351  44.04            0    1.031    0.030
       303  -9.7340     88.9537    241.0082   7.0272794626e+01   1.2042085126e+01     0.210816    0.1394262 -18.63  0.001128669    1.703    0.413
       304 -10.0541     22.2250     24.0133   4.9546249363e+01   7.2021489088e+01    0.2231222     0.162569  28.42  0.000427853    1.195    0.163
       305 -11.1508    159.6334     22.2356   1.0130745436e+01   4.2412739001e+01    0.2500407     0.216337  28.06  0.001466344    1.732    0.423
       306 -11.0125    156.4166     21.7467   1.0334985586e+01   4.3154106637e+01    0.2116797    0.1465337  80.39 0.0006088615    1.296    0.228
       307  -9.6855     79.8460     27.9597   2.5607753880e+01   5.9942746808e+01    0.2190154     0.151319  21.08  0.001095517    2.104    0.525
       308 -11.6955     34.0784     22.6649   4.1580403584e+01   7.0264323895e+01      0.23653    0.1915597  29.64 0.0002061116    1.085    0.079
       309 -10.1062    196.0707    238.4689   4.7161328324e+01   1.6314669277e+00    0.1712612    0.1222971 -25.76 0.0007150276    1.165    0.142
       310 -10.3891    100.0773     21.6408   1.8421614396e+01   5.5988999244e+01    0.3754531     0.226884  59.39  0.002008312    1.456    0.313
       311 -10.2191      3.8266    238.2377   9.1458463015e+01   2.0532452188e+01    0.2141282    0.1708494 -85.75 0.0005728239    1.376    0.273
       312 -10.2201    193.0771     20.9521   6.9939808876e+00   3.5822030916e+01    0.1656644    0.1257601 -67.15 0.0003306023    1.005    0.005
       313  -9.1773    120.4999     21.4175   1.4763922875e+01   5.1238377074e+01     0.128757    0.1062346  89.09 9.972139e-05    1.028    0.027
       314 -11.9144     34.8078    237.8035   8.3633277792e+01   1.8081933305e+01    0.7183175    0.2904597  13.07  0.002946897    2.622    0.619
       315 -11.2672    228.7691     20.3056   4.6607443453e+00   2.9588166570e+01    0.3091518    0.1029227  63.96  0.001678844    3.450    0.710
       316 -10.0286     44.1150     19.7253   3.4947383920e+01   6.8768019233e+01    0.4450382    0.1596619  52.56  0.001768786    2.597    0.615
       317 -10.6165    217.2420     16.1380   4.5074254490e+00   3.1969812739e+01     0.340421    0.1259386  63.46  0.001877394    3.098    0.677
       318 -10.6937    165.0178     17.1845   8.3825591309e+00   4.1828194147e+01    0.3109064    0.1536586  49.47  0.001243835    2.884    0.653
       319 -10.5329    169.6346     18.8367   8.3720984316e+00   4.0692326902e+01    0.2436903   0.09897266 -36.94  0.001241996    2.267    0.559
       320 -11.4217     30.7678    234.1107   8.4438298100e+01   1.9245399716e+01    0.4442005    0.2828353  64.51  0.001763036    1.670    0.401
       321 -10.1030     45.4625    244.4725   8.1387423248e+01   1.5693576037e+01    0.2486198    0.1005912  25.91   0.00053369    1.961    0.490
       322 -11.2549    183.0706    234.4330   4.8940806941e+01   3.4358884323e+00    0.2289124     0.178874   2.80 0.0008560778    1.139    0.122
       323 -10.4059    160.9992    234.8194   5.3268635506e+01   5.5451021649e+00    0.2071953    0.1149967  -5.79  0.001078609    2.006    0.501
       324  -9.4807     91.9811    235.5213   6.8942244681e+01   1.2810790389e+01    0.2000851     0.114462  18.97 0.0005153553    1.544    0.352
       325  -9.6133     54.8393    232.0209   7.8037143731e+01   1.7435965270e+01    0.2198334    0.1317379  59.45  0.001067377    1.937    0.484
       326  -9.5614    210.7730     19.3559   5.5014441301e+00   3.2754704174e+01    0.1316888   0.08680741  73.64 0.0004193401    1.635    0.388
       327  -9.6256    193.0502     16.4484   6.0430331630e+00   3.6314230131e+01    0.1535679   0.09351599  84.10 0.0003048441    1.528    0.345
       328  -9.3866    109.6498     16.6357   1.4964769187e+01   5.4284303252e+01    0.2456264   0.09582983  63.11 0.0005947868    2.132    0.531
       329 -10.1505    236.9855    230.4902   3.9460560120e+01  -6.5602402431e-01     0.113264   0.08449657  42.54 0.0008102611    2.527    0.604
       330 -10.1595    248.4797    229.0519   3.7621762611e+01  -1.3387569917e+00    0.1520285   0.07339139 -37.42  0.001030663    1.590    0.371
       331  -9.3325     59.4426    229.5078   7.6618257350e+01   1.7518446245e+01    0.1345032    0.1160889  29.15 0.0001820918    1.028    0.027
       332 -10.0911    192.5761    227.3289   4.6197311527e+01   3.6314800042e+00    0.1951508    0.1150614  -4.03 0.0008526253    1.706    0.414
       333 -10.0136      3.5096    225.9884   9.1082444870e+01   2.3269552952e+01    0.2549919    0.1322902 -63.17  0.001098537    2.135    0.532
       334 -10.2140      6.3490    225.6911   9.0334942673e+01   2.3127808977e+01    0.2207251    0.1530231  40.53 0.0007617156    1.216    0.178
       335  -9.6985     78.8877    223.8451   7.0976863127e+01   1.6678545171e+01    0.2161991    0.1692559 -12.99  0.001216774    1.346    0.257
       336  -9.6392     72.1490    250.1468   7.5247533232e+01   1.1966839362e+01    0.1879523    0.1511192  -8.49 0.0007486845    1.281    0.220
       337 -10.1853     16.0175    222.0336   8.7617727120e+01   2.3217549051e+01    0.2013687    0.1753766  36.66 0.0004988769    1.026    0.025
       338  -9.2518    126.4781    220.5490   5.8777132646e+01   1.1889725655e+01    0.1296093    0.1142431  12.28  0.000427043    1.101    0.091
       339  -9.4083    249.7776    219.0064   3.6031544952e+01  -1.2884175722e-01    0.1351384   0.06120175 -38.06 0.0008716795    1.659    0.397
       340  -9.2136    233.3090    219.3099   3.8407841724e+01   1.1562684355e+00     0.109143   0.06050803 -18.15 0.0003332587    1.620    0.383
       341 -11.0508     48.7282    218.8432   7.8539159019e+01   2.0996193744e+01    0.5265138    0.2451833  14.81  0.002219281    2.183    0.542
       342  -9.6849    211.8031    218.5984   4.1636975651e+01   3.1488839098e+00    0.1339144   0.09628484  27.38 0.0006439709    1.650    0.394
       343  -9.4163     55.9950    216.9819   7.6386915937e+01   2.0682288790e+01    0.1589774    0.1414892  27.06            0    1.001    0.001
       344  -9.6425     38.9107    217.4690   8.1113320363e+01   2.2272703035e+01     0.207455    0.1201584  23.76 0.0004543822    1.527    0.345
       345 -10.2098     23.9339    216.0047   8.5126464815e+01   2.3970071497e+01    0.2011893    0.1707402  42.97 0.0002995777    1.048    0.046
       346  -9.6698    169.6246    213.2124   4.8407757358e+01   8.3029291376e+00    0.1809334   0.09516917 -35.58 0.0009518122    1.732    0.423
       347  -9.3753     63.0144    212.4651   7.4012790553e+01   2.0976968352e+01    0.2097062    0.1234024  25.40 0.0003246373    1.504    0.335
       348  -9.7908     20.1300    211.6832   8.5909880068e+01   2.5320684470e+01    0.2324864    0.1354395  41.06  0.001018652    1.501    0.334
       349 -10.9685    217.2757    209.1891   3.9352328035e+01   4.0373257108e+00    0.3498273    0.1330297 -39.33  0.001487245    2.101    0.524
       350 -11.8465     11.2180    208.8701   8.8234988987e+01   2.6711072498e+01    0.3548792    0.3377098  17.90  0.001475961    1.122    0.109
       351 -11.6763      4.8608    210.1785   9.0060987502e+01   2.6867366577e+01    0.5338756    0.2504299  52.36  0.002457958    1.955    0.488
       352 -11.0282      5.1433    204.3302   8.9711546524e+01   2.8267324173e+01    0.3828393    0.2645143 -19.76  0.001275553    1.765    0.433
       353  -9.1971    193.5264    210.4713   4.3515617910e+01   6.1943961658e+00    0.1178517   0.09293005 -18.01  0.000135209    1.008    0.008
       354  -9.1864    229.5256    209.4979   3.7525756876e+01   2.8643836539e+00    0.1085394    0.0791718 -23.32 0.0008101119    1.011    0.011
       355  -9.4935    201.5547    207.4783   4.1663464384e+01   5.8456259642e+00    0.1170994   0.08928747 -20.06 0.0001456712    1.028    0.027
       356  -9.1951    247.3946    206.7356   3.4584925746e+01   1.7044113165e+00   0.08352053    0.0767874 -44.49 0.0006976411    1.714    0.417
       357  -8.7879    123.9543    206.0233   5.7294679416e+01   1.5095498782e+01    0.1538935    0.1363038  -1.15            0    1.004    0.004
       358  -9.6934     18.4334    204.9395   8.5971462559e+01   2.7098953833e+01    0.3311391   0.08585846 -64.41  0.001146252    3.536    0.717
