#   1 NUMBER                 Running object number                                     
#   2 MAG_AUTO               Kron-like elliptical aperture magnitude                    [mag]
#   3 X_IMAGE                Object position along x                                    [pixel]
#   4 Y_IMAGE                Object position along y                                    [pixel]
#   5 X_WORLD                Barycenter position along world x axis                     [deg]
#   6 Y_WORLD                Barycenter position along world y axis                     [deg]
#   7 A_WORLD                Profile RMS along major axis (world units)                 [deg]
#   8 B_WORLD                Profile RMS along minor axis (world units)                 [deg]
#   9 THETA_WORLD            Position angle (CCW/world-x)                               [deg]
#  10 FWHM_WORLD             FWHM assuming a gaussian core                              [deg]
#  11 ELONGATION             A_IMAGE/B_IMAGE                                           
#  12 ELLIPTICITY            1 - B_IMAGE/A_IMAGE                                       
         1 -14.4517    125.5957     87.8807   4.5065600478e+01   3.9538733123e+01     3.364517      1.95691  79.43   0.01308247    3.027    0.670
         2 -12.1747     74.7683      5.3604   3.2192784858e+01   6.1662627307e+01    0.9384254    0.4472826  79.74 0.0001244413    2.814    0.645
         3 -12.7674     57.2895      4.5014   3.6432899853e+01   6.5392473270e+01    0.7546443    0.4187964  66.13  0.003551318    1.699    0.411
         4 -12.6232     66.7603     15.6699   3.8041682718e+01   6.2407790592e+01     1.133054    0.6298145  32.88  0.005921351    2.153    0.536
         5 -13.0547     64.3389     34.7170   4.5828634031e+01   6.0715240416e+01     1.031556    0.7003312  -4.20  0.005466155    2.180    0.541
         6 -12.9880     55.2035     20.2135   4.3424316859e+01   6.4277547088e+01    0.9394391     0.728344 -42.66  0.004232095    1.597    0.374
         7 -11.5972     79.5505     22.3062   3.6987212714e+01   5.9026100720e+01    0.6368266    0.5066767  87.97  0.004068863    1.392    0.281
         8 -14.2520     29.5395     67.5433   7.1695534806e+01   6.1121866883e+01     1.819587     1.296402 -67.12  0.009542408    1.856    0.461
         9 -13.9353     43.8164     74.9291   6.7414913730e+01   5.7613126415e+01     1.413795    0.9365568 -19.12  0.004900618    1.864    0.464
        10 -14.0498     10.7444     69.7954   8.1792601459e+01   6.2704639575e+01     1.454848      1.19478  -4.27  0.008734368    1.097    0.089
        11 -12.3799      3.2669     28.5159   7.2793338564e+01   7.1309337176e+01    0.9782072    0.5388821  -5.07  0.005099884    2.046    0.511
        12 -13.6988     11.5498     36.5314   7.0773185369e+01   6.9080530752e+01      1.47167    0.8621994 -12.64  0.003949626    1.979    0.495
        13  -6.7234    190.5194     21.4446   2.0742459727e+01   3.5900889152e+01    0.7877599    0.5751445  45.65   0.00539307    2.208    0.547
        14 -13.5088    192.1546     56.9596   2.7483097297e+01   3.1185882426e+01     1.234312    0.2606646 -43.24  0.004797565    3.762    0.734
        15 -12.0989    192.2279     35.0868   2.3220645066e+01   3.4002062847e+01    0.6511176    0.3143314 -60.48  0.003214592    1.850    0.459
        16  -9.7481    202.0467     16.2412   1.8917884049e+01   3.4364396738e+01    0.3985942    0.1581239 -84.49  0.002033144    2.871    0.652
        17 -11.8980    236.6759     38.1900   2.0335733631e+01   2.6032835965e+01     1.039819    0.5985499 -69.60  0.004906231    1.400    0.286
        18 -11.8814    210.6836     21.0342   1.9183366967e+01   3.2317527167e+01    0.3574945    0.2654512  64.39  0.001847146    1.710    0.415
        19 -11.5740    218.6708     28.6335   1.9958127086e+01   3.0087791524e+01    0.7653483    0.3232997 -80.92  0.004042608    2.765    0.638
        20 -12.1351    221.8142      9.2252   1.6491034852e+01   3.1694784564e+01    0.6171553    0.1677252 -50.36  0.003415916    2.530    0.605
        21 -13.4629    226.9859     20.1902   1.8005275594e+01   2.9664880742e+01    0.7784305    0.4657342 -27.14  0.004318617    2.853    0.650
        22 -13.9664    243.6170      8.3179   1.5253507104e+01   2.8307762145e+01     1.058445    0.3729551 -79.57  0.005902516    3.105    0.678
        23 -13.2231    233.3534     48.3272   2.2230101084e+01   2.5301129532e+01     1.048317    0.6760943  86.64  0.004085727    1.518    0.341
        24 -11.7524    160.8295     38.3072   2.7176008511e+01   3.9724808145e+01     1.038624    0.3052332 -35.58  0.004223241    3.803    0.737
        25 -11.2504    148.5459     40.0211   2.9158802698e+01   4.2049156797e+01    0.6029556    0.2716262 -45.93  0.003061249    2.152    0.535
        26 -11.2177     42.4635     21.0024   4.8557587972e+01   6.6616136113e+01    0.6405282    0.3939083  48.87  0.003710082    1.422    0.297
        27 -11.1521     31.9396     20.6133   5.3051101768e+01   6.8514240441e+01    0.4988922    0.3589962 -35.33  0.003177413    1.649    0.393
        28 -10.9553    233.9935     24.8078   1.8341163724e+01   2.8019481831e+01    0.3672011    0.3226549  28.58  0.002966363    2.375    0.579
        29 -11.9139    242.4359     22.5133   1.7497180857e+01   2.6959140873e+01    0.3354718    0.2293616  83.82  0.001657947    1.470    0.320
        30 -11.0744    150.3445     23.3750   2.5032753439e+01   4.3631772696e+01    0.4147945    0.2821803 -31.21  0.001974772    1.852    0.460
        31 -10.8797    170.4033     19.3507   2.2055979863e+01   3.9994322876e+01    0.2661056    0.2265541  -4.77  0.001905617    1.986    0.496
        32 -10.3079    124.9198     16.1509   2.6497048154e+01   4.9792835893e+01    0.2018859    0.1395325 -46.33   0.00059147    1.558    0.358
        33 -10.9038    150.0766     12.9513   2.2656338206e+01   4.4777545826e+01    0.2085205    0.1477363 -79.14 0.0008098006    1.187    0.157
        34 -10.6065    104.0268     13.5984   2.9037615276e+01   5.4588946869e+01    0.2708899    0.1990675 -12.83 0.0009378061    1.938    0.484
        35  -9.9306    131.1959     10.5626   2.4225544355e+01   4.8985996358e+01    0.4376101    0.2596146 -50.66  0.002708804    1.718    0.418
        36 -12.0026    116.0021      9.7966   2.6051979943e+01   5.2332673491e+01    0.3305845    0.2579949  -2.79  0.001420313    1.935    0.483
        37  -9.5867    124.4533      9.9590   2.4929495755e+01   5.0489545251e+01    0.2812689    0.2018568  32.02  0.001657538    2.055    0.513
        38  -9.7806     93.8900     11.8157   3.0339599449e+01   5.6967783170e+01    0.1769257    0.1271039  54.96 0.0003099478    1.245    0.197
        39 -10.1273     88.5263     11.5739   3.1327070111e+01   5.8156171144e+01     0.184845    0.1194703 -31.57 0.0009101467    1.884    0.469
        40 -12.8258    173.0276      6.9088   1.9261838024e+01   4.0756916225e+01    0.3386285    0.2421362 -25.09  0.001724474    2.035    0.509
        41 -10.6087    109.7164      9.9300   2.7032056734e+01   5.3687753778e+01    0.2430934    0.1962354 -22.55 0.0009967921    1.638    0.390
        42 -10.7517    112.1372      4.0969   2.5016032820e+01   5.3673940430e+01     0.241216     0.147299  67.89  0.000710137    1.311    0.237
        43 -12.5631     72.5256     24.7042   3.9708063041e+01   6.0248532183e+01    0.5384596    0.4147227 -54.29 0.0006246876    1.595    0.373
        44 -11.0418     26.9682      9.6653   5.0401900070e+01   7.0631459686e+01    0.2427678     0.159429  28.65 0.0006786708    1.320    0.242
        45  -9.6795    165.5460      9.0540   2.0324281457e+01   4.2020351550e+01    0.1478352    0.1025641 -39.42  0.001029304    1.632    0.387
        46 -11.6956    193.6038      7.4992   1.7887365416e+01   3.6805446135e+01    0.2148631     0.157821 -88.84   0.00081221    1.163    0.140
        47  -9.7939    156.5159      7.8547   2.0873412165e+01   4.3954728184e+01    0.1435779    0.1003571 -46.19 0.0009988304    1.492    0.330
        48  -9.6742    210.7961      5.9490   1.6552255815e+01   3.3900212367e+01    0.1199801   0.06665536 -44.17 0.0005289908    1.663    0.399
        49 -10.3921    146.2623      5.7901   2.1392593434e+01   4.6256684215e+01    0.1803681    0.1287485  70.17  0.000982961    1.287    0.223
        50 -10.1766    142.5199      2.8248   2.1072625439e+01   4.7304438050e+01    0.2221557    0.1673175  85.68  0.001608328    1.052    0.049
        51 -10.9607      2.8269      5.9741   6.2669860747e+01   7.4644693219e+01    0.2543615    0.1357422  26.56 0.0009542203    1.524    0.344
        52  -9.2790     97.5224      5.4423   2.7687947942e+01   5.6738576612e+01    0.1189029   0.09360022  79.04 0.0002613108    1.076    0.070
        53  -8.0367    182.9959      3.3646   1.7823678979e+01   3.9188367284e+01    0.3124164    0.1407604 -69.64  0.001439339    2.012    0.503
        54 -11.0225    187.0777      1.4228   1.7178928604e+01   3.8609260039e+01    0.1916251   0.08962099  74.11 0.0005131862    1.862    0.463
        55 -10.9909    217.2540      2.4432   1.5607743075e+01   3.3149586539e+01      0.20684    0.1482534  73.39  0.001460475    1.594    0.373
        56  -9.3940    101.7476      3.6071   2.6432030928e+01   5.5972357348e+01    0.1682743   0.09245946  79.75 0.0009424522    1.638    0.389
        57  -9.8651    207.3175      1.8905   1.6047004500e+01   3.4910115327e+01    0.1276566   0.08561427 -35.41  0.000950947    1.860    0.462
        58 -12.3671     86.6393      1.3664   2.8338656506e+01   5.9433557090e+01     0.427454   0.08986916  65.85  0.001209807    3.620    0.724
        59 -11.5000     49.9976      1.4052   3.7382900098e+01   6.7125859953e+01    0.2444844    0.1011969  57.64 0.0003441237    1.919    0.479
        60 -10.7690     46.3185      1.3323   3.8565115291e+01   6.7861887229e+01    0.1843054     0.114229  50.93  0.001147816    1.244    0.196
        61 -10.6019    250.0553      1.4327   1.3945931327e+01   2.8038525992e+01    0.1190085   0.06823357 -85.56  0.000134996    1.450    0.310
        62 -13.4862     56.2230     94.8028   6.7914660842e+01   5.1420897018e+01     1.025951    0.4950652  27.61 0.0007175275    2.172    0.540
        63 -12.3228     48.6844     94.9530   7.0932222799e+01   5.2541542544e+01    0.4668104    0.3025459  40.14  0.001280453    1.557    0.358
        64 -12.1543     61.6434     89.2156   6.4340526665e+01   5.1758422189e+01    0.3820259    0.3260026 -58.62   0.00115823    1.290    0.225
        65 -11.4726     59.1512     86.8091   6.4616391034e+01   5.2691139154e+01    0.2790474    0.2137171 -48.88 0.0003428672    1.370    0.270
        66 -11.0574    226.6802     97.6713   3.1238133613e+01   1.9395731955e+01    0.2497405    0.1718445  46.77  0.001661629    2.030    0.507
        67 -11.5588    199.8489     96.1562   3.4147395585e+01   2.3913892635e+01    0.3528994    0.2003768 -59.51 0.0007476165    1.665    0.399
        68 -12.1377     73.2694     96.8209   6.2213272417e+01   4.8090742351e+01    0.3982285    0.3512376  63.16  0.002154398    1.245    0.197
        69 -11.6553     11.8251     97.2117   8.7477954726e+01   5.6241022367e+01    0.3635059    0.2276324 -45.90  0.001077665    1.455    0.313
        70 -11.0313     13.4905     93.5731   8.5979149994e+01   5.6993411537e+01    0.2496205    0.1698815  19.95 0.0001098092    1.461    0.316
        71  -9.5260    232.5488     96.5398   3.0421839499e+01   1.8698322641e+01    0.1116736   0.08529347 -55.11 0.0004591032    1.043    0.041
        72  -9.9966     27.4865     96.4760   8.0286317065e+01   5.4925724777e+01     0.143816    0.1310132 -17.46 0.0005887422    1.015    0.014
        73  -9.9925    250.2369     94.2524   2.8326184681e+01   1.6543143392e+01    0.1977401    0.1011942 -45.08  0.001268116    1.501    0.334
        74 -10.5279    222.6883     95.3958   3.1276834227e+01   2.0352275545e+01    0.1290645    0.1073198  56.54   0.00093799    1.552    0.356
        75 -10.8879    173.4515     92.1157   3.7086389963e+01   2.9286355321e+01     0.369628    0.2340943  86.69  0.001534282    2.078    0.519
        76 -10.3043    168.0210     89.5437   3.7396557632e+01   3.0747674756e+01    0.2654609    0.1909792  60.29  0.001040446    1.452    0.311
        77 -11.4577     96.1879     90.6123   5.3284127242e+01   4.5026774099e+01    0.4585345    0.3831393  78.38  0.002038755    1.357    0.263
        78 -10.6441    181.1861    116.8500   4.0909364118e+01   2.3540807718e+01    0.3580524    0.1484509 -53.19  0.001514294    2.371    0.578
        79 -13.1663      4.9632     54.4835   8.0711013447e+01   6.6403344912e+01    0.9418586    0.6906896 -41.16  0.003574671    1.291    0.225
        80 -14.0317     67.2052     82.4406   6.0381533752e+01   5.2199438212e+01     1.584628    0.9309773 -45.79  0.005047547    1.793    0.442
        81 -12.7969     85.3483     73.5211   5.1731781042e+01   5.0440308927e+01     1.271756     0.603733  45.66   0.00542534    1.958    0.489
        82 -11.5709     88.9062    115.0009   6.1690765440e+01   4.1190394171e+01    0.4430782    0.2686215  50.37  0.001903688    1.784    0.439
        83 -10.3817    203.6255    116.0602   3.7384838239e+01   1.9969356385e+01    0.3140471    0.1670846  67.94  0.001526025    2.840    0.648
        84 -13.1087     53.9020     70.6843   6.1928746158e+01   5.6842186276e+01     1.463187    0.8496959 -74.80  0.004976427    4.564    0.781
        85  -9.3437    245.6075    113.5481   3.1897035430e+01   1.4288550444e+01    0.1108841   0.07908946 -53.29  0.000151525    1.048    0.045
        86 -11.5554     25.4141     43.7386   6.5777369347e+01   6.6109996149e+01    0.8393583    0.5516986  -5.69  0.004501014    1.770    0.435
        87 -11.7716     26.2874     36.1118   6.2394989871e+01   6.7226925000e+01    0.4089979    0.2642993   8.92  0.002232901    1.705    0.413
        88 -12.0318     55.8196     54.1327   5.5779229377e+01   5.9473204193e+01     1.620184    0.8781974  11.06  0.004904988    5.650    0.823
        89 -12.4639     14.4568     45.7509   7.2459299111e+01   6.7134863116e+01     0.601893    0.5229638 -61.09  0.001979544    1.521    0.343
        90  -9.6132    242.4660    112.1135   3.1990831872e+01   1.4926590050e+01    0.1599647   0.08291928 -46.82  0.000294315    1.445    0.308
        91 -12.6822     59.2206     66.0590   5.8395052079e+01   5.6784187999e+01    0.8402422    0.5111248  -3.51  0.003226829    3.341    0.701
        92 -11.8387     57.4005     59.5901   5.6998966686e+01   5.8262202892e+01    0.3481717    0.3110938  83.46 0.0005679706    1.416    0.294
        93 -12.7096     39.4587     56.0192   6.3323335129e+01   6.1910483130e+01    0.6695671    0.4325572 -41.24  0.003565785    1.656    0.396
        94 -12.3561     34.7759     52.5904   6.4314084077e+01   6.3233332173e+01    0.3236718     0.248551 -23.42 0.0003232619    1.359    0.264
        95 -12.9623     47.7815     53.8531   5.8936453395e+01   6.0932826601e+01     1.335374    0.7733632   3.50   0.00511136    3.535    0.717
        96 -12.2069     50.9803     48.3979   5.5700976008e+01   6.1273827382e+01     0.589721     0.490407 -24.34  0.001908257    1.318    0.241
        97 -11.6214    222.6650     88.0545   2.9988508006e+01   2.1474745425e+01    0.3220262    0.1814573  72.21  0.001941864    2.166    0.538
        98 -13.6574    193.8245     81.9562   3.2180210745e+01   2.7216613913e+01     1.600729    0.5478349 -50.51  0.006809781    2.602    0.616
        99 -12.7121    202.3999     77.8750   3.0365198719e+01   2.6339269743e+01    0.5516731    0.2894212 -89.41  0.002645052    2.952    0.661
       100 -11.2234    185.9665     45.2689   2.5825790621e+01   3.3900328781e+01    0.6165016    0.2189952  66.90  0.002528764    2.737    0.635
       101 -10.8845    186.6637     38.0015   2.4310194343e+01   3.4686772942e+01    0.2568718      0.21449 -74.66   0.00103028    1.129    0.114
       102 -11.6627    201.6709     32.7236   2.1963923357e+01   3.2563615794e+01    0.5745139     0.397807  69.59  0.004152311    1.540    0.351
       103 -11.0246    138.7561    112.1244   4.7907207366e+01   3.2251852213e+01    0.2576329    0.1906722  16.08 0.0009311629    2.036    0.509
       104 -10.9901    181.4360     61.9086   2.9705336252e+01   3.2493773994e+01    0.2665246    0.1809415 -65.91 0.0007578069    1.313    0.238
       105 -11.2968    196.7618     26.6027   2.1220915204e+01   3.4168014916e+01    0.5495616      0.18531  57.20  0.002638319    3.632    0.725
       106 -13.7698    203.4208     69.3369   2.8641299611e+01   2.7421335330e+01     1.002452    0.5197302 -89.30   0.00505201    2.710    0.631
       107 -11.2847     96.4631    110.8213   5.8382865509e+01   4.0727943295e+01    0.3689409    0.2052401 -33.02  0.001259347    2.395    0.582
       108 -12.3917    185.8355     58.3640   2.8465241885e+01   3.2164468464e+01    0.4209898    0.3108584 -73.90  0.001776671    1.163    0.140
       109 -11.8794    210.9279     47.4460   2.3874356895e+01   2.9108567962e+01    0.3814527    0.2246423 -74.62  0.001265579    1.560    0.359
       110 -11.5506    194.6061     41.9525   2.4323602144e+01   3.2714595975e+01    0.3616211    0.2359859  89.28    0.0014688    1.393    0.282
       111  -9.1427    211.0659    112.0000   3.5640563473e+01   1.9487862723e+01    0.1684013   0.06853694  53.03 0.0008048608    2.959    0.662
       112 -12.4196    197.9383     49.1393   2.5379934779e+01   3.1182511480e+01    0.4258249    0.3538986 -51.03  0.002787456    1.315    0.240
       113 -12.1688    203.6678     41.0580   2.3336974281e+01   3.1189827134e+01    0.5309723    0.3102822 -79.63   0.00341222    1.601    0.375
       114 -11.3286    201.9873     20.7383   1.9738923316e+01   3.3884132535e+01    0.3708395    0.1756956 -66.79   0.00207619    1.863    0.463
       115 -11.2997     63.1368    110.6963   6.9326742903e+01   4.6632816562e+01    0.2491595    0.1848652  49.18  0.001049595    1.453    0.312
       116 -10.6094     21.0888     37.8249   6.5834985803e+01   6.7681226682e+01    0.2091399    0.1594078   1.61 0.0002671907    1.224    0.183
       117 -12.3423     52.4435     86.0615   6.7033270623e+01   5.3942103356e+01    0.5604116    0.3272785 -14.98  0.002037014    2.966    0.663
       118 -10.7761     55.0392     81.9872   6.4848037841e+01   5.4386832622e+01    0.2391464    0.1949608  28.04 0.0003113943    1.156    0.135
       119 -11.9088    236.3687     86.1004   2.8280141137e+01   1.9687438165e+01    0.4169025    0.2318035  80.14  0.001706467    2.381    0.580
       120 -13.1430    161.6654     84.7974   3.7396152389e+01   3.2775005190e+01     1.231278     0.729224  34.09  0.005524658    2.981    0.665
       121 -11.4212    168.5222     80.4776   3.5373618249e+01   3.2148824486e+01    0.2621288    0.2159042  77.21 0.0007937143    1.193    0.162
       122 -11.6126    167.2369     76.9455   3.4806024463e+01   3.2963850129e+01    0.2386435    0.2056783 -59.69 0.0003717839    1.115    0.103
       123 -10.7130    175.3092     86.1987   3.5567108427e+01   2.9923397610e+01    0.3063672    0.1632623  49.51  0.001039062    2.173    0.540
       124 -11.7452    147.7233     83.6008   3.9543251013e+01   3.5756557304e+01    0.5642369    0.3270361 -54.25  0.001897272    1.710    0.415
       125 -12.7865     10.3294     82.8602   8.5168833507e+01   5.9801981170e+01    0.9193572    0.2361482 -49.07  0.003064387    3.120    0.680
       126  -9.7496    250.7822     85.0151   2.6801244764e+01   1.7788241059e+01    0.1589376   0.06849866 -52.81            0    1.747    0.428
       127 -10.6258    250.7313     81.6419   2.6268013199e+01   1.8268390264e+01    0.2984077    0.2252769  24.60  0.001607277    3.132    0.681
       128 -12.7871    215.0897     83.2673   2.9945714555e+01   2.3401115922e+01    0.3393136    0.2927414  83.36  0.002558163    1.284    0.221
       129 -11.0136    180.6761     82.7584   3.4082587115e+01   2.9477591131e+01    0.2646279    0.2233843  89.29   0.00137906    1.140    0.123
       130 -12.7041    177.3588     72.2298   3.2361820828e+01   3.1744843492e+01     1.085253     0.325802 -51.97  0.002581878    3.470    0.712
       131 -11.7835     83.3410     83.8377   5.5315210163e+01   4.8895342419e+01    0.2725152    0.2251211  47.05 0.0005061406    1.153    0.132
       132 -12.2690    222.8538     79.6468   2.8492470815e+01   2.2692405340e+01    0.2789704    0.1945688  88.39  0.001408541    1.518    0.341
       133 -10.8783    231.9985     78.2269   2.7363761612e+01   2.1478006438e+01    0.2306605    0.1378164 -89.26  0.001264642    1.989    0.497
       134 -11.6640    165.6130     66.0855   3.2680763395e+01   3.4957198018e+01    0.6556465    0.4492883  59.73  0.003918204    1.503    0.335
       135 -12.3582    249.5054     75.2790   2.5355413382e+01   1.9320602652e+01    0.2339203    0.1862046 -84.56 0.0009604582    1.309    0.236
       136 -11.0746    249.9891     66.6190   2.3941488980e+01   2.0421969613e+01    0.4712829    0.1175768 -41.99  0.002179751    3.274    0.695
       137 -10.6769    155.3510     76.6472   3.6617833107e+01   3.5369075751e+01    0.3265541    0.2212034  73.19  0.001289075    1.520    0.342
       138 -12.0712    223.5297     70.4597   2.6819705354e+01   2.3903045962e+01    0.1983805     0.165057 -62.81 0.0006389435    1.165    0.142
       139 -12.2089    219.9656     69.5216   2.6992884644e+01   2.4610150914e+01    0.2566002    0.2196311  49.13  0.001929084    1.737    0.424
       140 -10.4990     50.3124    109.9488   7.3961090116e+01   4.8753504200e+01    0.2052395    0.1923451 -34.60  0.000384322    1.055    0.052
       141 -10.6445     38.2829    110.0068   7.8744999449e+01   5.0341956282e+01    0.2134562    0.1899909 -50.05  0.000739202    1.117    0.105
       142 -10.8036    196.5967    107.9006   3.6828217113e+01   2.2504853766e+01     0.357365    0.2298541 -67.91  0.002006175    1.689    0.408
       143 -12.4210    242.3809     61.4899   2.3703659914e+01   2.2213758087e+01    0.4883997    0.3875847 -77.61 0.0001086778    1.209    0.173
       144 -11.9184    215.3811     42.2634   2.2577898658e+01   2.9003555522e+01    0.3670411    0.1637212 -49.91  0.000404627    1.760    0.432
       145 -13.2963    203.4563     60.7911   2.7032912939e+01   2.8625468072e+01     2.032465    0.8087593  86.25  0.006146661    7.917    0.874
       146 -14.0375    218.8391     61.4193   2.5666533024e+01   2.5919289420e+01     1.798209     0.773228  74.16  0.009676647    2.759    0.638
       147 -12.8938    221.9528     38.5847   2.1431852490e+01   2.8354762272e+01    0.6582485    0.3562724 -83.95 0.0009902144    1.799    0.444
       148 -10.7277    153.1510    108.2099   4.4075650408e+01   3.0246092803e+01    0.1862002    0.1519972 -81.60 0.0004948265    1.299    0.230
       149 -11.9075    161.3235    105.9447   4.2056452373e+01   2.9121440314e+01    0.3427717    0.2094113 -61.11   0.00120601    1.732    0.423
       150  -9.9283    209.8642    105.5630   3.4619134346e+01   2.0738582034e+01    0.1986755    0.1365852 -62.37 0.0009781849    1.321    0.243
       151 -12.7459    218.3029     75.3874   2.8196774790e+01   2.4041677206e+01    0.4229092    0.2300553 -36.83   0.00230932    2.019    0.505
       152 -12.2488    209.3522     58.4910   2.6025438419e+01   2.7917029811e+01    0.2944794    0.2042983  84.32  0.002051309    1.406    0.289
       153 -10.6986    191.5343    103.0877   3.6615466756e+01   2.4179151127e+01     0.394013     0.120819 -49.81  0.001538034    2.962    0.662
       154 -11.6450    184.9201     67.3273   3.0381527922e+01   3.1051993736e+01    0.3120346    0.2307563 -30.40  0.001816617    1.780    0.438
       155 -11.7290    127.1951     58.9670   3.7370831487e+01   4.3996471495e+01    0.5054254    0.2543429  42.56   0.00223082    2.533    0.605
       156 -10.0126    162.4532     59.5312   3.1684775761e+01   3.6550455150e+01    0.2347093     0.160547  67.05 0.0006106729    1.409    0.290
       157 -11.8748    160.8066     54.8230   3.0865596713e+01   3.7550862452e+01    0.4539984    0.3058218 -80.02  0.001547804    1.484    0.326
       158 -11.1267    100.2192     54.6482   4.2068609216e+01   5.0445631280e+01     0.494541    0.4139558  39.79  0.002591141    1.267    0.211
       159 -10.8515    248.1202     56.1044   2.2415741325e+01   2.2067595275e+01    0.2139174    0.1885759 -79.33  0.001889936    1.403    0.287
       160  -9.6012    179.2186     48.0142   2.7109743163e+01   3.4830063229e+01    0.1498139    0.1061485 -34.83 0.0003802413    1.713    0.416
       161 -11.5234    180.0124     52.0663   2.7853450469e+01   3.4135896038e+01    0.5120333    0.2506875  72.67  0.002186207    2.069    0.517
       162 -10.4971    170.3154     56.0615   2.9870658185e+01   3.5475168627e+01    0.2175017    0.1651952  82.71  0.000931296    1.206    0.171
       163 -10.5282     69.6433     54.9205   5.1021152608e+01   5.6731856782e+01    0.2855886    0.2164132  82.99  0.001496698    1.877    0.467
       164 -11.2075    174.2716     54.7261   2.9089619581e+01   3.4884046032e+01    0.3093935    0.2165449 -65.49 0.0009663633    1.260    0.206
       165 -10.9397    245.3263     49.9913   2.1643220942e+01   2.3257467671e+01    0.2870181    0.1477104  76.16 0.0002845477    2.112    0.526
       166 -10.6537    247.5728     46.7196   2.0974409442e+01   2.3331917872e+01    0.3208433    0.1493068 -79.59  0.001519928    2.481    0.597
       167 -12.4065    246.7046     42.1388   2.0311975302e+01   2.4023125060e+01    0.2830364    0.1587137 -68.74   0.00100026    1.444    0.308
       168 -12.2670    172.1356     44.8239   2.7250398289e+01   3.6629507305e+01    0.5655349    0.4966698  81.64  0.002529799    1.227    0.185
       169 -11.0255    177.9954     37.6975   2.5117890409e+01   3.6384052655e+01    0.3068946    0.2432525 -15.52  0.001090452    2.099    0.524
       170 -11.0881    167.5849     32.6067   2.5152982906e+01   3.9053575233e+01    0.3812954    0.3514417 -63.44  0.001819005    1.315    0.240
       171 -10.7431    183.4550    103.1695   3.7818684325e+01   2.5573355827e+01    0.2782545    0.2106796 -54.45  0.001166643    1.142    0.125
       172 -10.6193    165.0779     38.8808   2.6795282416e+01   3.8792860064e+01    0.2595714    0.1688041 -72.93 0.0003643291    1.427    0.299
       173 -11.5054     99.7039     47.6889   4.0137468017e+01   5.1559712838e+01    0.4954771    0.2418669  42.73  0.001813917    2.249    0.555
       174  -9.8359    105.4647     43.2569   3.7516821255e+01   5.0913739769e+01    0.1524506     0.119282 -59.39 0.0009071507    1.388    0.279
       175 -10.3058    161.9301     47.5895   2.9102610527e+01   3.8308626731e+01    0.3154282    0.1715348  77.36  0.001692401    1.846    0.458
       176  99.0000    142.7791     46.1977   3.1475675410e+01   4.2465157296e+01     1.120097     0.366883  64.74  0.003975615    2.922    0.658
       177 -11.2022    144.7566    103.2173   4.4623680311e+01   3.2816274417e+01    0.3182361    0.2697958  12.29  0.001626583    1.612    0.380
       178 -10.7413     41.1854     45.1655   5.8693252896e+01   6.3473588824e+01    0.3189391    0.2517011  49.38   0.00126018    1.389    0.280
       179 -10.8512     35.7935     42.6097   6.0211656868e+01   6.4755214337e+01    0.5320294    0.1792021  39.76  0.002018725    2.636    0.621
       180 -10.1388     39.7965     39.8878   5.7334551442e+01   6.4528526378e+01    0.4254911    0.3094875 -12.02  0.002455602    1.598    0.374
       181  -9.4839    121.2798     45.2313   3.4870309540e+01   4.7210536718e+01    0.2087731     0.129753 -79.13  0.001039955    2.048    0.512
       182 -10.6410     93.6484     42.7771   4.0119129199e+01   5.3535394252e+01    0.3115692    0.2292245 -16.28  0.001745743    1.872    0.466
       183 -11.0151     99.5040     40.9917   3.8179471913e+01   5.2506161066e+01    0.3582704    0.2692965 -63.41  0.002109783    1.511    0.338
       184 -10.9613    126.2965     44.2376   3.3692007170e+01   4.6254562489e+01    0.4025231    0.2348601 -59.16  0.002099964    1.906    0.475
       185 -10.9585    132.3409     39.9093   3.1548675898e+01   4.5507531119e+01    0.3234787    0.2178327  61.02  0.001211893    1.366    0.268
       186 -10.0848    250.1949     37.7490   1.9412681697e+01   2.4033070232e+01    0.1767164    0.1106936 -51.92  0.001390523    1.244    0.196
       187  -8.2487    104.4094     27.4184   3.3074806054e+01   5.3078449846e+01    0.3016113    0.1224482 -31.72  0.001374731    2.982    0.665
       188 -10.8253    112.9759     32.5705   3.2930096944e+01   5.0611875223e+01    0.3456189    0.2478081  28.99  0.001688378    2.000    0.500
       189  -9.8304    108.2450     32.7467   3.3884463187e+01   5.1625485996e+01    0.3042394    0.2266224  59.64  0.001879614    1.187    0.157
       190  -9.7036    152.2694     33.7717   2.7206743152e+01   4.2039652720e+01    0.1385741     0.122889  75.46 0.0003454377    1.231    0.187
       191 -10.4479    131.5932     33.4571   3.0015354439e+01   4.6459665495e+01    0.2522774    0.1498277 -75.26 0.0007029331    1.941    0.485
       192 -10.1512    122.5418     33.2630   3.1424969584e+01   4.8443049976e+01     0.213313    0.1084823 -44.51 0.0009759646    2.069    0.517
       193 -11.2261     92.7642     32.8574   3.7237388004e+01   5.4985521448e+01    0.3312764    0.2619545  22.25  0.001827042    1.632    0.387
       194 -10.3303     75.0285     33.6423   4.2125471556e+01   5.8666939121e+01    0.2648616    0.1666683  60.08 0.0008873129    1.460    0.315
       195 -10.4275    181.9113     31.7982   2.3528002938e+01   3.6341942277e+01    0.2936429     0.175385 -44.72  0.001878221    1.602    0.376
       196  -9.9319    128.5478     27.4757   2.8935298816e+01   4.7808768172e+01    0.2987098    0.1193179 -33.49   0.00139703    2.897    0.655
       197 -11.5466     86.0360     28.4285   3.7425515626e+01   5.6957545709e+01    0.3110969     0.199029  55.80 0.0006632102    1.310    0.237
       198  -9.6378     34.9679     26.3563   5.4107343741e+01   6.7265486903e+01    0.2291382    0.1647645 -10.59 0.0008723356    1.614    0.381
       199 -13.2207    116.5155     93.8177   4.8689414579e+01   4.0288413382e+01     1.039337    0.5560234 -66.40 0.0008023648    3.043    0.671
       200  -9.4250     27.2345     18.6619   5.4477976784e+01   6.9534662784e+01    0.2133863    0.1391152  29.81 0.0005748535    1.291    0.225
       201 -11.3981     29.0905     26.9214   5.7179471038e+01   6.8151399779e+01    0.3234921    0.2144271  -6.72  0.001664034    1.856    0.461
       202 -12.2492    134.6214     71.1020   3.9009976605e+01   4.0537439070e+01     1.270761    0.4988772  61.07  0.004776571    2.713    0.631
       203  -9.4050    140.6531     28.5070   2.7469916501e+01   4.5096980912e+01    0.1173884   0.09611183 -82.12 0.0007895203    1.063    0.060
       204 -10.2976    123.5636     26.5312   2.9454836636e+01   4.8994221958e+01    0.3650283    0.1628944 -42.44   0.00184556    2.341    0.573
       205 -10.1673    114.4874     28.0024   3.1370051208e+01   5.0808197675e+01    0.2004696    0.1392261  54.39  0.001209853    1.376    0.273
       206 -10.7724     36.0048    248.9935   9.7792378954e+01   1.4417884924e+01    0.2383482     0.112082 -45.95  0.001037681    2.591    0.614
       207 -11.2113    246.6543     22.7058   1.7299718507e+01   2.6295534758e+01    0.1622573    0.1080329 -59.42 0.0007979102    1.107    0.096
       208 -12.7311    136.7293     82.4778   4.1380102587e+01   3.8198438184e+01    0.7271569    0.5050703 -54.29  0.003911915    1.422    0.297
       209 -10.7370    175.9743     24.6302   2.2631395251e+01   3.8318671045e+01    0.3052258    0.1567781 -35.22  0.001771715    2.207    0.547
       210 -10.2108    168.2801     26.2492   2.3719570204e+01   3.9653442099e+01    0.1862434    0.1495448 -79.85  0.001350426    1.043    0.042
       211 -12.0987     99.9664     78.9497   4.9057966022e+01   4.6477410087e+01    0.9132933    0.4790942 -53.38  0.003960818    2.177    0.541
       212 -10.5357    135.1705     25.3007   2.7423615632e+01   4.6625906118e+01    0.3637586    0.2048187  79.49  0.001756407    1.633    0.388
       213  -9.2006     90.4752     26.5719   3.5769388990e+01   5.6209699091e+01    0.1254993    0.1043349  69.63 0.0002033124    1.061    0.058
       214 -11.8324     98.5662     21.9850   3.2592640980e+01   5.4945396856e+01    0.4903102     0.207728  65.85  0.002285017    2.068    0.516
       215 -10.8469    104.5827     20.1864   3.0895780085e+01   5.3816773448e+01     0.356021    0.2024341  74.06  0.001953611    1.608    0.378
       216  -9.9673    163.0716     21.1355   2.3147433388e+01   4.1266285940e+01    0.1851037    0.1444262  52.53 0.0004547335    1.651    0.394
       217 -13.2476     91.7102     65.3389   4.7461140698e+01   5.0559273573e+01     1.418447     1.048529 -73.18  0.007399758    1.744    0.426
       218  -9.4846    180.0243     20.1868   2.1366671691e+01   3.8026425186e+01    0.1367202   0.07114784  76.16  0.000406037    1.700    0.412
       219 -11.0597    130.0365     19.3935   2.6630802684e+01   4.8359893287e+01    0.2439473    0.1728788  82.61 0.0004251143    1.186    0.157
       220 -10.0784     13.7110     19.0700   6.2115727559e+01   7.1498965806e+01    0.2483834    0.1696306  49.89  0.001462788    2.013    0.503
       221  -9.2863    158.2125     19.6062   2.3310080046e+01   4.2417244810e+01    0.1539153   0.08831464  65.25 0.0004195468    1.614    0.380
       222  -9.3043    115.3474     19.6562   2.8889637778e+01   5.1518069066e+01    0.1283794   0.07991453 -75.86 0.0005185523    1.800    0.444
       223  -9.9046     19.8129     19.1663   5.8636510089e+01   7.0620935438e+01    0.2024393     0.135612  38.93  0.001075761    1.382    0.277
       224  -9.4719    139.3434     16.7526   2.4767068681e+01   4.6643497590e+01    0.1414077    0.1112156 -26.71 0.0009547845    1.700    0.412
       225 -11.2334     90.4858     51.0669   4.3492766427e+01   5.3049426758e+01    0.2231589    0.1878147  55.26 0.0003382314    1.056    0.053
       226  -9.7778    121.2873     17.0362   2.7255174204e+01   5.0491082499e+01    0.1601354    0.1295437  85.36  0.000465329    1.035    0.034
       227 -10.9587     94.1329     16.0784   3.1639744932e+01   5.6510934286e+01    0.2389655    0.1441142  57.78  0.001394898    1.373    0.272
       228 -10.2946    154.0139     16.0489   2.2950653833e+01   4.3650848394e+01    0.1774858    0.1410443 -87.55 0.0008418623    1.034    0.033
       229 -12.9022    152.5384     62.8557   3.3911405878e+01   3.8081749505e+01     1.131386    0.7265637  44.09  0.006084238    1.992    0.498
       230 -12.4912    140.4216     56.2928   3.4314838999e+01   4.1569480276e+01    0.9193657    0.7789525 -70.29  0.005002496    1.111    0.100
       231 -11.2715    113.4248    246.4347   7.8328615319e+01   6.4004234552e+00    0.3938032    0.2232359 -31.55   0.00141095    1.940    0.485
       232  -9.2844     36.6356     14.2610   4.8087134794e+01   6.8442994760e+01    0.1126798   0.08737242  65.26 0.0006979135    1.639    0.390
       233 -10.2820    187.2529     13.1544   1.9404237825e+01   3.7403210510e+01    0.1962228   0.09602536 -74.69 0.0005067153    1.887    0.470
       234  -9.4318    159.7197     13.7459   2.1866322653e+01   4.2721410823e+01   0.09809428   0.07663394  61.59 0.0002175846    1.467    0.318
       235 -10.0387    180.5132    243.4858   6.3260668376e+01  -3.8182564291e-01    0.1227372   0.09823041 -14.76 6.731924e-05    1.027    0.026
       236 -13.4843     80.7934     41.9143   4.3254855127e+01   5.6383931385e+01     1.225252    0.5672745  56.12  0.005620307    1.958    0.489
       237 -12.2360     49.0696     28.6592   4.9037370229e+01   6.4453404608e+01     1.835135    0.3045435  45.96  0.005527674    4.809    0.792
       238  -9.0636    236.6816    146.2656   3.8300088003e+01   1.0228666666e+01    0.1051307   0.07715439 -66.49 0.0001949501    1.553    0.356
       239  -9.8475    152.8934    124.1132   4.7564390335e+01   2.7187770929e+01    0.2004575    0.1728268 -74.26  0.001144372    1.193    0.162
       240 -12.1245     52.5037     34.2753   4.9890536756e+01   6.3072693645e+01     1.237022    0.4436483  38.22  0.003600305    2.849    0.649
       241  -9.7971    220.4865    121.4314   3.6120083497e+01   1.6507907326e+01    0.1174339   0.09372849 -50.77 0.0002448614    1.034    0.033
       242  -9.5255    144.9736     10.5025   2.2627252773e+01   4.6079263480e+01    0.1640289   0.07703655 -81.43 0.0008077741    2.396    0.583
       243 -10.2938     57.4905    120.0786   7.3555431925e+01   4.5202251082e+01    0.2234637    0.2051452  17.15 0.0005098777    1.076    0.070
       244 -12.0483    112.5400     67.9577   4.2873233557e+01   4.5732150045e+01    0.3996506    0.2732943  48.63 0.0007981767    1.420    0.296
       245 -13.8984    117.2888     61.5376   4.0072218600e+01   4.5734241173e+01     0.930212    0.6574768  84.52  0.004136912    1.611    0.379
       246 -12.8738     80.0035     59.0834   4.9007376489e+01   5.3992869250e+01    0.7294967    0.4666048  37.85  0.003387594    1.557    0.358
       247 -13.1019     79.6272     50.7581   4.6476660571e+01   5.5365435775e+01    0.7829564    0.4207137  38.18  0.003651177    1.964    0.491
       248 -11.5190     75.8913    103.8914   6.3155736187e+01   4.6059055742e+01    0.2304448    0.2040835  -8.17 0.0004586976    1.224    0.183
       249 -10.3504    165.1232    102.3190   4.0609099585e+01   2.9067576073e+01    0.2301933     0.171282 -41.75 0.0008259761    1.346    0.257
       250  -9.5501    215.2817    102.6710   3.3424654780e+01   2.0354963847e+01    0.1197003   0.07531364 -66.11 0.0003673127    1.604    0.377
       251  -9.7417     52.0262     12.6044   4.1432678486e+01   6.5704577798e+01    0.1737063   0.09527042  51.86 0.0003607282    1.461    0.316
       252 -12.5571    106.2590     97.2944   5.2218110311e+01   4.1677024713e+01    0.4897048    0.3730092 -24.23 0.0006347721    1.657    0.396
       253 -12.1106    106.9953     92.4830   5.0783944781e+01   4.2483780972e+01    0.5691053    0.2457442  39.29  0.001815874    2.586    0.613
       254 -10.0708    242.7980    101.0000   3.0128682335e+01   1.6568015083e+01    0.1623074    0.1214332 -53.19 0.0004174406    1.049    0.047
       255  -9.7092    244.5209     97.5162   2.9389335870e+01   1.6848223647e+01    0.1687718   0.07470227 -51.85 0.0009612882    1.730    0.422
       256 -13.0560     86.6268     98.3885   5.8225902176e+01   4.5290339821e+01    0.7651513    0.4022804  33.49  0.002647246    2.054    0.513
       257 -11.0826     89.1501     93.9826   5.6278811050e+01   4.5729015643e+01    0.2434035    0.2274312  13.00            0    1.135    0.119
       258 -11.1380     33.9640    100.2198   7.8341734348e+01   5.3275596989e+01    0.2520093    0.2063518 -54.80 0.0006429616    1.236    0.191
       259 -10.8549    158.9299     99.0797   4.0999124833e+01   3.0826911241e+01    0.2161633    0.1733482 -56.77  0.000338531    1.144    0.126
       260 -12.0414    153.2432     96.7099   4.1510827168e+01   3.2356475927e+01    0.5970511    0.4569719  62.51  0.002563531    1.340    0.254
       261 -10.6808    170.4849     97.7943   3.8750313915e+01   2.8865383856e+01    0.2810316    0.2201408 -58.10  0.001556676    1.139    0.122
