#   1 NUMBER                 Running object number                                     
#   2 MAG_AUTO               Kron-like elliptical aperture magnitude                    [mag]
#   3 X_IMAGE                Object position along x                                    [pixel]
#   4 Y_IMAGE                Object position along y                                    [pixel]
#   5 X_WORLD                Barycenter position along world x axis                     [deg]
#   6 Y_WORLD                Barycenter position along world y axis                     [deg]
#   7 A_WORLD                Profile RMS along major axis (world units)                 [deg]
#   8 B_WORLD                Profile RMS along minor axis (world units)                 [deg]
#   9 THETA_WORLD            Position angle (CCW/world-x)                               [deg]
#  10 FWHM_WORLD             FWHM assuming a gaussian core                              [deg]
#  11 ELONGATION             A_IMAGE/B_IMAGE                                           
#  12 ELLIPTICITY            1 - B_IMAGE/A_IMAGE                                       
         1 -13.5515    205.6867     42.4506   3.8038433615e+01   2.9421605809e+01     1.575563      1.31678  27.48  0.006967925    1.724    0.420
         2 -13.4289    218.3685     31.0853   3.4188495259e+01   2.8158418152e+01    0.9715527    0.7937912  45.72  0.006308348    1.652    0.395
         3 -11.6865    247.5315      8.3149   2.7432342377e+01   2.4983412692e+01    0.4099053    0.4071982 -43.51  0.003052457    1.569    0.363
         4 -11.7616    241.1652      6.4279   2.7478889977e+01   2.6400771643e+01    0.5732917    0.2678994 -45.36  0.002972987    1.763    0.433
         5 -11.5497    246.5323      2.5010   2.6435849212e+01   2.5795351211e+01    0.4949554    0.2188756  82.43  0.002855641    2.100    0.524
         6 -10.5696      2.2331      9.5219   8.5739573791e+01   7.3503787387e+01    0.4797646   0.09366905 -48.79   0.00162571    6.069    0.835
         7 -10.1173     49.8952      3.2911   5.7793537607e+01   6.8043344557e+01    0.4437001    0.2341484  63.43  0.001950421    3.677    0.728
         8  -8.0062    224.2729    206.7126   7.0648463968e+01  -2.4792346725e+00    0.1091359    0.1022076 -49.46 0.0001967794    1.508    0.337
         9  -9.5096    140.0148    250.0226   9.5074299910e+01   2.3499484654e+00    0.2086746    0.1441276  55.84  0.001141712    1.765    0.433
        10 -10.0117    102.2088    250.1951   1.0318113504e+02   7.7648231540e+00    0.2526064    0.1763428  48.75 0.0006765467    1.292    0.226
        11 -11.1176    101.5987    243.5804   1.0255805958e+02   9.1283184717e+00    0.4847529    0.2126691 -64.14   0.00215313    2.755    0.637
        12 -12.1882     65.8604    170.0044   1.0159386945e+02   3.1177120817e+01     1.165189    0.5687078 -28.93   0.00299449    4.803    0.792
        13 -14.1235     68.5501    150.5634   9.7624852043e+01   3.5844259104e+01     3.631149     2.251642  76.27  0.007197765    2.348    0.574
        14  -9.3134     99.5551    180.9067   9.4218089255e+01   2.3414393748e+01    0.2616961    0.2120515  11.15 0.0005809998    1.440    0.306
        15 -14.7308      5.9220    140.7523   1.1490319845e+02   4.4721656810e+01     5.672968     1.702699 -80.18   0.01540684    3.462    0.711
        16  -9.7530    186.2693    174.3864   7.1886137996e+01   9.5159740754e+00    0.3381063    0.2973796  50.85   0.00186017    1.339    0.253
        17  -9.9956     86.6998    173.8486   9.6475260323e+01   2.7196142911e+01    0.5030429    0.3225695  20.95  0.002228925    1.862    0.463
        18 -10.8950    240.3327    169.4830   6.0663110618e+01   1.5309353659e+00    0.2579334    0.1985458  -9.76 0.0008589404    1.299    0.230
        19  -8.7650    110.6632    167.4993   8.8819161353e+01   2.4857189782e+01     0.258009    0.1878783 -82.42  0.001141381    1.760    0.432
        20  -9.5557     45.6564    166.5210   1.0670305193e+02   3.4573981964e+01    0.2757017    0.1989322  75.75 0.0004586539    1.456    0.313
        21  -9.8296    190.9883    190.9999   7.4223749957e+01   5.4227176650e+00    0.4624008    0.2750274 -65.68  0.001721774    3.545    0.718
        22  -9.2142    149.6827    191.8937   8.3610144402e+01   1.2309413068e+01    0.3259419    0.2446244  88.01  0.001483737    2.101    0.524
        23  -9.9161     32.4828    156.0177   1.0904084429e+02   3.8670725758e+01    0.2468836    0.1794742 -34.74 0.0008022623    1.613    0.380
        24 -10.2512     28.8204    155.6022   1.1003049866e+02   3.9126299999e+01    0.2459439    0.2116104  67.84 0.0007889431    1.179    0.152
        25 -11.6048     85.0106    152.5696   9.3136699495e+01   3.2889886109e+01    0.6561009    0.4651321 -19.11  0.002898115    1.903    0.475
        26  -9.0501    174.6163    148.8417   6.8893657551e+01   1.7026457104e+01    0.2182741    0.1381124 -53.34  0.000444542    1.689    0.408
        27 -15.1785     10.3404    209.2526   1.1945516372e+02   2.7671422741e+01     2.498589       1.2407 -80.68  0.006475513    1.760    0.432
        28 -10.3093    133.5064    144.1262   7.7736820819e+01   2.6286372693e+01     1.056774    0.2703088 -53.81  0.002472037    5.311    0.812
        29  -9.9058     32.9345    144.0517   1.0730224770e+02   4.1725447779e+01    0.4352168    0.3170973  36.02  0.002365665    1.505    0.336
        30 -11.6416     87.0964    138.0778   8.9570116320e+01   3.6270791601e+01    0.3480918    0.2929921 -60.27 0.0004055476    1.157    0.136
        31 -10.1961     99.9889    138.6374   8.5833723798e+01   3.3941177725e+01    0.5625697    0.3733121 -17.27  0.002230592    2.241    0.554
        32  -9.6799    105.8312    130.8406   8.2315669978e+01   3.4819862689e+01    0.3709565    0.2985995 -59.01  0.001476704    1.264    0.209
        33  -9.5372    109.9654    129.5165   8.0790551215e+01   3.4369379986e+01    0.3807173    0.2725785  10.60  0.001113342    1.849    0.459
        34  -9.8307    135.7451    129.1397   7.3573932045e+01   2.9336564975e+01    0.3922816     0.131721 -44.96  0.001201816    2.910    0.656
        35  -9.5149    111.1179    203.8046   9.4994687477e+01   1.6134060042e+01    0.2150147    0.1831132  59.93 0.0004524052    1.214    0.176
        36  -8.7488     80.9804    183.5101   9.9547663221e+01   2.5632020885e+01    0.2118506    0.1423437  32.36 0.0004022668    1.522    0.343
        37  -9.6542     97.2847    125.1186   8.3504287361e+01   3.7779454951e+01    0.3021871    0.2421418 -10.44  0.001424099    1.485    0.326
        38 -14.3162     36.9271    196.2220   1.1233618100e+02   2.8101689268e+01     2.758734     1.300074  73.40  0.007717227    2.707    0.631
        39 -16.5705     15.5999    242.2913   1.2035066282e+02   2.0014930736e+01     6.955393     2.701938  21.21   0.02919266    4.179    0.761
        40  -9.1207    106.8615    118.4311   7.8949195264e+01   3.7623646317e+01    0.2194375    0.1996436 -36.20 0.0003486358    1.072    0.067
        41  -9.9238    231.3175    113.6570   5.0537136879e+01   1.2895301987e+01    0.2612181    0.2230874 -52.09 0.0007482542    1.075    0.069
        42 -13.7676     46.3117    187.3426   1.0907940951e+02   2.9226177010e+01     2.096363     1.170121  57.89  0.009848735    1.893    0.472
        43 -10.8902    194.6437    197.7891   7.4772905657e+01   3.5396567856e+00    0.4278398    0.2609977 -63.07  0.001761193    3.002    0.667
        44  -9.8042     51.9810    103.9848   9.3516434589e+01   4.9892022149e+01    0.1792796    0.1600785 -41.72 0.0008944994    1.003    0.003
        45 -10.9147    249.6094    100.3357   4.5264823233e+01   1.1859737893e+01    0.4568381    0.1339239 -44.29  0.001770484    2.743    0.635
        46 -10.8874    243.2246    102.1510   4.6450811941e+01   1.2692960008e+01    0.3814774    0.1791026  63.91  0.001704471    2.916    0.657
        47  -9.0822    205.5202    110.1674   5.3856227934e+01   1.8531709396e+01    0.2378761    0.2036869  55.13 0.0006230059    1.288    0.223
        48  -9.0235     31.3779     95.6300   9.9263319344e+01   5.4118342017e+01    0.3334491    0.1318163  39.16   0.00131401    3.051    0.672
        49 -11.2947    246.5032     91.8501   4.3911800875e+01   1.3786333306e+01    0.3060644    0.1887663 -42.62  0.001702079    1.344    0.256
        50  -9.3360     52.8358     91.1691   8.9993595984e+01   5.2834243971e+01    0.2059969    0.1986183 -89.79 0.0006765032    1.233    0.189
        51  -9.0262     18.1704     90.2196   1.0321344775e+02   5.6479720588e+01    0.1647129    0.1497745  79.61 0.0003981935    1.325    0.245
        52  -8.7269    160.4725     83.5284   5.5654892753e+01   3.3347904385e+01    0.1466622    0.1422469 -76.18 0.0001107551    1.004    0.004
        53  -8.7052     71.8206     83.0610   8.0623131851e+01   5.1909859929e+01    0.2086141    0.1951375  69.63 0.0005859297    1.322    0.243
        54  -7.9705    184.6907     77.2897   4.9457507290e+01   2.8884958928e+01    0.1449032    0.1047962 -73.27 0.0003660107    1.579    0.367
        55  -8.2086    129.6383     64.7658   5.7146941473e+01   4.3757061266e+01    0.1476099    0.1065939  29.77 0.0006904477    1.587    0.370
        56  -8.8416     48.0643     62.3553   8.3314529151e+01   5.9650533191e+01     0.183799    0.1593063  12.26 0.0006530785    1.158    0.136
        57 -10.5107     13.5633     60.1285   9.8029430445e+01   6.3551243735e+01    0.2780628    0.1987575 -55.22 0.0005798734    1.309    0.236
        58 -12.4067    196.1620     49.0275   4.0750519196e+01   3.0635804837e+01    0.7833526    0.5349422  48.08  0.001128644    1.718    0.418
        59 -11.1527    119.3973    244.7226   9.8819525934e+01   6.3320523734e+00    0.3172134    0.2697146  70.65  0.001123087    1.348    0.258
        60  -9.4610    122.5613    199.5547   9.1508906419e+01   1.5234710872e+01    0.3484718    0.2395362 -77.01  0.001593056    1.953    0.488
        61  -9.1325    188.1721     30.8440   3.7355390366e+01   3.4810703159e+01    0.1675262    0.1495127  49.09 0.0006946787    1.341    0.254
        62  -8.8096    198.0491     23.5245   3.4523168856e+01   3.3455028302e+01    0.1861136    0.1518285 -50.20 0.0006434983    1.226    0.184
        63  -8.6480    189.4999     15.0016   3.3415597473e+01   3.6303394726e+01    0.1752941    0.1141687 -39.08  0.001027406    1.581    0.368
        64 -11.7217    145.1051    227.8126   9.0766270315e+01   5.6838560390e+00    0.5069118     0.288665  24.53  0.002388779    1.790    0.441
        65  -9.8467    203.8285    200.3972   7.3405490629e+01   1.6188332620e+00    0.1946049    0.1197098  20.85  0.000953498    1.738    0.425
        66  -7.9398     33.2582    210.6365   1.1449315101e+02   2.5087757302e+01    0.1354289   0.08051378  69.63 0.0006972721    1.631    0.387
        67 -10.4813    119.8180    213.6247   9.4406824268e+01   1.2573015407e+01    0.3845382    0.2165658 -56.99  0.001761913    1.927    0.481
