#   1 NUMBER                 Running object number                                     
#   2 MAG_AUTO               Kron-like elliptical aperture magnitude                    [mag]
#   3 X_IMAGE                Object position along x                                    [pixel]
#   4 Y_IMAGE                Object position along y                                    [pixel]
#   5 X_WORLD                Barycenter position along world x axis                     [deg]
#   6 Y_WORLD                Barycenter position along world y axis                     [deg]
#   7 A_WORLD                Profile RMS along major axis (world units)                 [deg]
#   8 B_WORLD                Profile RMS along minor axis (world units)                 [deg]
#   9 THETA_WORLD            Position angle (CCW/world-x)                               [deg]
#  10 FWHM_WORLD             FWHM assuming a gaussian core                              [deg]
#  11 ELONGATION             A_IMAGE/B_IMAGE                                           
#  12 ELLIPTICITY            1 - B_IMAGE/A_IMAGE                                       
         1 -12.6331    157.2123     52.8530   6.9289854432e+01   3.8541597210e+01      1.13176     0.992848 -38.82  0.003811757    1.188    0.158
         2 -12.9117    169.4249     23.7606   5.8881265058e+01   3.9317170729e+01    0.9867059    0.8472188 -82.06  0.004747203    1.029    0.028
         3 -10.1952    189.4847     15.0831   5.4535622016e+01   3.5392141339e+01    0.2728008    0.1329841 -18.62  0.001203408    2.690    0.628
         4  -9.2062    187.1586    242.1370   1.0368291326e+02   9.9967696690e-01    0.3505773    0.1271897  29.76  0.001740699    2.258    0.557
         5 -10.0524    243.3748    246.1804   9.4693550688e+01  -5.5789537329e+00    0.2143248    0.1752643  28.58 0.0001948378    1.899    0.474
         6 -10.8422    248.6604    244.2218   9.3608320838e+01  -5.8845113121e+00    0.6330911    0.2086149 -33.02  0.003567634    2.818    0.645
         7 -15.5849     61.7070    142.9294   1.1988115229e+02   3.8990279196e+01     7.386417     4.333435  16.00   0.03094571    2.114    0.527
         8  -9.7770    244.2343    185.2522   8.5057159903e+01   1.4139647870e+00    0.2420182    0.2144565 -57.45  0.001115373    1.965    0.491
         9  -9.6674    152.1493    239.2221   1.1012363837e+02   5.7960967860e+00    0.3625272    0.2213842 -11.06  0.001998216    2.133    0.531
        10 -10.6150    232.8509    180.6599   8.6002439954e+01   3.4540774787e+00    0.2851744     0.186972  33.90 0.0009912831    1.631    0.387
        11 -11.4114    234.6067    175.7145   8.4853046431e+01   3.8952629027e+00     0.458884    0.2192136  32.49    0.0024845    2.208    0.547
        12  -9.4731     20.8780    216.2595   1.3791882619e+02   2.6274822886e+01    0.1763691    0.1504695  72.06 0.0002402328    1.178    0.151
        13 -11.8830    187.2115    176.1677   9.3186948096e+01   1.0713480276e+01    0.6066778    0.3787605 -45.17  0.001211984    1.766    0.434
        14  -9.7801    186.8189    166.2097   9.1393576450e+01   1.2435716414e+01      0.35908    0.2479142 -49.07   0.00113004    1.689    0.408
        15  -8.2854    166.8021    177.1684   9.7532811590e+01   1.3831338828e+01    0.1803502    0.1432881   2.90  0.001017351    1.261    0.207
        16 -10.0480    193.7558    171.9516   9.1151365873e+01   1.0371923592e+01    0.2782603    0.2361911  -9.02 0.0006446272    1.047    0.045
        17  -9.7829      9.1756    213.7391   1.4056434495e+02   2.7866687339e+01    0.2589096    0.1995615  10.41 0.0004246137    1.610    0.379
        18 -11.2345    232.4308    170.0618   8.4172284226e+01   4.9654894528e+00    0.4284107    0.3299424 -71.57  0.002009373    2.839    0.648
        19 -10.3227    176.7271    170.0813   9.4145418078e+01   1.3439620299e+01    0.3117242    0.1781403 -43.35  0.001522871    1.817    0.450
        20  -9.4851    154.3362    171.0347   9.9145769183e+01   1.7055378149e+01    0.2323924    0.1767016  22.59 0.0002971012    1.270    0.212
        21 -10.4956    201.4967    168.2075   8.9017104685e+01   9.7604548770e+00    0.2290011    0.2045182 -21.52 0.0002838861    1.155    0.134
        22  -9.9343     16.1812    210.6810   1.3879669202e+02   2.7883288565e+01    0.2819761    0.2052512  73.52  0.001481767    1.248    0.198
        23 -11.9443     11.1628    206.8187   1.3984924395e+02   2.9155502323e+01    0.6472671    0.4140578  13.02   0.00354889    1.871    0.465
        24 -10.4504    188.2095    154.7458   8.8873224906e+01   1.4151483577e+01     0.597428    0.3798954  31.67  0.003082181    1.610    0.379
        25  -8.5354    177.7604    157.0046   9.1391647713e+01   1.5568819507e+01    0.1832761    0.1650285 -14.74 0.0001928151    1.051    0.049
        26 -11.4094    134.1969    147.1555   9.9294410466e+01   2.5540841338e+01     1.346183    0.3994963 -55.21  0.003561891    5.144    0.806
        27 -11.5717     28.2061    146.1165   1.3133680718e+02   4.2076904127e+01    0.7317618    0.3923378 -62.17  0.003401506    1.838    0.456
        28  -8.5328    221.1558    151.1196   8.2374791437e+01   9.3483121590e+00    0.1748211     0.140995 -11.61 0.0002689273    1.115    0.103
        29 -14.3650     53.3417    241.1437   1.3182355267e+02   1.7981501991e+01    0.3818843    0.3562009 -44.13  0.001255487    1.449    0.310
        30 -10.3504    143.7437    146.0831   9.6701305655e+01   2.3942744439e+01    0.6566797    0.3475174 -66.63  0.002132952    3.925    0.745
        31  -8.0828    246.4257    203.5424   8.7775977139e+01  -1.1151945687e+00    0.1098273   0.08107629  -7.45 0.0001168642    1.010    0.010
        32 -18.9524     77.1371    222.7989   1.2496126742e+02   1.8595663432e+01     5.423124     3.464029  30.92   0.01789453    1.312    0.238
        33  -8.7596     20.0053    135.2869   1.3309462181e+02   4.5626638103e+01     0.225404    0.1745118   5.45 0.0006732824    1.517    0.341
        34 -11.3663      5.9334    222.8988   1.4158674042e+02   2.6274724093e+01    0.3470777    0.1907505 -85.03  0.001983604    1.877    0.467
        35 -10.6188     12.6831    135.6966   1.3563724144e+02   4.6086318989e+01    0.5242046    0.3150346  -8.24  0.002488157    2.252    0.556
        36  -9.0045    164.4707    187.4417   9.9845650638e+01   1.2397115451e+01     0.293754    0.1944412 -58.02  0.001486228    2.115    0.527
        37 -11.1811    135.6671    127.9576   9.4701385055e+01   2.9377471796e+01     1.317713      0.25767 -51.00  0.002709385    7.672    0.870
        38 -14.4103     52.2158    215.0401   1.3031728601e+02   2.3208154583e+01    0.5650324    0.3742615  85.96  0.002418606    1.660    0.398
        39  -9.5151    160.3212    128.4339   8.8952786299e+01   2.4223654552e+01    0.3893105    0.2830406 -56.12  0.001888716    1.549    0.354
        40  -9.7296      2.8753    133.8358   1.3883808718e+02   4.7213658180e+01    0.1972794     0.168842 -58.23 0.0005739039    1.253    0.202
        41 -10.3335    122.0212    126.6937   9.8031942746e+01   3.2445682224e+01    0.3332345    0.2635263  36.73 0.0008358522    1.245    0.197
        42  -8.3983     13.9685    127.5251   1.3453399770e+02   4.8130377068e+01    0.1910236    0.1311316  24.89  0.001004652    1.518    0.341
        43  -9.2038    162.5889    182.3547   9.9365026151e+01   1.3594640278e+01    0.3722578    0.2057883 -54.25  0.001700519    2.375    0.579
        44  -9.4903    115.2992    117.1377   9.7650092274e+01   3.5995971852e+01    0.2649084    0.1938165 -45.60 0.0005920286    1.416    0.294
        45  -9.8141     37.7968    116.8117   1.2439350325e+02   4.8850388368e+01    0.3091395    0.2323698  15.92 0.0006675315    1.465    0.317
        46  -8.9980     90.0393    114.7154   1.0491942775e+02   4.1574032218e+01    0.5033607    0.1796122  43.31  0.001622973    2.716    0.632
        47  -8.8478    167.3990    113.2245   8.3837505289e+01   2.5671740725e+01    0.3162427    0.2161402 -87.83  0.001300917    2.527    0.604
        48  -9.3495    207.7341    221.0637   9.6897676008e+01   1.2371070430e+00    0.1931002    0.1368889  16.20 0.0005824747    1.160    0.138
        49  -9.6487     75.9540    113.9522   1.0958958570e+02   4.4278328530e+01    0.2289168    0.2185072  63.54  0.001216371    1.016    0.015
        50 -12.4455     61.2355    108.7665   1.1388110469e+02   4.7965059697e+01     1.326038     1.005064  -8.39  0.005611026    1.712    0.416
        51 -10.5588     68.5325    101.4696   1.0942370760e+02   4.8696211448e+01    0.5736389    0.3366921  28.67  0.002210108    1.802    0.445
        52  -9.5285    122.3897    112.1016   9.4377437656e+01   3.5638247336e+01    0.2806971    0.2163051  32.92  0.001203807    1.364    0.267
        53  -8.7178    164.1623    102.3921   8.1803114830e+01   2.8400597520e+01    0.2279491    0.1922738 -29.73 0.0004143181    1.221    0.181
        54  -9.3798    220.4902     96.3857   7.0989388340e+01   1.7800583680e+01    0.2048231    0.1838406 -38.55 0.0002281251    1.036    0.035
        55  -8.1658    124.3005     96.3309   8.9628438071e+01   3.8644808782e+01    0.1570093    0.1266107   2.20 0.0007032435    1.647    0.393
        56  -9.8968    113.4824     95.0910   9.2349781824e+01   4.1346223639e+01    0.3008445    0.2194664  30.56 0.0007565397    1.549    0.355
        57  -9.2488      2.2545     88.9788   1.3567977444e+02   5.8948918306e+01    0.1823887    0.1037479 -79.44  0.000891558    1.580    0.367
        58 -10.1717     15.9140    194.6789   1.3816479715e+02   3.1399459342e+01    0.2061177    0.1730453  79.27 0.0003001552    1.161    0.139
        59  -8.4490    108.0062     82.1832   9.0162331794e+01   4.5365150730e+01    0.2070402    0.1949682  56.14            0    1.027    0.026
        60 -12.0156    147.5780     66.2957   7.5168187259e+01   3.8805941579e+01    0.8538092    0.5880901  67.51  0.001282571    1.482    0.325
        61  -8.5635    137.1834    244.8392   1.1388717072e+02   6.8997439634e+00     0.152958    0.1157304   7.96 0.0002432477    1.275    0.216
        62 -10.5253    121.9363     60.4898   7.9155462505e+01   4.6234483273e+01    0.2582983    0.2471442 -49.41  0.001394653    1.096    0.088
        63  -7.9360     27.2982     59.2931   1.1740680200e+02   6.4817074872e+01    0.1432021   0.09596835 -30.71 0.0004166995    1.564    0.361
        64 -11.5876    161.9330     43.5192   6.5724013179e+01   3.8700549843e+01    0.4903822    0.4299698 -67.81 0.0006771102    1.057    0.054
        65  -8.9218    217.6966     47.7994   6.0146661919e+01   2.5202084315e+01    0.2761229    0.1596023 -30.34  0.001449515    1.680    0.405
        66  -9.1595    207.8023    227.1867   9.7809429669e+01   4.4007702378e-01    0.1612342    0.1066371   0.39 0.0005633911    1.321    0.243
