#   1 NUMBER                 Running object number                                     
#   2 MAG_AUTO               Kron-like elliptical aperture magnitude                    [mag]
#   3 X_IMAGE                Object position along x                                    [pixel]
#   4 Y_IMAGE                Object position along y                                    [pixel]
#   5 X_WORLD                Barycenter position along world x axis                     [deg]
#   6 Y_WORLD                Barycenter position along world y axis                     [deg]
#   7 A_WORLD                Profile RMS along major axis (world units)                 [deg]
#   8 B_WORLD                Profile RMS along minor axis (world units)                 [deg]
#   9 THETA_WORLD            Position angle (CCW/world-x)                               [deg]
#  10 FWHM_WORLD             FWHM assuming a gaussian core                              [deg]
#  11 ELONGATION             A_IMAGE/B_IMAGE                                           
#  12 ELLIPTICITY            1 - B_IMAGE/A_IMAGE                                       
         1 -16.3126     69.3810    144.0127   9.9899746705e+01   3.7368772500e+01     4.469065     2.276518  70.78  0.003230841    4.619    0.784
         2 -14.0287    203.9564     35.4070   3.9991964271e+01   3.0243648764e+01     0.722173    0.6652029  41.93  0.001351681    1.343    0.255
         3 -14.1275    228.1577      8.9339   3.1773368038e+01   2.8002278595e+01    0.8281242    0.6623182 -69.84  0.004180476    1.024    0.023
         4 -12.8017    111.1218    203.6435   9.8898677504e+01   1.6608599852e+01    0.3059759    0.2623469  74.50   0.00045377    1.230    0.187
         5 -13.4293     28.3488    215.7912   1.1880584080e+02   2.5091517628e+01    0.4940033    0.2527781  83.66  0.002487145    1.936    0.483
         6 -18.4492     17.1886    232.1557   1.2208407511e+02   2.2816426312e+01     7.786288     5.790211  51.28   0.04253524    1.231    0.188
         7 -13.1176    107.7611    204.0037   9.9737426580e+01   1.7069622555e+01    0.5474439    0.3165151  66.19  0.002292329    2.486    0.598
         8  -9.7629     66.1762    241.6844   1.1320592643e+02   1.5224752773e+01    0.1117315   0.07551295  76.31 0.0001838619    1.466    0.318
         9 -12.9648    122.4193    199.1595   9.5551790597e+01   1.5720914697e+01    0.4108879    0.3016159 -76.68  0.001182919    1.681    0.405
        10 -11.9419    192.8997    194.5319   7.9044229210e+01   4.4546976114e+00    0.8508899    0.4044875 -60.45  0.002197844    7.506    0.867
        11 -16.7286      1.8400     98.6565   1.1366805767e+02   5.5164251241e+01     13.87827    0.2052707 -70.02   0.02324334   15.538    0.936
        12 -12.9770    111.9657    196.8578   9.7657542709e+01   1.7962364408e+01    0.6359462    0.3799341 -10.45  0.002069966    4.553    0.780
        13 -12.4303    118.2197    191.1074   9.5226236930e+01   1.8200671243e+01    0.2804092    0.2422517  59.23 0.0008783733    1.174    0.148
        14 -11.7712     61.2060    198.6131   1.0996499150e+02   2.5082653789e+01    0.2432677    0.2150924 -64.03  0.000216333    1.222    0.182
        15 -13.0272     49.4169    194.9854   1.1232018566e+02   2.7397421034e+01      0.41738    0.2878028 -43.61  0.001262959    1.835    0.455
        16 -11.0880     62.8394    250.3176   1.1459509801e+02   1.3994134222e+01    0.2279661    0.1293736  46.97  0.001340854    1.429    0.300
        17 -11.9968    148.8880    191.3701   8.8035647343e+01   1.2788626837e+01    0.4476756    0.2553824 -68.93  0.001677797    3.082    0.675
        18 -11.4343     33.5424    190.3297   1.1554660855e+02   3.0283298203e+01    0.4748386    0.2965303  72.02  0.002599522    1.547    0.354
        19 -10.8329     51.4828    217.5058   1.1407562939e+02   2.2076510138e+01    0.2088803    0.1555838  46.41 0.0008211839    1.247    0.198
        20 -13.5535     60.2506    183.5532   1.0839071116e+02   2.8758407479e+01    0.9148461    0.6998381  20.11   0.00504962    1.600    0.375
        21 -10.9332     54.2033    184.4056   1.0998569579e+02   2.9317709304e+01     0.309154    0.1572251  44.15  0.000481975    1.893    0.472
        22 -11.2391     39.0046    186.1306   1.1385160062e+02   3.0682883139e+01    0.2969179    0.2566247 -56.49  0.001878211    1.303    0.232
        23  -9.8481     77.6240    186.2925   1.0444706813e+02   2.5729365084e+01    0.1510751     0.096906  64.45 0.0007022478    1.737    0.424
        24 -10.1043     80.3090    183.6709   1.0340412631e+02   2.5964570148e+01    0.1486019    0.1012695  70.39 0.0004513459    1.663    0.399
        25 -11.9148     99.3780    180.9629   9.8187219795e+01   2.3666187014e+01    0.2674915    0.2577081  63.62 0.0006254665    1.030    0.029
        26 -10.3860     90.0464    181.0005   1.0054939582e+02   2.5135444733e+01    0.1709821    0.1598106 -89.92 0.0003754478    1.027    0.027
        27  -9.5304     41.2422    178.3162   1.1247345180e+02   3.2309806321e+01    0.1261046   0.09154969 -50.60 0.0001966988    1.513    0.339
        28 -11.1573    186.2381    173.9270   7.6316737875e+01   9.5260632945e+00    0.3342601    0.3183044 -85.97  0.001506864    1.304    0.233
        29 -12.0294     57.0729    211.2137   1.1225349492e+02   2.2760418857e+01    0.4104427    0.2828903  33.27  0.001609533    1.524    0.344
        30 -14.3825     84.9125    158.4900   9.8135112253e+01   3.1432696626e+01     1.218597    0.8274666 -75.80  0.002514891    1.624    0.384
        31 -14.0442     73.6195    152.2206   1.0015789980e+02   3.4693542182e+01    0.8032126    0.4855511 -59.01  0.001050863    1.539    0.350
        32 -11.2937     71.9868    245.6399   1.1239729795e+02   1.3697621846e+01    0.3419853     0.175471 -68.99  0.001843554    2.122    0.529
        33 -12.7722     73.3797    170.1113   1.0316082138e+02   3.0260552603e+01      0.39701     0.311095 -37.29  0.002089832    1.496    0.331
        34 -10.8595     49.2379    170.4953   1.0952028205e+02   3.3305860627e+01    0.3162861    0.1901964 -38.61    0.0013215    2.193    0.544
        35 -11.6688     55.1525    206.6245   1.1221669276e+02   2.4026581075e+01    0.3986917    0.2194062 -80.02  0.001558515    1.854    0.461
        36 -10.6128     33.0847    165.8927   1.1313223768e+02   3.6213934271e+01    0.2834007    0.1404872  80.45  0.001183747    2.554    0.608
        37 -10.4309     88.8340    210.1281   1.0496197624e+02   1.8640194644e+01    0.1998156    0.1667418  71.09 0.0004418281    1.156    0.135
        38 -12.6973     91.7581    150.8133   9.4808541722e+01   3.2252884690e+01    0.6680549    0.4447575 -27.86   0.00288274    2.022    0.506
        39 -11.9475    133.8643    145.2753   8.2272259346e+01   2.5896833985e+01     1.034965    0.2556308 -54.37  0.002213511    6.587    0.848
        40 -14.2557     53.5054    147.0354   1.0500681351e+02   3.8677301378e+01    0.7929448     0.694203  42.84  0.004613968    1.233    0.189
        41 -11.3592    104.6991    137.1386   8.8297182293e+01   3.3398437466e+01     0.565754    0.2903879 -30.45  0.001846813    3.228    0.690
        42 -11.3996    106.0786    130.8447   8.6461319621e+01   3.4674308358e+01    0.3945892    0.3195145 -56.15  0.001228624    1.217    0.178
        43 -12.1121     45.0140    139.0195   1.0619865469e+02   4.1693702441e+01     0.221084    0.1951288 -73.37 0.0006048646    1.016    0.016
        44 -12.3745     92.3280    136.8376   9.1777290479e+01   3.5631400008e+01    0.2966134    0.2624669 -39.72  0.000399179    1.138    0.121
        45 -11.4117    113.1522    128.7502   8.3960427169e+01   3.3845343316e+01    0.2982782    0.2467603 -12.41 0.0009127741    1.422    0.297
        46 -11.0750    100.1969    124.5861   8.6679209195e+01   3.7259867826e+01     0.279652    0.2288183 -28.10 0.0004862274    1.318    0.241
        47 -10.2244    108.7541    118.0123   8.2550924541e+01   3.7228388568e+01    0.2129019    0.1953796 -43.31 0.0002784363    1.053    0.050
        48 -10.6190    231.1989    113.9555   5.4729101459e+01   1.2194426557e+01    0.2117935    0.2066364  72.18  0.000730042    1.172    0.147
        49 -12.5142     53.7349    110.3438   9.8049011439e+01   4.7870344633e+01    0.2959032    0.2521518 -77.87 0.0009302425    1.247    0.198
        50 -10.1924    205.5340    110.4550   5.8117655530e+01   1.8001779190e+01    0.1459114    0.1336645 -44.02 0.0003431159    1.009    0.009
        51 -10.5319     59.0008     96.9756   9.3074019275e+01   5.0411041351e+01    0.2207193    0.1741723  73.44 0.0009546942    1.715    0.417
        52  -9.9804    157.4843     89.5156   6.2136125380e+01   3.2738293054e+01    0.1537285    0.1455081 -71.70 0.0008089835    1.081    0.075
        53 -12.9986    183.4678     53.2627   4.7269078328e+01   3.2610438640e+01    0.4209126    0.3657073  59.81 0.0007816014    1.173    0.148
        54 -12.5490     77.1742    165.8004   1.0147472165e+02   3.0780456909e+01    0.4649837    0.3107161 -43.56 0.0008489788    1.649    0.393
        55 -14.2766    197.0486     42.4637   4.2567037272e+01   3.0917004844e+01    0.9305432    0.8130721  36.67  0.003816825    1.412    0.292
        56 -10.5395     42.2167    208.4516   1.1525972353e+02   2.5170882335e+01    0.2941468    0.1513734  79.26    0.0014006    2.176    0.540
