#   1 NUMBER                 Running object number                                     
#   2 MAG_AUTO               Kron-like elliptical aperture magnitude                    [mag]
#   3 X_IMAGE                Object position along x                                    [pixel]
#   4 Y_IMAGE                Object position along y                                    [pixel]
#   5 X_WORLD                Barycenter position along world x axis                     [deg]
#   6 Y_WORLD                Barycenter position along world y axis                     [deg]
#   7 A_WORLD                Profile RMS along major axis (world units)                 [deg]
#   8 B_WORLD                Profile RMS along minor axis (world units)                 [deg]
#   9 THETA_WORLD            Position angle (CCW/world-x)                               [deg]
#  10 FWHM_WORLD             FWHM assuming a gaussian core                              [deg]
#  11 ELONGATION             A_IMAGE/B_IMAGE                                           
#  12 ELLIPTICITY            1 - B_IMAGE/A_IMAGE                                       
         1 -14.4658    149.4333     62.3017   8.5556388196e+01   3.9686605459e+01     1.290362     1.055361  -7.65  0.001073448    1.448    0.310
         2 -14.8924    160.7598     47.6235   7.8862880815e+01   3.9164803825e+01     1.236845      1.05614 -29.97  0.003769559    1.276    0.216
         3 -15.0587    173.8466     16.8494   6.7934397968e+01   3.9747824330e+01     1.371893     1.228896 -26.93  0.005075929    1.310    0.236
         4 -13.6355    201.7000      9.4837   6.2538798254e+01   3.3741497254e+01    0.5229465    0.3404512 -82.07  0.002865082    1.493    0.330
         5 -14.1392    189.5974     14.6155   6.5227243480e+01   3.6128327987e+01     1.325506     0.641925 -72.30  0.005243561    3.047    0.672
         6 -12.7900    135.2155    238.3173   1.2735592923e+02   6.3440198465e+00    0.3654868    0.2974312 -78.75  0.001446547    1.384    0.277
         7 -20.2501     78.8212    174.6928   1.3034876120e+02   2.9153064014e+01     17.15483     7.155114 -64.47   0.07062666    2.306    0.566
         8 -10.7137    139.6126    246.4870   1.2758341587e+02   4.1612529204e+00    0.2473334    0.1783179  72.33 0.0007645271    1.551    0.355
         9 -11.8057    115.0182    249.9953   1.3263663139e+02   7.6662012717e+00    0.1738343     0.156898  75.96 0.0009327737    1.183    0.155
        10 -12.4246    185.4617    170.4482   1.0512299087e+02   9.8121902099e+00    0.5308375    0.3213869 -56.61  0.001511687    1.981    0.495
        11 -12.9311    189.7767    178.9765   1.0598773913e+02   7.2273478936e+00    0.5078575     0.382954  74.24  0.001339315    1.801    0.445
        12 -12.1092    188.6861    175.3359   1.0546549425e+02   8.1662456148e+00    0.3143825    0.2862246  74.98  0.000844299    1.230    0.187
        13 -12.8447    204.0215    174.4077   1.0211892409e+02   5.2064534194e+00    0.5926145     0.407126 -55.46  0.001903752    1.719    0.418
        14 -11.2941    207.8857    172.1530   1.0087077281e+02   4.8504950033e+00    0.4247367    0.1940637 -52.24  0.001544222    2.825    0.646
        15 -12.5506    196.0519    174.3346   1.0372629595e+02   6.8456405234e+00    0.6255895    0.4293934 -65.06  0.002086611    2.010    0.503
        16 -12.9656    189.5151    155.6313   1.0104893646e+02   1.1952827564e+01    0.5569587    0.5266727  41.59  0.001472464    1.054    0.051
        17 -12.6310    192.6830    164.8962   1.0241815284e+02   9.4050982045e+00    0.4367772     0.335126 -40.68 0.0008235607    1.316    0.240
        18 -12.3658    189.8033    160.9772   1.0216917393e+02   1.0805044348e+01    0.3863693    0.3223915 -89.20   0.00131254    1.492    0.330
        19 -12.4541    230.3825    167.4347   9.5550553029e+01   1.2648442934e+00    0.4464305    0.2205108 -52.30   0.00174419    2.658    0.624
        20 -11.1535     38.0259    248.9002   1.4607114675e+02   1.8977122594e+01    0.2456639    0.1114222  86.18   0.00133515    2.204    0.546
        21 -10.8039    152.1498    235.3782   1.2363232517e+02   3.8933732338e+00    0.2949304    0.1614948  52.04 0.0007362915    1.701    0.412
        22 -10.3557      5.2776    162.4522   1.4537774702e+02   4.0346923173e+01    0.1406205   0.09460251  57.37 0.0005384995    1.521    0.342
        23 -12.2340    167.3949    156.0804   1.0596714238e+02   1.6670874346e+01    0.3343536    0.2415679  83.19  0.001105616    1.964    0.491
        24 -10.5281    145.2037    232.0113   1.2451995774e+02   5.7236228975e+00    0.2603132    0.1039483 -49.14  0.001095437    2.905    0.656
        25 -10.6945     28.1584    233.1191   1.4663015236e+02   2.3158819360e+01    0.1450041   0.08706856  85.95  0.000551983    1.332    0.249
        26 -11.5700     17.7987    154.1556   1.4179091709e+02   4.1168351157e+01    0.2438184     0.157256 -64.35 0.0003459186    1.312    0.238
        27 -11.4782     18.6015    149.3175   1.4106135745e+02   4.2198829119e+01    0.3405414    0.2461652  68.82  0.002204885    1.399    0.285
        28 -11.9356    174.0692    148.4084   1.0275598342e+02   1.6849000417e+01    0.5036037    0.3477671 -61.19  0.001750152    1.683    0.406
        29 -10.2278    139.6782    250.2913   1.2805958590e+02   3.5079932204e+00     0.170009    0.1287985 -62.33 0.0007030388    1.572    0.364
        30  99.0000     32.2560    222.1994   1.4512348371e+02   2.4859744121e+01    0.3375341     0.194992 -49.03  0.001861533    2.760    0.638
        31 -10.4724      2.7169    135.2064   1.4322853788e+02   4.6596275010e+01    0.1901345    0.1208593 -38.56 0.0007536726    1.931    0.482
        32 -12.9253    160.5404    128.0585   1.0100421853e+02   2.4271841577e+01    0.5376387    0.3830541 -60.09  0.001727214    1.550    0.355
        33 -10.7004     13.9822    241.0524   1.4945496237e+02   2.3208251920e+01    0.2328673    0.1025315  79.25  0.001172168    1.997    0.499
        34 -11.2237    217.7612    218.3757   1.0799501134e+02  -4.9884925169e+00    0.2273762    0.1550929 -45.96 0.0009197925    1.736    0.424
        35 -11.2015    167.4987    112.6259   9.5520848698e+01   2.5927464465e+01    0.3428334    0.2654276 -90.00  0.001199395    1.626    0.385
        36 -11.4379     24.6253    215.7098   1.4599368046e+02   2.7045037551e+01    0.1486893    0.1199433  65.30 0.0003599398    1.243    0.195
        37 -10.8735    205.3480    110.2383   8.7132419404e+01   1.7436898801e+01    0.3086385    0.2135348  48.78 0.0008824934    1.498    0.332
        38 -12.0555     24.7439    106.7359   1.3337974444e+02   5.1360246596e+01     0.337989    0.2341777   4.31  0.001799506    1.927    0.481
        39 -13.2013     11.5709    205.8895   1.4762265040e+02   3.0427899381e+01    0.3709029    0.2906798  25.92  0.002267171    1.936    0.483
        40 -11.5353    139.9980    201.1767   1.2082915171e+02   1.2641217963e+01    0.3764047    0.3236229 -65.92  0.001670723    1.233    0.189
        41 -10.7434     24.7790    202.8878   1.4496230820e+02   2.9706929095e+01      0.15865    0.1197274 -82.14 0.0002872632    1.168    0.144
        42 -13.0900     45.9734     93.0165   1.2413292311e+02   5.2400304126e+01    0.4973719    0.2977037  10.51  0.002316369    2.284    0.562
        43  -9.7777    156.2919     92.2755   9.2630379243e+01   3.2679366735e+01    0.1502866    0.1227003  14.79 0.0001546816    1.521    0.342
        44 -11.9869      6.3116     88.9860   1.3579113451e+02   5.6497429527e+01    0.5175599    0.2325557 -10.87  0.002395211    3.855    0.741
        45 -10.7704     29.4738    200.9440   1.4390589998e+02   2.9612707007e+01    0.1648562    0.1438469 -76.24 0.0007256347    1.341    0.254
        46 -11.0008    134.2423    198.6773   1.2166035043e+02   1.4244195020e+01    0.4009391    0.2783821  19.31  0.001764057    2.122    0.529
        47 -11.0921     20.5643    195.7124   1.4517372763e+02   3.1679631535e+01    0.1503116    0.1238782 -81.07  0.001082028    1.233    0.189
        48 -11.3730    121.6517    198.0618   1.2430511865e+02   1.6697480363e+01    0.2777288    0.2338881 -46.24 0.0009495529    1.382    0.276
        49 -11.0277    128.0372    245.7856   1.2969500502e+02   6.2476463198e+00    0.1699987    0.1530744  85.11 0.0005517395    1.191    0.160
        50 -13.4368    165.0264     38.9382   7.5550434612e+01   3.9302144183e+01    0.4981472    0.4266445  63.55 0.0008135389    1.065    0.061
        51 -11.0834     13.5729     59.9043   1.2718540755e+02   6.1948761514e+01    0.1746493    0.1593695   0.17 0.0004081974    1.310    0.237
        52 -11.1237    163.4131    244.2077   1.2271469124e+02   4.2795160810e-01    0.2707151    0.2002391  30.81 0.0008617417    1.322    0.243
        53 -11.1997    140.1463    241.0253   1.2676096382e+02   5.0117159015e+00    0.2354531    0.1792954 -47.75 0.0008310269    1.600    0.375
