#   1 NUMBER                 Running object number                                     
#   2 MAG_AUTO               Kron-like elliptical aperture magnitude                    [mag]
#   3 X_IMAGE                Object position along x                                    [pixel]
#   4 Y_IMAGE                Object position along y                                    [pixel]
#   5 X_WORLD                Barycenter position along world x axis                     [deg]
#   6 Y_WORLD                Barycenter position along world y axis                     [deg]
#   7 A_WORLD                Profile RMS along major axis (world units)                 [deg]
#   8 B_WORLD                Profile RMS along minor axis (world units)                 [deg]
#   9 THETA_WORLD            Position angle (CCW/world-x)                               [deg]
#  10 FWHM_WORLD             FWHM assuming a gaussian core                              [deg]
#  11 ELONGATION             A_IMAGE/B_IMAGE                                           
#  12 ELLIPTICITY            1 - B_IMAGE/A_IMAGE                                       
         1 -13.3245    246.1679    190.7788   4.4162658033e+01   1.9547260164e+00     13.61108     2.896252 -50.76   0.03515919    9.277    0.892
         2 -12.1864    248.4184     12.4318   1.5651808590e+01   2.7147503210e+01     1.245743    0.8282601 -34.65  0.007350742    2.051    0.513
         3 -13.5376    247.2323     39.9977   1.9943432973e+01   2.4203446640e+01     2.582435     2.017494 -31.70   0.02065181    1.952    0.488
         4 -12.8879    237.8577     62.4018   2.4208621313e+01   2.2773403319e+01     1.551168     1.148311  39.40  0.007549943    2.624    0.619
         5 -12.0733    231.8364    103.3035   3.1648684788e+01   1.7767421003e+01     3.122231     1.090297 -61.09  0.008915164    8.081    0.876
         6 -12.7374    249.4409     59.3955   2.2840588659e+01   2.1450405329e+01     2.841855    0.4959801 -39.26  0.008467704    8.531    0.883
         7 -12.7465    244.3475     71.4193   2.5155794519e+01   2.0589268404e+01     1.895413    0.2912318 -47.27  0.006123465    4.169    0.760
         8  -8.6715    229.8024     18.9153   1.7632227053e+01   2.9348003489e+01     0.168251    0.1200933 -21.81  0.001169699    2.673    0.626
         9  -8.6527    111.5222      3.4908   2.4932250651e+01   5.3858436552e+01    0.1170559   0.09192375  79.77 0.0001389556    1.006    0.006
        10  -9.1877     99.1939      2.6071   2.6540204156e+01   5.6609800025e+01    0.1761847   0.08200379  60.47 0.0009538996    1.694    0.410
        11 -12.8037    241.4056    111.3479   3.1976472045e+01   1.5187306205e+01     2.181894    0.8145323 -36.78  0.009941594    3.137    0.681
        12 -12.0705    237.2265     90.4615   2.8927804073e+01   1.8923479490e+01    0.7531736    0.3830446 -49.31 0.0002917587    1.481    0.325
        13  -8.4012    249.5095    250.4643   5.2462504999e+01  -7.2982470289e+00    0.1061058   0.07047843 -23.75  0.000809379    1.027    0.026
        14  -9.5468      7.3858    236.0643   1.0405718224e+02   2.0045850696e+01    0.3878344    0.1089208  43.27  0.001469231    2.890    0.654
        15 -12.6777    246.9515    162.8005   3.9681479045e+01   6.3489628840e+00     2.711048    0.5073419 -45.66    0.0101188    3.953    0.747
        16  -9.0861    226.4881    215.0413   5.0797232502e+01  -7.1422146099e-02    0.2926446    0.2020833 -79.77   0.00126681    5.359    0.813
        17  -9.0027    218.9715    209.7820   5.1181951173e+01   1.5274795065e+00    0.4003831    0.0907311 -41.21    0.0015334    3.465    0.711
        18  -9.0976    213.8604    209.7742   5.2019858052e+01   2.0472602309e+00    0.2984117    0.1153322 -39.45  0.001454479    2.082    0.520
        19  -8.3940      4.4950    211.5137   1.0330062883e+02   2.6305270179e+01    0.1376673    0.1203497  61.45 0.0008099084    1.055    0.052
        20 -10.7994    235.5997    208.7500   4.8435390735e+01   9.0241789133e-02    0.3349596    0.2535977 -75.12  0.002071894    2.670    0.625
        21  -9.5208    229.4926    209.0801   4.9411041704e+01   6.1300558128e-01    0.1781151   0.08782549 -42.60  0.001028641    1.577    0.366
        22 -10.3067    238.9925    206.4429   4.7581738663e+01   1.4336326958e-01    0.2986165    0.2393383 -77.09  0.002006832    2.337    0.572
        23  -9.1169    197.3769    203.8323   5.3908842225e+01   4.8740859188e+00     0.259291    0.2014559 -65.88  0.001394468    1.818    0.450
        24  -9.5926      4.1424    204.7628   1.0294627299e+02   2.8063657371e+01    0.3763786    0.1531091  41.80  0.001556155    2.248    0.555
        25  -9.4727    210.9017    201.3722   5.1171063835e+01   3.8086724806e+00    0.2706101    0.1507159 -54.33   0.00144969    2.010    0.502
        26  -8.0970    138.7356    198.9943   6.5179044990e+01   1.3311651913e+01    0.1968086    0.1688015 -35.25 0.0001739743    1.093    0.085
        27  -9.7640    228.6461    197.0224   4.7654967594e+01   2.6806315980e+00    0.1712372     0.118713 -38.04 0.0007019942    1.109    0.098
        28  -8.6870    195.4052    196.2157   5.3004841469e+01   6.4960814238e+00    0.1769951    0.1068888 -53.20 0.0008451234    1.718    0.418
        29  -8.3738    214.0000    193.0282   4.9306477064e+01   4.9245967763e+00    0.2642286   0.08441141 -49.76  0.001080132    2.958    0.662
        30  -8.6912    161.4689    200.5392   6.0368835904e+01   9.9128420942e+00    0.2816277    0.1220443 -49.35  0.001074756    2.145    0.534
        31  -8.4416      8.5069    195.5041   1.0102571270e+02   3.0144812348e+01    0.1390467    0.1293579  73.08 0.0001545915    1.010    0.010
        32  -9.6134    223.8002    192.8835   4.7734948491e+01   3.8807619741e+00    0.2704004    0.1317217 -49.77  0.001439529    1.871    0.466
        33  -8.9929    199.1105    191.7479   5.1601738141e+01   6.8752396042e+00    0.2211214    0.1514643 -50.80  0.001304903    1.429    0.300
        34  -7.9614    172.9653    190.7706   5.6326331650e+01   1.0365552721e+01    0.1644295    0.1089331  27.86 0.0008772322    1.645    0.392
        35  -9.7340    211.1345    182.7193   4.8066199350e+01   7.0722607834e+00    0.3285639    0.1468544 -47.81  0.001311267    1.894    0.472
        36  -9.0023    200.8915    182.6962   4.9763937686e+01   8.3197221463e+00     0.367224    0.2221902 -69.04  0.001650801    3.164    0.684
        37  -8.2246      6.3156    182.3226   1.0061213235e+02   3.3840777359e+01    0.1497396   0.09739812 -41.12 0.0007041916    1.662    0.398
        38  -9.0548    192.5313    178.8723   5.0561478859e+01   1.0097479255e+01    0.3075926    0.2130696 -70.73  0.001542314    2.190    0.543
        39  -9.8290    226.0933    178.5442   4.5065158144e+01   6.0664842088e+00      0.27801    0.1354948 -39.68  0.001538273    1.624    0.384
        40  -8.1708    183.0111    176.2630   5.1834961070e+01   1.1873577931e+01    0.1829267    0.1562559 -35.23 0.0006444402    1.005    0.005
        41  -9.8817    218.0330    173.9127   4.5508088466e+01   7.8034465609e+00     0.263355    0.1871641  -2.86  0.001585281    1.826    0.452
        42  -7.5493    177.3358    171.3229   5.2018490526e+01   1.3641754342e+01    0.1378642   0.09528814 -18.84   0.00070507    1.712    0.416
        43 -10.0455    224.3165    168.0942   4.3601077288e+01   8.0602924416e+00    0.4244419    0.1619763 -51.50  0.001944843    2.491    0.599
        44  -9.6719    223.5391    162.7398   4.2818088199e+01   9.0748195465e+00    0.3051555    0.2005057 -62.15  0.001157333    1.811    0.448
        45  -9.1085    217.5686    167.7419   4.4540090175e+01   8.9405542625e+00    0.1778335   0.09587225 -52.13 0.0009606807    1.709    0.415
        46  -8.6844    191.7318    167.0276   4.8612047574e+01   1.2451842952e+01    0.3065646    0.1720572 -56.54 0.0009680104    1.903    0.475
        47  -9.4707     17.4211    233.7080   1.0137332968e+02   1.9730127919e+01    0.3695947    0.1537745  18.20  0.001532605    2.462    0.594
        48  -8.6416    204.7622    160.7987   4.5329059993e+01   1.1833200463e+01    0.1656399    0.1363805 -63.84 0.0009962484    1.353    0.261
        49 -10.3196      2.2629    232.0218   1.0511086972e+02   2.1427090334e+01    0.5520853    0.1641306 -59.24  0.002091205    3.345    0.701
        50 -11.4848    227.5901    111.6402   3.3553401883e+01   1.7072641262e+01     0.899517    0.5300449 -76.69  0.004919733    2.495    0.599
        51  -9.5145    234.5554    145.9990   3.8525788164e+01   1.0535969262e+01    0.5696127    0.1544843 -40.60  0.002281004    3.318    0.699
        52  -7.8843    212.7346    148.5849   4.1959302384e+01   1.2943403343e+01    0.1450493    0.1160442  65.83 0.0009425179    1.657    0.397
        53  -8.3098    192.4014    148.0779   4.5052097843e+01   1.5938923774e+01    0.1906859    0.1379569 -45.60  0.001122576    1.167    0.143
        54  -7.5786    186.4640    146.4994   4.5763712801e+01   1.7134674517e+01     0.130883     0.111877 -46.75 0.0001303722    1.007    0.007
        55 -10.3504    234.8148    214.9099   4.9492323853e+01  -8.1881538740e-01    0.3729292    0.1246763 -43.30   0.00185899    2.259    0.557
        56  -8.4885    224.8065    137.0217   3.8271711622e+01   1.3297151292e+01    0.4903421    0.1574439 -54.22  0.001847833    3.788    0.736
        57  -9.3852    221.6978    129.9314   3.7451751914e+01   1.4916533468e+01    0.3296807    0.2567954 -75.89  0.001373171    1.466    0.318
        58  -7.8511    216.8325    139.3806   3.9758403181e+01   1.3986200214e+01    0.1363626    0.1147943  25.58 0.0005476155    1.570    0.363
        59  -8.0252    210.3956    138.2153   4.0464207656e+01   1.5096959777e+01    0.1799221   0.09512382 -53.40 0.0009429677    1.703    0.413
        60  -8.2318    205.9335    130.7719   3.9766002481e+01   1.7059183569e+01    0.2414565    0.1401993 -64.45  0.001236169    2.089    0.521
        61  -8.3135    192.5563    129.2137   4.1493810861e+01   1.9405121879e+01    0.2458754    0.1060505 -49.71  0.001117832    2.021    0.505
        62  -8.3650    209.0018    126.5131   3.8555707071e+01   1.7341198983e+01    0.2566122    0.1497012 -81.60  0.001012948    3.717    0.731
        63  -9.0337    225.3084    123.2011   3.5824724458e+01   1.5526823666e+01    0.3341978    0.1771456 -58.03  0.001295176    1.838    0.456
        64  -8.0359    220.4783    121.4750   3.6128775758e+01   1.6501879201e+01    0.1944822    0.1289457 -54.00 0.0006645856    1.241    0.194
        65  -9.4421    218.4289    116.5385   3.5516097542e+01   1.7618906934e+01    0.3762009    0.2422751 -62.35  0.001508799    1.507    0.336
        66  -8.4817    218.0000    110.9337   3.4573569657e+01   1.8602015014e+01    0.2856192    0.1287117 -46.49  0.001424912    1.771    0.435
        67  -8.6464    214.7958    123.9411   3.7303552590e+01   1.6919250177e+01     0.443041    0.1748353 -57.98  0.001787964    3.333    0.700
        68  -7.8988    210.6669    119.3228   3.7023693902e+01   1.8320091819e+01    0.1825336    0.1445463 -86.13  0.001203645    1.448    0.309
        69  -8.8855    210.5487    115.2846   3.6305794896e+01   1.9019202067e+01    0.3887422    0.1570704 -48.21  0.001881491    2.022    0.505
        70  -7.6519    200.4983    124.5431   3.9409742574e+01   1.8988018419e+01     0.125137    0.1031669 -55.48 0.0002373982    1.035    0.034
        71  -7.9754    195.7937    121.7935   3.9590094856e+01   2.0220217473e+01    0.1722944    0.1309809 -68.45 0.0007968338    1.343    0.255
        72  -7.6948    169.4927    116.9991   4.2922908297e+01   2.5565398869e+01    0.1835878    0.1047798 -66.22 0.0006968876    2.288    0.563
        73  -7.7713    201.3274    109.7169   3.6515876468e+01   2.1418111718e+01    0.1216691   0.08418579 -73.43 0.0004453484    1.603    0.376
        74  -8.1105    154.5951    107.7849   4.3704942185e+01   3.0051419885e+01    0.1979734    0.1183147 -55.96 0.0009501714    1.656    0.396
        75  -8.4025    211.7398    105.7508   3.4417180743e+01   2.0411726520e+01    0.1624844    0.1139616 -64.45 0.0005605179    1.322    0.244
        76  -8.6235    204.2021    105.1606   3.5275795241e+01   2.1713956035e+01     0.245503    0.1593491 -58.75  0.000952249    1.367    0.269
        77  -8.0821    188.4089    101.9364   3.6839224269e+01   2.4915382135e+01    0.1938889    0.1052991 -47.69 0.0005234675    1.590    0.371
        78  -9.5762    209.8526     98.7063   3.3362669491e+01   2.1851600118e+01    0.2271364    0.1663981 -49.54 0.0004935859    1.155    0.134
        79  -8.3247    216.2190     97.8086   3.2438711433e+01   2.0981119961e+01    0.2904014    0.1157048 -38.25  0.001341401    2.640    0.621
        80  -8.5711    220.5268     97.4690   3.1883714701e+01   2.0363535975e+01    0.2247011    0.1286993 -52.51 0.0007609503    1.391    0.281
        81  -9.0881    204.1866     96.6865   3.3692323642e+01   2.3102430340e+01    0.4127386    0.1779061 -58.69  0.001875228    2.582    0.613
        82  -8.7657    164.8029     94.3805   3.8961844797e+01   3.0533138694e+01    0.2518164    0.1923297 -56.24 0.0007656299    1.188    0.158
        83  -9.1499    209.5868     92.2815   3.2213318429e+01   2.2914106742e+01    0.3276703    0.1606655 -53.54  0.001161072    1.736    0.424
        84  -8.1936    207.2311     86.1964   3.1365163511e+01   2.4250494251e+01    0.2780454    0.1443897 -69.90  0.001376793    2.493    0.599
        85  -7.2647    197.3234     94.6428   3.4187684965e+01   2.4589025800e+01    0.1298375   0.08069368 -70.22 0.0007045022    1.769    0.435
        86  -7.9182    188.2375     93.0007   3.5094784576e+01   2.6441714313e+01    0.1674623   0.09086792 -46.19 0.0008809528    1.617    0.381
        87  -7.6836    176.6035     92.7945   3.6744144020e+01   2.8585537852e+01    0.1840913    0.1028063 -54.83 0.0009385473    1.662    0.398
        88  -8.4205    151.0069     88.5214   4.0074335802e+01   3.4249162005e+01    0.1844561    0.1108007  82.36 0.0005769006    2.424    0.588
        89  -9.3594    209.5171     81.9059   3.0310567453e+01   2.4523652471e+01    0.5281249    0.2549592 -88.27  0.002038453    4.839    0.793
        90  -8.3092    150.0000     78.9855   3.8066464576e+01   3.6069142226e+01    0.2128931   0.07081196 -42.43 0.0007391101    2.952    0.661
        91  -7.9274    175.7796     76.4319   3.3456470575e+01   3.1397580105e+01    0.2342115    0.1274112 -53.91  0.001232755    1.681    0.405
        92  -7.7764    166.7020     77.6740   3.5044688944e+01   3.2952412064e+01    0.1136034    0.1025405   6.30 0.0007026113    1.631    0.387
        93  -8.5789    157.6723     75.3798   3.5951657907e+01   3.5106163513e+01    0.2913955    0.1425416 -42.73  0.001395147    2.001    0.500
        94  -8.7370    203.9958     66.4785   2.8043250494e+01   2.7731407034e+01    0.2516733     0.170191 -40.27 0.0007815313    1.551    0.355
        95  -8.7242    206.6126     73.7785   2.9126332395e+01   2.6224130588e+01    0.2304566     0.157792 -62.43 0.0006965676    1.208    0.172
        96  -8.5138    204.5029     70.5132   2.8745257427e+01   2.7063260081e+01    0.1980329    0.1493074 -74.84 0.0007799279    1.154    0.133
        97  -8.1595    191.6301     71.4459   3.0388701953e+01   2.9208276774e+01    0.2728114    0.1056728 -38.38  0.001229852    2.726    0.633
        98  -8.0429    170.2703     71.0127   3.3084655244e+01   3.3296228514e+01    0.1790816    0.1370807 -60.35 0.0005730159    1.159    0.137
        99  -9.3174    213.1865     68.1244   2.7404779231e+01   2.5926913515e+01    0.3098016    0.2334354 -73.89  0.002235677    1.132    0.116
       100  -8.6243    145.8558     68.3449   3.6295286804e+01   3.8626985014e+01     0.330007    0.1729903 -61.59  0.001506492    2.274    0.560
       101  -8.6989    195.4398     67.9107   2.9253158715e+01   2.9039417182e+01    0.2198652    0.1524843 -68.00 0.0006035176    1.258    0.205
       102  -8.1865    197.9989     63.8047   2.8177298267e+01   2.9169823096e+01    0.2578753    0.1376903 -45.88  0.001499173    1.637    0.389
       103  -7.7952    182.4785     68.4624   3.0916477819e+01   3.1342036380e+01    0.1208137    0.1004243 -71.88 0.0008090202    1.018    0.017
       104  -8.0537    163.5185     64.0351   3.2530267117e+01   3.5679376677e+01    0.1870461   0.08531665 -60.23 0.0008101459    2.593    0.614
       105  -8.5152    207.0097     62.2245   2.6941438210e+01   2.7807123058e+01    0.3111958    0.1300863 -58.03  0.001577251    2.275    0.561
       106  -7.9842    171.5309     63.4993   3.1303357404e+01   3.4173132913e+01    0.1238414     0.102003 -75.32 0.0008097818    1.022    0.021
       107  -8.8340    210.2849     59.4706   2.6115196634e+01   2.7623330475e+01    0.2045432    0.1214967 -48.49 0.0006609894    1.416    0.294
       108  -8.8407    202.2527     57.2984   2.6498598273e+01   2.9318244634e+01    0.3151527    0.1851216 -29.76  0.001751627    2.491    0.598
       109  -7.5126    132.3482     59.6694   3.6577080897e+01   4.2790323214e+01    0.1386336   0.09244173 -79.93 0.0007049075    1.764    0.433
       110  -8.6416    198.5836     54.2129   2.6282581282e+01   3.0391359031e+01    0.2401737    0.1066694 -33.24  0.001141421    3.045    0.672
       111  -8.6948    213.1126     52.9306   2.4670070903e+01   2.8019317410e+01    0.1776341    0.1127951 -66.46 0.0006474914    1.294    0.227
       112  -8.3624    202.5143     47.4499   2.4627876329e+01   3.0581781857e+01    0.2230684   0.09516451 -41.24  0.001207558    2.165    0.538
       113  -7.8606    196.6147     44.2108   2.4567028181e+01   3.2060689084e+01    0.1447729   0.09830307 -38.78 0.0008862744    1.647    0.393
       114  -8.7986    208.2686     36.1421   2.2054913208e+01   3.0983623586e+01    0.3156739   0.09082914 -47.67  0.001559949    2.642    0.621
       115 -10.0272    239.8742    216.0936   4.8914681442e+01  -1.4554061443e+00    0.3754931    0.1521687 -53.05  0.001748098    3.255    0.693
       116  -8.6562    215.7123     26.8547   1.9855400549e+01   3.0794429065e+01    0.1977641    0.1626235 -49.35  0.001606622    1.439    0.305
       117  -8.3874    223.7057     24.0064   1.8840233669e+01   2.9777138478e+01    0.2284404    0.1133124 -36.84  0.001442992    2.224    0.550
       118  -9.2404     22.5471    248.6632   1.0108755888e+02   1.5788067243e+01    0.2398922    0.1223267  43.52 0.0009313572    1.707    0.414
       119 -11.0524    244.5200     60.8018   2.3429068303e+01   2.1986872506e+01    0.3339106    0.1842827 -40.67  0.001104471    1.741    0.426
       120 -12.9785    242.5288    127.1320   3.4451640267e+01   1.2576654071e+01     1.161059    0.6512375 -43.26  0.007414443    1.386    0.279
       121 -11.1073    233.6552    127.8055   3.5594746360e+01   1.3630402252e+01     1.148822    0.2699015 -41.19  0.002591714    3.994    0.750
       122  -9.6574      9.9830    249.0000   1.0415258051e+02   1.6843258620e+01    0.2997773   0.09444515  39.96  0.001246035    2.452    0.592
       123 -11.2715    233.2981     96.2487   3.0295035044e+01   1.8632731601e+01     1.170549    0.4021449 -57.65 0.0003916243    3.607    0.723
