#   1 NUMBER                 Running object number                                     
#   2 MAG_AUTO               Kron-like elliptical aperture magnitude                    [mag]
#   3 X_IMAGE                Object position along x                                    [pixel]
#   4 Y_IMAGE                Object position along y                                    [pixel]
#   5 X_WORLD                Barycenter position along world x axis                     [deg]
#   6 Y_WORLD                Barycenter position along world y axis                     [deg]
#   7 A_WORLD                Profile RMS along major axis (world units)                 [deg]
#   8 B_WORLD                Profile RMS along minor axis (world units)                 [deg]
#   9 THETA_WORLD            Position angle (CCW/world-x)                               [deg]
#  10 FWHM_WORLD             FWHM assuming a gaussian core                              [deg]
#  11 ELONGATION             A_IMAGE/B_IMAGE                                           
#  12 ELLIPTICITY            1 - B_IMAGE/A_IMAGE                                       
         1 -15.2808     10.8564    143.9946   1.4159581648e+02   4.4150924480e+01     9.876595     3.170712 -83.44   0.03269842    4.752    0.790
         2 -13.4991    198.8676     28.1302   6.6687734960e+01   3.2340319893e+01     1.370924     1.249276  26.89  0.006502751    1.405    0.288
         3 -13.4855    214.7201      9.6803   6.0554174378e+01   3.0694061755e+01    0.9551731    0.7961359  74.99   0.00318661    1.171    0.146
         4 -11.2245      2.3577      3.5286   1.1185004089e+02   7.2045443636e+01    0.2560923    0.1739963  -6.33  0.002020325    1.171    0.146
         5  -9.9786     81.9903    248.9922   1.3790792372e+02   1.2805016829e+01    0.2067851    0.1164565  68.86  0.001019761    1.719    0.418
         6 -12.2200    246.2143    248.1726   1.0714545897e+02  -1.3693296565e+01    0.6315712    0.3136885  40.22  0.003477414    1.938    0.484
         7  -9.4914    175.3430    250.3118   1.2052938122e+02  -2.7655920801e+00    0.1269545   0.09061971  14.81 0.0007046124    1.702    0.412
         8 -11.9872    155.8254    249.4996   1.2413211474e+02   6.8824459811e-01    0.6122406    0.1786262  44.65  0.002352743    2.851    0.649
         9 -11.6602    140.2364    249.9263   1.2716156317e+02   3.2721877333e+00     0.462825    0.1925233  40.12  0.002104893    2.098    0.523
        10 -11.1546     46.5749    248.4878   1.4406369716e+02   1.7807580981e+01     0.308937    0.2122153  83.69  0.001468695    1.182    0.154
        11 -11.7387     22.0700    245.1916   1.4789548975e+02   2.1387429770e+01     0.425736    0.2245418  67.98  0.002270631    1.487    0.327
        12 -12.7119      8.2648    229.4566   1.4919520749e+02   2.5912530655e+01    0.7672019    0.4601125 -80.86  0.005315261    1.371    0.271
        13 -12.4790     15.4402    240.5676   1.4868640629e+02   2.3001449926e+01    0.6449382    0.2329137  44.49  0.003185828    2.360    0.576
        14 -11.3533     28.9053    248.4926   1.4699572340e+02   1.9976930803e+01    0.4823453    0.2118154 -65.31  0.002788497    2.328    0.570
        15 -12.4672     35.3672    244.9919   1.4569580930e+02   1.9869016519e+01    0.6612473     0.461005 -65.81  0.004600589    1.683    0.406
        16 -12.2483      4.4072    249.0323   1.5088614383e+02   2.2575946783e+01     1.173197    0.3637467  37.55  0.006070765    3.411    0.707
        17 -11.7285      5.6407    241.4406   1.5029792230e+02   2.3867535156e+01    0.4298612    0.2961903  70.93  0.001945552    1.092    0.085
        18  -9.4976     65.8908    250.0687   1.4086621025e+02   1.4923278628e+01      0.18864     0.122482  69.06 0.0004709871    1.254    0.202
        19 -11.0744    183.6013    238.5563   1.1715769972e+02  -2.3390373666e+00    0.3042737    0.1658937  42.97  0.001330534    1.594    0.373
        20 -11.4299    198.5101    245.6288   1.1542824469e+02  -5.9513612081e+00    0.2449771    0.1797925  31.19  0.001499478    1.159    0.137
        21 -11.1345     50.3759    236.0643   1.4242228373e+02   1.9719265323e+01    0.2636317    0.1874356  89.74  0.001363179    1.193    0.162
        22 -11.1607    217.7587    248.2356   1.1226515153e+02  -9.4311897068e+00    0.2925963    0.2359154  88.27  0.001703456    2.420    0.587
        23 -12.8182     94.5800    228.0950   1.3330660796e+02   1.4920230233e+01     1.738816    0.2260042  49.17  0.003710404    9.622    0.896
        24 -10.1287     79.0887    218.9016   1.3531406605e+02   1.9206908581e+01     0.211128    0.1479064  73.83 0.0008080254    1.292    0.226
        25 -12.5356      9.6307    207.1737   1.4751709598e+02   3.0301881550e+01    0.6276439    0.4996492  32.82  0.003026551    1.759    0.431
        26  -8.8134    152.4934    213.0475   1.1930284753e+02   7.8078687361e+00    0.1830417    0.1392952 -54.04 0.0003336341    1.446    0.308
        27 -10.9646     55.8001    205.5557   1.3852465434e+02   2.5370179435e+01    0.5279804    0.2098044  59.25  0.002215805    2.820    0.645
        28 -11.7574     57.9000    198.4387   1.3731635244e+02   2.6663507121e+01    0.3010156    0.2232405 -77.25 0.0004588756    1.198    0.166
        29 -10.8035      9.4077    193.8342   1.4657952285e+02   3.3154577700e+01    0.2321706    0.1560465  72.97 0.0004960895    1.240    0.194
        30  -9.4109    191.8075    192.9159   1.0745637246e+02   4.1161263760e+00    0.3262971    0.1866313 -64.69  0.001221497    3.157    0.683
        31 -12.0401     64.5464    189.9350   1.3488989997e+02   2.7679413673e+01    0.2803219    0.2474813 -71.52 0.0004784342    1.223    0.182
        32 -10.9281      1.9488    183.2791   1.4720572785e+02   3.6097863112e+01    0.3193299    0.1485475 -79.93  0.001808981    1.662    0.398
        33 -10.8351     75.2958    177.1051   1.3073584605e+02   2.9112114443e+01    0.2514164    0.2131516 -74.22 0.0003443421    1.103    0.094
        34 -13.2214     61.6813    175.2100   1.3360767676e+02   3.1478518399e+01    0.5197428    0.2795846 -47.03  0.001815684    2.245    0.555
        35  -9.4740     95.1308    172.0260   1.2527093190e+02   2.7186036057e+01    0.2392114    0.1910067  57.33  0.001287826    1.224    0.183
        36 -11.8960     82.9754    167.8428   1.2749021291e+02   3.0135890502e+01    0.6969628    0.5747709 -56.20  0.003930592    1.244    0.196
        37  -9.1788     94.1898    168.0893   1.2482682300e+02   2.8272812410e+01    0.2046954    0.1905291 -53.58 0.0007460917    1.201    0.167
        38 -12.7328     45.5972    214.5994   1.4142447600e+02   2.4735035735e+01    0.7275509     0.565588 -83.60  0.003133901    1.166    0.142
        39 -10.3099     95.9917    152.2683   1.2150168333e+02   3.1742227015e+01    0.3040239    0.2794595 -52.43 0.0007923698    1.147    0.128
        40 -12.0374     84.5982    151.2938   1.2422076199e+02   3.3841179629e+01    0.3108874    0.2484627 -49.23  0.000841609    1.283    0.220
        41  -9.2768     99.1972    148.1034   1.1986597395e+02   3.2187864700e+01    0.2138145    0.1928337 -41.81 0.0003532878    1.209    0.173
        42 -12.2771     67.2128    143.3960   1.2728705574e+02   3.8304288779e+01    0.6812925    0.4394991  66.93  0.002837654    1.894    0.472
        43  -9.8391    108.4029    137.3161   1.1520715225e+02   3.3100428710e+01    0.4407695    0.2745671 -25.30  0.001555829    2.648    0.622
        44 -10.5110     95.4404    134.5638   1.1804063755e+02   3.6063903084e+01     0.259467    0.2329575 -32.47 0.0003120116    1.230    0.187
        45 -11.4656     25.9859    128.5805   1.3575871033e+02   4.6442517551e+01    0.3597973    0.2235482  57.76  0.001382813    1.927    0.481
        46  -8.8777    106.0660    123.9010   1.1275810102e+02   3.6673300887e+01    0.2049936    0.1863703 -88.94  0.001092599    1.151    0.131
        47  -9.9256     80.1621    123.5456   1.1983761724e+02   4.1148282408e+01    0.2920146    0.2129339  69.47 0.0009090704    1.718    0.418
        48  -9.5057     66.5719    121.9530   1.2333615799e+02   4.3486221343e+01     0.255128    0.1830241  59.31  0.001324941    1.660    0.398
        49  -9.4031     75.4780    128.8141   1.2226293831e+02   4.0609396520e+01    0.2674088    0.1706394  56.87 0.0008661277    1.880    0.468
        50  -9.9649    167.7566    112.8948   9.4561854570e+01   2.5845966432e+01    0.2832434    0.2420784  86.55 0.0005268077    1.299    0.230
        51 -12.9235     30.2751    231.9299   1.4563387748e+02   2.3021828254e+01     0.290435    0.2347074 -77.38 0.0008116049    1.385    0.278
        52 -11.3831    243.2584     93.9042   7.6183410822e+01   1.1959154260e+01    0.3000876    0.2467515  36.52  0.001654478    1.528    0.345
        53  -9.0515     64.9379     81.1401   1.1393879507e+02   5.2726898818e+01    0.1827551    0.1757525 -82.01 0.0005401751    1.253    0.202
        54 -10.0799    158.8236     77.1487   8.6836480861e+01   3.4911169686e+01    0.2362573    0.2065368 -80.50 0.0006564749    1.237    0.191
        55  -9.8508     56.3904     75.1985   1.1509335721e+02   5.5042705909e+01    0.2608387     0.204102  57.92  0.001028168    1.784    0.439
        56 -13.9273     35.1388    225.4562   1.4428789194e+02   2.3753377419e+01    0.6840735     0.505027  80.49  0.002420521    1.022    0.021
        57 -11.0528      2.3631     60.8133   1.3050644131e+02   6.2628834907e+01    0.2771861    0.1142341 -61.25  0.001474026    2.026    0.506
        58 -12.5849      4.0662     50.2615   1.2724114702e+02   6.4524484351e+01    0.5038415    0.4158689  81.44  0.002659665    1.889    0.471
        59 -11.1744    101.3203    246.6522   1.3411906601e+02   1.0270631056e+01    0.2750467    0.1683218  74.60  0.001501996    1.779    0.438
        60 -11.1206      3.4060     38.7525   1.2426222090e+02   6.6613489505e+01    0.2147839    0.1739466  88.96  0.001515225    2.131    0.531
        61 -12.9029    108.2963    230.7579   1.3092133226e+02   1.2165239889e+01     1.471793    0.1438378  44.70  0.003640292    6.823    0.853
        62 -11.5550    124.4503    250.0779   1.3017154892e+02   5.8949752019e+00    0.5869638    0.1274798  43.57  0.002019915    3.666    0.727
