#   1 NUMBER                 Running object number                                     
#   2 MAG_AUTO               Kron-like elliptical aperture magnitude                    [mag]
#   3 X_IMAGE                Object position along x                                    [pixel]
#   4 Y_IMAGE                Object position along y                                    [pixel]
#   5 X_WORLD                Barycenter position along world x axis                     [deg]
#   6 Y_WORLD                Barycenter position along world y axis                     [deg]
#   7 A_WORLD                Profile RMS along major axis (world units)                 [deg]
#   8 B_WORLD                Profile RMS along minor axis (world units)                 [deg]
#   9 THETA_WORLD            Position angle (CCW/world-x)                               [deg]
#  10 FWHM_WORLD             FWHM assuming a gaussian core                              [deg]
#  11 ELONGATION             A_IMAGE/B_IMAGE                                           
#  12 ELLIPTICITY            1 - B_IMAGE/A_IMAGE                                       
         1 -11.9875     43.0220     20.5928   9.0309279662e+01   7.0526586383e+01    0.5923035    0.3217323  41.39  0.001571491    1.719    0.418
         2 -12.4900    215.5116     14.3799   5.2294815107e+01   2.9432871926e+01    0.6049691    0.4837876 -71.59  0.002676242    1.084    0.077
         3 -13.6447    185.9367      6.8362   5.2416244744e+01   3.6827656530e+01    0.9431439    0.5421584 -67.46  0.005022761    1.587    0.370
         4 -11.3877    200.8091     10.0184   5.2200536399e+01   3.3089294350e+01    0.2059378    0.1575764 -85.70 0.0003853184    1.185    0.156
         5 -12.1334     58.6798      8.1301   7.5244705830e+01   6.8960090687e+01    0.5302177    0.3259314  49.98  0.002743127    1.411    0.291
         6 -12.1662     43.7820      8.3479   8.2302990132e+01   7.2106015947e+01    0.3609678    0.2798879  48.62  0.001072745    1.262    0.207
         7 -10.6217    109.5280      8.8391   6.1813419480e+01   5.6210035684e+01    0.2841454    0.1681545 -88.49  0.001152001    1.860    0.462
         8 -11.3682    164.8270      6.1451   5.3900362789e+01   4.2033240867e+01    0.3515252    0.1311584 -38.05   0.00151321    2.374    0.579
         9 -11.7757    165.2990      1.8131   5.2592929600e+01   4.2301365040e+01    0.4720621    0.1790277  80.71   0.00196309    2.423    0.587
        10  -9.2704     13.5391      3.5199   1.0036203587e+02   7.7807790390e+01    0.1226291    0.1038639  -0.33 0.0008086777    1.042    0.041
        11 -11.2990     54.9114      2.7543   7.3452060037e+01   7.0360517606e+01    0.3540568    0.2668876 -70.04   0.00192264    1.910    0.477
        12 -10.7206    232.0500    223.5359   9.3082568018e+01  -1.5252928789e+00    0.1594192   0.08943475  26.20   0.00103351    1.602    0.376
        13 -10.9616    149.3524    221.3901   1.0826140775e+02   9.3445399342e+00    0.4213192    0.2053561 -35.64   0.00205846    2.452    0.592
        14  -9.8271    174.0000    221.4770   1.0319994732e+02   5.9312225553e+00    0.2428051    0.0675895 -43.88 0.0009472783    4.037    0.752
        15 -11.7638    226.6554    220.2574   9.3453527072e+01  -5.2485249072e-01    0.3006629    0.1364596 -21.00  0.001607192    2.318    0.569
        16 -11.7690    223.1167    213.9912   9.3052751176e+01   6.6281443480e-01    0.3528343    0.1961585  10.12  0.002069925    1.813    0.448
        17 -10.8507    239.6319    215.3323   9.0600874745e+01  -1.4033713166e+00    0.2987207   0.08615617 -40.96  0.001250613    4.388    0.772
        18 -10.5610    115.8773    209.1697   1.1411179660e+02   1.6301208436e+01    0.2995616    0.1648191 -67.90  0.001373326    2.714    0.631
        19  -9.9659    185.5736    203.7832   9.8155681234e+01   6.9666778919e+00    0.1595309    0.1171145 -44.88 0.0006238322    1.693    0.409
        20 -10.7813     41.6405    201.2213   1.3187858712e+02   2.7747792001e+01    0.2325168    0.2074646 -68.29 0.0005559315    1.309    0.236
        21 -10.3526    112.4872    197.9697   1.1339226809e+02   1.8972438018e+01    0.1814144    0.1198471  83.36  0.000810279    2.598    0.615
        22 -12.4513    159.7342    191.4619   1.0139028661e+02   1.2816206681e+01    0.6787516    0.5210211  68.71  0.003056272    2.143    0.533
        23 -10.0620    215.0077    193.4857   9.1029688560e+01   4.3977300417e+00      0.23441    0.1383491 -48.40 0.0009615674    2.441    0.590
        24 -10.4104    224.0201    183.5089   8.7773596968e+01   4.5674053119e+00    0.1907404    0.1365305 -23.97 0.0009317673    1.220    0.180
        25 -10.3563    183.2702    183.0112   9.5032490280e+01   1.0558349814e+01    0.3259526     0.164603 -36.20  0.001577006    1.990    0.497
        26  -9.8253    191.6756    178.3295   9.2549762211e+01   1.0009699500e+01    0.1157027    0.1060448  85.41 0.0007050044    1.700    0.412
        27  -9.6452    128.6609    177.6862   1.0621924274e+02   2.0470160436e+01    0.1464528    0.1070883  -2.40 0.0007047018    1.697    0.411
        28  -9.7164    133.3069    195.6623   1.0804084411e+02   1.6207099991e+01    0.1337795    0.1022909  60.62 0.0005636991    1.678    0.404
        29 -10.7106     45.4879    172.4774   1.2835112928e+02   3.3950549810e+01    0.4165874    0.1042489  49.77  0.001205961    4.493    0.777
        30 -10.1416     34.2963    173.6387   1.3170518334e+02   3.4896253974e+01    0.1493673   0.08408781  59.34 0.0006571641    1.710    0.415
        31  -9.9379    176.0000    170.9902   9.4270585692e+01   1.3735651044e+01    0.2171159   0.07397573 -42.13 0.0008080315    2.981    0.665
        32 -10.7105    121.4714    169.4922   1.0660159859e+02   2.3386726663e+01    0.2473435    0.1459581 -66.91  0.001032501    2.399    0.583
        33 -11.3675     55.3921    167.6212   1.2490758456e+02   3.3935374162e+01     0.457471    0.2604947  78.07  0.001984392    2.190    0.543
        34 -10.0354    138.6272    164.4751   1.0137972242e+02   2.1424306313e+01    0.2625014    0.1874802 -84.70  0.001151963    2.426    0.588
        35 -10.7379     52.1935    160.8551   1.2506993964e+02   3.6000826802e+01    0.2351049    0.1754581  57.52  0.001230373    1.276    0.216
        36 -10.6331     23.1188    159.8720   1.3390282798e+02   3.9364548951e+01    0.2216287    0.1579653  57.00 0.0006475876    1.269    0.212
        37 -11.6488    106.1761    157.3920   1.0851952663e+02   2.8690515553e+01    0.6558286    0.4622637  83.99    0.0029133    2.065    0.516
        38 -11.0117    167.6163    157.0810   9.3293422370e+01   1.7653452712e+01    0.3347656    0.2700247 -89.24  0.001610426    1.966    0.491
        39 -10.3435    218.4075    156.1988   8.3615966530e+01   9.2950202175e+00    0.3137257    0.1057661 -39.01  0.001301784    2.711    0.631
        40 -11.9123    118.9993    156.2816   1.0481010402e+02   2.6672575721e+01    0.5052076    0.4179993  64.97  0.002606349    1.387    0.279
        41  -9.6324      6.7828    155.9869   1.3861651326e+02   4.1653212618e+01    0.1732763   0.09662899 -83.82 0.0005491398    1.668    0.400
        42 -10.2270     23.3485    153.8192   1.3334167457e+02   4.0862748039e+01    0.2126771    0.1493581  74.66 0.0005008523    1.353    0.261
        43 -10.4848     40.1964    152.5795   1.2786733155e+02   3.9490328238e+01    0.2813509    0.1866392  66.83  0.001141869    1.536    0.349
        44 -10.4815    189.7688    150.3041   8.7452084895e+01   1.4924965712e+01    0.3147316    0.1745958 -51.99  0.001404363    2.336    0.572
        45 -10.4322    240.9915    149.9915   7.8992703934e+01   6.8453866180e+00    0.2155867    0.1407031 -66.95 0.0009590831    4.134    0.758
        46 -10.7547    233.6301    146.7701   7.9431247663e+01   8.3652483815e+00    0.1755533   0.09643225 -40.12 0.0009509992    1.693    0.409
        47 -10.8601    106.6898    145.0145   1.0600198400e+02   3.1444861449e+01    0.4675486    0.2734988  77.32  0.001449544    4.121    0.757
        48 -10.1982    148.1935    144.9926   9.5129397070e+01   2.3585258439e+01    0.2364712    0.1759904 -78.08  0.001075358    2.054    0.513
        49 -10.2206    124.5058    143.0019   1.0065263555e+02   2.8567401300e+01    0.2145857    0.1376348 -77.25 0.0008104582    2.691    0.628
        50 -10.2362    181.5018    141.5275   8.7195096407e+01   1.7920317049e+01    0.2477916    0.1239826 -49.53  0.001029073    2.334    0.572
        51  -9.1895     35.7123    138.7376   1.2774678766e+02   4.3538374995e+01    0.1339935    0.1054348 -34.53 0.0001613057    1.492    0.330
        52 -10.5011     83.1800    132.1997   1.1059729090e+02   3.8675413580e+01    0.2224751    0.1784565  68.08 0.0009688599    1.369    0.269
        53 -10.1521    131.5119    131.0385   9.6153977854e+01   2.9785164711e+01    0.2146609    0.1369719 -72.62 0.0008099304    2.587    0.614
        54 -11.7464     98.6860    128.3069   1.0485718698e+02   3.6858419505e+01     0.538151    0.3313808 -89.82  0.001857235    3.165    0.684
        55 -10.7486     43.5789    123.6688   1.2285907695e+02   4.6618499787e+01    0.5003967    0.2289836  69.45  0.001564531    3.899    0.743
        56  -9.9981    249.6833    123.6750   7.2742770645e+01   9.1756039130e+00    0.1177985   0.08180571  -4.54 0.0007044152    1.671    0.401
        57 -11.9374    193.1788    118.1564   7.9841018712e+01   1.9723303678e+01    0.5633305    0.4113798 -60.68  0.002417276    1.692    0.409
        58 -11.3630    141.4873    112.6251   8.9156607770e+01   3.1540656634e+01    0.4436184    0.2595054 -28.13  0.001754458    2.195    0.544
        59  -9.8795    117.3288    125.6378   9.8734880733e+01   3.3844281803e+01    0.1626005    0.1229134  80.51 0.0006168165    1.799    0.444
        60 -10.3669      2.3248    115.4816   1.3749559300e+02   5.2270022539e+01    0.2398647    0.1113588 -80.64  0.000951714    1.940    0.484
        61 -10.4624    108.0187    112.3074   9.8181392297e+01   3.8772958050e+01    0.4906606    0.2195969 -61.28  0.001512462    3.427    0.708
        62 -10.7138     78.4748    112.1632   1.0782640267e+02   4.4477304344e+01    0.5049461    0.2735201 -84.62  0.001456458    4.407    0.773
        63 -10.4428    122.4897    113.0008   9.4181365171e+01   3.5574772118e+01    0.2207964    0.1384211 -71.37 0.0008102779    2.544    0.607
        64 -10.2363     92.2464    113.2475   1.0339322887e+02   4.1689724001e+01    0.3856306    0.2363287 -74.40  0.001460932    2.393    0.582
        65 -10.6944    174.1574    110.9787   8.1632910558e+01   2.4813681434e+01    0.3502817    0.2224254 -46.01  0.001062175    1.568    0.362
        66 -11.4676    160.2409    112.1961   8.4765621258e+01   2.7553561243e+01    0.3992544    0.2952777  69.65  0.001900193    1.681    0.405
        67 -11.6541     15.1103    110.5027   1.3203801827e+02   5.2792798171e+01    0.6776825    0.3635482  78.94  0.002178964    2.062    0.515
        68 -11.5526    140.4158    105.1498   8.7474395540e+01   3.3286599638e+01     0.410053    0.3079154  67.35  0.001614816    1.548    0.354
        69 -12.0295    140.9592    100.2548   8.6031572818e+01   3.4138680410e+01    0.5102159     0.354047  50.45  0.002353285    1.432    0.301
        70 -11.7329     44.2029    100.7737   1.1848701715e+02   5.2557400464e+01    0.6519694    0.3749704  79.67  0.002515072    2.620    0.618
        71 -10.1655    222.5264    104.0292   7.2169307652e+01   1.6428046813e+01    0.1893475   0.08890025 -51.39 0.0008098503    2.539    0.606
        72 -11.9247    127.4595    100.8016   8.9589857305e+01   3.7084485590e+01    0.5328316    0.2850429 -50.93  0.001891996    2.023    0.506
        73 -11.7996    107.4458     98.3549   9.4612908576e+01   4.2038736217e+01    0.6329528    0.4475218 -76.94  0.002649484    1.991    0.498
        74 -10.7832     81.8766    100.2395   1.0362956657e+02   4.6786293810e+01     0.309981    0.2266661 -71.18  0.001040477    1.604    0.377
        75 -10.2561     63.3331     96.6554   1.0971136634e+02   5.0895490687e+01     0.161797    0.1159408  69.08 0.0007050129    1.761    0.432
        76 -12.8396    170.1251     90.5982   7.7244255544e+01   2.9275380082e+01    0.4697584    0.3710389  80.40 0.0009801608    1.467    0.318
        77 -11.2982    117.7664    102.7126   9.2778966051e+01   3.8834651394e+01     0.292962    0.1947257  41.00  0.001239796    1.491    0.329
        78 -11.8547     42.4943     87.7327   1.1634538113e+02   5.6130968173e+01     0.863241    0.4133529  13.28  0.003154152    2.872    0.652
        79 -10.6424     45.2821     81.8534   1.1360952650e+02   5.7254061407e+01    0.3570031    0.2396893 -82.11 0.0008984798    1.877    0.467
        80 -10.4534    151.6335     87.2509   8.0023366560e+01   3.4133060118e+01    0.2655838    0.1953579 -28.55 0.0007161952    1.486    0.327
        81 -10.4768     86.4717     86.9841   9.8222059963e+01   4.9002526712e+01    0.4211718    0.2546679  85.40  0.001216886    4.540    0.780
        82 -10.4846    104.6751     83.5920   9.1096881846e+01   4.5844194640e+01    0.3582074    0.2372742 -80.68  0.001340811    2.581    0.613
        83 -10.4909    140.5119     82.5439   8.1139790728e+01   3.7635053602e+01    0.3232311    0.1487976 -40.10  0.001212814    2.182    0.542
        84 -10.1482    249.6642     80.6880   6.4065988676e+01   1.4915289681e+01    0.1114702   0.08717795   2.27 0.0007045242    1.685    0.407
        85 -10.1280      1.5318     77.8963   1.3416417601e+02   6.2046683471e+01    0.2050195    0.1168958 -74.18 0.0008879952    1.564    0.361
        86 -10.8349     81.3466     72.6310   9.5510128867e+01   5.3231394480e+01    0.4194137    0.2808585  81.67  0.001597068    2.666    0.625
        87 -11.7483    223.0417     71.0341   6.4737696282e+01   2.1031231151e+01    0.3547344    0.2434918 -67.17  0.002022482    1.604    0.377
        88  -9.9099     94.7584     71.7368   9.0440212957e+01   5.0530976914e+01    0.2454145      0.12429 -54.28 0.0008896778    2.406    0.584
        89 -10.3675     51.9799     70.6797   1.0726225104e+02   5.9003361979e+01    0.2576779    0.2126985  84.53 0.0007632938    1.509    0.337
        90 -11.4607     28.2669     52.5191   1.1376262475e+02   6.6376674416e+01    0.5681708    0.3186381 -10.75  0.002388174    2.508    0.601
        91 -11.8165     21.2027     53.0878   1.1816169046e+02   6.6955488552e+01    0.6860535    0.3683301 -76.55  0.002981819    2.401    0.584
        92 -11.9363     39.8272     52.5135   1.0717829929e+02   6.4931291968e+01     0.574582    0.2316796 -44.34  0.002115331    2.469    0.595
        93 -13.7128     30.0200     59.7865   1.1508008265e+02   6.4487200545e+01     1.554742    0.8047166  26.81  0.003778645    1.939    0.484
        94 -11.5099     19.4948     59.4875   1.2097427982e+02   6.5576488548e+01    0.3786801    0.2839113 -40.93  0.001256823    1.241    0.194
        95 -10.1171    196.1660     67.7859   6.7212222754e+01   2.7058134036e+01    0.3477853    0.1459359  56.58  0.001468619    2.473    0.596
        96 -12.8235    232.4021     60.6497   6.1456426639e+01   2.0600653330e+01    0.6136565    0.3583187 -85.03  0.003231592    2.265    0.559
        97 -12.4868    149.2308     52.2957   7.0136611892e+01   4.0522065595e+01    0.3734967    0.2837823  69.89 0.0004822027    1.275    0.216
        98  -9.8703     81.1732     61.1667   9.1496302391e+01   5.5645841667e+01    0.2300929     0.204055  15.53 0.0007003611    1.201    0.167
        99 -11.4674     75.4293     45.5578   8.7478094182e+01   5.9831944829e+01     0.435341     0.258186 -44.41 0.0005555068    1.814    0.449
       100 -10.9667     69.9862     42.1305   8.8175948014e+01   6.1609726403e+01    0.5100603    0.3043681  68.45  0.001971811    2.769    0.639
       101 -10.7783    156.9277     44.9650   6.6576179907e+01   3.9616410089e+01    0.2706862    0.1942652  74.37 0.0004260387    1.354    0.262
       102 -11.3793      7.6314     43.3203   1.2403535603e+02   7.0262020902e+01    0.6110079    0.2485707  32.22  0.002673988    2.614    0.617
       103 -12.3061     42.0234     37.6066   9.9733700076e+01   6.7702689773e+01    0.6420065      0.39021  22.36  0.001016952    1.791    0.442
       104 -11.1296     47.3836     35.7982   9.5913842429e+01   6.7148893075e+01    0.3054748    0.2278223  -4.25 0.0008080659    1.552    0.356
       105 -10.2377     83.5189     38.3354   8.1375624040e+01   5.9201456065e+01    0.2702706    0.1285429  52.47  0.001080717    1.947    0.486
       106 -11.3248    120.1363     34.2643   6.9704513306e+01   5.0581560038e+01    0.3411325    0.2728637  80.22 0.0007859736    1.223    0.182
       107 -11.1339    106.0040     30.4606   7.1453068604e+01   5.4751583516e+01    0.5833398    0.3310561  84.20  0.002152262    2.439    0.590
       108 -10.5978    102.0091     30.4866   7.2467525410e+01   5.5773856907e+01    0.5859318    0.2558484 -47.54  0.002175787    2.790    0.642
       109 -10.1727     68.2310     25.4598   8.0970887363e+01   6.4640890123e+01    0.2687902    0.1821394  -6.09 0.0009134066    1.916    0.478
       110 -10.6014     37.7404     23.5791   9.5128848835e+01   7.0958115867e+01    0.3141198    0.1517997  43.57  0.001092204    2.106    0.525
       111 -11.7495    220.1088    248.5287   9.8713210636e+01  -3.0820154810e+00    0.2846824     0.227582  31.22  0.002200219    1.759    0.432
       112 -10.5287     46.5339     16.4930   8.5961770361e+01   7.0476351071e+01    0.2451496    0.2015086   1.45  0.000792847    1.226    0.184
       113 -12.2433    202.9104     21.2823   5.4828191475e+01   3.1451159628e+01    0.5049243    0.2023772 -66.73  0.002042757    2.989    0.665
       114  -9.7014    122.4650     23.4808   6.5208030982e+01   5.1293749040e+01     0.144255    0.1295688  77.98 0.0001398641    1.003    0.003
       115 -11.1270    239.5907     20.6275   5.2237874986e+01   2.3916809743e+01    0.2254491    0.1733209 -78.31 0.0006290945    1.236    0.191
       116  -9.9432    187.8208    248.1331   1.0432515991e+02   5.7898881376e-01    0.2247631    0.1145043  10.73  0.001224463    2.078    0.519
       117 -10.4946     30.4946     19.0306   9.7201749605e+01   7.2885231522e+01    0.1894555    0.1232572 -37.57 0.0005053735    1.547    0.353
       118  -9.8937     89.3383     18.3301   7.0490937507e+01   6.0483308884e+01    0.2900665    0.1669224  87.33  0.001166844    2.535    0.605
       119 -10.1003    127.3192     15.3374   6.1359905663e+01   5.0881812298e+01    0.1467998    0.0977411  40.55 0.0005315467    1.707    0.414
       120 -12.3893     22.6949    240.0669   1.3850900975e+02   2.1804904128e+01    0.7309278    0.1931842  54.47  0.003146029    3.097    0.677
       121 -10.7954     32.8543    242.1334   1.3639627180e+02   2.0414714959e+01    0.1951699    0.1150595  49.23  0.001217716    1.300    0.231
       122 -10.0862      8.1865    240.7836   1.4163030872e+02   2.3010951260e+01    0.1362443    0.1263886  33.65  0.001073829    1.344    0.256
       123  -9.8018      2.6649    240.3240   1.4277568258e+02   2.3575372503e+01    0.1261333   0.05262023  51.71 0.0007050963    1.713    0.416
       124 -10.1879     72.2382    230.0090   1.2670855720e+02   1.8253216037e+01    0.1439978    0.1062415 -73.73 0.0008889406    1.641    0.391
       125  -9.3092     24.9794     10.0000   9.5434037828e+01   7.5196158660e+01    0.1954054   0.06648792  37.47 0.0004050054    2.772    0.639
       126 -10.9734     12.7029    227.4471   1.4022848401e+02   2.5158530881e+01    0.2329964    0.1557846  53.77 0.0005617536    1.153    0.133
       127 -10.0574    104.3193    225.3863   1.1880771344e+02   1.4937526427e+01    0.2150121    0.1639309 -65.98  0.001086925    1.665    0.399
       128 -10.6760     95.3853    224.6827   1.2080214225e+02   1.6271095238e+01    0.2787524    0.1514774  61.86  0.001284903    2.604    0.616
