#   1 NUMBER                 Running object number                                     
#   2 MAG_AUTO               Kron-like elliptical aperture magnitude                    [mag]
#   3 X_IMAGE                Object position along x                                    [pixel]
#   4 Y_IMAGE                Object position along y                                    [pixel]
#   5 X_WORLD                Barycenter position along world x axis                     [deg]
#   6 Y_WORLD                Barycenter position along world y axis                     [deg]
#   7 A_WORLD                Profile RMS along major axis (world units)                 [deg]
#   8 B_WORLD                Profile RMS along minor axis (world units)                 [deg]
#   9 THETA_WORLD            Position angle (CCW/world-x)                               [deg]
#  10 FWHM_WORLD             FWHM assuming a gaussian core                              [deg]
#  11 ELONGATION             A_IMAGE/B_IMAGE                                           
#  12 ELLIPTICITY            1 - B_IMAGE/A_IMAGE                                       
         1 -10.1859     31.0209     12.9612   7.4434017425e+01   6.9730678724e+01    0.5397094    0.3858264 -52.73   0.00258973    2.376    0.579
         2 -12.1939     16.8693     19.2268   8.4615238017e+01   7.0474573137e+01      1.34798    0.6098108  -5.81  0.005213464    4.470    0.776
         3 -10.2870     15.0028     13.9646   8.3280263795e+01   7.1440748483e+01    0.2210125    0.1614431  -8.21 0.0004778815    1.093    0.085
         4 -10.9057     15.9329      6.4369   7.9150218704e+01   7.2385188900e+01     0.477527    0.2500351 -39.50  0.002881198    1.957    0.489
         5 -11.5297     12.2124      2.0869   7.9052945537e+01   7.3344027180e+01    0.3151859    0.1765639  12.57  0.001975948    1.674    0.403
         6 -11.7869     21.7254      5.0507   7.5283321375e+01   7.1898864039e+01    0.5095756    0.3243525 -42.62  0.003222706    2.045    0.511
         7 -11.1113     26.4501      2.5725   7.1546591933e+01   7.1596980896e+01    0.2672891     0.179766  36.98  0.001079518    1.573    0.364
         8 -11.3340    108.3897     17.6099   4.9871259271e+01   5.4867508315e+01    0.4867437    0.3024958   4.78  0.001075178    2.241    0.554
         9 -11.6393    238.1660     18.1662   3.2753154462e+01   2.5011894161e+01    0.2505405    0.1793569 -39.06 0.0002648213    1.472    0.321
        10 -12.3828    129.2309     19.1830   4.6106240284e+01   4.9883672537e+01    0.2591648    0.2466456  26.59  0.000425254    1.165    0.142
        11 -12.2102      8.5180      8.7877   8.4557575225e+01   7.2801465548e+01    0.4233231    0.2150249  29.57  0.002166618    2.043    0.510
        12  -9.9836      5.4763     13.5246   8.8513764997e+01   7.2362864336e+01    0.1999524    0.1285869 -34.60 0.0005176865    1.311    0.237
        13 -11.9723      4.2021     17.6383   9.1010394388e+01   7.1818884260e+01    0.4371758    0.3534112  46.22  0.002590075    2.030    0.507
        14 -11.0534      9.6597     15.9643   8.7174331402e+01   7.1640352000e+01    0.2638265    0.1597244 -20.23  0.001042012    1.433    0.302
        15 -10.0252     43.5444      8.5680   6.6555927625e+01   6.8460705994e+01    0.3544565     0.228343 -24.10 0.0008910369    1.557    0.358
        16 -11.1526     48.3702     15.9272   6.7958141465e+01   6.6846122789e+01    0.6185582     0.408723  15.80  0.003722895    1.454    0.312
        17 -10.2301     39.7370     11.0494   6.9422928985e+01   6.8752874555e+01    0.1774528     0.146108  27.71 0.0004658516    1.248    0.199
        18 -11.4906     40.0975     15.4523   7.1335068202e+01   6.8159704756e+01    0.3299128    0.2459374   8.73  0.001119038    1.149    0.129
        19 -11.5354    233.8356     12.4637   3.1945731738e+01   2.6551201938e+01    0.3062967    0.1543766 -34.78  0.001281834    2.043    0.510
        20 -11.1093    157.2605     11.7495   3.9422166851e+01   4.3943840891e+01    0.3020026     0.181946 -66.35 0.0009401842    1.881    0.468
        21 -10.3492     70.5660     13.5004   5.8621107996e+01   6.3227225416e+01     0.227272    0.1725622  25.19 0.0009774219    1.170    0.146
        22 -11.4959     77.4937     11.1491   5.5452495308e+01   6.2110605270e+01    0.5827948    0.2554334  51.85 0.0008307945    1.960    0.490
        23 -12.3838    128.7864     11.5719   4.3750059053e+01   5.0738107069e+01    0.4060242    0.2674212  79.74  0.002205979    1.539    0.350
        24  -9.9710    118.5243     12.5189   4.5966872195e+01   5.3046729413e+01    0.3603542    0.1919176  30.16  0.001652171    2.454    0.593
        25  -9.5903    117.7142      9.3362   4.5049154841e+01   5.3526316198e+01    0.2133034    0.1468456 -47.22 0.0008658642    1.712    0.416
        26 -10.4319    100.0449     12.2594   4.9864340542e+01   5.7253248313e+01    0.2229837    0.1786991   8.89 0.0008281514    1.375    0.273
        27 -10.7968     25.1219     20.3169   8.0769928006e+01   6.9435124691e+01    0.4844226    0.2518447   9.20   0.00248794    2.328    0.571
        28  -9.9631    138.6459     11.8381   4.2180139528e+01   4.8378643455e+01    0.2748627    0.1652639 -54.57  0.001414673    1.946    0.486
        29  -9.5349     65.4410     11.7957   5.9605519388e+01   6.4369122027e+01    0.1560218    0.1064391   0.26 0.0003735461    1.566    0.361
        30 -11.2267    164.2993      8.0318   3.7510547123e+01   4.2627390881e+01    0.3649645      0.21038 -14.96  0.001194165    2.443    0.591
        31 -11.4618    146.2262      7.2703   3.9676339886e+01   4.6997695545e+01    0.4627545     0.277068  38.78  0.002059929    1.970    0.492
        32 -10.7220    148.4902      1.9249   3.7826357581e+01   4.6929025168e+01    0.2381106    0.1724602 -76.23  0.000977785    1.411    0.292
        33 -12.7806    214.1311      5.6617   3.2051326959e+01   3.1459774691e+01    0.8073276    0.4391874 -83.49  0.004482121    1.710    0.415
        34 -11.1781    190.6385      6.6341   3.4314065734e+01   3.6608736413e+01    0.3644458    0.3353303 -46.19  0.002445552    1.296    0.228
        35 -11.4993    194.9360      2.4642   3.2950534405e+01   3.6041495411e+01    0.3969921    0.1925657 -89.54  0.001798093    2.022    0.505
        36 -10.6323     90.6093      7.4593   5.0344554473e+01   5.9738718231e+01    0.3234148    0.1556229  61.54  0.001569172    1.955    0.488
        37  -9.5617     93.6526      4.6740   4.8516936144e+01   5.9324076775e+01    0.2478082    0.1240233  32.24  0.001188752    2.212    0.548
        38 -10.8811    230.8893      6.3930   3.0951082438e+01   2.7826677036e+01    0.1907749    0.1257678 -59.02 0.0003967475    1.253    0.202
        39 -11.5928     98.0731      4.3340   4.7361172407e+01   5.8388672668e+01    0.3375697      0.23506  14.80  0.001926176    1.648    0.393
        40 -12.3485    179.0968      4.3629   3.4912954134e+01   3.9496683921e+01    0.3090791    0.2215543 -87.00 0.0002555952    1.216    0.178
        41 -10.2519     81.5056      5.4159   5.1924876662e+01   6.1826322381e+01    0.2226314    0.1945429 -65.45  0.001293088    1.536    0.349
        42 -11.1346    237.2757      3.0769   2.9870389684e+01   2.6873539793e+01      0.21885    0.1220662 -44.96  0.001347973    1.582    0.368
        43 -10.3601    126.3658      2.7605   4.1339138031e+01   5.2076900116e+01    0.2372786    0.1779028  16.30 0.0006484902    1.646    0.392
        44 -11.8374     67.8144      3.7170   5.5252747696e+01   6.4699138558e+01    0.2175574    0.1700692  35.89 0.0003276149    1.050    0.048
        45 -10.5016    243.0298      2.9249   2.9475572764e+01   2.5736188905e+01    0.1725166    0.1339951 -72.49 0.0004926661    1.058    0.055
        46 -10.5385    169.6177      2.6105   3.5477060277e+01   4.1876606513e+01     0.244645    0.1373491 -67.96 0.0007005116    1.912    0.477
        47 -10.0317     74.2916      2.4011   5.2703174477e+01   6.3545439595e+01    0.2198563    0.1691843 -71.24  0.001123679    2.059    0.514
        48 -10.8219    230.7370      1.6565   3.0024726762e+01   2.8359241065e+01    0.1822978    0.1276074  75.81 0.0003663463    1.373    0.272
        49  -9.4624    156.4556      6.4525   3.8062034882e+01   4.4638083443e+01    0.1275343    0.1071252  77.81 0.0001250574    1.014    0.014
        50 -10.8258    108.1077      1.6353   4.4253832327e+01   5.6368805015e+01    0.2045399    0.1437254  54.62 0.0005744498    1.177    0.150
        51 -10.0391     33.2983      1.6339   6.7708660215e+01   7.0754354626e+01    0.2252836    0.1362683  39.95  0.001040706    1.609    0.379
        52  -9.1766     82.3407      1.2597   4.9991886596e+01   6.2001159101e+01    0.1291318   0.07365518  36.88 0.0003729624    1.587    0.370
        53  -9.9248    244.4678    178.4764   6.4753726790e+01  -9.9971496535e-01    0.2322358    0.1034381 -29.62  0.001022508    2.297    0.565
        54 -10.4638    250.0102    246.9568   7.5842595098e+01  -1.1601430777e+01    0.1792451    0.1326928  -1.89  0.001109984    1.016    0.016
        55 -11.4534     89.0233    249.6078   1.0771719483e+02   1.0731526600e+01    0.2943638    0.2190668  39.43 0.0008318289    1.192    0.161
        56 -10.1050     72.6122    250.1297   1.1110084490e+02   1.2897183325e+01    0.1950741    0.1650659   5.88  0.001222216    1.679    0.404
        57 -11.9592     28.9700    248.0160   1.1948342714e+02   1.8695808752e+01    0.5067153    0.2656056  74.16  0.002937731    1.772    0.436
        58 -12.8388     19.2753    237.7984   1.2072510341e+02   2.1774395101e+01    0.6815701    0.3783312  50.66  0.004208833    1.451    0.311
        59 -11.6605      5.1387    235.8787   1.2329706374e+02   2.3582592704e+01    0.5650527    0.2853022  49.77  0.002916668    1.581    0.367
        60 -13.2764      5.7713    245.0833   1.2361766686e+02   2.1699685462e+01    0.9235314    0.4985843  38.11  0.004628689    1.728    0.421
        61 -12.2303     22.0998    248.9672   1.2082415264e+02   1.9264538977e+01    0.4594576    0.2406596  40.90  0.001505448    1.639    0.390
        62 -11.0017     17.4795    247.4820   1.2159807319e+02   2.0044425414e+01    0.2136284    0.1512115  78.14 0.0005180487    1.158    0.137
        63 -10.8247     46.5021    177.7750   1.0964128879e+02   3.2195140758e+01    0.3148733    0.2428821 -80.57  0.001119037    1.180    0.153
        64  -9.6677     69.5730    178.2314   1.0376587616e+02   2.9088333215e+01     0.188564    0.1231975 -54.13 0.0005494823    1.566    0.362
        65 -11.0651     34.2089    174.1237   1.1235987451e+02   3.4467739454e+01     0.256254    0.1987024 -65.28 0.0004751152    1.244    0.196
        66 -10.9005     18.0429    173.1926   1.1632387816e+02   3.6284802634e+01    0.3663021    0.1891675  59.70  0.001824173    1.966    0.491
        67 -12.2256     36.2276    165.6785   1.1088864903e+02   3.6321233951e+01    0.8036132    0.4547656 -81.37   0.00393298    1.706    0.414
        68 -11.0970     40.2944    162.5917   1.0942940153e+02   3.6642469295e+01    0.4431874    0.2432451 -74.58  0.001549454    1.698    0.411
        69 -12.3815     49.9460    161.6306   1.0668356898e+02   3.5764325110e+01    0.5237335    0.3768265  64.80  0.000524299    1.431    0.301
        70  -9.5870      4.7441    168.9669   1.1923371200e+02   3.8411248895e+01    0.1625379     0.088754 -77.62 0.0005447139    1.517    0.341
        71  -9.2899    176.7263    168.6940   7.5645817366e+01   1.2392335414e+01    0.1448481    0.1119874  -7.49 0.0002055112    1.543    0.352
        72 -11.4615     44.7942    162.8229   1.0824374376e+02   3.6076315348e+01    0.3381045    0.2419668 -81.41  0.001153528    1.305    0.234
        73  -9.8692     99.1576    164.8979   9.3813639372e+01   2.7750310314e+01    0.2227267    0.1925295  75.37 0.0003510008    1.197    0.165
        74 -10.6963     10.2424    162.8301   1.1734838617e+02   3.9444739655e+01    0.3051947    0.1514386  38.13 0.0009208883    2.050    0.512
        75 -12.6972     21.9213    157.0443   1.1372561268e+02   3.9858259898e+01    0.5965326    0.4974189   4.21 0.0009243641    1.551    0.355
        76  -9.5215    157.5076    154.9900   7.7067247881e+01   1.9036532864e+01    0.2256896    0.1290424 -25.50 0.0008105567    2.666    0.625
        77 -10.2320     11.2600    153.5713   1.1621763492e+02   4.1605980646e+01    0.2689523    0.1458901  32.27  0.001425467    1.998    0.499
        78  -9.9162    177.1939    150.7454   7.1736065973e+01   1.5980480243e+01    0.2389788    0.1947186  66.93  0.001194382    1.469    0.319
        79  -9.4091    216.3873    155.2086   6.4961107963e+01   7.6171153813e+00    0.1887911    0.1211151 -48.03 0.0003885675    1.561    0.360
        80  -9.5650      5.6697    149.9676   1.1736359102e+02   4.2899930619e+01    0.1703044    0.1295547 -82.86 0.0003186289    1.083    0.077
        81 -10.8754     33.1345    148.0648   1.0955052252e+02   4.1016278705e+01    0.1963904     0.187215  80.40 0.0003186443    1.118    0.105
        82 -10.4346     17.7022    146.9036   1.1376154455e+02   4.2718352060e+01    0.2845424    0.1757123 -32.99  0.001461679    2.108    0.526
        83 -10.1188    207.0555    146.5107   6.4831450121e+01   1.0959535963e+01     0.201763    0.1413505  44.55 0.0005718351    1.533    0.348
        84  -9.3751     41.1629    146.1763   1.0698325336e+02   4.0646596175e+01    0.1823789     0.145172  70.81 0.0003362617    1.286    0.222
        85 -10.2290     10.5236    144.4488   1.1549300869e+02   4.3886473058e+01    0.2250438    0.1447448 -44.75 0.0006801896    1.687    0.407
        86  -9.6422    220.4609    143.9660   6.1881869115e+01   8.9263014102e+00    0.2120014    0.1245285 -40.23  0.000678071    1.538    0.350
        87  -9.6749     82.3947    139.8046   9.3743399115e+01   3.6706355245e+01    0.2126502    0.1311842 -48.54 0.0007290931    1.603    0.376
        88 -10.4071     54.9472    138.3691   1.0167054502e+02   4.0988554635e+01    0.2709813    0.2378372  62.73  0.001545832    1.182    0.154
        89 -10.7927      2.4882    136.8295   1.1696049362e+02   4.6296042069e+01     0.315081   0.09710088 -71.73   0.00129454    2.529    0.605
        90 -10.1015      9.4820    136.9153   1.1497445971e+02   4.5802236279e+01    0.1972055    0.1065793 -73.66 0.0004911071    1.542    0.351
        91  -9.4091    122.7217    135.3230   8.1367276801e+01   3.0505713279e+01    0.1552963    0.1228843  87.36 0.0002582135    1.585    0.369
        92  -9.6306    104.5957    134.7580   8.6244235562e+01   3.4120546591e+01    0.2039536    0.1466024 -64.30 0.0003387342    1.483    0.326
        93  -9.7064     20.6884    135.2505   1.1149826312e+02   4.5345419071e+01    0.1953606   0.09588473 -62.74 0.0009321577    1.690    0.408
        94 -10.0744    249.2963    134.0015   5.5238834091e+01   5.5957217111e+00    0.1907364    0.1454211 -37.73  0.001076437    1.108    0.098
        95 -10.2025    127.9805    132.5281   7.9319581557e+01   3.0096154393e+01    0.2353509    0.2012406 -51.43 0.0002368439    1.165    0.142
        96 -10.5398    111.8818    132.3887   8.3656508527e+01   3.3316212775e+01    0.2856482    0.2103609 -60.86  0.001320783    1.418    0.295
        97 -10.7049     55.0411    132.5851   1.0062384018e+02   4.2427921945e+01    0.3568455    0.2163655  48.95  0.001144669    1.823    0.452
        98 -11.7893     36.9494    129.3351   1.0568813342e+02   4.5307754325e+01    0.6399367    0.2617093 -49.03  0.002629154    2.330    0.571
        99 -11.2715     73.6422    129.3075   9.4244252848e+01   4.0669897348e+01    0.3570929    0.3100905  56.39  0.001096244    1.215    0.177
       100 -10.6325     24.2965    126.0502   1.0913504025e+02   4.7312821356e+01    0.2069122    0.1870177  49.87 0.0003685398    1.230    0.187
       101 -11.4008     21.6041    121.2574   1.0927883155e+02   4.8716915483e+01    0.6455791    0.2547695 -38.58 0.0008438387    3.266    0.694
       102 -10.9901     13.2796    126.0213   1.1254317307e+02   4.8191411208e+01    0.3129073     0.190968  26.77 0.0003425721    1.878    0.468
       103 -11.2171     10.7696    122.9983   1.1292797335e+02   4.9105618401e+01    0.2761158     0.237223  86.46  0.001264964    1.153    0.132
       104  -9.7386    220.4204    124.4986   5.7704916947e+01   1.2459866167e+01     0.139334    0.1239378 -40.91 6.941064e-05    1.017    0.017
       105 -10.4372      2.8435    122.8756   1.1534828482e+02   4.9644727727e+01    0.1864782    0.1390646 -54.16 0.0004003672    1.233    0.189
       106  -9.0665     32.4542    121.5586   1.0584599944e+02   4.7681321088e+01    0.1353363    0.1171305 -58.38 3.075822e-05    1.048    0.046
       107 -10.4257     72.9239    117.8256   9.1995141178e+01   4.3595309217e+01    0.4649059     0.264015 -76.90  0.001761968    2.680    0.627
       108  -9.6939      1.3868    119.0368   1.1534746681e+02   5.0652580041e+01    0.1877729     0.100504 -73.75 0.0003149433    1.541    0.351
       109 -10.7014     86.1856    116.6741   8.7544418986e+01   4.1737402376e+01    0.2812549     0.237182 -60.98 0.0008340424    1.183    0.155
       110  -9.9602    213.9722    115.6506   5.6815957923e+01   1.5332839182e+01    0.1867526    0.1752833  57.27 0.0004864986    1.165    0.141
       111 -10.4516     16.3563    115.7309   1.1015100631e+02   5.0473287915e+01    0.2123428    0.1429477 -26.24 0.0005911313    1.746    0.427
       112 -11.1230    249.3364    112.1188   5.0782648660e+01   9.2210291113e+00    0.2482249    0.1954055 -49.23 0.0004115343    1.103    0.094
       113 -10.0362     94.8932    112.3383   8.3800211517e+01   4.1228281762e+01    0.2605005    0.2112876 -64.22  0.001038242    1.304    0.233
       114 -11.8027     55.3440    109.6595   9.5964181680e+01   4.8038842480e+01    0.4745068    0.2549631 -50.79  0.001484271    1.684    0.406
       115 -11.3831     36.6296    109.9238   1.0239012812e+02   5.0118829513e+01    0.3727153    0.2760558  73.32   0.00117809    1.657    0.397
       116  -9.4757     27.6493    111.2847   1.0568912386e+02   5.0637939043e+01    0.1319133   0.09551838  65.40 0.0004575822    1.658    0.397
       117 -12.2144     14.6043    109.2027   1.0974512341e+02   5.2176134374e+01    0.4687305    0.3312224  16.05  0.002761893    1.673    0.402
       118 -10.5288      1.3398    108.8271   1.1409731480e+02   5.3091486942e+01    0.3408474    0.1648933 -86.42   0.00142298    2.211    0.548
       119 -10.0481      2.5022    105.5005   1.1326715274e+02   5.3816150150e+01    0.1872987    0.1589856  25.84  0.001255156    1.414    0.293
       120  -9.7654     82.5204    108.6840   8.6754864896e+01   4.4244657389e+01    0.1946023    0.1428682 -63.59 0.0005609262    1.454    0.312
       121  -9.1054     70.3424    107.2963   9.0386618793e+01   4.6509857216e+01    0.1497366    0.1096642 -19.80 0.0007032578    1.664    0.399
       122 -10.3682      5.6671    106.6590   1.1236851052e+02   5.3361869023e+01    0.1996431    0.1340438 -36.84 0.0008157228    1.523    0.344
       123 -10.4678    243.9520    104.7205   4.9974017466e+01   1.1413019525e+01    0.1769826    0.1597105 -57.86 0.0005852467    1.078    0.073
       124 -10.0799     51.5195    104.4646   9.6123340847e+01   4.9764325783e+01    0.2588837    0.1744161 -28.27  0.001267492    1.697    0.411
       125 -10.9725    120.5707    100.6655   7.3239311419e+01   3.8753443336e+01    0.7418018    0.2956778 -32.18  0.002006808    4.590    0.782
       126 -10.9885     14.0179    103.0685   1.0897212525e+02   5.3682378105e+01    0.2598754    0.1639705 -27.58  0.001413061    1.784    0.439
       127 -11.1940      4.1525     98.7850   1.1173649152e+02   5.5305668087e+01    0.3134024    0.2612199 -80.51  0.002079011    1.172    0.147
       128  -9.9752      1.2262     96.0069   1.1234726313e+02   5.6109629012e+01    0.1866916    0.1071217 -68.89 0.0003844156    1.440    0.306
       129 -11.4357    143.8732     98.3649   6.6606278145e+01   3.4096712140e+01    0.6095901     0.419759  48.60  0.002797435    1.446    0.309
       130 -10.8132     61.9370     98.8425   9.1173905988e+01   4.9713129812e+01    0.3270553     0.286824  12.08  0.001185835    1.210    0.174
       131 -10.3681     50.6507     99.2184   9.5229137104e+01   5.1110583486e+01     0.223914    0.2082396 -22.66  0.000441146    1.081    0.075
       132 -10.1529     24.0296     99.2700   1.0476987734e+02   5.3825919200e+01     0.169425    0.1623941 -24.74 0.0003708952    1.140    0.123
       133 -11.2311     14.7833     97.4790   1.0775900086e+02   5.4949967259e+01    0.3915749    0.1796131 -70.57  0.001818637    2.025    0.506
       134  -9.6458    250.1645     95.8267   4.7341107984e+01   1.1713855757e+01    0.1620801    0.1432093 -26.48 0.0004758342    1.278    0.217
       135 -10.6147     66.8010     98.1965   8.9329047569e+01   4.9161350872e+01    0.2395665    0.2173712 -38.98   0.00040636    1.034    0.033
       136 -10.6034     37.8223     95.2006   9.8934089774e+01   5.3501686903e+01     0.306272    0.1809108  32.77   0.00108929    1.848    0.459
       137 -12.0105     26.0427     91.3523   1.0245954790e+02   5.5509050773e+01    0.5974436    0.3831586 -61.80  0.003263309    1.389    0.280
       138 -10.1087    173.4608     83.4992   5.6268883137e+01   3.0058403930e+01    0.2801027    0.1821225 -43.71 0.0008585241    1.508    0.337
       139 -12.7340    158.3907     89.7518   6.0978455454e+01   3.2434267285e+01    0.7951525    0.5739697 -68.05  0.003673644    1.663    0.399
       140 -12.3247    165.4252     83.3815   5.7812136943e+01   3.1960136094e+01    0.9441785    0.6755117  70.94  0.004095571    1.531    0.347
       141 -11.2683    155.7214     83.1389   5.9764551463e+01   3.4281489542e+01    0.6703236    0.3565084  32.34  0.002373663    3.011    0.668
       142 -10.3133    134.8181     93.5575   6.7522780257e+01   3.7105488134e+01    0.2600855    0.1840185 -47.81  0.001199417    1.437    0.304
       143  -9.5187    109.0000     92.9920   7.4379860295e+01   4.2792491353e+01    0.2601421   0.08550995 -45.26  0.000817545    3.048    0.672
       144  -9.6130     31.4607     93.0674   1.0080815827e+02   5.4625467641e+01    0.1948808    0.1172292 -60.73 0.0003728935    1.489    0.328
       145  -9.3980     46.5596     92.5720   9.5125865840e+01   5.3144872684e+01    0.1345375    0.1234638 -44.70 0.0001062955    1.036    0.035
       146 -10.5414     57.6481     90.0784   9.0459210961e+01   5.2306691546e+01    0.4029751    0.2419289  21.15  0.001668987    1.907    0.476
       147 -10.8990     21.8835     87.2153   1.0316391354e+02   5.6803804651e+01     0.484953    0.1704832 -57.84  0.002069596    2.245    0.555
       148 -11.0203     10.8684     90.9662   1.0803490862e+02   5.6726918335e+01    0.3390204    0.1985415  13.02  0.001080939    2.005    0.501
       149  -9.4640     10.4437     87.5255   1.0756877649e+02   5.7544740087e+01     0.190398    0.1521021 -36.19  0.001223033    1.183    0.155
       150 -11.0341     36.0704    102.3226   1.0108166139e+02   5.2001417839e+01    0.3652205    0.2594177   3.76  0.001647376    1.681    0.405
       151 -10.4025     96.6315     89.6921   7.7162764473e+01   4.5946009542e+01    0.3808769    0.1810541  38.83  0.001487189    2.150    0.535
       152 -10.4771     83.0314     88.9408   8.1319804022e+01   4.8605189508e+01    0.2216645    0.2034082 -18.32 0.0005485835    1.074    0.069
       153 -10.8445     78.3746     88.2300   8.2678605429e+01   4.9557440785e+01    0.3495006    0.2560262 -45.78  0.001478088    1.322    0.244
       154 -10.4142     65.2869     87.5947   8.7049887625e+01   5.1772241305e+01    0.2999947    0.2380009 -39.39  0.001494177    1.188    0.159
       155 -10.0748     68.0329     83.7945   8.5005240389e+01   5.2182619634e+01    0.2423307    0.1674639 -17.09  0.001152596    1.777    0.437
       156 -11.1344     45.6353     86.5004   9.3965430824e+01   5.4632494683e+01    0.5422174    0.3755877  84.73  0.002572198    2.337    0.572
       157 -11.4226      5.2009     84.3698   1.0898351294e+02   5.8571983764e+01    0.6103757    0.2208207 -40.31  0.002691396    2.598    0.615
       158  -9.2061    139.2781     87.6805   6.4780764278e+01   3.7248484509e+01    0.1513747    0.1185706 -78.39 0.0006985675    1.578    0.366
       159  -9.3793     51.4018     86.2011   9.1731845814e+01   5.3995096294e+01    0.1781254    0.1270219 -65.01 0.0006626153    1.540    0.351
       160 -10.2543    115.2355     84.3722   7.0102113736e+01   4.3241542906e+01    0.2907039    0.1388964  42.69  0.001111352    2.095    0.523
       161 -10.1052     73.6861     82.9668   8.2774275660e+01   5.1461354127e+01    0.2021374    0.1837137 -36.45 0.0008431799    1.065    0.061
       162 -11.3433     30.7714     81.5623   9.8452162846e+01   5.7310368098e+01    0.5238109    0.3067606 -14.77  0.001647881    2.176    0.540
       163 -11.1802     21.8418     73.3445   1.0004704094e+02   5.9901890527e+01    0.5102155    0.2498035 -68.09  0.002307272    2.295    0.564
       164 -11.0302     21.6105     81.0464   1.0193523210e+02   5.8221338900e+01    0.4212849     0.232025 -31.61  0.002087477    1.886    0.470
       165  -9.8974     18.3431     79.3171   1.0284575140e+02   5.8859554554e+01    0.1782344    0.1217917   4.46  0.001026872    1.650    0.394
       166 -11.4797     43.5239     38.0913   7.9455913266e+01   6.4396654971e+01    0.6360987    0.3044643  44.34  0.002959296    2.648    0.622
       167 -12.1835     30.9997     63.4743   9.3574030294e+01   6.1161878265e+01     1.142875    0.7378069  55.83  0.005744047    2.533    0.605
       168 -12.8851     11.3310     75.1431   1.0475720333e+02   6.0270650978e+01    0.9478387      0.57451 -12.57  0.005290505    1.875    0.467
       169 -11.1481     15.1944     59.5628   9.9374617887e+01   6.3327515443e+01    0.3282124    0.2110611  -1.42 0.0005320559    1.675    0.403
       170 -11.8478     35.4046     42.6426   8.4804680618e+01   6.4652327877e+01    0.7612268    0.3526755  13.93  0.003246642    3.039    0.671
       171 -10.8483     26.7714     56.1135   9.3225064353e+01   6.3051819897e+01    0.2698377    0.2135385 -12.10 0.0004190024    1.181    0.153
       172 -13.2298     37.2892     50.0706   8.6596398368e+01   6.3096316697e+01    0.8355266    0.6458145  12.08  0.005126843    1.262    0.208
       173 -12.0550     26.8400     49.8661   9.1221757202e+01   6.4254743923e+01    0.5227122    0.3358645 -49.79  0.002249461    1.477    0.323
       174 -13.7941     16.2584     67.7814   1.0101871497e+02   6.1529253390e+01    0.4775888    0.2821922 -42.56 0.0008065902    1.417    0.294
       175 -11.2567     22.0312     66.7193   9.8294959097e+01   6.1304525409e+01    0.3008877    0.2078585  50.13 0.0004051377    2.007    0.502
       176  -9.7069     86.2345     80.5834   7.7806395801e+01   4.9786119404e+01    0.2070843    0.1361222  27.95 0.0008632882    1.656    0.396
       177 -10.8338     60.9678     78.3631   8.5999959563e+01   5.4396915823e+01    0.3192836    0.2302106 -59.28 0.0005686692    1.534    0.348
       178 -11.6944     62.1416     71.7998   8.3591924665e+01   5.5581610724e+01    0.4301868    0.2811316 -22.44 0.0004678416    1.767    0.434
       179  -9.2647    134.5891     78.4750   6.3293906475e+01   4.0055841804e+01    0.1458475    0.1439646  48.26 5.070376e-05    1.027    0.027
       180 -12.7386     44.6067     75.2152   9.1350571956e+01   5.7224871908e+01    0.3171283    0.2618918  45.69 0.0005221362    1.452    0.311
       181  -9.3405    121.6199     76.2518   6.5941737987e+01   4.3400919943e+01    0.1493969    0.1161081  81.93  0.000695815    1.655    0.396
       182 -10.5391     74.3271     75.3818   8.0274933838e+01   5.2925837210e+01    0.3084874     0.161933 -42.86 0.0006694233    1.854    0.461
       183 -10.5047     77.2155     64.1596   7.5668087441e+01   5.4605254557e+01    0.3903654    0.2589812 -45.31  0.001964699    1.556    0.357
       184 -10.0339     73.9977     71.5000   7.9179885855e+01   5.3755982345e+01    0.2311479    0.1731676   9.78 0.0009259328    1.505    0.336
       185 -10.7585     77.3796     69.8940   7.7481690069e+01   5.3490377150e+01    0.3823329    0.2524484  51.07   0.00136523    1.770    0.435
       186 -10.8135     51.4564     62.8411   8.4900578573e+01   5.8885638827e+01    0.3361438    0.2220353 -32.62  0.001158547    1.450    0.310
       187 -10.0293     48.9746     60.0645   8.5000754016e+01   5.9756406270e+01      0.21825    0.1740769 -46.33 0.0005980722    1.278    0.218
       188 -10.4376     53.9833     74.0338   8.7362078672e+01   5.6283440055e+01    0.2486973    0.2205961 -69.69 0.0004813912    1.354    0.261
       189 -11.9941     50.2565     68.7303   8.7223009276e+01   5.7871262478e+01    0.3740144    0.2435391 -44.63 0.0006106875    1.419    0.295
       190 -10.9316    207.5831     73.3442   4.8079276049e+01   2.3971483765e+01    0.2241999    0.2155666 -78.27 0.0002877465    1.129    0.114
       191  -9.6887    145.6349     74.1845   5.9472202684e+01   3.8254244131e+01    0.2057304    0.1422953 -27.25 0.0009440382    1.679    0.404
       192 -10.4709     93.9653     74.0340   7.3290685534e+01   4.9624172814e+01    0.1726218    0.1652425   2.92  0.000389095    1.007    0.007
       193 -10.7070      1.8788     71.9314   1.0795226300e+02   6.1514304562e+01    0.4245488    0.1377068 -62.87  0.001892895    2.382    0.580
       194 -10.9138    100.8429     72.3598   7.0637021369e+01   4.8568536942e+01    0.3792671    0.2617739  73.03 0.0005426113    2.234    0.552
       195  -9.8202    129.0220     71.5237   6.2614527688e+01   4.2585025138e+01    0.2289556    0.1408686  50.31 0.0004542946    1.564    0.361
       196  -9.8092    194.5306     70.1329   4.9254025009e+01   2.7424652450e+01    0.2024654    0.1336254 -38.01 0.0009325518    1.515    0.340
       197 -11.3207    167.7547     69.8665   5.3742626028e+01   3.3739164130e+01    0.2414928    0.2122079  64.79 0.0002926638    1.107    0.097
       198  -9.6460    123.0000     68.3657   6.3182167368e+01   4.4508541894e+01    0.3137822    0.0840493 -38.59 0.0009279103    3.880    0.742
       199 -10.1062     42.6710     68.6729   9.0243145858e+01   5.8826211022e+01     0.227921    0.2211883 -19.61 0.0008712526    1.169    0.145
       200 -11.4309      6.3766     42.1072   9.8541686630e+01   6.7380661199e+01    0.5213599    0.1512983 -44.18  0.001771148    2.556    0.609
       201 -11.8119      6.2783     51.6206   1.0131246538e+02   6.5532329781e+01    0.6387439    0.2651259 -44.08  0.003291462    1.878    0.468
       202 -11.0479     10.3732     63.1944   1.0242739854e+02   6.2904017647e+01    0.3811997    0.2648528  -4.42  0.001500078    1.526    0.345
       203 -11.3570     12.8679     51.7244   9.8261553773e+01   6.5076800792e+01    0.5143722    0.2182362 -56.74  0.001633524    2.092    0.522
       204 -10.7337     11.0541     45.0418   9.7141025319e+01   6.6505975350e+01    0.3397889    0.2229228 -44.14  0.001590587    1.257    0.204
       205 -12.0339      5.1800     58.8746   1.0366917984e+02   6.4119331934e+01    0.2450817    0.2310809 -62.15 0.0003191718    1.256    0.204
       206 -11.9618      6.0964     67.9629   1.0536804876e+02   6.2148863053e+01    0.2303677    0.1729622 -45.27 0.0003293001    1.074    0.069
       207 -12.5181      3.2425     63.0168   1.0549178779e+02   6.3358867931e+01    0.4420044    0.3083635 -87.01  0.002013594    1.855    0.461
       208  -9.8179    127.6845     66.6713   6.1478099298e+01   4.3733916419e+01    0.1936254     0.167737 -83.86  0.001021761    1.317    0.241
       209 -11.3676     93.7649     66.6056   7.0980021504e+01   5.1053873164e+01    0.3736341    0.2669853  14.32  0.001796169    1.730    0.422
       210  -9.6632     99.5873     65.1879   6.8721631402e+01   5.0134497382e+01    0.2135037    0.1794913  28.72   0.00115491    1.174    0.149
       211  -8.8635    222.6759     62.3516   4.3574684117e+01   2.2391266044e+01    0.1440364    0.0870404 -66.28 0.0002770152    1.756    0.431
       212 -10.2151    201.7096     62.1325   4.6257742784e+01   2.7037049378e+01    0.2198155    0.1734514 -87.52 0.0005266802    1.245    0.197
       213  -9.6453    106.6580     62.6691   6.5822144819e+01   4.9091544211e+01    0.1512548    0.1101728  13.43 0.0007051221    1.749    0.428
       214 -10.3926    119.9426     60.9667   6.1663705650e+01   4.6453658865e+01    0.2693885    0.1906493  42.28 0.0009298394    1.378    0.274
       215  -9.2281    113.4788     61.5176   6.3549417945e+01   4.7805030287e+01    0.1423879    0.1368794  58.23 0.0008091414    1.067    0.063
       216 -11.1550     84.9572     60.4979   7.1801262588e+01   5.3852714827e+01    0.4961507    0.3191296  -6.25  0.002167488    2.329    0.571
       217 -10.3577    155.0698     60.0533   5.3463373824e+01   3.8350588022e+01    0.2139249    0.1971262  86.48            0    1.044    0.042
       218  -9.5722     98.4286     60.0768   6.7388973589e+01   5.1262308050e+01    0.1987026    0.1379953 -35.89 0.0002827914    1.489    0.328
       219 -10.9771     59.3243     58.6960   8.0425429947e+01   5.8549360444e+01    0.2833077    0.2662277 -41.58  0.001424085    1.220    0.180
       220 -10.0409    147.0315     56.9687   5.4188367654e+01   4.0755395159e+01    0.2131862     0.201031  89.06 0.0003572524    1.043    0.042
       221 -10.3492    105.0928     56.5333   6.4251621878e+01   5.0451791311e+01    0.2448393    0.2221107  14.54  0.000408922    1.109    0.098
       222 -12.0814    104.9688     52.6826   6.2996214741e+01   5.1093950377e+01    0.3036324    0.2441335  46.58 0.0002253666    1.174    0.148
       223 -10.7415     75.3038     56.2842   7.3661556703e+01   5.6359690601e+01    0.2213621    0.2072549 -20.13 0.0003316946    1.109    0.098
       224  -9.8380     98.9861     55.8198   6.5792236250e+01   5.1858301186e+01    0.2391884    0.1480519  26.53  0.001066455    1.965    0.491
       225  -9.8592     68.4651     56.4496   7.6189378891e+01   5.7506451859e+01    0.1346297    0.1225066   0.43 4.006475e-06    1.019    0.019
       226  -9.9159     48.1423     56.3048   8.4093409380e+01   6.0581828230e+01    0.2051098    0.1450631   4.23   0.00112764    1.515    0.340
       227 -10.2591    132.1024     54.2073   5.6591149851e+01   4.4721242236e+01     0.331911    0.2610229  13.38   0.00170204    1.604    0.377
       228 -11.4581    129.1878     49.1092   5.5665482748e+01   4.6165130932e+01    0.4899557     0.351286  -9.51  0.002412695    1.837    0.456
       229 -11.5235     88.2686     51.3607   6.7564170993e+01   5.4754929322e+01    0.2892736    0.2481779  20.44 0.0006485301    1.115    0.103
       230 -11.1294     62.6762     51.7118   7.6695335928e+01   5.9283420133e+01    0.4327554    0.2554183 -41.14   0.00219356    1.687    0.407
       231 -10.2123    120.1070     52.3809   5.8877120945e+01   4.7778089036e+01    0.2224189    0.1927788   2.44 0.0005799489    1.299    0.230
       232  -9.9753     56.6120     53.1241   7.9564550197e+01   5.9971168972e+01    0.2156345     0.155686 -17.58 0.0009250292    1.414    0.293
       233 -10.6243     53.3055     49.9873   7.9777055612e+01   6.1013357848e+01    0.2914188      0.20059  18.28  0.001109081    1.472    0.321
       234  -9.9030    237.4823     51.4898   3.9593106734e+01   2.0874944203e+01    0.1270458    0.1037589 -65.40 2.000945e-05    1.002    0.002
       235  -9.7127     71.4511     51.4341   7.3324979695e+01   5.7867073329e+01    0.3588675    0.1230456  38.28  0.001333348    2.918    0.657
       236 -10.1729    199.7112     49.6554   4.3540738522e+01   2.9322538479e+01     0.240953      0.15663  74.51  0.000762625    1.508    0.337
       237  -9.5514    181.5241     49.5201   4.6056408677e+01   3.3582616662e+01    0.1408012    0.1211825 -80.00 -7.731304e-05    1.077    0.072
       238 -10.0642    151.8212     47.7349   5.0558699765e+01   4.0966316345e+01     0.223009    0.1547156  45.87 0.0003768583    1.483    0.326
       239 -10.3459     78.0879     46.3762   6.9147968344e+01   5.7497636852e+01    0.3004243    0.1784142 -53.74  0.001366715    2.406    0.584
       240 -10.4517    142.8811     45.4439   5.1613719932e+01   4.3437611910e+01    0.2797705    0.2069603 -73.90  0.001396946    1.608    0.378
       241 -10.1723    100.0265     39.5335   5.9829749489e+01   5.4094779531e+01    0.5064383    0.1186497  51.54  0.001588644    3.792    0.736
       242 -10.7604     91.9410     43.3523   6.3561401209e+01   5.5247950248e+01    0.3516258    0.2763255 -57.57  0.001924349    1.643    0.392
       243 -10.4954     95.8477     42.8663   6.2217615360e+01   5.4510181882e+01    0.2537971    0.1882405  -2.04 0.0006328851    1.598    0.374
       244  -9.7802     50.8406     44.8594   7.8913858404e+01   6.2253656156e+01     0.161748    0.1493087 -44.85 0.0005868943    1.343    0.255
       245 -10.3116    107.5403     42.6798   5.8880314193e+01   5.2021607864e+01    0.3398125    0.1980915  35.84  0.001036079    1.830    0.453
       246  -9.5915     62.4432     40.4851   7.2611214903e+01   6.1168515044e+01    0.1868576    0.1146187  27.93 -9.796702e-06    1.614    0.380
       247 -10.7919     71.3160     40.9934   6.9512852305e+01   5.9562978990e+01    0.2810978    0.1863873 -23.84 0.0009123975    1.579    0.367
       248 -11.5598     66.3623     40.8571   7.1271956970e+01   6.0450937995e+01    0.3610041    0.2605702  -0.83  0.001415181    1.510    0.338
       249 -12.0112     74.3977     36.4496   6.6681606476e+01   5.9670058077e+01    0.4939045    0.3254672   9.00  0.001571875    1.866    0.464
       250 -10.7402     69.5118     37.5272   6.8829668058e+01   6.0401551205e+01    0.2673093    0.2295427  18.31  0.001668951    1.034    0.033
       251 -11.7071    235.1090    248.9078   7.8715008982e+01  -1.0080755988e+01    0.3069789    0.2266375 -13.10  0.002159441    1.175    0.149
       252 -10.1812      1.5331     25.7444   9.5658228650e+01   7.0654443202e+01     0.310088    0.1452425 -40.73  0.001489158    1.667    0.400
       253 -10.8331     18.3006     42.4123   9.2776018186e+01   6.6431683308e+01    0.5874429    0.1620084 -39.38  0.002129439    3.365    0.703
       254 -10.9957      8.3201     34.1764   9.4987907642e+01   6.8713336385e+01    0.3895358    0.3318666 -53.61  0.002018092    1.397    0.284
       255 -12.0295    232.7752    244.6331   7.8446335504e+01  -9.2327817552e+00    0.5485652    0.1806749 -31.55  0.002392899    3.284    0.696
       256 -10.9563    224.4929    248.5166   8.0541014525e+01  -8.7040364122e+00    0.2187911    0.1324467 -29.32  0.001239348    1.618    0.382
       257 -10.8756     24.0097     41.9532   8.9869707657e+01   6.5994855625e+01    0.2576691    0.2412624 -61.90  0.001347114    1.452    0.311
       258 -12.2388    228.0346    243.9855   7.9186321131e+01  -8.5473443295e+00     0.435338    0.2134313  18.66  0.002241642    2.182    0.542
       259 -12.0665     36.9947    243.9888   1.1768781975e+02   1.8574060944e+01    0.6259493    0.2889207 -87.09  0.002933733    2.299    0.565
       260 -11.0322     22.2235     25.5279   8.4485185060e+01   6.8956475401e+01    0.3177993    0.2399124 -22.70  0.001239525    1.113    0.101
       261 -13.0859     74.3127    238.1246   1.0963926119e+02   1.5014914390e+01     0.820161     0.629279 -79.29  0.005180134    1.370    0.270
       262 -10.6117    109.5941    242.8483   1.0270241285e+02   9.0038767702e+00    0.2648666    0.1770328  57.37  0.000733617    1.496    0.332
       263 -11.6537     17.8827     31.6699   8.9147801493e+01   6.8373341872e+01     1.187244    0.3858452  30.55  0.005405099    3.133    0.681
       264 -12.2129     28.1647     38.0536   8.6477007766e+01   6.6261294941e+01    0.3813298    0.2244201  22.47  0.001278464    1.696    0.410
       265 -11.7683     24.1796     35.1029   8.7296637026e+01   6.7182271335e+01    0.3350006    0.2108113   1.91 0.0007478569    1.631    0.387
       266  -9.8214     82.8427     53.8976   7.0232926392e+01   5.5386567599e+01    0.2782198    0.1926005   9.38 0.0009157804    1.806    0.446
       267 -11.2481     52.6957     40.5498   7.6513190518e+01   6.2693779181e+01    0.2987829    0.2171809  42.68   0.00166364    1.556    0.357
       268 -11.0266    152.6326     39.2219   4.7948307115e+01   4.1928207623e+01    0.2515823    0.2223119  83.56 0.0004147545    1.065    0.061
       269 -10.1220    111.8827     46.1348   5.8913742342e+01   5.0564047209e+01    0.5069196    0.1535075  46.00  0.001712968    3.127    0.680
       270 -10.9412    225.0610     38.3260   3.8060028037e+01   2.5250057945e+01    0.2606269     0.185311  85.58 0.0004757039    1.320    0.243
       271  -9.5316    116.7783     39.6130   5.5496007181e+01   5.0366960152e+01    0.1903545    0.1254955  64.97 0.0006406945    1.569    0.363
       272  -9.5582    160.2193     38.2241   4.6371709982e+01   4.0225676515e+01    0.1800574    0.1447282 -77.21 0.0002761096    1.267    0.211
       273 -10.4549      1.9525     37.4164   9.9338145701e+01   6.8532429713e+01    0.2335202    0.1387765 -34.93  0.001069457    1.346    0.257
       274 -10.6803     81.3667     35.8560   6.4112189061e+01   5.8428337187e+01    0.3495905    0.2676338 -28.69  0.002030556    1.370    0.270
       275  -9.3248     84.5236     34.9621   6.2760202978e+01   5.7928913543e+01    0.1732335    0.1283526 -24.57 -1.289665e-05    1.420    0.296
       276 -12.2820     57.3330     34.2832   7.2165405895e+01   6.2943065140e+01    0.3541965    0.3040445 -29.39  0.001347795    1.259    0.206
       277 -10.4354    100.2245     35.8165   5.8446817940e+01   5.4552978275e+01     0.292836    0.2195141 -86.11 0.0008803391    2.001    0.500
       278 -11.0758     97.5423     31.2637   5.7534819765e+01   5.5714547864e+01    0.3870456    0.2400451  59.08  0.001963327    1.631    0.387
       279 -11.1962    102.1223     28.8077   5.5414703823e+01   5.5022395665e+01    0.3949806    0.2864617  72.28 0.0006463383    1.617    0.381
       280  -9.5530    134.6037     35.7491   5.0305391479e+01   4.6703276160e+01    0.1871001    0.1241961 -44.68 0.0009485352    1.643    0.391
       281  -9.7200    201.7945     34.1749   3.9614198612e+01   3.0923156498e+01    0.1625231    0.1454813  61.58 0.0003578564    1.284    0.221
       282 -10.0765    107.6343     34.6193   5.6058825418e+01   5.3083865425e+01    0.2691088    0.1087337  49.74 0.0006684296    2.168    0.539
       283 -11.2061    221.7175     32.1386   3.7056953841e+01   2.6762965768e+01    0.2129473    0.1726345 -76.21 0.0002756002    1.027    0.026
       284 -10.4606    205.8090     32.4737   3.8770292917e+01   3.0228878539e+01    0.2084268    0.1637159 -48.06  0.000264329    1.251    0.201
       285 -10.0141    166.4979     33.0217   4.3949993227e+01   3.9370171992e+01     0.193033    0.1338284 -32.88  0.001031406    1.591    0.371
       286 -10.6828     89.5685     31.8534   6.0038030328e+01   5.7316908716e+01    0.2421353    0.1859482  42.74 9.798781e-05    1.170    0.145
       287 -11.6242     48.1046     31.9151   7.5002542373e+01   6.4716476272e+01    0.3022999    0.1903926  35.31  0.001722356    1.546    0.353
       288 -10.4982     50.1647     27.8452   7.2437981062e+01   6.4999745930e+01    0.2445326    0.1905182  11.37 0.0009530233    1.132    0.117
       289 -10.6378    236.1732     30.3016   3.5349941975e+01   2.3951628959e+01    0.2169684    0.1938941  71.65 0.0008037002    1.354    0.261
       290  -9.7032    145.5243     31.0778   4.6815515852e+01   4.4663430296e+01    0.1968723    0.1320946 -36.17  0.001030818    1.614    0.380
       291 -10.0002    111.4804     28.1916   5.2870664882e+01   5.3008831320e+01    0.2266553    0.1358379 -19.92 0.0009265705    1.998    0.500
       292 -11.1068     69.5828     26.8568   6.4547535917e+01   6.1856353195e+01    0.3539223     0.290673  19.15  0.001540705    1.076    0.071
       293  -9.9510    133.2960     27.7026   4.8040036556e+01   4.7987385583e+01    0.2862139     0.188273 -74.39  0.001108131    2.023    0.506
       294 -10.8722    128.1284     26.8106   4.8772181941e+01   4.9313273518e+01     0.337857    0.2160467  61.56  0.000799368    1.395    0.283
       295 -10.4512     60.1138     26.9343   6.8061679888e+01   6.3518251008e+01    0.1982062    0.1747147 -23.55  0.001306539    1.254    0.203
       296 -11.5875     59.5244     22.3184   6.6332172273e+01   6.4217448169e+01    0.5793125    0.2997637  40.64  0.002373917    1.750    0.428
       297 -10.1432    204.0072     25.9984   3.7474671125e+01   3.1430777972e+01     0.216086    0.1257373 -65.56 0.0006952469    1.702    0.412
       298 -10.1512    193.3230     25.6372   3.8553867475e+01   3.3916166199e+01    0.2112477    0.1269865 -68.08 0.0006759983    1.702    0.413
       299 -10.4889    168.9919     25.9839   4.1693457105e+01   3.9613800804e+01    0.1973952    0.1709319  89.61            0    1.028    0.027
       300 -11.7307    164.9103     23.1445   4.1497676015e+01   4.0915449252e+01    0.2646282    0.2085585  68.92            0    1.134    0.118
       301  -9.6735    144.3092     26.6302   4.5700532015e+01   4.5476943190e+01    0.1412291   0.09538839 -69.17 0.0007035133    1.765    0.433
       302  -9.4650    119.1268     25.7471   5.0300477761e+01   5.1538306823e+01    0.1807249    0.1352026  38.72 0.0003574037    1.322    0.243
       303  -9.4521    214.4845     25.5341   3.6317794213e+01   2.9152010323e+01    0.1248722    0.1044717 -78.75 0.0001502711    1.037    0.036
       304  -9.7202     79.2790     24.8900   6.0505397804e+01   6.0256577142e+01    0.1968196   0.08453977 -48.60 0.0003829205    4.282    0.766
       305 -10.2733     89.5957     20.7600   5.5793854865e+01   5.8634431749e+01    0.3004199    0.2204665   1.27   0.00173299    1.536    0.349
       306 -10.6121     94.0825     22.3422   5.5161168575e+01   5.7510273156e+01    0.3145136    0.2303401  37.63   0.00157879    1.235    0.191
       307 -10.5799     97.9561     23.7981   5.4671991313e+01   5.6513926772e+01    0.4514157    0.1382556  53.44  0.001379407    2.740    0.635
       308  -9.8821     98.9987     20.7364   5.3267226948e+01   5.6625341304e+01    0.4414719    0.2397501  72.35  0.001769669    2.550    0.608
       309 -10.8819    103.2746     19.4175   5.1720028279e+01   5.5825116381e+01    0.3082609    0.2183248  71.95 0.0009174815    1.552    0.356
       310 -10.0495     62.9715    242.6583   1.1240183815e+02   1.5629817981e+01    0.1804892    0.1319555  50.37 0.0005783984    1.133    0.118
       311 -10.3733    186.1209     22.9696   3.8734558113e+01   3.5902553090e+01    0.1983347    0.1637625 -82.11 0.0004659556    1.056    0.053
       312  -9.8196    226.3400     22.1303   3.4511426014e+01   2.7000720892e+01    0.1927513    0.1423602  74.02 0.0005487325    1.334    0.250
       313 -10.6022     67.8544     21.8344   6.3075390670e+01   6.2798015494e+01    0.4164939     0.170395  52.87  0.001243759    2.690    0.628
       314 -10.5347     88.8260    241.3168   1.0691026091e+02   1.2346128776e+01    0.2225055    0.1560334 -34.64  0.001219618    2.127    0.530
       315  -9.9252    195.4213    238.7157   8.4440909999e+01  -3.3387888608e+00    0.2245727    0.1366197  14.19   0.00119602    1.751    0.429
       316 -10.5913    243.9078    237.3575   7.5325748945e+01  -9.6429742222e+00    0.1893683    0.1440899 -28.69 0.0009636097    1.368    0.269
       317  -9.9363    135.2830    237.7322   9.6606982535e+01   6.0115006610e+00    0.1948746    0.1026267 -38.87 0.0009027536    2.456    0.593
       318 -10.7003     29.8018    233.0123   1.1836754029e+02   2.1613729347e+01    0.2769797    0.1372167  58.82  0.001511164    1.739    0.425
       319 -10.0622    177.4748    235.0325   8.7425511230e+01  -8.3483010268e-02    0.1775496    0.1013864 -19.53 0.0008096708    2.514    0.602
       320  -9.5305    172.6520     20.2825   3.9700203498e+01   3.9384041828e+01    0.1367275    0.0877132 -74.26 0.0007015523    1.647    0.393
       321 -10.4021    139.2840     20.1393   4.4604471681e+01   4.7394748816e+01    0.2743866    0.1152113  52.77  0.001192145    2.094    0.522
       322 -10.2315     86.9545    233.4797   1.0647237230e+02   1.4170955333e+01    0.2002758   0.08008385  52.54 0.0008097785    2.593    0.614
       323 -10.1022     38.2382    232.8081   1.1665454659e+02   2.0695638984e+01    0.1778759    0.1308676  68.27 0.0005809839    1.112    0.101
       324  -9.9912     23.9847    232.4982   1.1948903512e+02   2.2355355729e+01    0.1750512    0.1331118  84.71 0.0005996772    1.149    0.130
       325 -11.1857     41.9898     19.2401   7.2218154766e+01   6.7395389178e+01    0.2634106    0.1882107  26.19    0.0010986    1.254    0.203
       326  -9.8114    147.6769    245.6830   9.5093125677e+01   2.6972167948e+00    0.1271354    0.0929888   3.31 0.0005468386    1.667    0.400
       327  -9.6046    181.4890     19.5292   3.8423284187e+01   3.7376923649e+01    0.1287286    0.1107695  84.18  8.61814e-05    1.054    0.052
       328  -9.6441     54.8633     19.1051   6.6744716726e+01   6.5404072182e+01    0.1710721    0.1575872  34.49  0.001179907    1.315    0.239
       329  -9.3320    151.4763     18.4936   4.2152840357e+01   4.4645724085e+01    0.1326267    0.1137794  84.79 0.0008093294    1.065    0.061
       330 -10.5133    151.9850    229.7296   9.1909819480e+01   4.8241489676e+00    0.2328623    0.1754099 -82.00  0.001243916    2.013    0.503
       331  -9.4994    170.0006    229.0225   8.8016108421e+01   2.0872716115e+00    0.1568466    0.1404529  12.88 0.0005271999    1.046    0.044
       332 -10.6416     74.7107     16.0062   5.8337625444e+01   6.2162481489e+01    0.4008814    0.1728372  49.66  0.001027926    2.026    0.506
       333 -10.9279    120.5721    226.6591   9.8286549290e+01   1.0429266687e+01    0.2303756    0.1286573 -51.87 0.0009226304    2.003    0.501
       334 -10.1673     65.9859    226.2079   1.1025539680e+02   1.8602248499e+01    0.2057349    0.1714025 -88.85 0.0006080677    1.180    0.153
       335  -9.8525     62.4095     14.9403   6.2054988422e+01   6.4584536144e+01     0.258072    0.2059873  85.58   0.00149817    2.221    0.550
       336  -9.5010    190.4958    226.4816   8.3436809425e+01  -6.6874708224e-01    0.1305925    0.1102526   9.71 -6.842886e-06    1.031    0.030
       337 -11.3056     21.2128    222.3872   1.1939594368e+02   2.4768320576e+01    0.2529928    0.1787073  85.28 0.0009252759    1.203    0.169
       338 -10.0196    126.6261    221.8256   9.6271525633e+01   1.0417029526e+01    0.1971242    0.1597201  50.03 0.0004989973    1.164    0.141
       339  -9.7681     37.9778    217.6959   1.1554394225e+02   2.3940827375e+01    0.1750227    0.1399025  56.05  0.000712494    1.123    0.110
       340  -9.0099     96.5317     13.5328   5.1194162959e+01   5.7900213449e+01    0.2042653    0.1678788  45.99  0.001011841    1.038    0.037
       341 -11.1856      9.6911    217.3271   1.2142114583e+02   2.6999559427e+01    0.3176077     0.173954  61.90   0.00187067    1.537    0.349
       342 -10.9756     29.9662    215.8640   1.1711351567e+02   2.5242106528e+01    0.3305777    0.2648879  21.29  0.001766806    1.621    0.383
       343 -11.9511    237.6520    212.8938   7.2243942142e+01  -5.3912267965e+00    0.5666516    0.3490448  -2.72  0.002042979    1.839    0.456
       344  -9.6154    137.1825    215.6212   9.2994498545e+01   9.9192272080e+00    0.2048567    0.1222102  27.00 0.0009515248    1.762    0.433
       345 -10.9783      4.5913    226.5373   1.2293370086e+02   2.5541224627e+01    0.3012983     0.146382  53.92  0.001763077    1.665    0.399
       346 -10.3893     21.5610    212.6738   1.1866557761e+02   2.6833885985e+01    0.2902571    0.1107461  57.20  0.001315483    2.484    0.597
       347  -9.9225    208.8531    211.9324   7.7349081712e+01  -1.0843843846e+00    0.1997074    0.1525559  -4.77 0.0005313365    1.262    0.208
       348 -10.0296      1.5146    211.5257   1.2274658004e+02   2.8998347743e+01    0.1919423    0.1492703  74.54 0.0008264964    1.030    0.030
       349 -12.0179      5.6323    208.8581   1.2175307216e+02   2.9209884732e+01    0.5397597    0.2118585 -85.43  0.002609418    2.315    0.568
       350 -11.0449      2.6670    205.3255   1.2216151958e+02   3.0247868673e+01     0.233913     0.128034 -88.06  0.001235333    1.538    0.350
       351 -10.2169    107.9996    210.0045   9.8823758772e+01   1.5874606595e+01    0.1711818    0.1555745  53.60 0.0008352981    1.006    0.006
       352 -10.5801     10.7976    208.4207   1.2065048016e+02   2.8829283990e+01    0.2188992    0.1728356 -63.49 0.0003977779    1.445    0.308
       353  -9.3085    188.2478    205.3505   8.0257750404e+01   3.3123416843e+00    0.1358604   0.09725063 -10.53  0.000366295    1.586    0.370
       354 -10.7268     20.6484    199.8873   1.1792877681e+02   2.9785841901e+01     0.485056    0.1697097 -53.45    0.0019744    3.478    0.712
       355 -10.3006    175.3557    202.8161   8.2490433041e+01   5.9375607455e+00    0.2269468    0.1778627  42.90 0.0005243023    1.301    0.231
       356 -10.2665     23.6708    216.3396   1.1847830206e+02   2.5813249622e+01     0.200376    0.1477119  -5.98  0.001157608    2.361    0.576
       357  -9.4981    215.6455    194.6942   7.2917149971e+01   7.3985295765e-01    0.1387312   0.09422036  -1.22 0.0007041429    1.716    0.417
       358 -11.0251     16.8172    193.2003   1.1827820434e+02   3.1689606768e+01    0.2899294     0.235039  30.12  0.001625682    1.466    0.318
       359  -9.5030      1.9836    187.7664   1.2122801646e+02   3.4246633457e+01    0.1373827   0.09637433  34.04 0.0006108755    1.584    0.369
       360 -11.3371     16.5300    184.6123   1.1766782590e+02   3.3713329376e+01    0.4224218     0.194228 -78.44  0.001831185    1.911    0.477
       361 -10.0773     14.7090    180.6507   1.1777447457e+02   3.4811378040e+01    0.2124807    0.1554336 -64.27 0.0006052423    1.351    0.260
       362  -9.4583     62.0000    184.9999   1.0659919909e+02   2.8488646667e+01    0.2222993   0.07405719 -66.08 0.0007977799    2.910    0.656
       363 -10.2773    168.0123    183.7534   8.0546894066e+01   1.0957764416e+01    0.1969335    0.1188978  38.87 0.0007226458    1.613    0.380
       364  -9.6628     58.6017    182.2378   1.0710885151e+02   2.9603305434e+01    0.1915051    0.1169344 -58.28 0.0009414158    1.620    0.383
       365  -9.3909      1.5437    180.5264   1.2084251834e+02   3.5949387341e+01     0.122283   0.09665628  85.46 0.0002046551    1.003    0.003
