#   1 NUMBER                 Running object number                                     
#   2 MAG_AUTO               Kron-like elliptical aperture magnitude                    [mag]
#   3 X_IMAGE                Object position along x                                    [pixel]
#   4 Y_IMAGE                Object position along y                                    [pixel]
#   5 X_WORLD                Barycenter position along world x axis                     [deg]
#   6 Y_WORLD                Barycenter position along world y axis                     [deg]
#   7 A_WORLD                Profile RMS along major axis (world units)                 [deg]
#   8 B_WORLD                Profile RMS along minor axis (world units)                 [deg]
#   9 THETA_WORLD            Position angle (CCW/world-x)                               [deg]
#  10 FWHM_WORLD             FWHM assuming a gaussian core                              [deg]
#  11 ELONGATION             A_IMAGE/B_IMAGE                                           
#  12 ELLIPTICITY            1 - B_IMAGE/A_IMAGE                                       
         1 -12.3313     20.6228     21.7900   8.3930393312e+01   6.9670133221e+01     0.261788    0.1616135 -24.39   0.00143688    1.423    0.297
         2 -14.3450     86.7784     16.6145   5.4852850519e+01   5.9727465365e+01     1.101999    0.6091135  32.93   0.00500938    1.846    0.458
         3 -13.5050     85.1451      7.8915   5.1826306013e+01   6.0923054840e+01    0.5802368    0.3219919  41.14  0.003129842    1.566    0.362
         4 -13.8810    102.5041     13.5021   4.9576930653e+01   5.6670837106e+01    0.8877341     0.433471 -40.13  0.004251453    2.429    0.588
         5 -15.2262     95.9217      5.0711   4.7980298515e+01   5.8879973641e+01     1.984153    0.7759104  69.10  0.007727735    3.280    0.695
         6 -15.2397    166.4094      6.2466   3.6496798407e+01   4.2455064686e+01     3.844606    0.9883834  67.86   0.01446136    3.119    0.679
         7 -12.9385    114.1716      2.4916   4.3184020897e+01   5.5021732942e+01     1.006001    0.2705184  63.39 0.0005473599    2.997    0.666
         8 -14.8470    128.6490      5.0028   4.1444989098e+01   5.1468466211e+01     1.832272    0.6594406  56.91  0.008082079    2.182    0.542
         9 -13.9530     54.7848      7.1212   6.1353712442e+01   6.6804061346e+01    0.6475191    0.3071464  43.46   0.00318096    1.821    0.451
        10 -12.3905    113.0125     14.8286   4.7686708605e+01   5.4183162508e+01    0.2068915    0.1928779 -11.56 0.0005423221    1.215    0.177
        11 -11.3274     32.0585     10.9682   7.3127007031e+01   6.9854116173e+01    0.1640735    0.1301075   4.37 0.0004269185    1.029    0.028
        12 -12.6291      8.8643     10.7704   8.5580675227e+01   7.2451741219e+01    0.3501945    0.2725959   2.13  0.001805489    1.169    0.145
        13 -12.0812     49.0498      1.9030   6.1105184011e+01   6.8300570779e+01    0.3552014    0.1662799  37.56  0.001290559    1.812    0.448
        14 -13.9245     48.9706     13.5157   6.6657516010e+01   6.7063420430e+01     0.658178    0.3822265  31.99  0.002584982    1.525    0.344
        15 -13.5752     45.1228      7.6111   6.5499937254e+01   6.8348910044e+01    0.6440268    0.3747949  13.67  0.003598023    1.862    0.463
        16 -10.5005     24.8087      2.1339   7.2371064443e+01   7.1875383960e+01    0.1580672     0.105351   6.41 0.0004822622    1.295    0.228
        17 -14.4084    114.3494    206.1889   9.6544481590e+01   1.5510911494e+01    0.8802096    0.4796645  62.09  0.003528639    2.641    0.621
        18 -11.8048     70.3512    247.5722   1.1110772285e+02   1.3415315340e+01    0.3738269    0.2038288 -69.32  0.002063589    2.004    0.501
        19 -16.6985     82.8190    187.2236   1.0146467006e+02   2.4786864537e+01     5.131393     2.649742  55.81   0.02143648    2.202    0.546
        20 -14.6160     40.9552    219.2112   1.1484346926e+02   2.2951486384e+01     1.374736    0.6234384  49.47  0.006850276    1.917    0.478
        21 -12.7268    128.9862    233.0835   9.7052977156e+01   7.7155664012e+00    0.3585525    0.1941376  43.32  0.001763121    1.649    0.393
        22 -11.0213    147.7809    232.3974   9.2907403374e+01   4.9103605603e+00    0.1849087    0.1136813  26.10  0.000349489    1.589    0.371
        23 -12.7320    135.8604    230.9891   9.5272846212e+01   7.0385809061e+00    0.2847175    0.2327116 -73.77  0.001471243    1.516    0.341
        24 -10.4412      2.3416    230.5533   1.2338710140e+02   2.4549994074e+01    0.1603368    0.1122319 -66.94  0.001064098    1.594    0.373
        25 -12.3616     98.9439    246.7806   1.0512972344e+02   9.6199231917e+00     0.666002    0.1922533  39.95 0.0003550522    2.709    0.631
        26 -11.1929     76.4332    206.0838   1.0549532024e+02   2.1322650094e+01    0.2705867    0.1733536  45.42 0.0009425164    1.423    0.297
        27 -10.4833     10.6634    205.7095   1.2034598395e+02   2.9091566111e+01     0.109475   0.08623429 -49.55  0.000614988    1.639    0.390
        28 -10.2302     20.3321    204.2052   1.1815910799e+02   2.8507154379e+01    0.1002932   0.09264974 -29.25 0.0004787961    1.502    0.334
        29 -10.8880     24.7865    202.3565   1.1703747741e+02   2.8479376567e+01    0.2036727    0.1489934  63.02 0.0008308077    1.187    0.157
        30 -14.7256     49.6944    181.3172   1.0908781969e+02   3.0688715097e+01     1.796021     1.461159 -18.10   0.01017376    1.688    0.408
        31 -11.2173     72.7162    202.0706   1.0589403336e+02   2.2760706665e+01    0.1860555    0.1546578 -74.40  0.000329829    1.200    0.167
        32 -10.3456     11.2695    200.8421   1.1989951357e+02   3.0126446030e+01    0.1811793     0.077094  32.25 0.0007222746    2.349    0.574
        33 -11.7042    126.4521    198.3071   9.2456050267e+01   1.5213935039e+01    0.2611312    0.1354364 -48.70  0.001119873    2.041    0.510
        34 -14.3216     77.3802    213.6816   1.0616883235e+02   1.9488539580e+01     2.024726    0.7716245  58.90  0.006548177    4.272    0.766
        35 -10.0946     41.0975    198.5200   1.1298871397e+02   2.7600961882e+01    0.1749129    0.1204726  37.38  0.000460406    1.464    0.317
        36 -11.4840     32.2097    191.3885   1.1441091486e+02   3.0249832631e+01      0.39455    0.2484259  82.29  0.002151399    1.509    0.337
        37 -10.8897     24.5476    196.8775   1.1665818791e+02   2.9759970661e+01     0.234134    0.1636562 -73.72  0.001409992    1.319    0.242
        38 -10.5973     27.4589    194.4167   1.1578744997e+02   3.0035279409e+01    0.1854807    0.1545989  21.53 8.690977e-05    1.501    0.334
        39 -10.7869     20.4686    187.4289   1.1683016717e+02   3.2362257608e+01    0.4156442    0.2004397  77.16  0.001936784    2.220    0.550
        40 -11.7114     27.2520    189.8386   1.1544147340e+02   3.1128715702e+01    0.3597175    0.1955616 -79.90 0.0008585079    1.665    0.399
        41 -11.5316     22.5962    191.0302   1.1663056757e+02   3.1312464431e+01    0.2283735    0.1932341 -67.81 0.0006352827    1.257    0.204
        42 -11.1210     24.4462    187.5317   1.1590278981e+02   3.1953109820e+01    0.2017664     0.184687  65.86 0.0007870814    1.167    0.143
        43 -10.6282     18.2249    197.3136   1.1811846850e+02   3.0279748450e+01    0.2023144    0.1511483 -83.55 0.0009278317    1.170    0.146
        44 -12.6906    111.1756    188.1645   9.4502881674e+01   2.0063358260e+01    0.2789271    0.2518381  63.65 0.0007632817    1.092    0.084
        45 -12.9092     31.5601    202.7850   1.1555507823e+02   2.7673631672e+01     0.556529     0.372163 -67.04  0.003270657    1.464    0.317
        46 -14.8356     74.6986    233.4678   1.0888090463e+02   1.5644583578e+01     2.117068     1.413561  77.41   0.01197572    1.596    0.374
        47 -10.0057     16.4099    188.6488   1.1787210039e+02   3.2455843018e+01    0.2199891   0.08643111 -64.08  0.001012671    2.259    0.557
        48 -10.1215      8.1879    187.3198   1.1965889453e+02   3.3492190615e+01    0.1463845   0.09920494  45.36  0.000347863    1.450    0.310
        49 -11.7622     13.1182    180.8835   1.1803324723e+02   3.4575794222e+01    0.3354661    0.2175058  17.86  0.001394107    1.995    0.499
        50 -10.3325      1.2827    191.2696   1.2146449685e+02   3.3155866206e+01     0.107278   0.08213144 -57.35 0.0002305597    1.495    0.331
        51 -10.9798     22.5545    178.8676   1.1559288142e+02   3.4198489288e+01    0.2397793    0.1761577 -49.13 0.0007788897    1.567    0.362
        52 -12.8433     35.2117    175.1507   1.1207247678e+02   3.3830290299e+01    0.7617006    0.4128574  44.20   0.00382259    1.800    0.445
        53 -10.9082     28.9619    177.4880   1.1388350281e+02   3.3905972663e+01      0.40794    0.1713617  52.34  0.001228612    2.452    0.592
        54  -9.8943     26.7117    173.6664   1.1407122824e+02   3.5055267959e+01    0.2083672    0.1519112 -54.85 0.0006737041    1.442    0.306
        55  -9.6229     19.6935    176.2568   1.1605919341e+02   3.5091830537e+01    0.1281404   0.08098804  64.06 0.0001611277    1.517    0.341
        56 -10.9656      2.8851    173.9524   1.1993534778e+02   3.7048603689e+01    0.1788825    0.1432742  82.97 0.0004412912    1.036    0.035
        57 -14.6758     47.8524    209.5380   1.1247589264e+02   2.4282744310e+01     1.803852    0.9584051  34.92  0.009228637    1.830    0.453
        58 -13.3055     16.3122    214.3100   1.1970838906e+02   2.6659349221e+01    0.4689935    0.3868013  24.87  0.003215974    1.544    0.352
        59 -11.4770      8.9901    162.4776   1.1752088638e+02   3.9322327706e+01      0.44816    0.2570858 -40.21  0.002321065    2.226    0.551
        60 -13.2703     20.8974    151.8578   1.1332632495e+02   4.0951734241e+01     0.464482     0.291076  -2.49   0.00234759    2.378    0.579
        61 -13.8793     23.2915    161.4147   1.1370886257e+02   3.8377523400e+01    0.8637527    0.3902218  46.26  0.004012838    2.247    0.555
        62 -12.8630     74.3984    159.3049   9.9417357690e+01   3.2879312565e+01    0.4393983    0.2476146  33.94  0.001291787    1.827    0.453
        63 -10.3140      7.9076    155.5676   1.1718673739e+02   4.1080423406e+01     0.161798    0.1248923  25.56 0.0005667038    1.547    0.354
        64 -11.5196     19.8234    156.1738   1.1408301664e+02   3.9977071523e+01    0.2019125    0.1366322 -46.58 0.0002672499    1.614    0.380
        65 -12.3116     81.4202    151.2234   9.6036372114e+01   3.3856708988e+01    0.2756828    0.1923866 -71.29  0.001302875    1.485    0.326
        66 -14.5876     49.7693    244.0432   1.1496907048e+02   1.6721972424e+01    0.9293678    0.6895215  75.33  0.006171889    1.197    0.165
        67  -9.9561      2.4245    150.4427   1.1817281475e+02   4.2712015595e+01    0.1252772    0.1009119 -85.99 0.0001122447    1.023    0.022
        68 -14.4844     51.3503    232.5247   1.1373610515e+02   1.8869802861e+01    0.7410993     0.653588  67.07  0.005134996    1.117    0.105
        69 -12.7370     30.1320    161.5878   1.1190960778e+02   3.7687965651e+01    0.3387548     0.267967  25.00  0.001713035    1.478    0.323
        70 -16.5906     26.4563    236.4606   1.1906374639e+02   2.0930777411e+01     2.714791     1.988646  44.88   0.01846381    1.283    0.221
        71 -12.4389     31.5149    141.5149   1.0903890797e+02   4.2570901500e+01    0.2662662    0.1758065  45.66   0.00077537    1.616    0.381
        72 -12.8479     28.7939    138.8919   1.0948670423e+02   4.3483933667e+01    0.2959726    0.2216708 -62.31  0.001006747    1.181    0.153
        73 -12.9344     36.6714    138.3353   1.0705989922e+02   4.2863002796e+01     0.582477    0.2253951  56.55  0.001865149    4.445    0.775
        74 -12.9560      5.1872    138.8241   1.1632096918e+02   4.5355475313e+01    0.3345257    0.2733552 -28.92  0.002157022    1.474    0.322
        75 -13.6465     10.5885    134.4741   1.1430193444e+02   4.6054804703e+01    0.4094328    0.2649256  59.21  0.002278609    1.687    0.407
        76 -10.0952     80.9112    133.4894   9.2747593514e+01   3.8376247536e+01    0.2073275    0.1481882  34.81 0.0003590503    1.459    0.315
        77 -13.4771     25.6558    130.5401   1.0928250839e+02   4.5852059904e+01    0.3595867    0.2894337 -61.81  0.002156798    1.097    0.089
        78 -12.3055     57.8930    131.5633   9.9439031078e+01   4.2143602902e+01     0.296426    0.2075411 -73.84  0.001467854    1.447    0.309
        79 -14.2638     19.1940    125.0693   1.1052145369e+02   4.7740950106e+01     0.535464    0.4367656   3.41  0.003291423    1.487    0.328
        80 -12.9372     30.2244    122.8482   1.0670027952e+02   4.7362052785e+01    0.3258248    0.2727341  87.65  0.001105395    1.219    0.180
        81 -11.9743     49.0912    122.6968   1.0058720309e+02   4.5443218969e+01    0.3000756    0.2457744  -9.78 0.0009714244    1.437    0.304
        82 -13.0845     13.4284    117.4080   1.1129039546e+02   5.0046467313e+01    0.2964155    0.2363931 -80.28 0.0009547139    1.150    0.130
        83 -12.8074      3.1152    113.5510   1.1409522754e+02   5.1624553833e+01    0.4959424    0.1590676 -72.69  0.002020651    2.603    0.616
        84 -11.0400      1.8977    105.2887   1.1342242586e+02   5.3668315511e+01    0.2606559    0.1461689 -62.64  0.001404123    1.405    0.288
        85 -13.7607    249.2841     98.0108   4.7530357134e+01   1.1781259311e+01    0.9000617    0.2224364 -44.95   0.00315492    3.395    0.705
        86  -9.8623    132.5300     92.6086   6.7609824480e+01   3.7841687333e+01    0.1499843    0.1456341  44.36 0.0001028729    1.027    0.026
        87 -10.3442     26.3232    101.3165   1.0431111943e+02   5.2967957827e+01    0.1412158   0.08507656 -37.41   0.00051219    1.666    0.400
        88 -11.5350     23.1047     87.8756   1.0284216313e+02   5.6394082020e+01    0.2292087    0.1769936  45.83 0.0008100555    1.570    0.363
        89 -12.1467     19.2155     83.9226   1.0351588275e+02   5.7599486169e+01    0.2850943     0.234833 -69.02   0.00096392    1.218    0.179
        90 -12.2048    236.0737     95.5638   4.8738204162e+01   1.4647950326e+01    0.3188005    0.1888031 -77.70  0.001392005    2.738    0.635
        91 -11.8306     43.5417     74.1026   9.1455364324e+01   5.7491552139e+01    0.3558077    0.3101875  16.73  0.001284846    1.209    0.173
        92 -12.4767     17.9992     69.5027   1.0076418496e+02   6.0897237022e+01    0.5887989    0.2557364 -23.16  0.002428899    3.159    0.683
        93 -12.4828     22.4594     66.7835   9.8188003454e+01   6.1134510403e+01    0.4749488    0.2636446  11.73  0.002489626    2.021    0.505
        94 -11.2013     32.7198     69.9779   9.4718422144e+01   5.9530646662e+01    0.1899369    0.1516445 -41.21 0.0008316893    1.087    0.080
        95 -10.8361      7.9197     69.1367   1.0493108551e+02   6.1636773706e+01    0.2086953    0.1476387 -57.24 0.0004265423    1.200    0.167
        96 -11.1255      2.0749     68.6869   1.0729302575e+02   6.2044586563e+01    0.2276485    0.1371705 -52.36 0.0005022181    1.294    0.227
        97 -10.3677     99.9409     63.5388   6.7927172465e+01   5.0368527052e+01    0.2425556    0.1845482 -24.13  0.000525617    1.412    0.292
        98 -10.3324     43.4917     62.4672   8.8038184282e+01   5.9910228732e+01    0.1327649      0.11379 -21.56 9.494034e-05    1.019    0.018
        99 -10.3346     36.9766     62.0000   9.0634330314e+01   6.0749100844e+01    0.1998323   0.07158298  26.63 0.0008030428    2.947    0.661
       100 -11.3312      3.6894     59.5180   1.0459686046e+02   6.3924976466e+01    0.2261899    0.1605905 -48.17 0.0008903735    1.118    0.106
       101 -11.3495    248.1568     55.9189   3.9079316668e+01   1.8401833875e+01    0.2002509    0.1378423 -63.85 0.0005447477    1.276    0.216
       102 -11.5001     13.6022     49.7318   9.7463730412e+01   6.5310831713e+01    0.2346485    0.1763041 -27.24 0.0005937772    1.122    0.109
       103 -11.9335     18.5950     39.0141   9.1618023337e+01   6.6951921747e+01    0.4886453    0.3135801 -20.96  0.002966205    1.423    0.297
       104 -11.1332     25.6046     40.4161   8.8686696219e+01   6.6050673303e+01    0.2241139    0.2138789 -76.12  0.001471927    1.517    0.341
       105 -11.0509     96.0783     38.3740   6.0398743368e+01   5.5138724430e+01    0.2126656    0.1916565 -30.48 0.0003504636    1.209    0.173
       106 -10.4697    119.1866     34.8747   5.3143279921e+01   5.0508729288e+01    0.2006776    0.1788352  77.96 0.0005459112    1.186    0.157
       107 -10.6971     33.4733     33.4872   8.2314267049e+01   6.6390674692e+01    0.2803188    0.1526228 -13.48  0.001283511    2.340    0.573
       108 -11.3291     15.0651     30.6922   9.0418020037e+01   6.8727637283e+01    0.2822489    0.2041841   5.88  0.001892191    1.307    0.235
       109 -11.5243     12.4874     26.2024   9.0074318114e+01   6.9707452695e+01    0.2361612     0.196521 -29.09 0.0009378075    1.189    0.159
       110 -10.8156     59.8064     30.1845   6.9525491311e+01   6.3137950995e+01    0.1832921    0.1687962  13.16  0.000756008    1.178    0.151
       111 -10.9477     42.8010     29.6709   7.6456693202e+01   6.5799706061e+01    0.3525127    0.1666481  24.06  0.001665921    2.320    0.569
       112 -10.4280     46.5381     27.4591   7.3876187803e+01   6.5597543899e+01    0.1925027    0.1297888   4.34 0.0005334008    1.521    0.342
       113 -10.2957     60.2045    248.7718   1.1325366556e+02   1.4495974496e+01    0.1449483    0.1268664 -62.90  0.000600283    1.417    0.294
       114 -11.8812    132.2389    247.4648   9.8246289370e+01   4.5936601673e+00     0.212397    0.1832923 -50.51  0.001017912    1.367    0.268
       115 -14.3048    109.9494    225.9919   1.0029833264e+02   1.2050298482e+01     1.721054    0.2298952 -54.25  0.004670085    6.599    0.848
       116 -14.8226    110.2569    215.1465   9.8779451718e+01   1.4247156424e+01    0.8541466    0.6513364 -86.67  0.003795972    1.549    0.354
       117 -14.1694    101.2622    213.8064   1.0067129833e+02   1.5933760036e+01    0.7484283    0.6400687   6.26   0.00331259    1.427    0.299
       118 -13.3283    102.0012    240.8405   1.0382926601e+02   1.0307463732e+01    0.7164376    0.5737449  -6.78  0.003841954    1.742    0.426
       119 -12.6668     94.5644    234.1441   1.0466855218e+02   1.2706739343e+01    0.6825319    0.2339425  37.46  0.002624246    2.454    0.593
       120 -14.2980     93.2996    228.4139   1.0428871884e+02   1.4053785878e+01      1.26104    0.7130352  33.44  0.004991169    1.670    0.401
       121 -12.4387     91.7928    222.0986   1.0387979083e+02   1.5590668855e+01    0.5222868    0.2969961  58.73  0.002508186    1.895    0.472
       122  -9.8471    250.8559     24.0936   3.2604297730e+01   2.2064032408e+01    0.1377555   0.06680863 -41.07 0.0007576558    1.794    0.443
       123 -11.4707     89.2883    242.9200   1.0674465661e+02   1.1731757760e+01    0.2890531    0.2535414  64.44  0.001930614    1.085    0.079
       124 -11.3610     34.9620     14.0380   7.3181541425e+01   6.9070095638e+01    0.1863226    0.1441039   3.39 0.0005031274    1.046    0.044
       125 -12.7246    139.2071    242.0814   9.6082613871e+01   4.4937664224e+00    0.4057042    0.2578205 -16.86  0.001350693    2.531    0.605
       126 -11.5278     26.3064     23.1593   8.1576974944e+01   6.8851070588e+01    0.2088118    0.1398358   8.71 0.0008819438    1.381    0.276
       127 -14.2744    126.5336    239.3109   9.8405346191e+01   6.9266825344e+00    0.7449559     0.443039  31.55  0.003904735    1.533    0.348
       128 -12.7513     90.5032    215.3092   1.0334596913e+02   1.7234705007e+01    0.5393489    0.3903598  59.24  0.001770702    1.336    0.251
       129 -13.4427    115.7729    242.2141   1.0106140578e+02   8.0105608597e+00    0.4794851    0.3863213 -60.86  0.002999906    1.438    0.305
       130 -14.9377    117.7926    227.2248   9.8718480818e+01   1.0591569570e+01     1.160184    0.6462151 -40.07  0.005448352    2.326    0.570
