#   1 NUMBER                 Running object number                                     
#   2 MAG_AUTO               Kron-like elliptical aperture magnitude                    [mag]
#   3 X_IMAGE                Object position along x                                    [pixel]
#   4 Y_IMAGE                Object position along y                                    [pixel]
#   5 X_WORLD                Barycenter position along world x axis                     [deg]
#   6 Y_WORLD                Barycenter position along world y axis                     [deg]
#   7 A_WORLD                Profile RMS along major axis (world units)                 [deg]
#   8 B_WORLD                Profile RMS along minor axis (world units)                 [deg]
#   9 THETA_WORLD            Position angle (CCW/world-x)                               [deg]
#  10 FWHM_WORLD             FWHM assuming a gaussian core                              [deg]
#  11 ELONGATION             A_IMAGE/B_IMAGE                                           
#  12 ELLIPTICITY            1 - B_IMAGE/A_IMAGE                                       
         1 -10.4080    177.1042     12.0276   6.7982453423e+01   3.9453809925e+01    0.4951042     0.406911 -81.58  0.002746069    1.205    0.170
         2  -9.9484    177.7684      4.9909   6.5743201360e+01   3.9967372017e+01    0.3456525    0.2819778  52.39  0.001789967    1.221    0.181
         3  -8.8418    236.3624      1.8398   5.9247316669e+01   2.5445901491e+01    0.2298359    0.1722919  73.39 0.0009784859    1.306    0.234
         4  -8.9699     13.6392    242.7624   1.5060416143e+02   2.4533584272e+01    0.3041589    0.1389989  81.19  0.001319133    1.790    0.441
         5  -8.2869    125.1794    244.1722   1.3191546648e+02   9.6207057739e+00    0.1706897    0.1511554  75.57 0.0002575194    1.232    0.188
         6 -17.5982     65.0429    243.3552   1.4231799765e+02   1.8453393805e+01     3.045681     2.108952  56.80  0.007882585    1.110    0.099
         7  -9.0712    138.5157    200.1272   1.2383299742e+02   1.4759365409e+01    0.3319505    0.2191624  88.40  0.001174973    2.243    0.554
         8  -9.7488    181.9234    196.6367   1.1459624928e+02   7.3672436850e+00    0.2311796    0.2078658  28.15 0.0003966739    1.058    0.055
         9  -7.9483      9.0826    232.0742   1.5086790762e+02   2.6825854572e+01    0.1399948    0.1044771  78.16  0.000523738    1.194    0.162
        10  -7.7876    167.8755    229.9007   1.2241692748e+02   4.7628621041e+00    0.1578105    0.1285837  59.73 0.0004441918    1.297    0.229
        11  -7.5749      9.0452    196.0116   1.4914855852e+02   3.3521231433e+01    0.1404055    0.1058571 -69.29 0.0003379011    1.539    0.350
        12  -8.5001    131.0334    192.9626   1.2430502903e+02   1.7424001053e+01    0.2012094    0.1738873  62.05 0.0002971781    1.040    0.038
        13 -10.4727     32.4394    190.8009   1.4439014554e+02   3.2226481109e+01    0.3254543    0.2856658 -15.00  0.001786395    1.990    0.497
        14  -9.4160     13.6152    189.1629   1.4790566382e+02   3.4456145003e+01     0.281189    0.2313156 -51.63   0.00211828    1.788    0.441
        15  -9.5870    116.0976    179.6953   1.2548167234e+02   2.2684893653e+01     0.425534    0.2362298  63.66  0.001891152    2.146    0.534
        16  -9.4414    116.6169    184.8103   1.2614149421e+02   2.1557520640e+01    0.3285315    0.2698584 -83.76  0.001718102    1.250    0.200
        17  -9.0593    121.5533    187.5165   1.2548737461e+02   2.0156943145e+01    0.2912375    0.2293655  36.41    0.0013154    1.340    0.254
        18  -9.0859    120.5499    183.8565   1.2515043445e+02   2.1060870241e+01    0.3432025    0.2013738  63.41  0.001364422    1.920    0.479
        19  -8.0946    185.6740    227.9620   1.1888369042e+02   2.0179763974e+00    0.2430517    0.1160153 -41.89  0.001239416    2.577    0.612
        20  -6.9739    184.7046    221.6882   1.1812261917e+02   3.0627458283e+00     0.122944   0.08773731  16.29  0.000626776    1.596    0.373
        21 -13.8473     62.0105    231.9262   1.4200704667e+02   2.0816188947e+01    0.2972491    0.1919883  41.75  0.001416843    1.545    0.353
        22 -10.5796     95.9562    182.6926   1.3031253077e+02   2.5435864095e+01    0.6523573    0.3580171  53.85  0.003254371    1.686    0.407
        23  -8.4555     29.5569    184.0201   1.4444512737e+02   3.3925543012e+01    0.2328235    0.1190173  54.57 0.0004855111    1.692    0.409
        24  -9.7421     97.9175    178.3143   1.2927878503e+02   2.6036615120e+01    0.3671729    0.2602447  36.73   0.00187394    1.525    0.344
        25  -7.6679    182.3379    181.8204   1.1185985924e+02   9.7459752590e+00    0.1929961     0.154165  47.63  0.001073084    1.179    0.152
        26  -9.5932     48.5957    170.3322   1.3921290883e+02   3.4710287441e+01    0.5497786    0.3570836   8.54  0.002729566    3.205    0.688
        27  -8.4960     35.1448    180.0628   1.4299115655e+02   3.4155642081e+01    0.2796695    0.1432233 -58.77  0.001141518    2.109    0.526
        28  -8.5012     39.6371    178.7268   1.4194341302e+02   3.3942053492e+01    0.1806649    0.1453362  56.47 0.0006359998    1.247    0.198
        29  -9.0304     44.9906    177.1409   1.4067010259e+02   3.3667564777e+01    0.3896241     0.254219  27.71  0.001575694    2.042    0.510
        30  -7.8920     13.5426    239.4407   1.5047906820e+02   2.5106927448e+01    0.1780465    0.1446676  72.66  0.001308353    1.339    0.253
        31  -8.1875     50.9632    177.6232   1.3944573485e+02   3.2853755325e+01    0.2525924    0.1099424  36.15  0.001236137    2.407    0.585
        32 -10.4972    102.5975    169.4944   1.2692708876e+02   2.7140709813e+01    0.6812087    0.4143088 -64.63  0.002244491    1.688    0.407
        33  -8.3539     77.3414    174.0750   1.3327560380e+02   3.0103118074e+01    0.1841798    0.1502449 -89.66 0.0008612914    1.096    0.088
        34  -8.2291     36.0494    172.4459   1.4213629620e+02   3.5675800950e+01    0.1921934    0.1325372  74.66  0.000749162    1.211    0.174
        35  -7.9184     35.2976    169.3246   1.4201282519e+02   3.6428613990e+01     0.153383    0.1513928  34.01  0.000607906    1.463    0.316
        36  -8.8403    238.5049    236.4762   1.1099136837e+02  -7.5054790249e+00     0.115487   0.08793599  21.81 1.100944e-05    1.028    0.028
        37  -9.7700     56.5618    169.1949   1.3732508026e+02   3.3983398953e+01    0.3325134     0.298181  16.41  0.001566497    1.595    0.373
        38  -9.3417     57.1113    163.0802   1.3649133273e+02   3.5261840922e+01    0.2574333    0.2147296 -81.68 0.0008482418    1.117    0.105
        39  -9.2042     16.8598    168.1599   1.4583879422e+02   3.8500313808e+01     0.391063    0.2231437  88.46  0.001394731    1.426    0.299
        40  -8.3858    195.6493    170.7992   1.0708928903e+02   8.9825620810e+00    0.2649394    0.2459795  -3.46  0.001574053    1.094    0.086
        41  -9.7561     43.1475    167.2792   1.4009955015e+02   3.6008527100e+01    0.4935148    0.3011174  18.24  0.002594299    2.723    0.633
        42  -7.7066    155.6582    167.3187   1.1467209862e+02   1.7696681216e+01    0.1480559    0.1103612  77.58  0.000704943    1.716    0.417
        43  -7.6811    143.1689    166.6187   1.1727636386e+02   2.0314238592e+01    0.1990749    0.1289121  36.82 0.0006047769    1.576    0.365
        44  -8.3935    118.5901    166.5152   1.2279332337e+02   2.4984956865e+01    0.3897101    0.1216309  44.97  0.001352143    2.952    0.661
        45  -8.8967    183.7954    213.9210   1.1708895773e+02   4.3512795944e+00    0.2464217    0.1763043  49.93  0.001446868    1.330    0.248
        46  -8.8659    107.4042    157.3621   1.2382683075e+02   2.8954261379e+01    0.3351757    0.2754195  51.68  0.001878301    1.167    0.143
        47 -10.2912     50.7518    157.5883   1.3731067643e+02   3.7267547963e+01     0.375337    0.2774717  31.93  0.001851768    1.646    0.393
        48  -9.8472     35.0724    157.1096   1.4088006216e+02   3.9126912868e+01    0.3046116    0.2256735   0.59  0.001201307    2.351    0.575
        49  -9.4327     56.9315    155.6816   1.3562426445e+02   3.6939651265e+01    0.2682838    0.1583697  68.47  0.001393298    1.769    0.435
        50  -9.8527     11.8480    206.8463   1.4922395429e+02   3.1163023539e+01    0.3696466    0.2682525  65.57  0.002088087    1.140    0.123
        51  -8.0280      6.3074    207.5027   1.5022161481e+02   3.1561894672e+01    0.2206458    0.1116634  84.05  0.001448983    1.542    0.351
        52  -8.8102    111.2837    151.8917   1.2192702071e+02   2.9471098924e+01    0.5131487    0.2357894  48.05  0.002102063    2.121    0.528
        53  -9.5915     96.7630    151.5163   1.2537978483e+02   3.2071595245e+01    0.2886556    0.2819102  32.86 0.0007981691    1.236    0.191
        54  -9.7279     40.6856    148.6885   1.3864994398e+02   4.0416863715e+01    0.3923697    0.1984812 -41.22  0.001746466    3.251    0.692
        55 -10.3909     68.4705    143.7822   1.3114176278e+02   3.8140108544e+01    0.7439316    0.3560207  64.93  0.002936295    3.022    0.669
        56  -9.2607      9.2953    146.9649   1.4582943534e+02   4.3716882665e+01    0.3031059    0.1981334  11.22  0.001895539    2.426    0.588
        57 -10.2216     56.9283    145.5572   1.3428656284e+02   3.9242227194e+01    0.5899642    0.2115768  32.52  0.002401873    3.217    0.689
        58  -8.3523    133.0054    207.9649   1.2606018330e+02   1.4320385482e+01     0.269458    0.1693687  89.78  0.001238752    2.457    0.593
        59  -7.1874    196.6695    145.6743   1.0155978760e+02   1.3142889168e+01    0.1534027    0.1128114  10.91 0.0003838334    1.705    0.414
        60  -9.0811    127.1579    142.9135   1.1634301935e+02   2.8452293237e+01    0.2280966    0.2134847  74.33 0.0002594027    1.010    0.009
        61  -8.2609      4.2417    138.9975   1.4634336511e+02   4.5840577936e+01    0.1560366   0.07497569 -78.41  0.000882813    1.604    0.377
        62  -8.0295     22.4827    138.4635   1.4193031943e+02   4.4509337804e+01    0.1202712   0.09484906 -84.96 3.186638e-05    1.022    0.022
        63  -8.5585    106.8708    137.1003   1.2018785011e+02   3.3578259883e+01    0.2339549    0.1965045  54.53 0.0004939262    1.171    0.146
        64  -8.2146     69.8156    134.3576   1.2928533162e+02   4.0136237873e+01    0.2146642     0.156717  62.10   0.00117963    1.400    0.286
        65  -9.7401     64.0472    133.8875   1.3072293219e+02   4.1026433856e+01    0.3591327    0.1888147  42.10  0.001744937    1.961    0.490
        66  -8.0825    192.1262    133.1384   9.9586515902e+01   1.6416396384e+01    0.2173975    0.1923893  13.96  0.001139356    1.190    0.160
        67  -9.3157     60.2670    130.2805   1.3113952310e+02   4.2356691317e+01    0.2347847    0.1771607   4.36  0.001268818    2.028    0.507
        68  -8.6099    124.7493    127.9323   1.1369690056e+02   3.2225042230e+01    0.2310463     0.206374  53.00  0.000349327    1.108    0.098
        69 -10.0464    238.1124    125.0949   8.9298111402e+01   7.7666340680e+00    0.2677276     0.255563  28.03 0.0004011232    1.108    0.098
        70  -9.2608    120.0115    202.9670   1.2799204481e+02   1.7456260316e+01    0.2028402    0.1684116  59.54 0.0006596941    1.013    0.013
        71  -8.3490     47.9244    125.5064   1.3370398689e+02   4.4949219694e+01    0.1720469    0.1269051  37.25 0.0005137181    1.538    0.350
        72  -7.2845     48.4053    114.2386   1.3174284959e+02   4.7519848202e+01     0.123137   0.09387695 -29.74 0.0006915507    1.684    0.406
        73  -7.1727    120.3558    111.6967   1.1096226661e+02   3.6703631493e+01    0.1573505     0.118305  83.70  0.000703945    1.713    0.416
        74  -7.1007     27.2660    109.6668   1.3708978831e+02   5.0664128120e+01    0.1230921   0.08165874  80.64 0.0003359861    1.583    0.368
        75  -8.7917    241.4707    106.0502   8.4276585989e+01   1.0059859678e+01    0.2074473    0.1943821  51.60 0.0006044314    1.159    0.137
        76  -7.7944     64.6563    106.6911   1.2556109999e+02   4.7290648213e+01    0.1366353   0.09968341 -30.95 0.0007044346    1.697    0.411
        77  -7.0279    188.3141    105.7021   9.3519872154e+01   2.2384700346e+01    0.1556371    0.1222386 -77.08 0.0002697923    1.605    0.377
        78  -7.0715     24.3165     94.3530   1.3557702003e+02   5.4407148901e+01    0.1296925   0.07472611 -44.65 0.0007046525    1.739    0.425
        79  -7.2608     41.5185     68.5081   1.2425673523e+02   5.8609615722e+01    0.1285953    0.1065078 -46.98 4.953884e-05    1.028    0.027
        80  -7.4232    154.5977     67.1900   8.9601876351e+01   3.7759723592e+01    0.2044913    0.1506088 -19.93 0.0004251003    1.549    0.354
        81  -8.4976    192.0400     63.0445   8.1001108452e+01   2.8818271673e+01    0.2155242    0.2111994  77.21  0.001177799    1.034    0.033
        82  -8.6655    152.4077     57.0138   8.6834019723e+01   4.0017814458e+01    0.3300065    0.2906697  -8.96  0.001068924    1.235    0.190
        83 -10.0040    247.2647     49.5061   6.9734486119e+01   1.7153959831e+01    0.3349375    0.2544842 -33.00 0.0003528527    1.266    0.210
        84  -8.1416    250.5359     45.5077   6.8419218687e+01   1.6944019736e+01    0.1934981    0.1300561 -18.74 0.0005807697    1.737    0.424
        85  -8.1888    132.8736     51.9965   8.9674620503e+01   4.5660599344e+01    0.2145923    0.2108934  54.89 0.0003578374    1.047    0.045
        86 -10.3960    165.0677     40.6931   7.8981116659e+01   3.9197415659e+01    0.5815195    0.5421873  48.25  0.003199435    1.068    0.063
        87  -7.4930    241.4672     39.5172   6.7919372511e+01   1.9830538780e+01    0.1356026    0.1239055 -60.78 0.0001076068    1.045    0.043
        88  -7.7819    188.2658     36.5547   7.3833647505e+01   3.3637033525e+01    0.1967766    0.1306323  54.14 0.0003955532    1.475    0.322
        89  -9.3332    168.5791     33.8279   7.6148786130e+01   3.9192139325e+01    0.3437881    0.2779014   5.35  0.001057315    1.476    0.323
        90  -8.2644    160.5721     29.3524   7.6082869075e+01   4.1863765426e+01    0.3639873    0.2080971  21.17  0.001075021    2.742    0.635
        91 -10.1002    142.2533     28.2092   7.9165840459e+01   4.6736716233e+01    0.2552848    0.2385233  12.72  0.000348176    1.105    0.095
        92  -7.5528    153.0302     23.3056   7.5389879382e+01   4.4556156506e+01    0.1971001    0.1811267  58.39 0.0007343572    1.015    0.015
        93  -8.7839    133.7988    248.0590   1.3080619760e+02   7.6860185300e+00    0.1877606    0.1596338 -74.06 0.0004138181    1.456    0.313
        94  -8.4469    249.0034    245.4957   1.1067739528e+02  -9.9517154694e+00    0.1386038   0.08786314  52.94  0.000810107    2.505    0.601
