#   1 NUMBER                 Running object number                                     
#   2 MAG_AUTO               Kron-like elliptical aperture magnitude                    [mag]
#   3 X_IMAGE                Object position along x                                    [pixel]
#   4 Y_IMAGE                Object position along y                                    [pixel]
#   5 X_WORLD                Barycenter position along world x axis                     [deg]
#   6 Y_WORLD                Barycenter position along world y axis                     [deg]
#   7 A_WORLD                Profile RMS along major axis (world units)                 [deg]
#   8 B_WORLD                Profile RMS along minor axis (world units)                 [deg]
#   9 THETA_WORLD            Position angle (CCW/world-x)                               [deg]
#  10 FWHM_WORLD             FWHM assuming a gaussian core                              [deg]
#  11 ELONGATION             A_IMAGE/B_IMAGE                                           
#  12 ELLIPTICITY            1 - B_IMAGE/A_IMAGE                                       
         1 -10.0949     97.7710     11.8903   1.0832960152e+01   5.8386003692e+01    0.3359076    0.2096712 -10.59  0.001317348    2.086    0.521
         2  -9.0411      3.1055     12.1045   6.1121912110e+01   7.7577489840e+01    0.1885805    0.1477591  50.65  0.001122748    1.696    0.410
         3  -8.9149     61.9972      9.9785   1.9711180639e+01   6.7527980103e+01    0.1715634    0.1459181  52.28 0.0007144639    1.036    0.035
         4 -10.2427     41.0735     13.7499   3.1600670081e+01   7.1668430670e+01    0.2647522    0.2019334  30.12 0.0002129663    1.221    0.181
         5  -8.4569     65.1464      4.8523   1.5717279186e+01   6.7305586013e+01    0.1861477     0.139473  39.55 0.0002653006    1.289    0.224
         6  -8.2893     52.0143      3.0349   1.9384576150e+01   7.0601545332e+01    0.1572423    0.1400603  41.32 0.0003039334    1.040    0.038
         7  -8.7379      2.9920      3.2561   5.5763248865e+01   7.9295770307e+01    0.1752812    0.1381397   7.84 0.0003458143    1.129    0.114
         8  -9.4781     67.5399      1.3885   1.3031562840e+01   6.7038162610e+01    0.2480192    0.1147665  64.93 0.0002111935    1.873    0.466
         9 -10.4098    101.2633    233.5828   6.4884292099e+01   1.2911031883e+01    0.4761928    0.3062099  63.54  0.002538149    2.316    0.568
        10 -10.3546    247.1357    248.3227   3.9027068701e+01  -4.3654485842e+00    0.2505059    0.1594385  -2.94 0.0008859137    1.076    0.071
        11  -9.4387    214.1582    250.1300   4.4424320209e+01  -1.7527309150e+00    0.2049456    0.1086318  15.68  0.001386083    1.531    0.347
        12  -9.6397    205.1469    249.8369   4.5901452585e+01  -8.8734250858e-01    0.2622901    0.1106333  32.21   0.00151888    2.371    0.578
        13 -10.2581    195.9371    248.7806   4.7359885347e+01   1.2027338129e-01    0.2772292     0.172054  18.23  0.001949738    1.308    0.236
        14  -9.3771    157.4821    221.5477   5.0950405852e+01   8.1265588388e+00    0.2238491    0.1743071  16.94 0.0008139342    1.106    0.096
        15 -10.7472    161.2638    247.8106   5.3699560601e+01   3.8015449014e+00    0.5669126    0.2993904 -50.83  0.002673926    2.631    0.620
        16 -10.9845    166.5098    248.2594   5.2734255802e+01   3.1807905309e+00    0.5172227    0.2412893  29.73  0.002346196    1.806    0.446
        17 -11.3460    173.6921    244.8454   5.0916553628e+01   2.8851038676e+00    0.5326537    0.4169028 -29.70  0.003927741    1.452    0.311
        18 -11.0111    167.0274    242.0832   5.1837515884e+01   3.9782652641e+00    0.4350793    0.2798056  24.76   0.00189196    1.327    0.246
        19 -10.3610    169.6690    224.8423   4.8957601868e+01   6.1728124748e+00    0.3744976    0.2542539  42.84  0.001705285    1.959    0.490
        20 -11.0862    169.3031    233.4161   5.0231107465e+01   4.9578976813e+00     0.516898    0.4645011 -59.23   0.00310992    1.832    0.454
        21 -10.8988     53.4628    249.5123   7.7248289015e+01   1.5298724055e+01    0.5284683    0.2157203  23.03  0.001925047    2.051    0.513
        22  -9.8061     56.5216    246.5189   7.6360786366e+01   1.5527898008e+01    0.2877147    0.1554346  35.45 0.0009662464    1.394    0.283
        23  -9.9372     36.3136    247.6466   8.1026596434e+01   1.7307646484e+01      0.97557          nan  41.67  0.002308642    8.973    0.889
        24 -11.0534      7.8798    242.5400   8.7220337748e+01   2.0760583087e+01     0.542425     0.300109  33.82  0.003340724    1.353    0.261
        25 -11.7519     19.2117    247.6724   8.4861889021e+01   1.8848968711e+01     0.855246     0.334071  45.94  0.004547734    1.891    0.471
        26 -10.0571      4.3617    249.0388   8.8157921972e+01   1.9830601875e+01    0.3180801    0.1709127  42.94  0.001085858    1.339    0.253
        27 -11.2255     98.9314    225.3791   6.4543070153e+01   1.4677598938e+01    0.4199711    0.3297049  15.47  0.001039479    1.131    0.116
        28 -11.8798     95.5278    218.0346   6.4541383095e+01   1.6484661804e+01    0.6780437    0.3793524  40.88  0.002141372    1.634    0.388
        29 -10.4086     99.9872    217.4747   6.3391336071e+01   1.6037604622e+01    0.3289776    0.1882385  39.33 0.0008154255    1.575    0.365
        30 -11.8957    162.1943    227.7617   5.0862353472e+01   6.6062678147e+00    0.7119597    0.5082521 -33.60  0.002940984    1.470    0.320
        31  -8.5898    100.9931    246.9928   6.6309044208e+01   1.0637666594e+01    0.1481497     0.112811  23.36 0.0003280776    1.018    0.018
        32 -10.7056     73.6602    244.5943   7.2287842291e+01   1.4071347216e+01    0.2694425    0.2113197  22.62 0.0006026395    1.093    0.085
        33 -10.2871    239.9998    242.4742   3.9283462034e+01  -3.1537469406e+00    0.3621691    0.1412427  11.47   0.00190065    3.109    0.678
        34 -11.0453    236.7384    239.9178   3.9421098462e+01  -2.5927302065e+00    0.4213277    0.1977887   5.97  0.002201825    2.161    0.537
        35 -10.9298     98.1586    241.5835   6.6415429660e+01   1.1873198446e+01    0.4460702    0.2485963  21.02  0.001083344    1.513    0.339
        36  -9.3704    250.5119    241.8566   3.7644170363e+01  -3.9545898501e+00    0.1637424    0.1035102 -17.40 0.0005309738    1.176    0.149
        37 -10.2715    248.7631    237.9868   3.7356394174e+01  -3.3969879260e+00    0.2473047    0.1248249 -29.38  0.001694042    1.630    0.387
        38  -9.5505    221.2494    239.7151   4.1829798490e+01  -1.1867054118e+00    0.1978327    0.1289428  -4.91 0.0006792356    1.132    0.116
        39 -10.3829     12.9768    250.1694   8.6316431715e+01   1.8920137306e+01    0.3559277    0.1765133  36.12   0.00138449    1.435    0.303
        40 -10.3540    231.1613    234.5383   3.9519357074e+01  -1.4872991996e+00    0.2569336    0.1724296 -12.89 0.0007704245    1.102    0.092
        41 -11.2739    238.9918    230.1220   3.7681165251e+01  -1.6811326526e+00    0.4900857     0.246565   0.48   0.00244695    1.998    0.500
        42  -9.1582    242.6974    223.9644   3.6225871129e+01  -1.3032923521e+00    0.1819934    0.1148382 -18.47 0.0006417779    1.176    0.150
        43 -11.6007    126.6037    221.4327   5.7631596727e+01   1.1967649608e+01    0.7542526    0.4772864 -62.51 0.0009135673    2.230    0.552
        44 -10.2998    121.6603    222.7998   5.8931689201e+01   1.2345362068e+01    0.3022505    0.2713316 -65.08  0.002011746    1.478    0.323
        45  -8.5976    119.6817    228.6478   6.0104487050e+01   1.1568279906e+01    0.2145782    0.1619436 -26.53  0.001333195    1.447    0.309
        46  -9.3631    116.7804    227.2220   6.0592625873e+01   1.2169974495e+01    0.2354545    0.1787889  19.04 0.0007029088    1.082    0.076
        47  -9.1425    144.8963    227.4613   5.4408648257e+01   8.7070342226e+00    0.2164983    0.1614847 -20.79 0.0006904929    1.344    0.256
        48  -9.4244    249.4403    227.0212   3.5687503757e+01  -2.2461502743e+00    0.2177444    0.0934385 -20.77  0.001311703    2.072    0.517
        49  -9.3956    191.7731    226.9714   4.5070667332e+01   3.3824194186e+00    0.1728357    0.1181106  -5.38 0.0003808312    1.211    0.175
        50 -10.7324    182.4435    226.5355   4.6735809187e+01   4.4695271861e+00    0.4206177    0.2167401  34.56   0.00238674    1.980    0.495
        51  -8.3524    178.3085    222.6568   4.6958367217e+01   5.4952898275e+00    0.1544484    0.1045102  32.46 0.0006817741    1.556    0.357
        52  -9.2494     66.7675    223.6968   7.2196546067e+01   1.8772762841e+01    0.2146372    0.1906939  54.38 0.0005692066    1.173    0.148
        53  -8.9667     32.2485    223.9089   8.0756081645e+01   2.2311140582e+01    0.2317527    0.1515893 -12.57  0.001239211    2.156    0.536
        54  -9.0485    213.4003    220.7190   4.0362295840e+01   1.9248846867e+00     0.235231    0.1454037  32.70  0.001146238    1.848    0.459
        55  -9.2927    219.1884    219.1978   3.9174794492e+01   1.5277766683e+00    0.3048336    0.1783842  -6.19  0.001969058    1.553    0.356
        56 -10.4898    131.1351    215.3580   5.5793683145e+01   1.2460149363e+01    0.6113563    0.3695848 -68.15  0.002969239    2.823    0.646
        57  -9.1788    128.3230    211.7254   5.5935646460e+01   1.3474059906e+01    0.2576307    0.1788507  49.64  0.000235395    1.779    0.438
        58  -9.3914    115.1225    220.6821   6.0175978308e+01   1.3541456984e+01    0.2187548    0.1804249 -29.55 0.0004982704    1.328    0.247
        59  -8.6860    149.3078    219.9260   5.2435490006e+01   9.3884042758e+00    0.1843519    0.1660264 -30.44 0.0007958147    1.330    0.248
        60  -9.3943    151.5058    216.0246   5.1411256559e+01   9.7537910304e+00    0.2897092    0.1821509   4.38  0.001086107    1.634    0.388
        61  -9.5016     75.2396    219.2172   6.9681525064e+01   1.8698417789e+01    0.2814924    0.1653597  36.03  0.001070149    1.403    0.287
        62 -10.2753    190.5018    216.2612   4.3709566642e+01   5.0209044654e+00     0.434571    0.2568754 -28.35   0.00266264    1.555    0.357
        63  -9.7115    176.0195    216.1271   4.6432160576e+01   6.7312390967e+00    0.2565123    0.1477907 -32.19   0.00130389    1.681    0.405
        64  -7.9767    143.6777    217.3213   5.3280149165e+01   1.0523611137e+01    0.1191529   0.09311596  48.84 0.0007045552    1.675    0.403
        65 -10.7626     21.1504    212.6496   8.2954303139e+01   2.5703709893e+01    0.3674758    0.2538742   4.25  0.001311749    1.694    0.410
        66 -10.3126    170.7664    215.2193   4.7329405190e+01   7.5013067466e+00    0.2710539     0.202548   4.94  0.000687334    1.110    0.099
        67 -10.1245    113.4050    212.9687   5.9603246363e+01   1.5186204150e+01    0.6914155     0.399074  14.63  0.003422233    1.774    0.436
        68  -9.8997     64.5397    213.5473   7.1859367277e+01   2.1097701811e+01    0.5415697    0.2118642  39.66  0.002359742    2.090    0.522
        69  -9.1326    228.3487    214.0419   3.6920982398e+01   1.2567215801e+00    0.1907596    0.1061759 -25.06 0.0008569207    1.463    0.316
        70  -9.3928    202.6082    211.2150   4.0755662524e+01   4.3620132648e+00    0.3470947    0.1514144 -39.82  0.001851887    2.239    0.553
        71 -10.5119    212.1757    207.9769   3.8604288428e+01   3.7450921368e+00     0.490112    0.3322604 -11.06  0.003345428    1.208    0.172
        72  -9.4864    212.0387    203.4734   3.7910925411e+01   4.3758484214e+00    0.3131737    0.1493135  29.04  0.001267366    2.068    0.516
        73  -9.7800    237.5707    210.0896   3.4895278164e+01   8.3534413593e-01    0.1750419    0.1419241  23.37  0.001367596    1.623    0.384
        74  -8.2913    135.7956    208.8421   5.3820582654e+01   1.3010961203e+01     0.164196    0.1397503  37.77 0.0002412856    1.303    0.232
        75 -10.0835     12.4501    206.5190   8.4910161629e+01   2.7784801124e+01    0.2935458    0.2450563   7.92   0.00114522    1.356    0.263
        76 -11.6451     15.5643    196.9924   8.3665557127e+01   2.9678464998e+01    0.7020075    0.3030235 -47.03   0.00151557    3.193    0.687
        77  -9.0626    129.6959    201.3171   5.4124642552e+01   1.5208559081e+01    0.2886866    0.2479689  65.83  0.001724215    1.588    0.370
        78 -10.1233    166.6142    199.3316   4.5695449527e+01   1.0566072605e+01    0.4600005    0.3147349  -6.90   0.00161117    1.467    0.318
        79 -11.2610    175.9079    185.0823   4.1434228749e+01   1.1680324905e+01    0.6734209    0.4732984 -47.78  0.002606653    1.664    0.399
        80  -9.2486    171.3572    201.2023   4.5034470470e+01   9.6406527763e+00    0.2226369    0.1980685 -39.76 0.0003837422    1.421    0.296
        81 -11.3799    178.4659    196.6857   4.2892066196e+01   9.4454716254e+00    0.8279067     0.434834 -19.99  0.003352045    2.289    0.563
        82 -11.3190    172.9290    195.4774   4.3787128760e+01   1.0365926449e+01    0.5953845    0.3015543 -37.34  0.001758652    1.917    0.478
        83  -8.1358     91.2889    201.6833   6.3671426390e+01   2.0312879260e+01    0.1366583   0.09551167  54.27 0.0002315182    1.593    0.372
        84  -8.4259    224.3282    205.5944   3.6239441200e+01   2.7530195792e+00    0.1369582    0.1222537 -25.58 0.0004044868    1.575    0.365
        85  -8.4373    250.4681    200.0628   3.1457353496e+01   8.0628088187e-01    0.1611462   0.07829583 -30.09  0.001028158    1.597    0.374
        86  -8.9494     59.0601    200.1328   7.2057631184e+01   2.4625571596e+01    0.3479744    0.1755858  26.24  0.001607863    1.739    0.425
        87  -9.1874    212.8454    198.9567   3.7045464228e+01   4.9096353388e+00    0.1790958    0.1211954 -11.37 0.0004115446    1.248    0.199
        88  -8.1440    144.4997    198.5244   5.0307130025e+01   1.3689541399e+01    0.1327037    0.1125406   7.46 8.572861e-05    1.003    0.003
        89  -8.6617    112.9550    198.2598   5.7718638774e+01   1.8103113694e+01    0.3465357    0.1777285  55.09  0.001341056    3.195    0.687
        90  -8.5859    113.0487    194.3002   5.7125585700e+01   1.8887574374e+01     0.190066    0.1560887  23.55 0.0003380121    1.073    0.068
        91  -9.3893    105.2845    197.5061   5.9537674516e+01   1.9308302733e+01    0.2523204    0.1991176 -25.23 0.0009299455    1.393    0.282
        92  -8.7867     51.2652    197.8459   7.3971235347e+01   2.6018311860e+01    0.3047112    0.1345523  26.40  0.001321493    1.968    0.492
        93  -8.7769     44.4022    199.0000   7.5945747876e+01   2.6495730823e+01     0.291076   0.06824439  23.72 0.0009163378    3.788    0.736
        94  -9.4394    126.6711    196.6490   5.4141857835e+01   1.6514412766e+01    0.2931441    0.2057708  -1.15  0.001302096    1.569    0.362
        95  -9.2686    124.7946    193.0630   5.4047236261e+01   1.7476260220e+01    0.2527955    0.1764333 -33.34  0.001347126    1.533    0.348
        96  -8.7073    248.9341    195.2005   3.0901840004e+01   1.5503064254e+00    0.2890831    0.1263918 -12.78  0.001335606    3.515    0.716
        97  -8.8148    131.4856    194.9484   5.2739397853e+01   1.6164688387e+01    0.1829555     0.133367 -49.02  0.000646003    1.534    0.348
        98  -8.2050     66.8096    195.2044   6.9448828528e+01   2.4815122230e+01    0.2559337    0.1123962  55.22 0.0009613223    2.899    0.655
        99  -8.3198    134.8521    192.6026   5.1581588271e+01   1.6134670020e+01    0.1949159    0.1108413  39.75 0.0009371959    1.751    0.429
       100 -10.6027     93.8788    181.6276   6.0295756562e+01   2.4301902487e+01    0.4866136       0.3338 -42.58   0.00183023    1.604    0.377
       101 -11.9720     98.0889    189.0406   6.0222953080e+01   2.2082348980e+01    0.6193673    0.4147666  56.09  0.001166971    1.785    0.440
       102 -10.2513    104.0500    189.4811   5.8722182118e+01   2.1152175909e+01    0.3313984    0.2224092  30.10 0.0009686965    1.323    0.244
       103  -9.1268    185.5168    189.9062   4.0400847836e+01   9.6041869619e+00    0.2254395     0.160638  23.24  0.001169149    1.335    0.251
       104  -8.8373    154.9489    188.1494   4.6314607715e+01   1.4091736070e+01    0.2679477    0.1550203 -19.89  0.001252992    2.140    0.533
       105  -8.5555    196.9626    182.0122   3.6930470416e+01   9.3396128455e+00    0.1530243    0.1231733 -13.11 0.0009116983    1.025    0.024
       106  -9.8625    203.9673    187.9020   3.6714153016e+01   7.5546831874e+00    0.2815939    0.2422364  54.49  0.001740634    1.924    0.480
       107  -8.9615    198.9859    185.4783   3.7172057578e+01   8.5464207168e+00    0.2225313    0.1424021  28.46  0.001332392    1.569    0.362
       108  -8.2652    128.7851    188.5581   5.2378519213e+01   1.7788387953e+01    0.1923405    0.1164507  39.29 0.0008284455    1.613    0.380
       109 -10.6323     11.3504    187.5661   8.4375908184e+01   3.2222910383e+01    0.3801183    0.2605605  22.50 0.0004044045    1.411    0.291
       110 -12.5923     12.6183    180.1452   8.3650695349e+01   3.3908108979e+01     1.774491     1.186929  73.09   0.00971712    1.423    0.297
       111 -10.9662      5.7040    177.0240   8.5508821669e+01   3.5189380013e+01    0.4894668    0.2889158  36.47  0.001828645    1.472    0.321
       112 -11.7953      4.1374    171.6442   8.5735067851e+01   3.6625396723e+01      0.73936    0.5278167  75.86  0.004194856    1.298    0.229
       113  -9.6046    231.9047    185.6981   3.1822261695e+01   4.5669084989e+00    0.2645569    0.1384436 -29.13  0.001303065    1.556    0.358
       114  -9.9273    226.6161    183.0157   3.2175490265e+01   5.5329403402e+00    0.2787275    0.2305161  30.14 0.0008478524    1.547    0.353
       115  -8.6184    165.5780    186.7981   4.3826262157e+01   1.2826798914e+01     0.162137    0.1221778 -50.32 0.0004822461    1.611    0.379
       116 -10.2676     46.8490    182.0474   7.3772515452e+01   3.0207775617e+01    0.6662918    0.2394328 -60.01  0.002167038    2.796    0.642
       117  -8.9855    249.9467    185.3313   2.9165594012e+01   2.6765157834e+00    0.2364156    0.1275677 -42.04  0.001473667    2.003    0.501
       118  -9.8126    183.2137    185.5638   4.0094507516e+01   1.0605257621e+01    0.2078246    0.1983475 -42.13 0.0008029207    1.444    0.308
       119 -11.0272    179.2892    178.9853   3.9697702396e+01   1.2226440369e+01    0.5833575    0.4578395  29.40  0.003262161    1.317    0.241
       120  -9.5655    108.6972    185.3701   5.6905624551e+01   2.1358962726e+01    0.3679937    0.2766935  76.82  0.001855628    1.913    0.477
       121  -8.6113    111.3734    184.2934   5.6048529540e+01   2.1197415968e+01    0.2748798    0.1738364  25.08 0.0009805725    1.475    0.322
       122  -8.8440    217.4879    182.5366   3.3533059976e+01   6.6790765864e+00    0.1928375    0.1067488  36.38 0.0001279177    2.041    0.510
       123 -10.3243    209.7950    184.6059   3.5155409997e+01   7.3186960156e+00    0.2259169    0.2040385  15.41  0.001601246    1.375    0.273
       124 -10.3428    213.0467    182.2365   3.4205905283e+01   7.2632873153e+00    0.2634976    0.1452458  16.05  0.001255041    2.078    0.519
       125  -8.5702    139.2836    185.3485   4.9368439861e+01   1.6877797199e+01    0.1405092   0.09705225 -12.40 0.0004120806    1.650    0.394
       126  -9.5064    138.2411    180.2641   4.8752900910e+01   1.8014840822e+01      0.35716    0.2744847 -21.50  0.001976951    1.334    0.250
       127 -11.0822    204.3566    175.3780   3.4463602473e+01   9.3881465341e+00    0.4238219    0.3226612 -10.94   0.00243089    1.129    0.114
       128 -11.4722    207.8442    168.6037   3.2653912908e+01   9.9580227923e+00    0.5595018    0.3873244 -39.27  0.003473632    1.411    0.291
       129  -9.6955    104.1374    179.5958   5.7219231842e+01   2.3267284550e+01    0.3187166    0.2303672 -48.44  0.001648341    1.483    0.326
       130  -9.3132    100.9330    177.5702   5.7767105919e+01   2.4185148744e+01    0.2833932    0.1370758  24.00  0.001134396    2.127    0.530
       131 -10.5562    152.0281    174.5162   4.4582694086e+01   1.7024294578e+01    0.3743918    0.3196538   9.04  0.001238561    1.066    0.062
       132 -10.1363    148.5208    174.5188   4.5370554847e+01   1.7560005523e+01    0.3868301    0.2533729 -58.79  0.001536567    2.012    0.503
       133  -9.0512    112.4022    179.1919   5.4977630301e+01   2.2127864714e+01    0.2568571    0.1797091  20.67  0.001293111    1.384    0.277
       134  -9.3484     71.0695    178.0744   6.6246348046e+01   2.8242692992e+01    0.3212162    0.2657912 -17.68   0.00108652    1.393    0.282
       135  -8.8751    240.6714    177.9254   2.9230055057e+01   4.6236091553e+00    0.1606115    0.1100958 -24.92 0.0006631135    1.126    0.112
       136  -8.5727    219.2641    178.1900   3.2497245620e+01   7.0840698191e+00    0.1460176    0.1220011 -31.22 0.0004881352    1.323    0.244
       137  -8.9775     89.3373    177.4593   6.0945843763e+01   2.5889905213e+01    0.2371082    0.1756833  77.42  0.000757365    1.752    0.429
       138  -8.9007    118.0542    176.0019   5.2993859115e+01   2.1951063981e+01     0.211536    0.1921829  -4.96 0.0004705127    1.080    0.074
       139  -8.3505     77.6820    176.0867   6.4068586085e+01   2.7831733292e+01    0.2533561    0.1298979  59.61 0.0009443393    2.777    0.640
       140 -10.5768     29.7857    171.6565   7.7969892759e+01   3.4525854597e+01    0.5693852    0.3950072 -75.40   0.00187278    1.479    0.324
       141  -9.9427     24.2807    174.5857   7.9864171708e+01   3.4299833533e+01     0.276112    0.1766288  56.64 0.0009841331    1.460    0.315
       142  -9.1412     92.0212    172.4376   5.9439612556e+01   2.6656611564e+01    0.3577005    0.1936217  35.58 0.0008425874    1.667    0.400
       143  -7.9713     87.6687    172.7127   6.0716747405e+01   2.7224816593e+01    0.2278508      0.19971   9.88 0.0006078935    1.152    0.132
       144  -8.7314    223.9276    172.2710   3.0731678647e+01   7.3563744494e+00    0.1593508    0.1289751  -2.34 0.0004396862    1.131    0.116
       145  -9.1508    193.5002    172.4955   3.5856509688e+01   1.1302914014e+01    0.1980955    0.1096914  21.66 0.0006079054    2.028    0.507
       146  -8.5345    176.6893    171.3574   3.8826290637e+01   1.3891060140e+01    0.2202275    0.1731188 -42.86  0.001026477    1.371    0.270
       147  -8.1432    179.3471    169.6864   3.7996732201e+01   1.3786415691e+01    0.1906208    0.1288249  35.37 0.0008796075    1.540    0.351
       148  -8.9446    176.8160    167.4297   3.8071851447e+01   1.4548454301e+01    0.2465684    0.2014381 -16.32 0.0007299181    1.094    0.086
       149  -8.8097    121.3582    169.8539   5.1091585043e+01   2.2741991825e+01     0.260319     0.214791  76.91  0.001075446    1.639    0.390
       150  -9.4115     19.9657    168.1673   8.0733619481e+01   3.6287964118e+01     0.446218    0.1542999  73.23  0.001407247    4.117    0.757
       151  -9.8249    199.8825    167.3430   3.3780498348e+01   1.1236630103e+01    0.3401185    0.2024256 -10.72   0.00110263    2.047    0.511
       152  -9.1756     47.6647    176.8036   7.3017164058e+01   3.1394414445e+01    0.3042772    0.1906841 -78.69  0.001140294    1.734    0.423
       153  -8.2721    161.0126    167.7594   4.1378793903e+01   1.6898347193e+01    0.1881953    0.1634041  11.60 0.0005113049    1.078    0.072
       154  -9.1819    159.3682    164.6807   4.1151104784e+01   1.7725476406e+01     0.254955    0.1832239 -68.79 0.0008906982    2.243    0.554
       155 -11.1645    247.5174    161.4550   2.5460248766e+01   6.0262924489e+00    0.7582005    0.2986139 -26.01  0.003697529    2.586    0.613
       156 -11.2050    217.8239    165.5138   3.0474937125e+01   9.1050552374e+00    0.4973001    0.3162642  22.43  0.002255465    1.704    0.413
       157 -10.6872    149.9570    163.7591   4.3056037271e+01   1.9401254288e+01    0.4351681    0.3401041 -15.60  0.001703213    1.307    0.235
       158  -8.8970     98.4515    165.5200   5.6514775332e+01   2.7287542538e+01    0.3977655    0.2201617  64.20  0.001398971    3.294    0.696
       159  -8.9347    139.0396    165.3163   4.5888188502e+01   2.0854706081e+01    0.2778003    0.2162961  79.53    0.0012775    2.049    0.512
       160  -9.3518    158.0424    176.9875   4.3706655902e+01   1.5659275893e+01    0.5524608    0.3474018  19.55  0.002824203    1.638    0.390
       161  -8.1532     74.4057    163.2099   6.3213850143e+01   3.1387210410e+01       0.1916    0.1429495 -85.40 0.0005334103    1.572    0.364
       162  -9.0258      1.5311    162.7956   8.6140674734e+01   3.9019053273e+01    0.2261029    0.1500514  80.68 0.0004748524    1.408    0.290
       163  -9.8079    229.7890    160.7543   2.7800713991e+01   8.2609147625e+00    0.3945662    0.2163862  19.19  0.002169401    2.365    0.577
       164 -10.1381     99.8923    158.9122   5.4970974582e+01   2.8594778127e+01    0.5769137    0.3179057 -60.65  0.002433178    2.044    0.511
       165  -8.9401     99.9692    154.0001   5.4065971590e+01   2.9732216229e+01    0.2078906    0.1948452  35.96 0.0003202459    1.040    0.039
       166 -10.1711     23.0375    160.0022   7.9159797924e+01   3.8118286136e+01    0.4375695    0.2762301   1.08  0.001549604    1.918    0.479
       167  -8.1653    177.3327    160.6736   3.6686933238e+01   1.5642790496e+01     0.121848    0.1076557 -86.36 0.0007051358    1.713    0.416
       168 -10.1971    143.1782    158.6000   4.3626603066e+01   2.1526908627e+01    0.6166357    0.2455599  43.50  0.002323099    2.688    0.628
       169  -8.4804     92.2458    159.8180   5.7338673107e+01   2.9580042049e+01    0.2486706    0.1460592  65.31 0.0008547978    2.689    0.628
       170 -10.1881    219.1757    158.9841   2.9070900440e+01   9.8903393117e+00    0.3367714    0.1662649  52.65  0.001540613    3.723    0.731
       171  -8.4233    156.4855    159.5060   4.0782159979e+01   1.9160881725e+01    0.1369028    0.1259628  -5.00 0.0001723924    1.038    0.037
       172  -9.6373    224.8802    157.4931   2.7931752261e+01   9.3569714459e+00     0.183852      0.14619 -40.29  0.001151716    1.358    0.263
       173  -9.4528    166.0026    157.0240   3.8262899209e+01   1.8082549540e+01    0.3338215    0.2085712  48.57  0.001637997    1.941    0.485
       174  -9.1972    105.2024    157.5304   5.3220081155e+01   2.8061186986e+01    0.2833816    0.2352927  86.09 0.0009337448    1.509    0.338
       175 -10.1237    208.5817    156.6188   3.0311478021e+01   1.1696118884e+01    0.4274589    0.2692228   1.52  0.002299113    2.023    0.506
       176 -11.5667    205.6943    149.9112   2.9501637783e+01   1.3156381933e+01    0.6280724    0.4028225 -39.49   0.00307633    1.414    0.293
       177  -9.9326    206.8195    142.1723   2.7804573406e+01   1.4208345228e+01    0.2547769    0.1722717 -25.32 0.0006962498    1.339    0.253
       178  -8.3979    127.4767    156.9268   4.7143472419e+01   2.4501050561e+01     0.212382    0.1420153 -47.44 0.0004540189    1.538    0.350
       179  -9.3175    214.8115    155.2097   2.9048452285e+01   1.1044785204e+01    0.1693187     0.121875 -11.01 0.0004668141    1.341    0.255
       180 -10.1886    134.6701    153.7194   4.4713610605e+01   2.3959083002e+01    0.5374863    0.3549255  58.30  0.001788081    2.092    0.522
       181  -8.4639    119.4930    154.9968   4.8844498905e+01   2.6263737846e+01    0.1989298    0.1346933 -82.90 0.0008103022    2.526    0.604
       182  -9.1442     81.9881    154.6336   5.9543635667e+01   3.2399924227e+01    0.2622256    0.2009293  67.64 0.0007886676    1.518    0.341
       183  -9.5143     68.6478    154.3316   6.3676557385e+01   3.4407679951e+01    0.3624597    0.2412252  54.35  0.001241903    1.598    0.374
       184  -8.4342     49.7323    155.1089   6.9923132427e+01   3.6647826375e+01     0.274946    0.1226382  57.76 0.0009522534    2.895    0.655
       185  -9.3187    233.9866    153.7958   2.5940005746e+01   8.7110878990e+00    0.2252902    0.1402031 -32.06  0.001429775    1.282    0.220
       186  -8.6886    157.3199    154.3222   3.9576816880e+01   2.0010714630e+01    0.1443738    0.1026199  -6.83  0.000364809    1.672    0.402
       187  -9.7201      4.8454    151.6812   8.4543028684e+01   4.1668423343e+01    0.4385985    0.2027258  49.24  0.001332515    1.983    0.496
       188 -10.9886    223.3224    148.5458   2.6500259801e+01   1.0870892501e+01    0.4024824     0.334802   2.26  0.001896552    1.208    0.172
       189  -9.2465    189.8920    150.7821   3.2390989145e+01   1.5394555650e+01    0.2609039    0.1674458  45.94    0.0009598    1.846    0.458
       190  -8.5423     88.3069    151.0264   5.6988447370e+01   3.2312234644e+01    0.2689331    0.1608116  31.04  0.001163646    1.594    0.373
       191  -9.1184    108.4117    138.5574   4.8596117164e+01   3.1912279078e+01    0.6660596    0.3653716  65.72  0.002048927    4.069    0.754
       192  -9.2543    121.7009    148.6956   4.7019231339e+01   2.7273838517e+01    0.4099714    0.2587804   4.81  0.001454382    2.445    0.591
       193  -9.9498    117.5008    144.0831   4.7206317035e+01   2.9036070736e+01     1.005733    0.3563255  51.80  0.002446214    5.997    0.833
       194  -8.9198     27.9862    148.9435   7.6541083150e+01   4.0579083412e+01    0.4086863    0.1607016  62.60  0.001352072    3.366    0.703
       195  -8.1919     82.7729    149.4192   5.8409709623e+01   3.3569848493e+01    0.2103879    0.1435318  15.78  0.000514952    1.641    0.391
       196  -9.3769     39.5129    147.3330   7.2407900379e+01   3.9851821578e+01    0.5438493    0.2027126  57.13  0.001660409    3.812    0.738
       197  -8.8075     76.7737    147.4192   5.9958223555e+01   3.4983166362e+01    0.2923177    0.1349424  34.18  0.001118682    1.993    0.498
       198  -9.6869     55.9556    145.3311   6.6505745103e+01   3.8435333012e+01    0.5384004    0.2513657  52.33  0.001624037    2.483    0.597
       199  -9.1266     61.5724    145.0000   6.4554806559e+01   3.7779571646e+01    0.4232685    0.1693546  28.39  0.001519581    2.368    0.578
       200 -10.9388    244.7630    143.7631   2.2668778078e+01   8.7354599509e+00    0.4008838    0.1752668 -35.96  0.002212148    1.781    0.439
       201  -9.0290    195.3732    145.4962   3.0371839074e+01   1.5423244103e+01    0.3018165    0.1071065 -43.63  0.001157845    2.684    0.627
       202  -9.7146    148.8473    145.0312   3.9568273960e+01   2.3271843560e+01     0.418991    0.3024175  85.40  0.001719496    2.603    0.616
       203  -9.0938    107.1065    144.9527   5.0280502113e+01   3.0653459550e+01    0.4821152    0.2923052  74.37   0.00162941    3.550    0.718
       204  -8.0242     13.4670    146.4548   8.1310399255e+01   4.2451465693e+01    0.1420794    0.1243591  61.72 2.745848e-05    1.053    0.050
       205 -10.0052     70.0643    142.7202   6.1341052074e+01   3.7175043373e+01    0.5724279    0.4089266 -62.82  0.002716283    1.450    0.310
       206  -9.2041    125.2616    143.0620   4.4925814864e+01   2.7881885114e+01    0.3763056    0.2552649 -83.10  0.001515344    2.631    0.620
       207  -8.5375     88.0244    143.9792   5.5786780599e+01   3.4086165600e+01    0.2508751    0.1771738  63.60 0.0006806884    1.733    0.423
       208  -8.0820    165.3082    143.6948   3.5703064628e+01   2.0665416617e+01    0.1291154    0.1115748 -84.53 0.0003273346    1.608    0.378
       209  -8.8926      3.0282    142.4924   8.4648204471e+01   4.4200134943e+01    0.3094602    0.0960753  57.82  0.001029378    3.435    0.709
       210  -9.1549    192.6473    133.7240   2.8439315016e+01   1.7812986019e+01    0.1948244    0.1575907 -35.01 0.0007527003    1.111    0.100
       211 -11.0077    197.6549    136.2840   2.8119613421e+01   1.6576630625e+01    0.4997691    0.3590196  -4.55  0.002169882    1.624    0.384
       212  -9.9523    202.9561    136.2511   2.7240834993e+01   1.5742696324e+01    0.2436069    0.2067386  38.10 0.0009972757    1.356    0.263
       213  -9.1833     23.6555    138.4664   7.7029422889e+01   4.3780008524e+01    0.4337603    0.1702917  55.81  0.001514445    2.940    0.660
       214 -10.4356    245.7492    136.2551   2.1169866380e+01   9.6321460996e+00    0.3477804    0.2437694 -18.87  0.002389161    1.282    0.220
       215  -9.7807    234.1795    136.9944   2.2795993516e+01   1.1061344821e+01    0.3057037    0.1952739 -18.50  0.001403121    1.545    0.353
       216  -8.8928     46.8520    137.8265   6.8584482912e+01   4.1560136105e+01    0.3371101    0.2326728  65.36  0.001558567    1.589    0.371
       217 -10.3142     41.7351    134.8131   7.0006508572e+01   4.2966553743e+01    0.7574509    0.4043245 -68.75  0.002259096    1.860    0.462
       218 -10.2788     45.2570    130.6108   6.8097041409e+01   4.3694641389e+01    0.7108654    0.3719839  75.35  0.002542282    2.827    0.646
       219  -8.4950    162.0204    137.0100   3.4969717280e+01   2.2496257477e+01    0.2243106    0.1651811  -7.36   0.00112782    1.631    0.387
       220  -8.3123     91.2930    135.6533   5.3135503476e+01   3.5594442173e+01    0.2137654    0.1428711  24.59 0.0008041608    1.579    0.367
       221  -9.5939     22.0273    131.6657   7.6933261950e+01   4.5767231971e+01    0.4406551    0.1711726 -45.59  0.001555788    2.970    0.663
       222  -9.1926     24.9182    127.0007   7.5319239213e+01   4.6794231619e+01     0.286053    0.2368943  74.84 0.0007990748    1.194    0.162
       223 -10.0280     17.8320    134.2374   7.8747287356e+01   4.5406587132e+01    0.2311242    0.2210333 -64.33 0.0002419308    1.093    0.085
       224  -9.6001     13.7215    130.0841   7.9902771704e+01   4.6843663534e+01     0.530838    0.1927646  55.08  0.001829682    3.107    0.678
       225  -9.7465    209.5863    131.7700   2.5289051995e+01   1.5417831518e+01    0.2709897    0.2166231 -26.60  0.001008657    1.065    0.061
       226  -9.5919    110.3281    131.6430   4.6556305412e+01   3.3169257458e+01    0.6000124    0.3673538  41.61  0.002200605    1.602    0.376
       227 -10.5634    118.8282    118.0866   4.1011007496e+01   3.4619632990e+01     1.029173    0.4031118 -37.27  0.003204078    3.380    0.704
       228 -11.2428    107.3877    113.4951   4.3153842632e+01   3.7926858213e+01     1.018519    0.6966806 -31.83  0.004465944    1.708    0.415
       229 -11.0063    108.4753    122.8414   4.5091508125e+01   3.5555889711e+01     1.235337     0.562965  39.58  0.004605051    2.145    0.534
       230 -10.1455    117.4555    125.1886   4.3080421462e+01   3.3299998126e+01    0.4832766    0.4033795  14.27  0.001345203    1.319    0.242
       231  -9.5075     83.6165    131.9209   5.4836995050e+01   3.7813279182e+01    0.4236024     0.260264  63.05  0.001508029    2.240    0.554
       232  -9.3877    131.9732    131.1324   4.0601530916e+01   2.9225298130e+01    0.4043196    0.2596651 -66.43  0.001549549    2.196    0.545
       233  -9.4797    133.9533    124.6212   3.8607750094e+01   3.0227677688e+01    0.4289723    0.2681353  11.72  0.001629127    2.736    0.634
       234  -9.0190    160.3350    130.8144   3.3968298602e+01   2.3977760857e+01    0.2484645    0.1711044 -32.33 0.0004531849    1.436    0.304
       235  -7.8757    143.2868    131.6470   3.7956366492e+01   2.6983951712e+01    0.1438204    0.1172219 -83.82 0.0007022927    1.667    0.400
       236  -8.8407    152.9506    128.8130   3.5113164115e+01   2.5735778230e+01      0.37952    0.1972743 -59.47  0.001398049    2.969    0.663
       237  -9.5586     99.3577    128.1750   4.9042313695e+01   3.5994406045e+01    0.4865357    0.3235379  87.71  0.001874887    2.540    0.606
       238 -10.3666    246.4873    128.1621   1.9579467604e+01   1.0637106901e+01    0.3457527    0.1648773 -53.08  0.001630307    3.225    0.690
       239  -8.5347     73.2545    129.1209   5.7761495724e+01   4.0203163597e+01     0.309824    0.1810205  56.44  0.001205469    2.088    0.521
       240 -11.2591    228.3074    125.1776   2.1300272144e+01   1.3587961641e+01    0.6309057    0.4032783  75.79  0.002803823    3.483    0.713
       241  -8.5479    192.4835    127.4884   2.7154282221e+01   1.8881916280e+01     0.131897    0.1146638 -24.60 0.0008101941    1.027    0.027
       242  -8.4806    167.0107    126.2135   3.1569264413e+01   2.3613474518e+01    0.1785166    0.1128822  43.09 0.0004079026    1.678    0.404
       243  -9.6839     60.3162    124.7148   6.1520558819e+01   4.3302705415e+01    0.6425619    0.3236905  62.97  0.002102542    3.232    0.691
       244  -8.6320    197.5384    124.8319   2.5752133105e+01   1.8470102398e+01    0.2399868    0.1720162 -55.86  0.001230447    1.630    0.386
       245  -9.8709     44.4757    123.1881   6.7222448699e+01   4.5801083410e+01    0.6533087    0.3160666  63.01  0.002215674    3.051    0.672
       246  -8.8480    179.7386    122.9897   2.8416736282e+01   2.1875259535e+01    0.3015745    0.1823098 -39.05  0.001504699    1.506    0.336
       247  -9.1709    181.9559    118.7917   2.7083477219e+01   2.2205684057e+01    0.3227168     0.202191 -16.91  0.001494799    2.120    0.528
       248  -8.7363    149.1312    123.8335   3.4824477056e+01   2.7445159445e+01    0.2129179    0.2013717 -89.37 0.0007230677    1.201    0.167
       249  -9.8251     28.4106    122.6346   7.3418594039e+01   4.7674231030e+01     0.531144    0.3070979  57.72  0.002288393    1.886    0.470
       250  -9.5841     28.5064    117.5311   7.2693606901e+01   4.9068680985e+01    0.6542916    0.2066949 -43.70   0.00192125    4.067    0.754
       251  -8.4941     83.9591    122.0278   5.2623482874e+01   4.0240720482e+01    0.2487018    0.1890268 -17.49 0.0007147968    1.658    0.397
       252  -8.0279    158.6643    121.3567   3.2174810406e+01   2.6093887064e+01    0.1454601    0.1132236 -79.33 0.0007041789    1.803    0.445
       253  -9.1343    142.0930    119.3905   3.5397706067e+01   2.9713102559e+01    0.3747857    0.2635637 -76.52   0.00161515    2.205    0.546
       254 -10.8870     15.8669    112.7375   7.7305376208e+01   5.1448804874e+01    0.8485407    0.4883107 -79.25  0.003617754    1.684    0.406
       255 -11.2285     17.2694    104.1538   7.5646097147e+01   5.3709552217e+01    0.6503409    0.3442436 -52.30  0.001763175    1.810    0.448
       256 -10.6998     23.9212    102.4848   7.2446716993e+01   5.3627204557e+01     1.201077    0.4156634  55.50  0.003305743    4.858    0.794
       257  -8.8889    131.0510    118.7204   3.7933840791e+01   3.2048053175e+01    0.3009396    0.1912378 -72.79  0.001086311    2.665    0.625
       258 -10.5376    248.4808    116.8536   1.7224400499e+01   1.1899950582e+01    0.2923073     0.229922 -38.82  0.002152865    1.131    0.116
       259  -9.4604      2.3401    114.9759   8.3110332962e+01   5.1663379407e+01    0.8440077    0.2833373  87.18  0.002828092    3.322    0.699
       260  -9.2647    184.1933    109.5854   2.4613253805e+01   2.3370980214e+01     0.289764    0.1798906  45.31  0.001330701    1.785    0.440
       261  -9.2800     79.0511    112.2726   5.2084960632e+01   4.3548429058e+01    0.4513937    0.2922206 -88.57  0.001681964    2.426    0.588
       262  -9.2908     66.4556    110.3369   5.6253935265e+01   4.6155890690e+01    0.4802051    0.2307912  58.33  0.001486562    3.457    0.711
       263  -9.9620     62.7534    105.9225   5.6671832902e+01   4.7890472350e+01    0.6244786    0.2654145  24.97  0.001957359    2.735    0.634
       264 -11.1040    133.3069    101.6118   3.3042564456e+01   3.5139263887e+01    0.8624867    0.4909263  26.92  0.002659587    2.703    0.630
       265  -9.4311    133.7480    108.5902   3.4743196477e+01   3.3618863362e+01    0.5522646    0.2032761 -46.33  0.001885335    2.712    0.631
       266 -10.3547     22.2732    110.0502   7.4260566427e+01   5.1687415925e+01    0.5142494    0.3541307  66.74   0.00246329    1.563    0.360
       267  -9.5720     92.8386    112.6320   4.7479365191e+01   4.0947979401e+01    0.4421787     0.302633  89.81  0.001272497    2.282    0.562
       268  -8.6253    139.8539    104.5631   3.2245273311e+01   3.3159307515e+01    0.2790802    0.1932844 -78.54 0.0009038969    2.236    0.553
       269 -10.0900     46.0948    102.4770   6.2727841391e+01   5.1203894976e+01     0.829062    0.3573761  57.41  0.002418543    4.093    0.756
       270  -8.8113    150.0499    103.5158   2.9687287708e+01   3.1228744916e+01    0.3118637     0.163062 -55.75 0.0008067859    2.376    0.579
       271 -10.8985     23.4447     92.5460   7.1036330255e+01   5.6384459771e+01    0.5775618    0.4105442 -81.78   0.00170919    1.451    0.311
       272  -9.1903     35.3083    101.6612   6.7245336660e+01   5.2724053257e+01    0.3276607    0.2465195  80.33 0.0009124467    1.489    0.328
       273  -9.9995     29.2957     99.8880   6.9606745621e+01   5.3836360687e+01    0.5903186     0.270087  48.96  0.002203905    2.506    0.601
       274 -10.0753    185.1344    113.9262   2.5437636853e+01   2.2460976295e+01    0.3456858    0.2990774  86.40  0.001595001    1.456    0.313
       275  -9.9056    108.6944     98.3049   3.8775717003e+01   4.1087982796e+01    0.5783737    0.3930845  79.41  0.001987473    2.341    0.573
       276  -8.3166     82.7047    100.1401   4.7740886820e+01   4.5890236934e+01    0.2651886    0.1683616  75.23 0.0009457009    2.729    0.634
       277  -9.8666     64.3173     96.3641   5.3718027220e+01   5.0098809579e+01     0.539825    0.3037021  67.61  0.001778175    3.283    0.695
       278  -8.0821    129.6266     96.7210   3.2642276914e+01   3.6923193797e+01    0.1537482    0.1195919  12.37 0.0004584779    1.697    0.411
       279  -9.3836    118.7030     93.2711   3.4531340511e+01   4.0015578712e+01    0.4910173    0.1286566  52.19  0.001210904    5.041    0.802
       280  -8.7579    108.0100     91.7808   3.7138429160e+01   4.2658618536e+01    0.2979949    0.2161465  27.27  0.001315974    1.622    0.384
       281  -9.2618     44.6305     91.8204   6.1006047887e+01   5.4230229436e+01    0.3689159    0.2102872   4.94  0.001398289    2.462    0.594
       282  -9.4497      5.0750     91.7289   7.9737827610e+01   5.7877292035e+01    0.3935841    0.1482562  53.41  0.001368876    3.260    0.693
       283 -11.2182    249.6011    103.7276   1.4605419065e+01   1.3500325447e+01    0.8077835    0.2161685 -31.09  0.003043441    3.898    0.743
       284  -8.8196    124.4480     90.7594   3.2301851866e+01   3.9266434604e+01    0.2975533    0.2067299 -66.36 0.0008551001    1.798    0.444
       285  -8.5082     95.0334     96.9387   4.2651008879e+01   4.4231206310e+01    0.2513836    0.1925012  81.91 0.0008108793    1.720    0.419
       286  -9.5543     35.0709     89.8500   6.4980696428e+01   5.5934436318e+01    0.4401383    0.2671807  75.48  0.001693013    2.304    0.566
       287  -9.2350     86.6337     86.5428   4.2501253660e+01   4.8331400995e+01    0.3889602    0.2484596  73.38  0.001432353    2.622    0.619
       288  -8.9506     66.1923     86.3756   5.0238332404e+01   5.2272887658e+01      0.46309    0.1577687  28.08  0.001251423    4.196    0.762
       289  -8.9867    104.7293     82.8851   3.5479196517e+01   4.5272951464e+01    0.3830054    0.2488426 -84.85  0.001388361    2.838    0.648
       290  -9.0608     48.2259     83.8648   5.7370735149e+01   5.5796987731e+01    0.3223974    0.2150323  63.22   0.00137805    1.947    0.486
       291  -9.6674     36.5896     81.4112   6.2298221186e+01   5.7981945879e+01    0.6597971    0.3293482 -20.40  0.002120766    3.665    0.727
       292  -8.6891     12.0135     83.0437   7.5117599064e+01   5.9833420248e+01    0.2961414    0.1756957 -49.72  0.001124062    1.580    0.367
       293  -8.8177      7.8184     84.1588   7.7430515863e+01   5.9784546382e+01    0.2783318    0.1662021 -70.33 0.0008993259    1.541    0.351
       294  -8.7652      8.3483     80.6930   7.6661198377e+01   6.0687624961e+01    0.2516619    0.1492935  39.02 0.0009515057    1.780    0.438
       295  -8.9469    185.3401     82.8029   1.8103052668e+01   2.7539273670e+01    0.2559425    0.1749521  45.36    0.0010656    1.697    0.411
       296  -8.8917    116.9265     83.0169   3.2034506356e+01   4.2512122778e+01    0.2211078    0.2200151  19.05 0.0003342738    1.053    0.050
       297  -9.5457    175.9550     78.1717   1.8388463295e+01   3.0206416697e+01    0.4687824    0.2739259 -80.11  0.001879727    3.032    0.670
       298  -8.2165     74.7060     80.4025   4.5039781065e+01   5.2121350176e+01    0.1622903     0.122537  84.17 0.0006994208    1.813    0.448
       299  -8.2762    126.6460     83.6830   2.9712008330e+01   4.0176484458e+01    0.1549066    0.1208447  12.36 0.0007046256    1.743    0.426
       300  -8.9171     49.5128     76.7942   5.4791215889e+01   5.7386968205e+01    0.3030457    0.2034748   6.65 0.0008778079    1.884    0.469
       301  -9.3841     24.7573     80.5062   6.8068860050e+01   5.9499011383e+01    0.4532832    0.2425718  67.47  0.001415203    2.794    0.642
       302  -9.8938     10.4793     74.2020   7.4474076267e+01   6.2292722748e+01    0.3518098     0.207357  15.75  0.001327968    1.756    0.430
       303  -9.2163     82.5002     72.5316   3.9541758526e+01   5.2307044262e+01    0.3596136    0.2640764 -84.75  0.001123114    1.953    0.488
       304  -8.1541    196.3856     71.8085   1.3933875191e+01   2.6996917867e+01    0.1811631    0.1145356 -26.07 0.0009383232    1.695    0.410
       305  -8.5128     95.4995     71.5430   3.4737734672e+01   4.9682676952e+01     0.279762    0.1426075 -55.24  0.001023779    2.398    0.583
       306  -9.6964     28.0224     70.9869   6.4116258867e+01   6.1655616214e+01    0.4627745    0.2212062 -17.43  0.001499591    3.710    0.730
       307  -9.2334     51.6824     69.6420   5.1553543923e+01   5.8785589751e+01    0.4259501    0.2539279 -77.70   0.00154649    2.757    0.637
       308  -8.4654     16.4987     69.9834   7.0290385018e+01   6.2980795051e+01     0.194632    0.1138184  72.63 0.0006290117    2.333    0.571
       309  -8.3800    129.3408     69.2958   2.4751992402e+01   4.2229700873e+01    0.1491213    0.1172731  21.83 0.0007031496    1.659    0.397
       310  -9.6224      2.0967     68.7116   7.8314426238e+01   6.4178760627e+01    0.3398839    0.1831416 -17.51  0.001541209    2.018    0.504
       311  -8.4128    242.5322     68.4996   8.3527153293e+00   1.9165884406e+01    0.1157874   0.08806615 -44.12 0.0008097859    1.011    0.011
       312  -7.9518    182.5480     68.4980   1.4964641500e+01   3.0311863364e+01    0.1333999    0.1186794 -52.34 6.016021e-05    1.017    0.017
       313  -8.9773     84.3458     63.6682   3.5797617568e+01   5.3762175213e+01    0.3140931    0.1786809  28.27  0.001166834    2.467    0.595
       314  -8.4214     37.6447     64.3425   5.6989751059e+01   6.2155698426e+01    0.2210495    0.1686925  64.40 0.0008932104    1.638    0.390
       315  -8.1492    110.2968     63.6341   2.7682774769e+01   4.7780930441e+01     0.158416    0.1162575 -75.64 0.0007031379    1.722    0.419
       316  -9.3537     18.2661     61.5023   6.7275986821e+01   6.5014889595e+01    0.2778467    0.2114122 -31.07 0.0006805232    1.292    0.226
       317  -7.7038    170.2710     60.6647   1.4686437899e+01   3.4139950923e+01    0.1427346   0.09352561 -61.46 0.0003070868    1.596    0.374
       318  -9.2157     73.5026     59.7198   3.8433210623e+01   5.6899300257e+01    0.3095526      0.23426 -79.19 0.0009661262    1.817    0.450
       319  -8.2497     51.9651     61.0000   4.8466224270e+01   6.0747845799e+01    0.2469941   0.08266369  35.53 0.0007980359    2.912    0.657
       320  -8.3859    100.6313     60.3124   2.9284010122e+01   5.0683709749e+01    0.1594989    0.1183268 -86.78 0.0006893582    1.770    0.435
       321  -8.4207    111.0417     58.4556   2.5722023627e+01   4.8527876941e+01    0.2104031    0.1203067  34.58 0.0005227471    2.358    0.576
       322  -9.3698     39.0563     57.5290   5.3952453324e+01   6.3582172370e+01     0.263887    0.1823876 -31.96  0.001255632    1.564    0.360
       323  -9.7322      7.3520     57.3193   7.3073040565e+01   6.6863413415e+01    0.2780021     0.169809  55.03  0.001113675    2.013    0.503
       324  -9.9356      2.2565     56.2456   7.6133188916e+01   6.7395927860e+01    0.3629802    0.2285708 -72.89  0.001509257    1.526    0.345
       325  -8.7422     63.0050     54.9800   4.1026669484e+01   6.0015939165e+01    0.2279322    0.1847383  84.93 0.0005718804    1.632    0.387
       326  -8.1850    100.5460     54.4978   2.7223699449e+01   5.1750908981e+01    0.1495962    0.1422929  49.28 7.829045e-05    1.060    0.056
       327  -8.8095     25.7569     54.4448   6.0671122337e+01   6.6018082089e+01    0.2005954    0.1333422   4.68 0.0007025374    1.646    0.393
       328  -8.3530     54.2713     53.6329   4.4561039160e+01   6.1959402146e+01    0.1455827    0.1180233  85.29 0.0006999348    1.666    0.400
       329  -8.7411     92.8422     50.7592   2.8149390944e+01   5.4246213757e+01    0.2828642    0.1862087 -64.83 0.0007774237    2.030    0.507
       330  -8.4742     31.0303     51.5064   5.6451641879e+01   6.6078720427e+01    0.1980025    0.1079083  49.17 0.0008064099    2.332    0.571
       331  -9.0273     75.6849     50.0139   3.3796409630e+01   5.8330090056e+01    0.3249972    0.1809077  26.55   0.00117538    2.790    0.642
       332 -11.1852     45.5389     48.8897   4.7127314008e+01   6.4502013306e+01    0.3104173    0.2721907 -29.17 0.0002903673    1.153    0.132
       333  -8.3576     81.8556     46.8267   3.0237917708e+01   5.7511729775e+01    0.1992676    0.1730798  85.15 0.0003994842    1.291    0.226
       334  -9.0875     22.4313     46.6357   6.0158259344e+01   6.8232765601e+01    0.2934275    0.1677657  12.04  0.001331597    1.886    0.470
       335  -8.7008      1.5799     45.9473   7.4472889683e+01   7.0004002265e+01    0.1853325    0.1501161 -58.58 0.0003995046    1.148    0.129
       336  -8.4961    150.0000     44.4131   1.3145653507e+01   4.1194541078e+01    0.2968462   0.07684527 -32.09 0.0009260795    3.865    0.741
       337  -7.7242    130.6299     45.6907   1.6932679138e+01   4.5758575448e+01    0.1490696    0.1081657  32.93 0.0007034891    1.766    0.434
       338  -8.4828     64.8273     46.3864   3.6709336483e+01   6.1349129728e+01    0.2250647     0.130452  34.82 0.0009520465    1.815    0.449
       339  -8.5792     58.3767     42.5831   3.7953507157e+01   6.3391399317e+01    0.2727285    0.1290396 -56.73 0.0009439426    3.270    0.694
       340  -9.9153      4.8330     40.9416   7.0823170226e+01   7.1053493851e+01    0.4608559    0.1993411 -85.23  0.001686298    3.550    0.718
       341  -8.8237    113.9578     41.0788   1.8848866947e+01   5.0606729659e+01    0.2151433    0.1992301  56.89 0.0003477871    1.098    0.089
       342  -8.2611     69.3872     41.2348   3.2565134782e+01   6.1310526820e+01     0.198125    0.1374855 -51.56 0.0006293917    1.645    0.392
       343  -8.8939    123.5178     40.0188   1.6423861044e+01   4.8354780949e+01    0.2172605    0.1805512  69.06 0.0004342429    1.132    0.116
       344  -8.6187     84.1312     39.6125   2.6470036867e+01   5.8191376168e+01    0.2937169    0.1629268  41.82  0.001239299    1.861    0.463
       345  -8.7502    215.9680     38.4656   4.1884584638e+00   2.7573406647e+01     0.159343    0.1116063  77.63  0.001015061    1.552    0.356
       346  -8.4731    106.5109     36.5138   1.8890573616e+01   5.3142527800e+01    0.1456446    0.1344453  68.03 0.0001011158    1.029    0.028
       347  -8.6861     26.1918     36.2317   5.3490807063e+01   7.0107872824e+01    0.1831899    0.1658888  66.38  0.001065925    1.380    0.276
       348  -8.2881     38.3145     35.2704   4.5215148347e+01   6.8501368716e+01    0.1402515    0.1043866  -0.62   0.00022287    1.554    0.356
       349  -8.4805    119.5787     33.7178   1.4988880599e+01   5.0216777282e+01    0.1982861     0.125898 -46.41  0.000940184    1.607    0.378
       350  -9.8105      6.5392     33.5549   6.7207364931e+01   7.2680731619e+01    0.2670802    0.1915702 -37.02 0.0008710626    1.261    0.207
       351  -9.3595    221.8912     32.6925   2.4666693268e+00   2.7124617942e+01    0.1634853    0.1449075  61.54  0.001193037    1.448    0.309
       352  -8.0722     60.5328     32.5100   3.2268200609e+01   6.4727260180e+01    0.1423743     0.133219  47.59  6.65391e-05    1.067    0.063
       353  -8.6585     12.8403     31.1167   6.1207963222e+01   7.2718788693e+01    0.1933513    0.1822268  51.82 0.0007395982    1.277    0.217
       354  -9.1110    148.2961     28.5637   8.5547102941e+00   4.3666667271e+01    0.2250483    0.1772239  10.47  0.001212226    1.786    0.440
       355  -8.8657      1.3595     27.8291   6.9616645119e+01   7.4310699468e+01    0.1824187    0.1001376 -51.78 0.0002456515    1.596    0.373
       356  -9.8649     44.4431     25.1834   3.6449480377e+01   6.9234977936e+01    0.2439791    0.2065448  34.39 0.0003030702    1.083    0.077
       357  -8.5743    110.4930     24.1166   1.3230475857e+01   5.3755820916e+01    0.2161261     0.172352  69.42 0.0005010029    1.138    0.121
       358  -9.0690     66.9998     23.5072   2.5103775969e+01   6.4651842603e+01     0.211468    0.1297063  55.21 0.0003504514    1.496    0.332
       359  -8.2807     58.5562     21.9979   2.7754787586e+01   6.6785954923e+01    0.1925155     0.139207 -28.48 0.0003125839    1.521    0.342
       360  -9.9475     13.1073     21.0564   5.6326935600e+01   7.4821941834e+01     0.285843    0.2269415   5.14  0.000651297    1.160    0.138
       361  -8.6962     84.8866     21.1429   1.8074928381e+01   6.0632249696e+01    0.2126397     0.180476 -83.04 0.0004871036    1.271    0.213
       362  -8.0757     63.4814     20.9657   2.5160266764e+01   6.5816408480e+01    0.1914203    0.1133223 -56.90 0.0008092269    2.467    0.595
       363  -8.0594     48.3366     21.6843   3.2418758820e+01   6.9020024675e+01    0.1344393    0.1107145  87.03 0.0004287846    1.696    0.410
       364  -8.9300     41.0161     21.0604   3.6067498673e+01   7.0568418059e+01    0.2039045    0.1803804  19.57 0.0002977938    1.037    0.036
       365  -9.2599    189.0311     20.2290   2.0017299558e+00   3.5169473298e+01    0.1767633    0.1626853  76.30  0.001217884    1.272    0.214
       366  -9.4552     29.6958     18.8221   4.1965700031e+01   7.2960612656e+01    0.2724364    0.1593722  54.99  0.001210733    2.459    0.593
       367  -8.4629      1.5044     19.5058   6.6312912341e+01   7.6146813876e+01    0.1286416    0.1106763 -21.98 0.0008106363    1.009    0.009
       368  -8.6573    107.4370     17.0210   1.1043109392e+01   5.5354044267e+01    0.1929955    0.1381966 -29.33 0.0004070585    1.542    0.351
       369  -8.6323     50.5798     15.1582   2.7525036257e+01   6.9488435685e+01     0.228447    0.1633236  34.19 0.0005918838    1.344    0.256
       370  -9.5932    154.1428    249.1239   5.5272227070e+01   4.3845713712e+00    0.1848976    0.1286899   2.77   0.00101791    1.213    0.176
       371  -8.8069     27.4949     13.4505   4.0151424252e+01   7.4224108406e+01    0.1343633    0.1147999  13.32 3.678154e-05    1.045    0.043
       372  -8.3785     80.4620     12.4979   1.5206485707e+01   6.2736754287e+01    0.1390725     0.124655  72.91 5.555686e-05    1.060    0.057
       373  -8.8705    148.0190    249.0140   5.6490965596e+01   5.0662140914e+00     0.172687    0.1266859  42.12  0.001137887    1.713    0.416
       374  -8.4488     31.5613     11.4829   3.5989700304e+01   7.3820738295e+01    0.1319771    0.1169977  21.45 0.0001331726    1.031    0.030
       375 -11.7396     89.9225    230.4252   6.7213622950e+01   1.4816334801e+01      1.55825    0.7161751 -74.04  0.006800723    3.585    0.721
       376 -10.4487     78.2322    211.2201   6.8120857893e+01   1.9970482647e+01    0.7651739     0.342166  27.45  0.002288821    1.888    0.470
       377 -10.7563    106.3984    223.9292   6.2612081810e+01   1.4033343779e+01    0.6519502    0.4774731   4.22  0.003225345    1.371    0.270
       378 -10.1017    107.3084    246.4235   6.4851137075e+01   1.0020949737e+01    0.4200707    0.2861036 -76.80  0.002513086    2.323    0.569
       379 -10.4588    107.5813    237.8634   6.3896260834e+01   1.1424502614e+01    0.3763509    0.3200476 -69.26  0.002207818    1.586    0.369
