#   1 NUMBER                 Running object number                                     
#   2 MAG_AUTO               Kron-like elliptical aperture magnitude                    [mag]
#   3 X_IMAGE                Object position along x                                    [pixel]
#   4 Y_IMAGE                Object position along y                                    [pixel]
#   5 X_WORLD                Barycenter position along world x axis                     [deg]
#   6 Y_WORLD                Barycenter position along world y axis                     [deg]
#   7 A_WORLD                Profile RMS along major axis (world units)                 [deg]
#   8 B_WORLD                Profile RMS along minor axis (world units)                 [deg]
#   9 THETA_WORLD            Position angle (CCW/world-x)                               [deg]
#  10 FWHM_WORLD             FWHM assuming a gaussian core                              [deg]
#  11 ELONGATION             A_IMAGE/B_IMAGE                                           
#  12 ELLIPTICITY            1 - B_IMAGE/A_IMAGE                                       
         1 -12.9292    194.6638     31.4744   6.6732157829e+01   3.2585105738e+01     0.994934    0.9016026  63.65    0.0061482    1.173    0.147
         2 -13.7110    208.5061     14.3791   6.1000507243e+01   3.1249522875e+01     1.395246    0.9504087  41.91  0.007690215    1.936    0.483
         3 -10.8781     14.1836     12.2849   1.0974450149e+02   6.9934967581e+01    0.2051511    0.1171953  31.51   0.00124257    2.088    0.521
         4 -11.7193      2.1578      6.3234   1.1310427058e+02   7.1680192485e+01    0.5463142    0.1668592 -40.32  0.002927321    2.552    0.608
         5 -13.9718     43.0465    219.7070   1.4189953066e+02   2.3863494746e+01     0.999222     0.675034  61.52  0.004453136    1.252    0.202
         6 -11.4859    140.0067    249.4407   1.2611918640e+02   3.0752645303e+00    0.3743231    0.2235791  42.74  0.002021553    1.383    0.277
         7 -11.9419    127.5535    245.4560   1.2806326723e+02   5.9082481781e+00    0.3748707    0.3005611 -79.02  0.002322197    1.427    0.299
         8 -11.8226    100.0236    249.0333   1.3385540159e+02   9.8019478855e+00    0.4278825    0.2270618  48.04  0.002284717    1.535    0.349
         9 -11.3578     65.4103    248.9525   1.4029523342e+02   1.5015125983e+01    0.3023766    0.1990311  59.01  0.001924718    1.200    0.167
        10 -11.1742     41.2039    206.5138   1.4105764435e+02   2.6916739035e+01    0.3114077    0.2296876 -67.74  0.000379634    1.368    0.269
        11 -13.0284     31.9846    246.8451   1.4598729201e+02   1.9764818198e+01    0.8262315    0.7574969  32.59  0.006383216    1.739    0.425
        12 -14.9467      9.7481    244.6613   1.4952211915e+02   2.2677950883e+01       7.2568     1.894715  32.19   0.02697672    6.531    0.847
        13 -14.4441      7.7616    211.0426   1.4781712565e+02   2.9565433407e+01     3.546533    0.8137565 -76.93   0.01400412    3.807    0.737
        14 -14.7099     52.5752    209.9217   1.3909197294e+02   2.4745481424e+01     5.645261    0.9999847  49.70   0.01668078    5.687    0.824
        15 -11.5655     55.1241    230.2070   1.4053455016e+02   2.0126215397e+01    0.3427021    0.2040136  66.72  0.001988775    1.473    0.321
        16 -12.4310     36.2033    228.4329   1.4390649206e+02   2.2892584064e+01     0.320087    0.2838253 -78.73 0.0007453759    1.402    0.286
        17 -11.2611     62.7770    195.2644   1.3531426806e+02   2.6640283441e+01    0.3429769    0.2383051 -49.37  0.001332595    1.735    0.424
        18  -9.8159    192.2694    193.4181   1.0594011826e+02   3.6202212296e+00    0.4385134    0.2342288 -66.62  0.001250218    5.558    0.820
        19 -11.4759     68.5644    187.6223   1.3305551137e+02   2.7582582348e+01    0.2982717    0.2488532 -50.05 0.0008296193    1.419    0.295
        20 -10.6808     78.3237    175.5152   1.2904543441e+02   2.8986596641e+01    0.2476208    0.2265998 -74.49 0.0004030369    1.115    0.103
        21 -12.8224     65.2608    173.2492   1.3185206000e+02   3.1417814815e+01    0.5216684    0.2775674 -45.08  0.001583512    2.327    0.570
        22 -11.5881     85.7642    166.6981   1.2580207347e+02   2.9932032944e+01    0.6424415    0.5561604  68.83  0.003627739    1.117    0.105
        23  -9.7140     98.4771    150.7429   1.1960607370e+02   3.1648566705e+01    0.2809595    0.2671647  83.98 0.0007246407    1.029    0.029
        24 -11.7700     86.9855    149.9751   1.2249121282e+02   3.3764598653e+01    0.2988186    0.2558127 -44.27 0.0004758844    1.240    0.194
        25 -12.2444     67.5831    143.9909   1.2657148479e+02   3.8121234505e+01     0.741753    0.5274917  76.39  0.002644739    1.662    0.398
        26 -11.6502     58.1827    133.3643   1.2722374223e+02   4.1912135744e+01    0.7157404    0.3010976 -73.10  0.002477315    3.418    0.707
        27  -8.7713    134.4426    148.5153   1.0982858505e+02   2.5252460039e+01    0.1555639    0.1510336  85.49 0.0001115307    1.008    0.008
        28  -8.6928    101.3992    146.8364   1.1804354202e+02   3.2071495015e+01    0.2135074    0.1325808 -44.06 0.0004107965    1.695    0.410
        29  -9.4149     39.6375    146.7053   1.3439746384e+02   4.0877544656e+01    0.1301463   0.09052386 -38.59 0.0007030837    1.708    0.415
        30 -11.7950     50.6140    235.3595   1.4182780949e+02   1.9681350371e+01    0.4017126    0.2092624 -71.35  0.001370899    1.833    0.454
        31  -8.6667    192.3488    144.2076   9.5331637653e+01   1.3434843041e+01    0.2125745    0.1410803 -50.95 0.0004419012    1.577    0.366
        32  -9.4865    109.8013    136.4739   1.1355857240e+02   3.2997034337e+01    0.3383694    0.2183788 -27.97  0.001376265    2.161    0.537
        33 -10.2594     97.1809    133.4865   1.1634210405e+02   3.6007011331e+01    0.2782394    0.2242619 -30.44 0.0005315104    1.408    0.290
        34 -10.4765     50.1651    129.9884   1.2886050036e+02   4.3681109733e+01    0.2137847    0.1974472  44.06 0.0006684734    1.227    0.185
        35  -9.0870    106.9806    123.2977   1.1126216911e+02   3.6614660858e+01    0.2021867    0.1879424  40.21 0.0002308677    1.109    0.098
        36 -10.5003    168.0135    113.2067   9.3076447079e+01   2.5509124663e+01    0.3626269    0.3041108 -86.22 0.0008761066    1.376    0.273
        37  -8.6165    203.3132    111.3678   8.5267796070e+01   1.7487637393e+01    0.1565271     0.122782   5.72 0.0007037382    1.770    0.435
        38 -11.1026    246.0771    248.8474   1.0561245687e+02  -1.4178950282e+01    0.5251699    0.1617001  31.55  0.002133429    3.252    0.692
        39 -15.2372      9.0357    151.7682   1.4257111410e+02   4.2482839521e+01     5.319361     1.750147 -81.12    0.0207919    3.324    0.699
        40 -11.7268     81.9791    248.5432   1.3721343667e+02   1.2685370162e+01    0.4037409    0.2366221  62.77  0.002299224    1.507    0.336
