#   1 NUMBER                 Running object number                                     
#   2 MAG_AUTO               Kron-like elliptical aperture magnitude                    [mag]
#   3 X_IMAGE                Object position along x                                    [pixel]
#   4 Y_IMAGE                Object position along y                                    [pixel]
#   5 X_WORLD                Barycenter position along world x axis                     [deg]
#   6 Y_WORLD                Barycenter position along world y axis                     [deg]
#   7 A_WORLD                Profile RMS along major axis (world units)                 [deg]
#   8 B_WORLD                Profile RMS along minor axis (world units)                 [deg]
#   9 THETA_WORLD            Position angle (CCW/world-x)                               [deg]
#  10 FWHM_WORLD             FWHM assuming a gaussian core                              [deg]
#  11 ELONGATION             A_IMAGE/B_IMAGE                                           
#  12 ELLIPTICITY            1 - B_IMAGE/A_IMAGE                                       
         1 -12.6242     42.1649     20.8488   9.9127139426e+01   6.5750089027e+01    0.4043173    0.2790413  30.85 0.0008275794    1.463    0.316
         2 -12.1042    216.4680     14.6792   5.9623453896e+01   3.0005702735e+01    0.4145358    0.3537085  55.95  0.001761224    1.410    0.291
         3 -12.9458    189.4108      8.7884   6.1153414889e+01   3.6898534008e+01    0.4832923    0.2600338 -74.76  0.002332762    2.170    0.539
         4 -11.4768     44.0366      8.7693   9.3278268158e+01   6.6913721827e+01    0.2416772    0.1931206  13.38  0.001232682    1.128    0.113
         5 -11.2075     57.5900      8.1445   8.8058942893e+01   6.4979926893e+01     0.306406     0.205726  18.27  0.002006023    1.286    0.222
         6  -9.7733     22.5431      8.8084   1.0225387599e+02   6.9527862860e+01    0.1250859   0.08956622 -31.00 0.0002955087    1.476    0.322
         7 -11.6501    163.6787      1.8238   6.2540488230e+01   4.3590583440e+01    0.4080548    0.1516073  71.82  0.001737378    2.427    0.588
         8 -10.0670    104.4746    225.0443   1.2884669293e+02   1.3373930778e+01    0.1941798    0.1276423 -64.10   0.00103274    1.594    0.373
         9 -10.8729     95.6713    225.0069   1.3065843612e+02   1.4805083662e+01    0.3475525    0.1792961  59.07  0.001605761    2.004    0.501
        10 -10.9441    149.6786    223.5394   1.1917511940e+02   5.8497787041e+00    0.3030359    0.1980783  81.54  0.001333653    2.538    0.606
        11 -10.1419    184.0103    223.0000   1.1199488963e+02  -1.9780652789e-01    0.2333204   0.07104555  40.77 0.0008113988    3.005    0.667
        12 -10.4359    226.4726    221.4828   1.0340933181e+02  -7.1393766725e+00    0.1275591    0.1131481   5.77 0.0002798279    1.064    0.060
        13 -10.3515    211.5008    218.4780   1.0572165397e+02  -4.1911841680e+00    0.2248296    0.1248639 -51.54  0.001032795    2.338    0.572
        14 -11.1652    222.0150    213.9753   1.0286856544e+02  -5.2090168854e+00    0.2206343    0.1505677   3.22  0.001143282    1.715    0.417
        15 -10.7345    115.8630    209.5533   1.2425121144e+02   1.4734695389e+01    0.2828725    0.1816944 -80.28  0.001327086    1.919    0.479
        16 -10.5818     56.4029    205.2137   1.3648906092e+02   2.4902520827e+01    0.1899058    0.1069141 -84.37 0.0009522748    1.752    0.429
        17  -9.8405    185.9722    204.4856   1.0826456336e+02   2.8398866121e+00    0.1963308    0.1192364  61.88 0.0008093156    2.460    0.594
        18 -10.8272     48.8117    201.1443   1.3763718860e+02   2.6802333815e+01    0.3458857    0.1543307 -81.17  0.001521458    2.385    0.581
        19  -9.8141     41.5111    201.5247   1.3919416098e+02   2.7612727316e+01    0.1274464    0.1015591  85.54 0.0008100631    1.006    0.006
        20 -10.6752      5.3223    199.6810   1.4621166965e+02   3.1830747292e+01    0.2596914    0.1339301  55.96 0.0009119814    1.790    0.441
        21 -10.7215    149.1921    198.3767   1.1504247735e+02   1.1041194217e+01    0.3175201    0.1762524 -74.09  0.001096739    3.477    0.712
        22 -10.6753    112.4034    197.6212   1.2317512677e+02   1.7975960023e+01    0.2749766    0.1307008 -72.84 0.0009547106    3.259    0.693
        23  -9.8977    133.4273    196.2209   1.1818722375e+02   1.4480369983e+01    0.2031642    0.1383596 -70.08 0.0009450348    1.699    0.411
        24 -12.2877    159.9494    192.3211   1.1154671991e+02   1.0248945902e+01    0.6634051    0.4758811  89.01  0.002817285    2.073    0.518
        25 -10.0245    193.0060    188.5015   1.0370784115e+02   4.5868289801e+00     0.205229    0.1255364  64.10 0.0008106497    2.590    0.614
        26 -10.3219     34.3193    186.9882   1.3921544679e+02   3.1762137473e+01    0.2136773    0.0843339  87.70 0.0007048293    4.279    0.766
        27 -10.3767    109.1354    185.7135   1.2197958710e+02   2.1280646744e+01    0.2879522    0.1693862 -74.90  0.001185936    2.093    0.522
        28 -10.4354    224.3011    183.6614   9.6515613177e+01  -3.6214920026e-01    0.1334171    0.1117864 -74.92  0.000590076    1.666    0.400
        29 -10.1154     66.3342    194.6522   1.3310520432e+02   2.5964866054e+01    0.1465831   0.08917052  73.07 0.0007048456    1.773    0.436
        30 -10.3484     94.5250    186.5558   1.2553578304e+02   2.3569493385e+01     0.315295    0.1290305 -75.78 0.0008101255    5.796    0.827
        31 -12.3468     35.6947    173.7943   1.3744893385e+02   3.4692650895e+01    0.4789665     0.248638  59.01  0.002364619    2.093    0.522
        32  -9.7319     88.3156    167.9828   1.2398310958e+02   2.9022454498e+01    0.2393668    0.1146726 -81.01 0.0007046708    4.262    0.765
        33 -10.4022     55.4896    167.5970   1.3198891533e+02   3.3840925702e+01    0.2404202    0.2002367  70.15  0.001217353    1.176    0.150
        34 -10.3111     44.3403    168.3265   1.3476143430e+02   3.5020484982e+01    0.1312202   0.09267226 -42.52 0.0007051426    1.733    0.423
        35 -10.4983     99.1763    166.1877   1.2096627017e+02   2.7656220358e+01    0.2145477    0.1693035  80.35  0.001082484    1.353    0.261
        36  -9.9209     19.6569    166.3488   1.4026577743e+02   3.8051863266e+01    0.1337359   0.07751746  72.90 0.0005163542    1.801    0.445
        37 -10.1580    138.7400    164.4980   1.1091732246e+02   2.0645248056e+01    0.3651837    0.2008867 -81.83 0.0008944518    6.079    0.835
        38 -10.5889     79.8007    164.3851   1.2549256353e+02   3.1228600070e+01     0.318507    0.1622361  88.28 0.0009633397    4.436    0.775
        39 -11.8043    106.5843    157.9894   1.1754766164e+02   2.8341609119e+01    0.6532508    0.4151638  74.23  0.002659737    2.260    0.558
        40 -10.4984     92.7224    160.2504   1.2150236264e+02   3.0184139444e+01    0.2881482    0.1636024  76.29 0.0009544159    3.113    0.679
        41 -11.2033    121.3112    168.8818   1.1601585261e+02   2.3018897286e+01    0.3075933    0.1372537 -60.62  0.001087221    2.546    0.607
        42 -10.8783    167.4977    157.4951   1.0269400749e+02   1.6257098527e+01    0.3553919    0.2434753  89.02  0.001386853    2.415    0.586
        43 -10.5593    218.3649    156.2597   9.1852933571e+01   5.9108584570e+00    0.4043719    0.1282279 -44.09  0.001328108    3.002    0.667
        44 -10.5162    118.8121    156.7203   1.1420134882e+02   2.6385869537e+01    0.2406394    0.2070281  15.43  0.001208947    1.414    0.293
        45  -9.9280     81.3413    154.6684   1.2340248451e+02   3.3366407247e+01    0.1533637    0.1060841  77.02 0.0007051344    1.748    0.428
        46 -10.0262     68.3371    154.6581   1.2676377236e+02   3.5277147045e+01    0.1497263    0.1009243  76.71  0.000705019    1.765    0.433
        47  -9.4608     23.5181    153.5324   1.3788538973e+02   4.0707610723e+01    0.1278953    0.1015995 -81.76 4.231622e-05    1.042    0.040
        48 -10.3573    189.8660    150.7685   9.6305648075e+01   1.2918927126e+01    0.3058971    0.2028597 -68.35  0.001250339    2.118    0.528
        49 -10.8770     56.5355    146.7567   1.2851371956e+02   3.8769482032e+01    0.3842611    0.2046957  82.41    0.0014272    3.302    0.697
        50 -11.3097    107.3607    145.6036   1.1480999279e+02   3.1194315449e+01    0.5355367    0.3257238  79.78  0.001905527    3.025    0.669
        51 -10.4064    148.4819    144.9890   1.0429850439e+02   2.3125149521e+01    0.2297898    0.1374155 -70.50 0.0008103237    2.582    0.613
        52 -10.0281    182.6287    142.3158   9.5897452893e+01   1.6272329181e+01    0.1628088     0.123439 -88.09 0.0007034427    1.787    0.440
        53 -11.8085     82.9390    130.1286   1.1811243024e+02   3.9085725144e+01    0.6905407    0.2232625 -58.77  0.002208348    3.225    0.690
        54 -11.9969     99.0111    128.4448   1.1325872571e+02   3.6806111604e+01    0.6323442    0.3998577 -85.09   0.00242155    2.669    0.625
        55 -10.9658     59.1720    124.2154   1.2365058852e+02   4.3875037577e+01    0.4777062    0.2456456 -83.95  0.001581604    4.122    0.757
        56 -11.4573     43.2112    122.2764   1.2788820924e+02   4.6195986905e+01    0.6848229    0.3383002 -83.97  0.002507149    3.587    0.721
        57 -11.3911     27.1417    121.0549   1.3228444195e+02   4.8037621145e+01     0.592484    0.2729632 -88.28  0.002084981    4.243    0.764
        58 -11.1916     13.3560    121.5221   1.3622639353e+02   4.9027960782e+01    0.3434704    0.1323836 -48.09  0.001596176    2.335    0.572
        59 -11.6939    193.3424    118.6460   8.8025125333e+01   1.8787041838e+01    0.5696852    0.4208201 -71.71  0.001845004    1.639    0.390
        60 -11.2941     70.5578    118.6812   1.1916181989e+02   4.3655896361e+01    0.4813313    0.2455705 -72.82  0.001763058    3.022    0.669
        61 -11.5320    141.0962    116.2235   9.9089219242e+01   3.1199668734e+01    0.8235864    0.2157721 -44.65  0.002270948    3.760    0.734
        62 -11.1783      1.9988    115.8139   1.3855733592e+02   5.1073813120e+01    0.3312127    0.1458334 -70.31  0.001244782    1.782    0.439
        63 -10.7183    108.1439    112.4276   1.0681403655e+02   3.8841009266e+01    0.4981448    0.1927539 -58.66  0.001443327    3.921    0.745
        64 -10.8911     78.7662    112.5681   1.1532871743e+02   4.3868549719e+01    0.4775702    0.2760219 -81.60  0.001644145    3.706    0.730
        65 -11.8137    159.6975    110.4233   9.3132419935e+01   2.8245685191e+01    0.7433957    0.3326555 -53.38  0.002504519    2.668    0.625
        66 -10.5274    174.2306    111.3333   9.0144269997e+01   2.4686020731e+01    0.3285039     0.205938 -52.19 0.0009220305    1.644    0.392
        67 -10.2218    117.7321    125.9856   1.0758736640e+02   3.3879149530e+01    0.2763343     0.165304  75.35 0.0008929507    3.495    0.714
        68 -12.0088     14.6911    109.6773   1.3400644928e+02   5.1632728342e+01    0.5862783    0.3489819 -86.96  0.003149461    1.959    0.490
        69 -10.5396     80.3960    105.1897   1.1302813479e+02   4.5293841516e+01    0.1992484    0.1304767 -61.51 0.0002814263    1.630    0.386
        70 -12.1326     44.4858    101.1344   1.2321088258e+02   5.0931652462e+01    0.6698771    0.4000618 -81.77  0.003018735    2.572    0.611
        71 -11.3417    150.6431    103.3197   9.3368455105e+01   3.1799945136e+01    0.2564076    0.1933686 -80.64  0.001133214    1.731    0.422
        72 -11.8101    127.6353    100.5731   9.8362547169e+01   3.7477801195e+01    0.5596349    0.2500996 -52.82  0.001951728    2.606    0.616
        73 -12.2918    140.7079    104.6077   9.6124697423e+01   3.3777577911e+01    0.6008134    0.3792164 -57.00  0.002518539    1.793    0.442
        74 -12.8060    109.5456     99.4883   1.0297977560e+02   4.1408009212e+01     1.033724    0.6049982  69.62  0.003520266    3.549    0.718
        75 -10.6437     81.9934    100.4964   1.1133840132e+02   4.6083869195e+01    0.2079183    0.1420199  36.30  0.001026105    1.571    0.364
        76 -10.9011     20.3294     99.4027   1.3047446822e+02   5.3519738876e+01    0.4539271     0.227819 -89.48  0.001717272    4.212    0.763
        77 -11.1757     62.6265     94.8742   1.1593038506e+02   5.0143731691e+01    0.4490262      0.17855 -64.38  0.001357841    4.661    0.785
        78 -12.8415    170.4551     90.9199   8.5625330873e+01   2.9604468787e+01    0.4269677    0.3491679  87.42  0.001116421    1.367    0.269
        79 -11.1085     34.2571     87.4426   1.2341645167e+02   5.4952215798e+01    0.5823945    0.1553074 -54.74  0.002240202    2.869    0.651
        80 -11.3378     86.6610     86.6005   1.0609433166e+02   4.8267728229e+01    0.3916454    0.3098604 -88.16  0.001795595    1.869    0.465
        81 -11.2218     41.9869     87.9338   1.2094697353e+02   5.4083799860e+01    0.3084131    0.1823853   5.69  0.001413713    2.292    0.564
        82 -10.8832     47.3519     83.6721   1.1806696954e+02   5.4403075298e+01    0.5268624    0.3183296  76.74  0.001734263    5.965    0.832
        83 -10.9171    104.6793     83.6965   9.9865838723e+01   4.5586438104e+01     0.289167    0.2183484 -85.89  0.001334878    2.070    0.517
        84 -10.1900    140.6022     82.8275   9.0090581673e+01   3.8130589463e+01    0.2268219    0.1374825 -50.51 0.0009617932    1.789    0.441
        85 -11.0298     24.0070     79.8741   1.2513312521e+02   5.7435041804e+01    0.3867131    0.1913816 -69.10  0.001821133    2.466    0.594
        86 -11.0217     62.4915     71.9029   1.0960171716e+02   5.4881369096e+01     0.582467     0.125614 -49.37  0.001739435    4.661    0.785
        87 -11.2145     82.0599     72.7792   1.0341859344e+02   5.1747621932e+01    0.4026105    0.2273948 -62.09  0.001593702    3.052    0.672
        88 -10.3058     72.0460     73.2065   1.0679410799e+02   5.3253569924e+01    0.1833471    0.1789359  56.45 0.0004556642    1.262    0.208
        89 -12.0026    223.4134     71.7264   7.1640276146e+01   2.0474246717e+01    0.2537567    0.2285529 -75.63 0.0002429912    1.039    0.037
        90 -10.7852     51.8818     70.0649   1.1272421146e+02   5.6609611662e+01    0.2596198    0.1761214 -50.61  0.001218937    1.439    0.305
        91 -10.2459    196.1236     67.6664   7.4796947642e+01   2.7518561268e+01    0.3001908     0.133595  68.27  0.001105478    2.638    0.621
        92 -11.5358     19.5967     59.3618   1.2151229522e+02   6.1852081850e+01    0.2792387    0.1668673 -41.52 0.0008556657    1.313    0.238
        93 -13.3133     27.5808     60.1346   1.1869415788e+02   6.1047908476e+01     1.156936    0.6980204  24.18  0.005021709    1.851    0.460
        94 -10.2663     72.6170     58.7832   1.0202077105e+02   5.5783144459e+01    0.1845218    0.1181402 -47.51 0.0009524529    1.700    0.412
        95 -11.1473     11.2046     59.4087   1.2473008513e+02   6.2439007921e+01    0.2590212    0.1384232  32.46  0.001134885    2.356    0.576
        96 -11.1434      7.6009     55.1056   1.2499019016e+02   6.3479078544e+01    0.4864239     0.175702 -59.49  0.002315402    2.592    0.614
        97 -12.1229     21.3926     52.4818   1.1883667650e+02   6.2982184709e+01    0.5163281    0.3561876 -57.83  0.003224704    1.603    0.376
        98 -10.1210     39.2865     53.0380   1.1207009696e+02   6.1191270427e+01    0.1714083    0.1305147 -33.06            0    1.117    0.105
        99 -11.1977    149.4344     52.3778   7.9213721679e+01   4.1151374765e+01    0.2755136    0.1668885  60.68  0.000706457    1.598    0.374
       100 -10.4581     92.1647     50.9967   9.3174224111e+01   5.3693502306e+01    0.2119036    0.1543349 -60.35  0.001078728    2.030    0.507
       101 -10.3445     82.4050     47.2178   9.4879853783e+01   5.6026087761e+01    0.1766033       0.1186 -43.29  0.000749849    1.662    0.398
       102 -10.4262    156.9688     44.9913   7.5582183843e+01   4.0401279846e+01    0.2148036    0.1909655  63.51 0.0004907061    1.036    0.034
       103 -11.1744      6.6819     42.8764   1.2191685084e+02   6.5749477572e+01    0.4197771    0.2854116  49.20  0.002627498    2.599    0.615
       104 -11.4431     70.8070     42.2724   9.6911692488e+01   5.8700594278e+01    0.4562885    0.3110277  58.59  0.002393888    2.291    0.564
       105 -11.4598     42.1909     37.4532   1.0556899795e+02   6.3421857826e+01    0.2649244    0.1933905  -2.62  0.001023356    1.236    0.191
       106 -11.4401     46.6224     35.6882   1.0319924401e+02   6.3141757312e+01    0.2760856    0.1848244  13.15 0.0006765435    1.451    0.311
       107 -10.0844     83.2304     38.3893   9.1483285785e+01   5.7147963927e+01    0.1764756    0.1176749  51.44 0.0009522033    1.689    0.408
       108 -10.6447    119.7006     34.3787   8.0175554305e+01   5.0371899958e+01    0.2254676    0.2195005 -29.47 0.0009656824    1.152    0.132
       109 -10.6164     73.4186     32.5308   9.2454666679e+01   5.9626893676e+01    0.2266681    0.1827751  76.24  0.001300904    2.181    0.542
       110 -11.0251    104.6915     30.5150   8.2573020141e+01   5.4020759013e+01    0.4856509    0.1784264  53.87  0.001972123    2.582    0.613
       111 -10.2517    166.9345     24.0067   6.8018778687e+01   4.0617364417e+01    0.1955964    0.1711358  71.49  0.001206896    1.017    0.017
       112 -11.3056    220.5040    248.9260   1.0928634056e+02  -1.0287753974e+01     0.253807    0.1931693  64.79  0.001451519    2.298    0.565
       113 -10.9817    239.9999     20.5040   5.8633466533e+01   2.4099721678e+01    0.2221754    0.1751191 -75.47 0.0004206459    1.011    0.011
       114 -10.9273      7.8461    240.8387   1.4842568922e+02   2.3063338992e+01    0.1589262    0.1238142  87.93 0.0008019857    1.227    0.185
       115  -9.8060    134.2066     18.3371   7.1959684657e+01   4.8906011457e+01    0.1800567    0.1110324  69.64 0.0003746065    1.613    0.380
       116 -11.0939     23.2232    239.6633   1.4578044457e+02   2.1634848183e+01    0.2905116   0.09388498  66.65  0.001142697    3.922    0.745
       117  -9.7990      2.3178    240.6464   1.4931265105e+02   2.3662703574e+01    0.1198626   0.05564949  69.53 0.0005445901    1.744    0.427
       118 -10.9042      6.0164    235.6141   1.4842616862e+02   2.4279167690e+01    0.2009528    0.1187961  86.21 0.0005032748    1.280    0.219
       119 -10.7986     12.8451    227.3585   1.4675676829e+02   2.5243108224e+01    0.2034694    0.1292003 -81.22 0.0005891025    1.306    0.234
