#   1 NUMBER                 Running object number                                     
#   2 MAG_AUTO               Kron-like elliptical aperture magnitude                    [mag]
#   3 X_IMAGE                Object position along x                                    [pixel]
#   4 Y_IMAGE                Object position along y                                    [pixel]
#   5 X_WORLD                Barycenter position along world x axis                     [deg]
#   6 Y_WORLD                Barycenter position along world y axis                     [deg]
#   7 A_WORLD                Profile RMS along major axis (world units)                 [deg]
#   8 B_WORLD                Profile RMS along minor axis (world units)                 [deg]
#   9 THETA_WORLD            Position angle (CCW/world-x)                               [deg]
#  10 FWHM_WORLD             FWHM assuming a gaussian core                              [deg]
#  11 ELONGATION             A_IMAGE/B_IMAGE                                           
#  12 ELLIPTICITY            1 - B_IMAGE/A_IMAGE                                       
         1 -10.6986     40.2045     46.2835   1.0143689024e+02   6.1568878591e+01     0.331802    0.1561305 -63.93  0.001503944    2.690    0.628
         2 -12.2484    194.6258     27.2320   5.4358903978e+01   3.3285071840e+01    0.7934669    0.6912382  22.71  0.001394424    1.252    0.201
         3 -12.2584    187.7194     35.6172   5.8039251942e+01   3.4035406090e+01     1.039415    0.9341645  25.57  0.003526448    1.171    0.146
         4 -11.1954    215.2038      2.3271   4.4463318072e+01   3.0632077963e+01    0.7903101    0.2965198  72.96   0.00299932    2.584    0.613
         5  -8.8943    183.3252    217.3217   1.0163544787e+02   4.9531268878e+00    0.1210531   0.08511481  21.67 0.0007047292    1.683    0.406
         6  -9.3694    139.2365    250.3818   1.1300297136e+02   7.7718944624e+00    0.1614171   0.07610923  51.90 0.0009490752    1.620    0.383
         7 -19.4466     15.9480    137.5297   1.2421105573e+02   4.4281208535e+01     16.84636     2.329217 -73.82   0.04976036    6.682    0.850
         8  -9.5114    114.1603    195.1241   1.1106647142e+02   2.0376815347e+01    0.1778929    0.1625724  53.96 0.0007737554    1.256    0.204
         9  -8.6910     99.3705    181.0581   1.1209623316e+02   2.5337209821e+01    0.1939647    0.1575953  50.04 0.0005399896    1.259    0.206
        10  -8.5352     79.5697    168.6456   1.1445213906e+02   3.0716634016e+01     0.263293    0.1387384  64.92 0.0006198771    2.040    0.510
        11 -10.4492     80.1531    176.8437   1.1532696465e+02   2.8993850111e+01    0.3333387    0.2463866 -43.25  0.001480323    1.980    0.495
        12 -10.5410     83.6621    171.8521   1.1403022540e+02   2.9490260038e+01    0.3115496    0.2297675 -52.52  0.001577505    1.629    0.386
        13  -8.1646     69.9215    178.4752   1.1749028379e+02   3.0063860233e+01    0.1646914    0.1023708  49.16 0.0008226879    1.513    0.339
        14  -8.0651    168.2943    176.6361   9.7891337743e+01   1.3968899785e+01    0.1346713    0.1025326  84.17 0.0007030077    1.711    0.416
        15  -9.6702    124.9355    171.8558   1.0570577414e+02   2.2900438201e+01    0.4077403    0.2447743  78.32  0.001432182    2.389    0.581
        16 -10.6324     97.7901    169.3538   1.1085214257e+02   2.7882502910e+01    0.5528645    0.1320872  51.32  0.001704656    4.976    0.799
        17  -9.6332    195.2314    168.6098   9.1237924273e+01   9.9609819193e+00    0.3030466    0.2273515  45.03 0.0007063245    1.213    0.175
        18 -11.0389     70.7169    134.7336   1.1167159897e+02   3.9085999240e+01    0.4333701    0.2906412  61.90  0.002152148    1.538    0.350
        19 -10.4968     90.3512    162.9952   1.1150035774e+02   3.0306128721e+01    0.4623943    0.3202101  36.36  0.002662199    1.701    0.412
        20 -11.9859     79.3611    157.6680   1.1307126728e+02   3.3003670267e+01    0.4550666    0.3572995 -80.98  0.001253602    1.122    0.108
        21 -12.1056     68.5015    144.2122   1.1356643724e+02   3.7325274192e+01    0.9387045    0.5263913  84.88  0.003572595    2.187    0.543
        22 -10.4147     96.2267    155.4038   1.0915418803e+02   3.0977047820e+01    0.5382913    0.3864597 -32.62  0.002076122    2.187    0.543
        23  -9.2755     51.5014    157.2818   1.1882595223e+02   3.6647795615e+01     0.358963    0.1430007  55.73  0.001711052    2.636    0.621
        24  -9.1013    189.0645    155.3101   8.9761817181e+01   1.3431742957e+01    0.2729684    0.2187011 -47.07  0.001478247    1.373    0.271
        25  -9.8998    133.9267    146.2882   9.9383932104e+01   2.6321160801e+01    0.7758141    0.1862022 -54.20   0.00211555    5.320    0.812
        26 -10.2939    108.0682    140.1659   1.0399930741e+02   3.2261942312e+01    0.4270532    0.3071538 -37.31   0.00181748    1.774    0.436
        27 -10.6770     95.9719    140.4116   1.0679277534e+02   3.4190180050e+01    0.2620411    0.2270122 -56.01 0.0003682916    1.236    0.191
        28  -7.9007    121.3081    212.6653   1.1189658890e+02   1.6202226659e+01    0.1230496   0.07756267  71.72 0.0007041825    1.673    0.402
        29  -9.0893    106.1636    131.1254   1.0274954138e+02   3.4521973534e+01    0.3140348    0.2267886 -73.38  0.001507142    1.422    0.297
        30 -10.3353    115.0831    130.5529   1.0054875054e+02   3.3090212815e+01    0.3437299    0.2807907  14.79   0.00158661    1.691    0.409
        31  -9.3269    102.7001    126.6947   1.0270840675e+02   3.6064192200e+01    0.2547238    0.2106782 -23.92 0.0008006527    1.624    0.384
        32  -9.8300    119.7518    124.6252   9.8225894562e+01   3.3506429609e+01    0.2668391    0.1688946 -41.65 0.0009781452    1.720    0.419
        33  -8.6352    141.5976    158.2099   9.9971926534e+01   2.2493083496e+01    0.2229751    0.1699939  61.95 0.0005712333    1.283    0.221
        34  -9.0415    135.1913    123.3745   9.4335508054e+01   3.0793694132e+01    0.2762243    0.1101127 -45.16  0.001004872    2.540    0.606
        35  -8.4661    110.0759    119.3486   9.9421508496e+01   3.6391569304e+01    0.1895964    0.1732362  68.19 0.0004267551    1.101    0.092
        36  -8.9866    106.5122    210.4578   1.1425027760e+02   1.8890746694e+01    0.1168723    0.0940167  64.45 6.434313e-06    1.048    0.046
        37  -8.8496    167.9024    112.5780   8.4383132760e+01   2.5935337887e+01    0.3153664    0.1984643 -58.77  0.001245829    1.976    0.494
        38  -8.4197    134.7713    112.2386   9.1839093369e+01   3.3198905782e+01    0.2360226    0.1149525 -36.71 0.0008797242    2.438    0.590
        39  -9.6135    120.3945    110.7943   9.4970957975e+01   3.6339793416e+01     0.268946     0.183306 -43.09  0.001300785    1.479    0.324
        40  -8.4203    205.7945    110.3917   7.6137476306e+01   1.7494319553e+01    0.2186897    0.1361909  41.53 0.0004437393    1.637    0.389
        41  -8.1365     87.4823    201.9776   1.1672039482e+02   2.3200332461e+01    0.1612113   0.08407849  84.60  0.000808879    2.429    0.588
        42  -9.1967    114.7543    200.7177   1.1164963871e+02   1.9287470126e+01    0.1787907   0.09481475 -73.83 0.0008984065    2.382    0.580
        43  -8.0515    129.6743     96.3239   8.9046813314e+01   3.7548039495e+01    0.1523036    0.1170072 -84.68 0.0004357948    1.689    0.408
        44  -9.0658     95.0506    199.9055   1.1514125132e+02   2.2472264398e+01       0.1892    0.1295448  71.81  0.000463396    1.296    0.229
        45  -8.2646    209.5300    199.5473   9.4259136161e+01   2.6603998551e+00    0.1273822    0.1057631  33.50 0.0008080071    1.005    0.005
        46  -9.9730    193.4324    192.6359   9.5949635865e+01   6.6140221692e+00    0.6155081    0.3205002 -47.03  0.003012252    2.359    0.576
        47 -10.2557    166.0438     66.4896   7.1843248277e+01   3.4916227267e+01    0.4014975    0.3065256 -84.53 0.0009486988    1.736    0.424
        48  -8.9051     82.8789    195.7308   1.1690227259e+02   2.4994352042e+01    0.2336755    0.1658253  26.70  0.001399217    2.220    0.550
        49 -11.5523    176.1380     46.5293   6.3532327228e+01   3.5536217863e+01      0.65075    0.4835745   1.96  0.001315957    1.632    0.387
        50 -11.9041     69.0758    191.1143   1.1894634800e+02   2.7734682360e+01    0.6500717    0.4994214  77.17  0.003417631    1.011    0.010
        51  -8.1957    198.5306    222.5453   9.9801182736e+01   1.6306850523e+00    0.1207981   0.09525815  38.46 0.0001499518    1.003    0.003
        52  -9.2729     96.2561    188.8261   1.1365352388e+02   2.4333853572e+01    0.3304146    0.1816002  77.64  0.001648858    2.283    0.562
        53  -9.8442     90.7918    219.3876   1.1785358835e+02   1.9701070590e+01    0.2630513    0.1346408  55.46  0.001547113    1.574    0.365
