#   1 NUMBER                 Running object number                                     
#   2 MAG_AUTO               Kron-like elliptical aperture magnitude                    [mag]
#   3 X_IMAGE                Object position along x                                    [pixel]
#   4 Y_IMAGE                Object position along y                                    [pixel]
#   5 X_WORLD                Barycenter position along world x axis                     [deg]
#   6 Y_WORLD                Barycenter position along world y axis                     [deg]
#   7 A_WORLD                Profile RMS along major axis (world units)                 [deg]
#   8 B_WORLD                Profile RMS along minor axis (world units)                 [deg]
#   9 THETA_WORLD            Position angle (CCW/world-x)                               [deg]
#  10 FWHM_WORLD             FWHM assuming a gaussian core                              [deg]
#  11 ELONGATION             A_IMAGE/B_IMAGE                                           
#  12 ELLIPTICITY            1 - B_IMAGE/A_IMAGE                                       
         1 -14.2167     68.3893    144.8643   9.3695349627e+01   3.7204741490e+01     4.388923     2.142178  66.81  0.002611018    4.892    0.796
         2 -13.9325    237.3745     22.6480   2.8498702130e+01   2.4880389629e+01     1.460222     1.047084  39.31  0.006420199    2.271    0.560
         3 -13.8049    209.0905     45.1563   3.5826110117e+01   2.7862880040e+01      1.38436      1.18093  38.04  0.004999956    1.557    0.358
         4 -13.2743    216.8085     40.4689   3.3974422900e+01   2.6847008136e+01    0.9124626     0.569533 -60.05  0.003423143    1.454    0.312
         5 -12.1802      7.4174     12.4431   8.1742108437e+01   7.3936356161e+01    0.2832482    0.2637682  -7.98   0.00165278    1.427    0.299
         6 -11.7966      8.8909      3.6930   7.5817960889e+01   7.5087337906e+01     0.419889    0.1881633  38.77  0.002137471    2.745    0.636
         7 -10.5115     73.8695    207.2282   1.0130161244e+02   2.1089214807e+01    0.4090602    0.2456423  82.11  0.001386102    2.207    0.547
         8 -10.3923     86.9843    249.5764   1.0282599315e+02   1.0636204776e+01    0.2141797     0.185239 -75.03 0.0007637406    1.347    0.257
         9 -14.7794      8.7053    208.3478   1.1688450168e+02   2.8096930489e+01     2.045371    0.9812213 -77.10  0.006203174    1.908    0.476
        10 -16.1766     26.2566    242.7913   1.1508194007e+02   1.9104615639e+01     9.028131     2.743153  21.27   0.02928265    6.124    0.837
        11  -9.0695    111.1584    204.1429   9.1723925301e+01   1.6372285530e+01     0.189965    0.1548047  55.14 0.0003393115    1.288    0.224
        12 -10.6794    193.3148    195.5797   7.1781282382e+01   5.0596949052e+00    0.7548996     0.394001 -61.74  0.002237412    6.518    0.847
        13  -9.1034     99.4902    181.0446   9.1060270831e+01   2.3429804427e+01    0.2070038    0.1443273 -57.44 0.0003934277    1.477    0.323
        14  -9.8013    186.7990    175.2273   6.9180522876e+01   9.7994228545e+00    0.3041393    0.2397857 -43.48  0.001561356    1.308    0.236
        15 -12.1423    231.6670    170.7284   6.0004615136e+01   3.5358949849e+00    0.5359604    0.4622184 -67.88  0.003338208    1.755    0.430
        16 -11.7894     71.0755    160.5501   9.5585549198e+01   3.2787323297e+01    0.3631816    0.3365282  88.49 0.0004474046    1.060    0.056
        17 -13.2289     55.4906    118.5402   9.2814276740e+01   4.5789175898e+01     1.732101    0.6535802 -69.92 0.0006651301    3.838    0.739
        18 -12.9204     78.3155    154.6917   9.2458765371e+01   3.3223227873e+01    0.9984807    0.8019093 -54.02 0.0006529951    1.225    0.183
        19 -16.0129     30.9118    183.7649   1.0970509859e+02   3.1782860564e+01     8.829886     3.484265  79.72   0.02897863    4.210    0.762
        20 -13.6389     57.6223    156.0911   9.8854348701e+01   3.5750455285e+01    0.8047278    0.4746903 -54.78  0.002200143    1.626    0.385
        21  -8.8981    110.7993    167.7888   8.5712971054e+01   2.4716916942e+01    0.2035273     0.174936  78.24 0.0004801576    1.345    0.257
        22 -12.1675     35.3877    159.7986   1.0593622668e+02   3.7358697573e+01    0.7560095    0.3483295  65.51  0.002810873    3.037    0.671
        23  -8.9579    174.9453    149.4569   6.6242975915e+01   1.6941702764e+01    0.1939287    0.1310277  67.95 0.0007628049    2.416    0.586
        24 -12.2611     54.3919    174.6812   1.0238865564e+02   3.1409666174e+01    0.6751149    0.4084278 -20.94  0.001480297    2.778    0.640
        25  -9.3609    235.2938    155.3210   5.6384754357e+01   5.5187522061e+00    0.1300743   0.08884729 -11.63 0.0002184745    1.612    0.380
        26 -12.4356     82.3338    139.2496   8.8288806453e+01   3.6538710976e+01    0.3463195    0.2836642 -53.59   0.00053717    1.186    0.157
        27 -10.4286     94.6990    141.0311   8.4910610748e+01   3.4035367097e+01    0.4110929    0.3247812 -34.27  0.001052159    1.354    0.261
        28  -9.8206     98.0993    137.9007   8.3222682659e+01   3.4221492395e+01    0.3314971    0.2380594 -24.52  0.001457117    1.724    0.420
        29  -9.5243    134.0000    146.4231   7.5176598150e+01   2.5487563235e+01    0.5182264   0.08694848 -48.54  0.001152957    5.901    0.831
        30  -9.1965    143.0889    138.8249   7.1146133566e+01   2.5413217177e+01    0.2273078    0.2081093  89.40 0.0004404702    1.265    0.209
        31 -10.8781    106.4662    130.7529   7.9127905485e+01   3.4449085244e+01    0.4043744    0.3456967  10.98   0.00121489    1.295    0.228
        32 -11.6774     65.3103    126.3298   9.1084394450e+01   4.2437827842e+01    0.6672822    0.4438223  63.81  0.002389407    1.964    0.491
        33  -9.1086    160.3271    127.6523   6.4408381438e+01   2.4308157229e+01    0.1558209    0.1217696 -81.31 0.0007049628    1.754    0.430
        34  -9.4284     93.9131    126.0749   8.1801006115e+01   3.7887664490e+01    0.2379216    0.2203177 -17.72 0.0005552894    1.121    0.108
        35  -9.3445    114.6624    124.6417   7.5286470907e+01   3.4330408877e+01    0.2456318    0.1874742  -5.08 0.0008336493    1.710    0.415
        36  -8.9587    162.4866    120.0267   6.2063728710e+01   2.5426946153e+01    0.2279043    0.1439271 -44.31 0.0005777604    1.520    0.342
        37  -9.7072    105.0060    119.0013   7.6694814262e+01   3.7542947496e+01    0.2221736    0.2153787 -20.56            0    1.023    0.022
        38 -10.5308    243.4939    113.4937   4.6682674532e+01   1.1010764606e+01    0.1285566    0.1045772 -39.89 0.0001186023    1.008    0.008
        39  -8.8832    168.5046    113.5490   5.9164700858e+01   2.5448579945e+01    0.1504011    0.1403313 -61.39 0.0001381735    1.100    0.091
        40 -10.1167    205.2883    110.5512   5.1625072422e+01   1.8438174790e+01    0.3092583    0.2459423  26.03  0.001259257    1.543    0.352
        41  -9.4756     67.9853    104.5038   8.5134519739e+01   4.7540932585e+01    0.2262774    0.1979794 -48.10 0.0004482661    1.089    0.082
        42 -12.0543     60.2790    169.4154   1.0003456571e+02   3.1994807835e+01    0.3661131    0.3128161 -23.54  0.001019136    1.390    0.280
        43  -8.8707     62.9530    100.4281   8.5916965991e+01   4.9296742526e+01     0.209653    0.1452758  31.44 0.0003978796    1.503    0.335
        44 -11.4749     53.0081     93.0749   8.7772722503e+01   5.2484181384e+01    0.7436584    0.2056729 -58.03  0.002243523    3.688    0.729
        45  -9.9859     42.1779     88.9395   9.1018246534e+01   5.4843951945e+01    0.2345267    0.2042684  15.85 0.0005262975    1.212    0.175
        46  -9.8233    162.8326     84.2054   5.2676260935e+01   3.2237784014e+01    0.1994951    0.1773194   3.81  0.000549774    1.331    0.248
        47  -8.8754    184.5250     77.4518   4.7005623767e+01   2.8478855166e+01    0.1381944    0.1315766 -54.89 8.099612e-05    1.061    0.057
        48  -9.8926     59.6772     74.9417   7.9883709623e+01   5.5688625851e+01    0.2073433    0.1781768 -42.60 0.0006102656    1.141    0.124
        49 -11.3168     13.3297     60.2189   9.6434643008e+01   6.4243632629e+01    0.2983228      0.25061 -81.13 0.0004552901    1.463    0.316
        50 -11.5059      2.8091     59.5002   1.0153967201e+02   6.5056105873e+01    0.4243718    0.1956759 -35.46  0.002072581    1.950    0.487
        51 -13.4364     23.6512    199.7438   1.1285463548e+02   2.8682754012e+01    0.6568537    0.4813123 -89.06  0.001523757    1.242    0.195
        52  -9.8781     42.0474    230.4634   1.1093321770e+02   1.9925496416e+01    0.2178433    0.1644131  89.83 0.0004900842    1.307    0.235
        53 -10.0298     31.4904    223.1537   1.1273429161e+02   2.2628140498e+01    0.2934735     0.239965 -16.02  0.001669164    1.757    0.431
        54 -12.6623    224.5292     33.4407   3.1732269578e+01   2.6141578033e+01    0.5258262    0.4220143  46.32  0.001262818    1.689    0.408
        55 -10.6590     11.7119     53.0383   9.5220902284e+01   6.5929649083e+01    0.1874359    0.1454985 -43.16 0.0007530163    1.096    0.088
        56  -8.9249     25.5555     51.0843   8.7394222367e+01   6.5133329562e+01    0.1816236    0.1170536 -49.69 0.0003536819    1.456    0.313
        57 -10.7541      1.7257     49.8896   9.9657238133e+01   6.7230071191e+01    0.2958149    0.1030242 -66.07  0.001216859    2.875    0.652
        58 -11.0316      2.8683     38.1729   9.5494320437e+01   6.9613792392e+01     0.244995    0.1500591 -40.47  0.001276797    1.307    0.235
        59  -9.3481    126.0493     34.0188   4.4955743077e+01   4.8722022224e+01    0.2176656    0.1577056 -73.46 0.0005749256    1.680    0.405
        60 -10.4811    128.1055     27.8836   4.2505945652e+01   4.8954381196e+01     0.237152    0.2011716 -80.52 0.0004583504    1.241    0.194
        61 -11.2563      3.1095     19.3677   8.8051615924e+01   7.3150463675e+01    0.2118429    0.1896348  36.16  0.001513155    1.602    0.376
        62 -11.4386      5.4886     25.5005   8.9147763005e+01   7.1872879988e+01     0.217074    0.1712149 -20.86  0.001476777    1.017    0.017
        63  -9.6830    189.2637     15.4278   3.0750181733e+01   3.5766247991e+01    0.2152387    0.1608775 -41.91   0.00075063    1.333    0.250
        64 -10.8024     28.9457    219.9347   1.1307780467e+02   2.3591824388e+01    0.3286558    0.1961668  56.89  0.001308427    1.467    0.318
