#   1 NUMBER                 Running object number                                     
#   2 MAG_AUTO               Kron-like elliptical aperture magnitude                    [mag]
#   3 X_IMAGE                Object position along x                                    [pixel]
#   4 Y_IMAGE                Object position along y                                    [pixel]
#   5 X_WORLD                Barycenter position along world x axis                     [deg]
#   6 Y_WORLD                Barycenter position along world y axis                     [deg]
#   7 A_WORLD                Profile RMS along major axis (world units)                 [deg]
#   8 B_WORLD                Profile RMS along minor axis (world units)                 [deg]
#   9 THETA_WORLD            Position angle (CCW/world-x)                               [deg]
#  10 FWHM_WORLD             FWHM assuming a gaussian core                              [deg]
#  11 ELONGATION             A_IMAGE/B_IMAGE                                           
#  12 ELLIPTICITY            1 - B_IMAGE/A_IMAGE                                       
         1 -10.0445     82.2658     16.0596   7.0485419344e+01   6.2579662413e+01    0.4048116    0.2438882   6.68  0.001307723    2.386    0.581
         2 -11.6394     84.6308     20.2582   7.1847694317e+01   6.1446512198e+01    0.6055279    0.3997574  13.42  0.002744166    1.931    0.482
         3 -11.9614     60.6163     23.0079   8.2619140909e+01   6.5725695373e+01    0.6277684     0.334828 -55.01  0.002565974    2.629    0.620
         4 -11.9118    129.3723     23.2022   6.1152981053e+01   5.0247325977e+01    0.6043581    0.4221109 -28.65  0.001781679    1.395    0.283
         5 -11.9610     20.9625     18.5777   1.0161565238e+02   7.1965159234e+01    0.5674834    0.4376042 -81.97  0.001234748    1.698    0.411
         6  -9.8201     15.1767     14.1870   1.0336706905e+02   7.3402688921e+01    0.2007365    0.1396065 -74.15  0.000843455    1.723    0.420
         7 -11.6887      4.6171     18.6058   1.1218473688e+02   7.3145290455e+01    0.4435475    0.3229057  30.55  0.002477143    1.703    0.413
         8 -10.1359     34.8818     16.0433   9.1979924117e+01   7.0946317026e+01    0.4280336    0.2052583 -34.50  0.001943295    2.069    0.517
         9 -11.8020     74.1560      7.0953   6.8358212963e+01   6.5555833682e+01    0.4766579    0.2350813 -30.30 0.0003153479    1.893    0.472
        10 -12.1340     80.9479      6.5450   6.5723745909e+01   6.4137403506e+01    0.5249004    0.3339332  33.30   0.00254364    1.619    0.382
        11 -11.5782     75.7408     15.6162   7.2563769419e+01   6.4034689579e+01    0.7524278    0.3783344 -18.40  0.002996322    2.413    0.586
        12 -11.5219     70.5176     14.5331   7.3953108617e+01   6.5266554993e+01    0.4089827    0.2360117 -23.52  0.001326174    1.728    0.421
        13 -10.8519     63.6760     14.6952   7.6829951554e+01   6.6577137150e+01    0.3465892    0.1963197  25.72  0.001373913    2.275    0.560
        14  -9.6858     50.8703     11.2151   8.0668328831e+01   6.9435075536e+01    0.3220967    0.1801387 -12.91  0.001344099    2.611    0.617
        15 -10.2765    157.7907     12.8614   5.2056687214e+01   4.3886804663e+01    0.3813053    0.1807027 -49.71  0.001438449    2.427    0.588
        16 -10.4273    100.2076     12.9832   6.3448838582e+01   5.8855895553e+01    0.3425688    0.2247671 -11.42   0.00104256    1.595    0.373
        17 -10.5283     55.0295     12.8380   7.9625293149e+01   6.8452703815e+01    0.3984456    0.1673529 -37.93  0.001439312    2.161    0.537
        18 -10.5879     26.4573     13.9315   9.5918304804e+01   7.2368709225e+01    0.2234781    0.1558311 -26.82 0.0003641361    1.369    0.269
        19 -10.5533     30.8599     12.9684   9.2690955320e+01   7.2045859488e+01    0.2425503    0.1818282 -38.41 0.0004152684    1.119    0.106
        20 -10.0035    138.7530     12.4362   5.4869871854e+01   4.9027260143e+01    0.4303035     0.209523 -66.67  0.001377426    3.700    0.730
        21 -11.1061    117.9157     11.1548   5.8315146015e+01   5.4637107750e+01     0.599306     0.236407 -34.23  0.002226249    2.417    0.586
        22 -10.5093    115.6816      4.4187   5.5640372111e+01   5.5910738501e+01     0.430278    0.2126108 -16.04  0.001755946    2.086    0.521
        23 -10.3508    132.8205     11.9854   5.5733541044e+01   5.0650619293e+01    0.2522052    0.1558072  18.34 0.0007626833    1.965    0.491
        24  -9.6965      5.2787     11.7088   1.0916255495e+02   7.4633731628e+01     0.177215    0.1061374 -42.92  0.001036567    1.370    0.270
        25  -9.8664    185.5471     10.9832   4.7973318054e+01   3.6717789873e+01    0.2042108    0.1867279  85.53 0.0002631617    1.119    0.106
        26 -12.4984     12.9398      3.5224   9.9477775882e+01   7.5783487673e+01    0.6604603    0.4909747   3.52  0.002224887    1.479    0.324
        27  -9.8472      6.4974      8.0892   1.0669832438e+02   7.5336152921e+01    0.2260886    0.1563799  44.45 0.0005723691    1.963    0.491
        28 -12.1082     24.2246      6.2837   9.3067936556e+01   7.4106863237e+01    0.6322355    0.3845618 -20.33  0.002877126    1.832    0.454
        29 -13.0952     32.1011      2.0561   8.5238123733e+01   7.3860005590e+01    0.3164161     0.227664  24.87 0.0006111224    1.492    0.330
        30 -10.5925    128.1216      9.1874   5.5393487109e+01   5.2183310723e+01    0.2935433    0.1668729 -48.65  0.001227346    2.021    0.505
        31 -10.2607     59.5282     10.1903   7.6020795814e+01   6.8057443756e+01    0.2315669    0.1877099  36.67 0.0006777878    1.297    0.229
        32 -10.4684     91.8885      6.9732   6.2642311948e+01   6.1563679841e+01    0.4417472    0.2915918  10.32  0.001946119    1.711    0.415
        33 -10.3337    146.8677      6.8714   5.1320901423e+01   4.7404361388e+01    0.3306686    0.1621936 -48.42  0.001286345    2.305    0.566
        34  -9.5904    176.4326      4.7638   4.6846833006e+01   3.9676959651e+01    0.2077399     0.134928   2.11 0.0009543202    1.766    0.434
        35  -9.7154     59.6859      5.4331   7.3048014877e+01   6.8723796744e+01    0.2886811    0.1325296  50.45  0.001251296    2.360    0.576
        36  -9.9383    167.8764      2.1902   4.6868009377e+01   4.2173571773e+01    0.2163768    0.1820904 -53.27 0.0004186741    1.195    0.163
        37 -10.2770    228.7303      5.7134   4.2680720391e+01   2.6561395446e+01    0.2351173     0.194353 -65.00 0.0005940782    1.202    0.168
        38 -10.1572    190.5111    227.2556   9.8310542774e+01   6.1020684758e+00    0.2696816    0.1043402 -37.04  0.001475137    3.192    0.687
        39 -10.3897    247.3004    249.6103   9.2473228747e+01  -3.0479271265e+00    0.2217273    0.1119509  16.29  0.001407832    1.610    0.379
        40 -10.5323    250.5006    245.4978   9.1471602868e+01  -3.1054829812e+00    0.2800358    0.1026883 -25.32  0.001741007    2.945    0.660
        41  -9.7654     72.5238    250.2106   1.2073059395e+02   1.8263713006e+01     0.142947    0.1137056   2.99 0.0009378181    2.040    0.510
        42 -11.8599     27.8335    247.2606   1.2799005024e+02   2.3246050901e+01    0.3147763    0.1993803  81.76   0.00266926    1.530    0.346
        43 -10.3848      5.9427    235.4450   1.3123317218e+02   2.6946137128e+01    0.2227241    0.1438409  51.60  0.001235745    1.093    0.085
        44 -12.6558     20.0747    248.4759   1.2928078077e+02   2.3783283400e+01    0.8114917    0.1212799  37.22  0.004193807    3.237    0.691
        45  -9.1122     80.6541    223.3473   1.1750797476e+02   2.1220039760e+01    0.1159949    0.0606273  58.32 0.0007042937    1.806    0.446
        46 -10.0192     13.2180    221.7972   1.2963485631e+02   2.8464686904e+01    0.1151579   0.09945387  70.61  0.000536548    1.311    0.237
        47  -9.5894    141.9768    220.7410   1.0595916402e+02   1.3600462090e+01    0.1673494    0.1138968  36.36  0.001150521    1.138    0.121
        48 -10.1101    174.4765    219.3167   9.9999501637e+01   9.2219776240e+00    0.2452305    0.1082752  29.24  0.001132748    2.100    0.524
        49  -9.5381    249.3162    227.3056   8.9110576464e+01  -1.5305432540e+00    0.1072279    0.0568082  13.21 0.0004666652    1.626    0.385
        50  -9.7375    194.5460    215.4922   9.6035876111e+01   6.8326247473e+00    0.1128327   0.08449609  22.28 1.117907e-05    1.018    0.018
        51 -10.7880      9.7127    216.9447   1.3010728996e+02   2.9558647993e+01    0.2514427    0.1233402  55.60  0.001103354    1.431    0.301
        52  -9.6191     38.0074    217.4885   1.2501744464e+02   2.6851274721e+01      0.14965   0.08107173  37.50 0.0006241915    1.544    0.352
        53 -11.4505    235.9178    214.8477   8.9271854525e+01   1.2517089719e+00    0.3108763    0.1779223   7.78  0.001827226    1.643    0.391
        54 -10.3488     31.4318    215.7084   1.2614153575e+02   2.7791138973e+01     0.210727    0.1394726  33.83  0.001521042    1.497    0.332
        55  -9.5606    201.5434    215.5357   9.4869160041e+01   5.8465190359e+00    0.1134801    0.0823551  19.79 0.0004056091    1.069    0.064
        56  -9.5058    250.4879    219.4449   8.7780145340e+01  -1.0157430533e+00    0.1067228    0.0721057  13.84 0.0001704717    1.027    0.026
        57  -9.5222    170.3065    213.3146   9.9938665856e+01   1.0548746374e+01    0.1129218   0.07529003  12.93 0.0003804933    1.625    0.385
        58 -11.2235     21.1238    212.1413   1.2788619130e+02   2.9354740909e+01      0.31238    0.1165649  54.11  0.001890018    1.944    0.486
        59 -10.1488    208.9695    212.0771   9.3137618811e+01   5.1802291065e+00    0.1703292    0.1253017  19.26 0.0004465575    1.024    0.023
        60  -8.9718     76.3460    212.2959   1.1746376762e+02   2.3484313634e+01   0.09723589   0.08209553   6.66 0.0007032954    1.672    0.402
        61  -9.4740      2.2873    212.3401   1.3130207179e+02   3.0940445391e+01    0.1350683   0.08280542  35.37 0.0006554415    1.544    0.352
        62 -11.8256      4.8563    207.6539   1.3071573424e+02   3.1523732352e+01    0.4385321    0.1876843  74.11  0.002710585    1.960    0.490
        63 -10.0331     10.8604    208.5090   1.2964299244e+02   3.0875854939e+01    0.1451963    0.1226665 -84.18 0.0008675609    1.423    0.297
        64 -11.3922     18.7745    202.9738   1.2796812353e+02   3.1142110038e+01    0.2787405    0.2205041  89.32 0.0008302201    1.307    0.235
        65  -9.0773     67.7147    203.7069   1.1847419562e+02   2.5945603187e+01   0.09226312   0.08482277  -2.10 0.0002819709    1.540    0.351
        66  -9.4435    223.5899    201.8008   8.9183523770e+01   4.2098351095e+00    0.1311911   0.09938599 -30.67 0.0005588382    1.665    0.400
        67 -10.3384    175.2878    202.6861   9.7566976232e+01   1.1165109223e+01    0.1866432     0.151299  39.46 0.0005353203    1.231    0.188
        68  -9.0114    238.6633    201.2837   8.6731263214e+01   2.1749542518e+00   0.09301721   0.08245381  31.06  0.000701218    1.624    0.384
        69  -9.6304     34.6150    201.1133   1.2482955507e+02   2.9980674369e+01    0.1385526     0.110283  71.05 0.0006382366    1.117    0.105
        70  -9.3212    227.1281    196.8920   8.7826663575e+01   4.2215963881e+00    0.1632167    0.1047694  11.99 0.0008438071    1.355    0.262
        71 -10.3022    215.5309    194.7054   8.9355501565e+01   6.1325159532e+00    0.1888521    0.1029106 -22.62 0.0006993691    1.944    0.486
        72  -9.3236    203.3088    195.7004   9.1572309124e+01   7.8287212144e+00    0.1011533   0.08868286  49.71  0.000701056    1.598    0.374
        73  -9.4232    211.3539    188.9516   8.9103626630e+01   7.4089381247e+00    0.1858531    0.0849468 -10.67 0.0007041327    4.388    0.772
        74  -9.3011      1.5881    188.2194   1.3077712126e+02   3.5231631037e+01    0.1286675   0.08119769 -80.01 0.0005971269    1.566    0.361
        75  -9.5459     61.6420    184.8133   1.1818883362e+02   3.0045132550e+01    0.1570929   0.09594959  88.16 0.0009451128    1.736    0.424
        76  -9.9594    166.9977    183.7247   9.6232024767e+01   1.5033174681e+01    0.1629193   0.09315031  38.03 0.0008879117    1.490    0.329
        77 -11.2236     16.1087    182.6939   1.2764995106e+02   3.5075106136e+01    0.3619695    0.1618598  71.49  0.002108391    1.972    0.493
        78  -9.8792      1.9204    180.1891   1.3046335792e+02   3.6704768347e+01    0.1667761    0.1018043  61.05 0.0005658969    1.225    0.183
        79 -10.1119    244.1745    178.5235   8.2017453824e+01   3.6918331172e+00     0.230144    0.1231999  -7.14   0.00105849    1.938    0.484
        80 -10.8444    224.2763    178.4328   8.5142622954e+01   6.6585171002e+00    0.2081831    0.1840811   8.63 0.0004717313    1.274    0.215
        81  -9.6542     70.1599    177.7328   1.1569462159e+02   3.0359773571e+01    0.1430694    0.1321163  20.84 0.0005201045    1.349    0.259
        82  -9.1486     36.4381    178.4585   1.2312559276e+02   3.3997531580e+01    0.1115211   0.08889623  65.97 0.0002285467    1.021    0.020
        83 -10.2122    200.1722    176.7969   8.8950739101e+01   1.0636898755e+01    0.1750237    0.1224596  13.62 0.0005546062    1.345    0.257
        84  -9.7292     46.2864    177.4183   1.2091293999e+02   3.3179997082e+01     0.201664     0.105101  28.38  0.001121958    2.068    0.516
        85 -11.1755     18.1454    173.0163   1.2676474015e+02   3.6769276645e+01    0.3916721    0.1337424  57.75  0.001960158    2.487    0.598
        86  -9.2842     75.2029    170.8211   1.1385335161e+02   3.1059588886e+01    0.1522814    0.1431416 -18.39  0.001061302    1.398    0.284
        87  -9.4957      4.7574    168.9861   1.2947710169e+02   3.8655857432e+01    0.1387994   0.07497794 -88.03 0.0006103897    1.596    0.374
        88 -11.4053     36.1661    162.8253   1.2209326300e+02   3.7148753818e+01    0.4192525    0.2102985 -84.13  0.002324417    1.919    0.479
        89 -11.6196     36.9262    157.8319   1.2153007768e+02   3.8109138648e+01    0.2220848    0.1688117  75.46 0.0002820279    1.109    0.098
        90  -9.6562     67.1926    165.1568   1.1508275202e+02   3.3199199349e+01    0.1763681    0.1215469  64.24  0.001065246    1.354    0.261
        91 -10.7568     51.5594    164.1044   1.1861939040e+02   3.5258941088e+01     0.281462    0.1848086 -45.24  0.001643109    2.068    0.516
        92 -11.3380     44.3524    162.4774   1.2015913181e+02   3.6378646210e+01    0.2929407    0.1963466 -78.89  0.001393254    1.424    0.298
        93 -10.7411     47.9987    160.4988   1.1912965849e+02   3.6394942750e+01    0.2983846    0.1998081  45.43  0.001434358    1.336    0.252
        94  -9.4235    200.4651    162.5673   8.6299600024e+01   1.2461499904e+01    0.1262798    0.1070675  15.65 0.0001969504    1.042    0.041
        95 -10.0363    247.4600    158.4830   7.7789393413e+01   5.3392454654e+00     0.119432   0.09504582   1.94 0.0001156378    1.071    0.066
        96 -11.3667     22.3880    156.3986   1.2487003690e+02   3.9773945277e+01     0.410032    0.2933152  45.37  0.002818107    1.302    0.232
        97  -9.1225    147.5104    156.4776   9.5557503029e+01   2.2608770049e+01    0.1316423     0.119092  35.87 0.0005969352    1.038    0.037
        98 -10.3203     12.1576    153.2112   1.2709565106e+02   4.1294912910e+01    0.2414102    0.1513041  11.95  0.001151459    2.274    0.560
        99 -10.3943    178.1689    151.4554   8.8320545441e+01   1.7970358915e+01    0.2349498    0.2225052  45.53 0.0009441188    1.245    0.197
       100  -8.9663      5.3033    149.7532   1.2854349943e+02   4.2541758839e+01    0.1133001   0.06231952  59.26 0.0002106406    1.496    0.332
       101 -10.2188     27.0444    147.4537   1.2312708643e+02   4.1260143776e+01    0.1796687    0.1325055 -88.96 0.0003816009    1.180    0.152
       102 -10.8081     17.5461    146.6641   1.2541794308e+02   4.2251571898e+01      0.25748     0.193068   1.26  0.001279315    1.978    0.494
       103  -9.9216    206.9981    146.1014   8.1875455359e+01   1.3566775649e+01    0.2010085    0.1718885  11.80  0.000738112    1.033    0.032
       104 -10.2529     21.2903    135.9205   1.2372006574e+02   4.4292132860e+01    0.2268317     0.165569  62.76 0.0009206262    1.195    0.163
       105 -11.7546     12.0749    145.0636   1.2666616276e+02   4.3032252403e+01    0.3741616    0.2468758  55.78  0.001049654    1.302    0.232
       106 -10.2056     25.2513    142.3207   1.2318786369e+02   4.2537308620e+01    0.1636293    0.1362659  61.09 0.0001700199    1.121    0.108
       107 -10.7809     19.6117    140.2764   1.2447323529e+02   4.3469211467e+01    0.3235545    0.1303898 -87.47   0.00154958    2.340    0.573
       108 -10.3581     16.2639    139.7679   1.2529137857e+02   4.3853395824e+01    0.2645712    0.1118486  15.28  0.001206817    3.568    0.720
       109  -9.6330     49.8043    141.4902   1.1679057179e+02   4.0265486074e+01    0.2207523    0.1409655 -38.80 0.0009863493    2.237    0.553
       110  -9.6221    240.1300    140.8194   7.5347242808e+01   8.5192947547e+00    0.1754973    0.1225393  11.56 0.0005340248    1.309    0.236
       111 -10.3293     56.0991    137.7247   1.1470188400e+02   4.0376394424e+01    0.4455497    0.2084162  79.78  0.001744426    3.348    0.701
       112 -10.9164      2.7706    136.4234   1.2852301736e+02   4.5577092302e+01    0.3125793    0.1158124 -76.23  0.001354774    2.250    0.556
       113  -8.9172    143.6933    137.3213   9.2714831853e+01   2.6716437570e+01     0.135161    0.1097688  81.16 0.0006952204    1.640    0.390
       114 -11.1523      9.2308    136.7250   1.2689578900e+02   4.5058557668e+01     0.190252    0.1712911  88.09    0.0002517    1.203    0.168
       115  -9.4033    138.0289    135.4912   9.3630928560e+01   2.8107914235e+01    0.1963282    0.1179146  19.75 0.0008093219    2.468    0.595
       116  -9.2163    250.3207    134.3037   7.2474141653e+01   7.5950537117e+00    0.1296508   0.08040925   9.96 0.0007028842    1.632    0.387
       117 -10.1359    106.9505    133.2408   1.0070999894e+02   3.4056347491e+01    0.2255967    0.2028528 -59.32 0.0008012918    1.146    0.128
       118  -9.1613    227.0085    131.7684   7.5461177551e+01   1.1896291689e+01     0.158811    0.1022031  41.57 0.0004986676    1.573    0.364
       119 -11.7480     37.7327    130.0183   1.1877113021e+02   4.4117599044e+01     0.396064    0.2569247 -75.04  0.001393421    1.386    0.279
       120 -11.1865     33.1253    125.9040   1.1961688134e+02   4.5506585593e+01    0.2625239    0.1849477  46.88 0.0003550666    1.381    0.276
       121 -10.5581     74.1437    129.4777   1.0869479284e+02   3.9908796725e+01    0.2472429    0.2249964  89.56 0.0007202361    1.031    0.030
       122  -9.7417      6.5119    126.0588   1.2697067537e+02   4.7621536562e+01    0.1640499    0.1371101  64.30 0.0004774166    1.146    0.127
       123 -11.0848      2.3607    123.5641   1.2794872502e+02   4.8454413059e+01    0.4931624    0.1449625 -71.91  0.002220109    2.708    0.631
       124 -11.3133     10.5711    122.3807   1.2561500529e+02   4.8174078655e+01    0.2712462    0.2071238  63.89  0.001229814    1.174    0.148
       125  -9.5299    219.5634    124.5129   7.5053290671e+01   1.4208509085e+01    0.1346046    0.1143775  -1.04 0.0002133923    1.009    0.009
       126  -9.7907    226.0079    124.0000   7.3898078310e+01   1.3082508085e+01    0.2012733   0.07244203  48.56 0.0007967961    2.903    0.656
       127  -9.7256     32.7224    119.0200   1.1899226058e+02   4.7139601833e+01     0.177573    0.1369069 -80.41 0.0004602692    1.131    0.116
       128 -11.9952     17.0970    115.9452   1.2324630980e+02   4.9179486173e+01    0.4320219    0.2326841 -61.99  0.001760524    1.731    0.422
       129 -12.6145     15.3360    108.9272   1.2314060841e+02   5.0953381570e+01    0.5548138    0.4061201  64.32 0.0008743382    1.272    0.214
       130 -11.4942     23.1388    107.1708   1.2056479639e+02   5.0770537886e+01    0.3431451    0.2142779  37.70  0.001986886    1.677    0.404
       131  -9.7784    249.7908    118.6009   6.9148746642e+01   9.5075461390e+00    0.1528132    0.1241136  55.87 0.0009450971    1.656    0.396
       132  -9.6187    220.4433    116.9910   7.3183292655e+01   1.5055181214e+01    0.2012147    0.1197663 -28.45 0.0004815072    1.549    0.354
       133 -10.1151     51.1359    116.0627   1.1319063105e+02   4.5916501384e+01    0.3059852    0.1449427 -62.39 0.0007485044    1.902    0.474
       134  -9.4283    166.3668    115.7673   8.2913101032e+01   2.6133789227e+01    0.1938117    0.1327038 -26.13 0.0003214334    1.536    0.349
       135  -9.3586    214.1953    115.5852   7.3876597423e+01   1.6454414937e+01    0.1838296    0.1177455  33.15 0.0005187384    1.574    0.365
       136 -10.1999     35.0594    114.3174   1.1775445425e+02   4.8022041631e+01    0.2687412    0.1595975 -79.96 0.0009241411    1.515    0.340
       137 -12.0807     35.3983    108.3237   1.1689393076e+02   4.9410912800e+01    0.5253335    0.2614677  69.00  0.001539345    2.442    0.591
       138 -10.8466    249.0416    111.8357   6.7734157605e+01   1.0437720680e+01    0.2309475    0.1593741 -21.04 0.0006750008    1.232    0.188
       139  -9.2108      2.6799    112.3158   1.2717652810e+02   5.0998726730e+01    0.1259079   0.06891995  63.69 0.0007040357    1.657    0.397
       140 -10.9444     55.4944    109.2702   1.1081865754e+02   4.7004440705e+01    0.4203324     0.262736 -42.82  0.002115503    1.879    0.468
       141  -9.3427     91.4420    107.8167   9.9772262419e+01   4.2178901486e+01     0.189814    0.1288141 -45.36 0.0003962613    1.519    0.342
       142  -9.2674    104.2711    107.3449   9.6032006026e+01   4.0072457634e+01    0.1427504    0.1119796 -20.29 0.0005223569    1.617    0.381
       143 -10.5503     62.5345    106.4651   1.0816279204e+02   4.6782087663e+01    0.2538297    0.2019687 -39.64 0.0006091681    1.440    0.305
       144 -11.0577      6.3611    105.7811   1.2561203383e+02   5.2295004237e+01    0.3645022    0.1849266 -70.35  0.001974676    1.644    0.392
       145 -10.7567      2.4442    105.6932   1.2679939360e+02   5.2549223137e+01     0.223545    0.1691967 -68.21 0.0006130051    1.260    0.206
       146 -12.4517      2.7917    100.4564   1.2631059267e+02   5.3757063427e+01    0.2620705    0.2144795  84.06 0.0003909628    1.053    0.051
       147 -11.2191      1.4752     95.9765   1.2638792408e+02   5.4886544719e+01     0.402528    0.1323934 -78.84 0.0009567385    2.405    0.584
       148 -10.6241    243.5594    104.3030   6.6753434259e+01   1.2334517667e+01    0.1860836    0.1104159 -13.24 0.0009424161    1.600    0.375
       149  -9.8920    223.3157    104.0164   6.9640888372e+01   1.6241132543e+01    0.1959851    0.1533297 -19.73 0.0004182137    1.139    0.122
       150 -10.8371    247.6868    102.1661   6.5692554853e+01   1.1835518498e+01    0.1979819     0.186845  54.51 0.0009634641    1.389    0.280
       151 -10.5289     36.4093    101.7761   1.1567338030e+02   5.0881857481e+01    0.3661693    0.1899395  43.45  0.001833339    1.970    0.492
       152  -9.7303    119.7741    101.4048   9.0368585294e+01   3.8423582245e+01    0.2077813    0.1385304  31.39 0.0007161527    1.689    0.408
       153 -11.6607     62.3877     98.2987   1.0665208420e+02   4.8738994155e+01    0.2831005    0.2674567  66.07 0.0002753441    1.104    0.095
       154 -10.6350     66.6740     97.7607   1.0516408845e+02   4.8285773939e+01    0.4907071    0.1508586 -56.02   0.00175714    2.847    0.649
       155  -9.6183     50.3626     99.6575   1.1080472660e+02   4.9907071905e+01     0.206256    0.1351413 -36.03  0.001032203    1.934    0.483
       156 -10.3705    144.0490     98.4748   8.3497030080e+01   3.3996521814e+01    0.4359966     0.269877 -89.20  0.001261904    5.165    0.806
       157 -11.5165     20.2133     97.0808   1.2035730207e+02   5.3414662830e+01    0.3879465    0.2219682  88.66   0.00167689    1.631    0.387
       158  -9.5888     41.0102     96.9973   1.1343259689e+02   5.1573915335e+01    0.2043765    0.1426204 -40.63 0.0006418632    1.659    0.397
       159  -9.5977     57.4660     96.4785   1.0789394819e+02   4.9810491713e+01    0.1361071    0.1218914 -78.19 7.657711e-05    1.008    0.007
       160  -9.4652    249.5394     95.5010   6.3882390719e+01   1.2291495677e+01    0.1322523    0.1084263 -10.88 3.353237e-05    1.005    0.005
       161 -10.1796     93.0000     95.0344   9.6329862275e+01   4.4797106155e+01    0.3475905   0.07945306 -52.07 0.0009687612    4.214    0.763
       162 -10.7486     97.5042     89.5214   9.3551961400e+01   4.5226211540e+01    0.2599855    0.1433315  40.70  0.001112516    1.888    0.470
       163 -10.1830     31.4025     93.4063   1.1610866895e+02   5.3374742794e+01    0.3805776    0.1633104 -80.41  0.001614221    2.396    0.583
       164 -11.2033     25.5302     91.5843   1.1785811415e+02   5.4323625862e+01    0.2567447    0.2422993 -66.05 0.0001379609    1.178    0.151
       165 -10.8080     22.9170     87.0331   1.1813306513e+02   5.5639745598e+01    0.2678762    0.1847129 -76.29 0.0004028255    1.218    0.179
       166 -10.5892    103.9968     92.0159   9.2299485747e+01   4.3473764961e+01    0.2437927    0.2022016 -45.48            0    1.178    0.151
       167 -11.3297     30.2751     66.6496   1.1175238266e+02   5.9999573022e+01    0.5459123    0.2870228 -42.21   0.00198231    2.011    0.503
       168 -10.3442     48.0285     90.9580   1.0999699361e+02   5.2273830834e+01    0.3846352    0.2027685 -58.07  0.001846876    1.672    0.402
       169 -11.6336     42.1750     81.9133   1.1030431562e+02   5.5114608290e+01     1.024926    0.3760282  49.78  0.003726663    3.651    0.726
       170 -12.4248     44.6811     75.2918   1.0796416454e+02   5.6447969474e+01     0.290039    0.2463461  81.68 0.0003563577    1.231    0.188
       171 -11.1837     37.7356     70.6096   1.0960803139e+02   5.8324044093e+01    0.5940683    0.3697858  75.31  0.001651126    2.108    0.526
       172 -11.3070     10.3227     90.9394   1.2299493525e+02   5.5577238017e+01    0.3200848    0.2433678  31.63  0.001139723    1.525    0.344
       173 -10.5609    158.1113     90.3350   7.8048190566e+01   3.2402281541e+01    0.2760274    0.2022603 -23.83  0.001314373    1.415    0.294
       174  -9.0521     21.3184     91.3223   1.1927285781e+02   5.4721549481e+01    0.1293365     0.082284 -47.57 0.0003588549    1.668    0.401
       175  -9.3902    139.4294     87.5698   8.1574793845e+01   3.7082693053e+01    0.1480006    0.1451045 -35.31 0.0008018328    1.043    0.041
       176 -10.2932    112.4125     85.9063   8.8198026357e+01   4.3143870871e+01    0.3097334    0.2425607 -73.50 0.0009363245    1.564    0.361
       177 -12.6881     17.7267     66.3155   1.1686475805e+02   6.1077581493e+01    0.7592306    0.4386452 -49.34  0.001169332    1.620    0.383
       178 -10.6079      4.1895     85.9283   1.2461003836e+02   5.7136972882e+01    0.2915856    0.1926186  77.06  0.001769432    1.377    0.274
       179 -12.0497      5.5373     76.7138   1.2316105294e+02   5.9286892751e+01    0.8525198    0.3855548 -64.25  0.004378401    1.761    0.432
       180 -10.2303     14.9435     83.5301   1.2051770768e+02   5.7070400082e+01    0.3791986    0.1832673 -59.77  0.001186939    1.757    0.431
       181 -12.3715     21.3671     77.7840   1.1732327475e+02   5.8014674796e+01      0.52399    0.3297139 -74.67 0.0002017944    1.335    0.251
       182 -12.8313     13.4421     77.5490   1.2028743757e+02   5.8623178342e+01    0.4065033    0.2534262 -53.27  0.001048229    1.509    0.337
       183 -11.1090     66.8204     85.1149   1.0228629472e+02   5.1261628558e+01    0.3769079    0.2453247 -26.34  0.001576942    2.198    0.545
       184 -10.3273    167.2323     84.0127   7.4311486966e+01   3.1418216287e+01    0.3741865    0.2025402  64.23  0.001427506    2.492    0.599
       185  -9.9775     87.9573     83.3660   9.4840349405e+01   4.8306697799e+01    0.2340292    0.1872935 -63.79  0.000336259    1.262    0.207
       186 -10.3351    117.9687     82.8655   8.5762238325e+01   4.2636758564e+01    0.2761131     0.211553 -39.75  0.001043287    1.278    0.218
       187  -9.9265     29.8716     81.8118   1.1480401655e+02   5.6336006033e+01    0.2147972     0.182105  59.37  0.001351339    1.255    0.203
       188  -9.9210     70.8073     79.1766   9.9414912220e+01   5.2069542857e+01    0.1933395    0.1608142 -29.97 0.0005228259    1.334    0.250
       189 -10.0470    150.7454     77.5232   7.5933184953e+01   3.6367758685e+01     0.278779    0.2017657 -34.40   0.00108109    1.344    0.256
       190 -10.6949     91.7595     77.2295   9.1875827959e+01   4.8997451809e+01    0.3559926    0.2912048  84.73  0.001812207    1.503    0.335
       191 -11.9354     58.2729     74.4897   1.0267471787e+02   5.4968000712e+01    0.5115457    0.3444315  69.19 0.0005296422    1.977    0.494
       192 -11.3929     62.4660     71.7389   1.0039328506e+02   5.5037791799e+01    0.3895293    0.3298048 -54.63  0.001450378    1.069    0.065
       193  -9.1121    177.5449     76.5507   7.0109668511e+01   3.0232961054e+01    0.1491666     0.140952 -33.23 -7.140314e-06    1.082    0.076
       194  -9.4495    121.7787     76.3724   8.2748883334e+01   4.3137855746e+01     0.209277    0.1418164  37.73 0.0009368822    1.576    0.366
       195 -10.1250     75.5899     75.7875   9.6833243419e+01   5.2106781241e+01    0.5241052    0.3190228  84.78   0.00187787    3.506    0.715
       196 -10.7311     77.9421     71.9523   9.4906646861e+01   5.2596498059e+01    0.4065337     0.220232  47.89 0.0007423928    2.079    0.519
       197 -10.6949     75.3216     69.3242   9.5034946563e+01   5.3624959973e+01    0.4159047     0.231638 -30.83  0.001614582    2.483    0.597
       198  -9.8482     33.2240     75.7608   1.1243997988e+02   5.7509797899e+01    0.1853333    0.1618473 -84.33 0.0007510768    1.083    0.076
       199 -10.7953    138.8302     74.9464   7.7925134826e+01   3.9594127267e+01    0.2478136    0.2418708  64.50 0.0003098307    1.090    0.083
       200 -10.8473    109.3518     74.6466   8.5703438055e+01   4.6120012857e+01    0.3048955    0.2355934 -85.37  0.001416364    1.775    0.437
       201  -9.8095    145.5164     73.9320   7.6019983928e+01   3.8228533309e+01    0.2418268    0.1479469 -35.17  0.001033223    1.592    0.372
       202 -10.7383    102.4551     73.0026   8.7242517084e+01   4.7862892938e+01    0.2878305    0.2235489  45.21 0.0006829808    1.346    0.257
       203 -12.1370     94.3947     68.4075   8.8293191448e+01   5.0418321547e+01    0.4284478    0.2692953 -39.46 0.0007275855    1.561    0.359
       204 -10.2012    128.9627     71.7975   7.9397159256e+01   4.2435881021e+01    0.2437438    0.2098998 -40.64            0    1.137    0.120
       205  -9.5745    115.3176     71.3376   8.2935594225e+01   4.5537600437e+01    0.1567812    0.1200334   0.25 0.0007048808    1.703    0.413
       206  -9.8433    160.9333     69.8096   7.1347763965e+01   3.5277022182e+01      0.22723    0.1959291  10.20 0.0003720687    1.226    0.184
       207 -10.3504     68.8267     68.1123   9.7011226938e+01   5.4936136141e+01     0.469023    0.1792181 -51.21  0.001006855    2.344    0.573
       208 -11.6375     50.7273     67.6309   1.0375347198e+02   5.7574361058e+01    0.5147448    0.2934269 -35.80  0.001888678    2.097    0.523
       209 -10.9459     51.1288     63.8611   1.0256680800e+02   5.8417178321e+01    0.3996357    0.2020768 -47.71  0.001108566    1.807    0.447
       210  -9.7846    123.1360     68.3582   7.9808500941e+01   4.4405039029e+01    0.2526048    0.1700669 -43.72 0.0006720711    1.459    0.314
       211 -10.5942    103.0814     68.1545   8.5487778050e+01   4.8749081561e+01    0.2859058    0.2500236 -84.88 0.0009624282    1.348    0.258
       212 -10.4405      6.6516     67.7200   1.2161596769e+02   6.1408551308e+01    0.2042057     0.155973 -57.28  0.000679852    1.219    0.179
       213 -12.1325      3.8978     64.7119   1.2234204862e+02   6.2276195236e+01    0.3173902    0.2594509  81.48 0.0004711644    1.185    0.156
       214 -10.7717     77.4763     63.8057   9.2531727782e+01   5.4499779493e+01    0.4047183    0.3153638 -49.85  0.001229966    1.191    0.160
       215 -10.2859     84.0040     72.3171   9.2945371860e+01   5.1477727876e+01    0.1897333    0.1856612  39.41 0.0002833882    1.091    0.084
       216 -11.9301     62.2266     60.4240   9.7144339927e+01   5.7693536791e+01    0.7244139    0.3629777  21.59  0.002789842    3.099    0.677
       217 -10.8123     57.8401     59.1872   9.8489131913e+01   5.8609503245e+01    0.3890049    0.2129352  33.74  0.001791897    2.044    0.511
       218  -9.7000    120.1817     64.8644   7.9436570176e+01   4.5736497638e+01    0.2077871    0.1782693   3.18 0.0002996816    1.297    0.229
       219 -10.3425     99.8746     64.6393   8.5303144749e+01   5.0126303906e+01    0.2652694    0.1978163 -30.97 0.0006335265    1.378    0.274
       220 -10.2256    215.7290     64.1789   6.0383227156e+01   2.3147676644e+01    0.2120506    0.1936905 -79.88 0.0005922633    1.295    0.228
       221  -9.4490     41.5476     64.4452   1.0660666300e+02   5.9409566709e+01    0.1347513    0.1178635 -68.16 0.0001690156    1.050    0.048
       222 -10.5040     82.4042     50.1746   8.5937265840e+01   5.6520030792e+01    0.2686466    0.1919069  56.26  0.001294933    1.673    0.402
       223 -11.0435     84.9520     61.8087   8.9241374676e+01   5.3608302261e+01    0.4146836    0.2821956  42.61  0.001996594    1.572    0.364
       224 -10.4920     86.6827     57.3756   8.7098808683e+01   5.4223670618e+01    0.3910236    0.2568101 -37.69  0.001827877    1.476    0.322
       225 -11.2591     87.1366     52.4395   8.5132330605e+01   5.5153477603e+01    0.3574415    0.2605782 -54.91 0.0006511214    1.453    0.312
       226 -10.4530     11.0549     62.7244   1.1905410539e+02   6.2378084962e+01    0.2038272    0.1495306 -77.20 0.0004313954    1.130    0.115
       227 -10.6022    201.2540     61.8242   6.1790554897e+01   2.6791952664e+01    0.2470122    0.2138409 -15.27 0.0002738178    1.082    0.075
       228  -9.2177    140.6250     61.8166   7.3219852817e+01   4.1526165631e+01    0.2125175    0.1371952 -43.41 0.0001941548    1.558    0.358
       229  -9.5349    134.9992     61.5084   7.4460533490e+01   4.2925474899e+01    0.1918448    0.1381325 -88.52 3.159427e-06    2.098    0.523
       230 -10.8530     45.5791     49.9804   1.0070563431e+02   6.2344188182e+01      0.40563    0.2042435 -48.03  0.001334809    1.731    0.422
       231 -11.4541     29.7256     60.8454   1.1069037264e+02   6.1455513635e+01    0.6772446    0.2980136  10.13     0.002684    3.731    0.732
       232 -12.7999     37.6998     51.0927   1.0458828608e+02   6.2995331535e+01    0.8235833     0.637132 -35.00  0.003593642    1.310    0.236
       233 -10.1638     43.9106     57.0368   1.0360628427e+02   6.0903433704e+01    0.2057429    0.1772338 -55.24 0.0003299513    1.009    0.009
       234 -11.1260     11.3849     44.3699   1.1539513921e+02   6.6786183670e+01    0.4426178    0.2176082 -51.34  0.001497596    1.682    0.406
       235 -10.9511      5.6716     58.2259   1.2066567692e+02   6.3760286459e+01    0.3380314     0.152453 -66.93  0.001708922    1.689    0.408
       236 -11.4167      5.2489     51.9367   1.1984096850e+02   6.5299787165e+01    0.3714467    0.2463671 -58.37  0.000803918    1.250    0.200
       237 -10.5123      4.5342     46.8383   1.1928101423e+02   6.6559053554e+01    0.3772483    0.1360374 -48.40  0.001716445    2.383    0.580
       238 -10.1223      7.0034     41.2957   1.1693801345e+02   6.7761107817e+01    0.2821749    0.1310265 -64.99 0.0009697899    1.639    0.390
       239 -10.1001     47.8537     58.3404   1.0232087211e+02   6.0124508975e+01    0.2557452    0.1943655 -82.48  0.001377979    1.501    0.334
       240  -9.9395    147.0064     56.9882   7.0128112346e+01   4.0785605629e+01    0.2324202    0.2165598 -40.42  0.001224385    1.081    0.075
       241 -10.6962    123.0932     56.4962   7.5728655022e+01   4.6625712655e+01    0.2864498    0.2255924 -49.08 0.0003857395    1.321    0.243
       242 -12.6267    128.4092     50.4699   7.2165824885e+01   4.6417714694e+01    0.4725252    0.3491441   1.08 0.0002776986    1.671    0.401
       243 -10.2978    129.8092     55.9092   7.3789625129e+01   4.5146004389e+01    0.2344156    0.2056427  -4.50 0.0005290336    1.191    0.161
       244 -11.1218    100.0233     55.7214   8.2107579226e+01   5.1894590968e+01     0.383106    0.2111081  48.50  0.001177611    1.925    0.481
       245 -10.8418    117.4840     53.3773   7.6103481015e+01   4.8488910190e+01    0.3223639    0.2848156  65.42  0.001671106    1.252    0.202
       246 -10.9278     12.7702     51.7407   1.1630077551e+02   6.4935635746e+01    0.3110571    0.2093478 -83.67  0.001619133    1.397    0.284
       247  -9.6846    143.3427     53.0202   6.9562668543e+01   4.2337554170e+01    0.2224291    0.1927436 -26.35  0.000639863    1.120    0.107
       248 -11.3915     75.2064     55.8910   9.0670525345e+01   5.6620218204e+01    0.2385259    0.2142978 -26.84 0.0002406907    1.106    0.096
       249 -11.0986     69.9021     50.3725   9.0685397432e+01   5.8708749198e+01    0.4267532    0.3279673 -83.90  0.001839219    1.826    0.452
       250 -11.5259    103.7300     48.1992   7.8109681292e+01   5.2534972781e+01     0.641188    0.2676214 -37.26  0.002340569    2.298    0.565
       251  -9.3426    135.3035     50.3152   7.0437240719e+01   4.4763504018e+01    0.1585183    0.1181295  15.83 0.0006788892    1.619    0.382
       252 -10.6514     78.6497     47.1332   8.6123419778e+01   5.7840403342e+01    0.2060819    0.1711329 -33.94  0.000588107    1.126    0.112
       253  -9.5448    220.8050     48.8213   5.5454871582e+01   2.3904276948e+01    0.1882619    0.1480646 -47.64  0.001021209    1.289    0.224
       254 -11.4406    152.1945     47.8591   6.5863900129e+01   4.0924355536e+01    0.4925261    0.3259881  55.90  0.001243562    1.539    0.350
       255  -8.7355     94.3048     49.3336   8.1530077671e+01   5.4332069402e+01    0.1529056    0.1157183  -2.08 0.0007038439    1.663    0.399
       256  -9.9755     61.8015     54.0152   9.5199118168e+01   5.9203664462e+01    0.2171623    0.1874714 -76.19 0.0007508098    1.294    0.227
       257 -10.3370    122.1903     42.7103   7.0785891886e+01   4.9212230391e+01    0.3892551    0.2602805 -52.74  0.001708893    1.736    0.424
       258 -10.4409     60.6238     46.3240   9.2912301952e+01   6.1073024075e+01    0.4059876    0.2551257  50.74  0.001932167    1.973    0.493
       259 -10.1291    142.7636     45.7380   6.7081197367e+01   4.3632905709e+01    0.3056979    0.2303893 -54.14    0.0008135    1.485    0.326
       260 -11.8963     88.3750     40.9603   8.0136492151e+01   5.7144417773e+01    0.7810238    0.3905211 -24.20  0.002323195    2.787    0.641
       261  -8.9606     18.3286     46.2660   1.1240738087e+02   6.5877968283e+01    0.1293271   0.08116444 -39.80  0.000293501    1.574    0.365
       262  -9.0552    233.2724     45.3927   5.3112438443e+01   2.1510847284e+01    0.1412715   0.09711672  12.28 0.0006989495    1.729    0.422
       263  -9.7407     51.2799     44.9741   9.6436944245e+01   6.2730698370e+01     0.195736    0.1584257 -46.06 0.0003520673    1.084    0.077
       264 -10.9664     51.9492     40.8134   9.4561402896e+01   6.3547107216e+01    0.3078685    0.2598907  85.82 0.0006837933    1.548    0.354
       265  -9.4978    175.4023     43.9324   6.0299076855e+01   3.5565401900e+01    0.2327491     0.138375 -28.92  0.001005947    1.585    0.369
       266 -10.0882     41.0049     41.0000   9.9722047876e+01   6.4936516312e+01    0.2976155    0.1709579  36.85  0.001479898    1.988    0.497
       267  -9.7198     44.0000     38.9904   9.7543178150e+01   6.5013048269e+01    0.7828583    0.4285411 -66.51  0.003432846    2.291    0.564
       268  -9.5756    110.7416     41.7726   7.3492497332e+01   5.2088014247e+01    0.2027447    0.1752807 -69.35 0.0004602523    1.372    0.271
       269 -11.3683     97.3146     40.9621   7.7184282897e+01   5.5253988386e+01    0.3506128    0.3012577  39.67 0.0006674369    1.206    0.171
       270 -10.8509     96.8715     36.9711   7.5633515237e+01   5.6053077164e+01    0.3113036    0.2770568 -45.04 0.0006536308    1.164    0.141
       271 -11.4095     97.9997     31.8962   7.3054042573e+01   5.6654292184e+01    0.3646472    0.2702287  28.69 0.0003981365    1.468    0.319
       272 -10.9926    101.0928     28.7864   7.0721251514e+01   5.6441691585e+01    0.2877962    0.2479049 -56.08 0.0004907013    1.321    0.243
       273 -10.4771     66.7248     40.9912   8.8280005782e+01   6.1207603051e+01    0.4037698    0.2430077  -8.95  0.001502832    3.248    0.692
       274 -10.2901     69.6061     37.2453   8.5526642381e+01   6.1458022566e+01    0.2482183    0.1770528  -4.93  0.001180623    1.835    0.455
       275 -12.0008     27.7424     38.0042   1.0527057171e+02   6.7033243638e+01    0.4881292    0.2812675 -50.29  0.001331464    1.432    0.301
       276 -12.1660     20.5420     37.5519   1.0888365447e+02   6.7761363472e+01    0.4075899    0.2661163 -79.34  0.001643894    1.656    0.396
       277 -12.4769     24.1116     35.1977   1.0623781470e+02   6.8005734283e+01    0.4706449    0.3195648 -35.89 0.0003304567    1.430    0.301
       278  -9.3844    220.4362     41.5093   5.3442764807e+01   2.4844141103e+01    0.1401011    0.1252075 -22.97 7.620974e-05    1.018    0.017
       279 -10.3809    184.0359     41.2665   5.8084616011e+01   3.3722020829e+01    0.2051933    0.1968241 -44.52 0.0005480829    1.057    0.054
       280  -9.8184    226.2005     40.1940   5.2444285550e+01   2.3674082938e+01    0.1893332    0.1460571 -47.55 0.0004709787    1.282    0.220
       281  -9.3141    215.5179     40.5377   5.3726707749e+01   2.6101787693e+01    0.1409515    0.1282404 -24.38 0.0002182001    1.009    0.009
       282 -12.4199    226.4963    246.3463   9.5100985357e+01  -3.4104159034e-01    0.4887634    0.2749776  11.16  0.003508843    1.623    0.384
       283 -11.4576     78.1756     32.1452   7.9914390516e+01   6.0812100852e+01    0.6475105    0.3113317 -23.93  0.002312851    2.929    0.659
       284 -10.7116     87.3357     24.7469   7.3157590632e+01   6.0165003401e+01    0.4633885    0.3095761  85.72  0.001880143    2.833    0.647
       285  -9.1072    128.2761    249.3434   1.1125986685e+02   1.1765074251e+01   0.09338114   0.06895671  13.62 0.0003354464    1.623    0.384
       286 -11.5587     82.1887     39.4122   8.1659963274e+01   5.8679183998e+01    0.3849564    0.2543842  35.28 0.0005738816    1.655    0.396
       287 -11.6713     80.7863     36.0455   8.0707358287e+01   5.9585109533e+01    0.3501201    0.2418147 -26.07 0.0008232177    1.468    0.319
       288  -9.3836    249.6869     38.3183   4.9663920874e+01   1.8775128951e+01    0.1376196   0.08373968 -48.80 0.0004621315    1.647    0.393
       289  -9.5012    199.4816     38.0086   5.4927736486e+01   3.0261795946e+01    0.2114263     0.135058 -24.04 -6.358105e-05    1.463    0.316
       290  -9.6998     61.9371     37.7683   8.8928749170e+01   6.2662547077e+01    0.1876501    0.1693963 -32.07  0.000298539    1.014    0.014
       291 -10.5454    166.4255     36.7772   5.9360629911e+01   3.8821232244e+01    0.2673594     0.192248  83.28 0.0006182455    1.653    0.395
       292 -10.8044    101.9391     36.7084   7.3955155039e+01   5.4965941317e+01    0.2974536    0.2413018  11.55 0.0007798404    1.360    0.265
       293 -10.6069    104.6979     34.2857   7.2095735111e+01   5.4734417396e+01    0.3268277    0.2576759 -84.47 0.0008419668    1.743    0.426
       294 -10.7043     10.1061     25.2100   1.1090232813e+02   7.1336793066e+01    0.2787396    0.1972024 -29.24 0.0007894986    1.439    0.305
       295 -11.2730     10.5532     34.6876   1.1344902669e+02   6.9123039845e+01     0.420188     0.268288   2.09  0.002011718    1.956    0.489
       296 -11.3504      5.9303     31.4733   1.1518946594e+02   7.0129553061e+01    0.5945847      0.19801 -42.12  0.002542299    2.797    0.643
       297  -9.7912    147.1094     36.0891   6.2617267209e+01   4.3932262398e+01    0.2332992     0.198994  28.65 0.0004624055    1.217    0.178
       298 -10.2090    150.8681     34.6083   6.1342386703e+01   4.3158337016e+01    0.3015452     0.221453  33.06  0.000693942    1.474    0.322
       299  -9.2936    127.4702     36.4564   6.7008286376e+01   4.8891426650e+01    0.1519296    0.1455571  -0.77  7.66196e-05    1.010    0.010
       300 -11.1447     59.5050     34.1758   8.8425069861e+01   6.3784615702e+01    0.3954207    0.2277835  17.06  0.001229244    2.742    0.635
       301  -9.8498     34.0332     34.1872   1.0065464617e+02   6.7253609834e+01    0.1869427    0.1692038 -79.86 0.0007676011    1.274    0.215
       302 -10.3809    129.8207     32.6286   6.4928389607e+01   4.8859526639e+01    0.2558034    0.2022091 -13.98 0.0007700991    1.291    0.225
       303  -9.5193    125.4086     32.8702   6.6048216225e+01   4.9938583533e+01    0.2033849    0.1909345  79.81 0.0005688047    1.168    0.144
       304  -9.0570    145.2971     32.2718   6.1533697751e+01   4.4922994710e+01    0.1535258    0.1123307  27.35 0.0002101176    1.524    0.344
       305 -10.0470     56.1676     31.0846   8.8526604411e+01   6.4936027372e+01    0.2921287    0.1660886 -35.21  0.001352506    1.687    0.407
       306 -10.8803     42.5142     31.8610   9.5394829503e+01   6.6743700309e+01     0.212619    0.1933065  14.14 0.0004337669    1.222    0.182
       307 -10.7207     17.6439     31.1462   1.0843884409e+02   6.9462024546e+01    0.4406771    0.2098231  42.73  0.002082344    2.741    0.635
       308 -11.1728    177.1953     29.8628   5.5328252977e+01   3.6881520382e+01    0.4499233    0.2238742 -30.25  0.001847395    1.849    0.459
       309  -9.6653     73.3632     31.5649   8.1485727128e+01   6.1847664425e+01    0.1906873    0.1343763  29.53 0.0007961458    1.573    0.364
       310 -10.2617     49.6920     31.3211   9.1649999602e+01   6.5870545362e+01    0.2540158    0.1857844  45.95 0.0009654612    1.642    0.391
       311 -10.6366     50.6849     28.0186   8.9666814480e+01   6.6390965668e+01    0.2582543    0.2015422 -27.28 0.0003390955    1.202    0.168
       312 -10.3437    207.7686     30.3670   5.1626790001e+01   2.9106802391e+01     0.190531     0.126279  54.93 0.0003266869    1.593    0.372
       313 -10.1469    139.8886     29.4584   6.1517068198e+01   4.6705542730e+01     0.411241    0.1994286  -5.27  0.001301944    3.439    0.709
       314 -10.2426    153.7627     28.9128   5.8703606768e+01   4.3140795798e+01    0.2517503    0.2251208 -74.63 0.0005644549    1.219    0.180
       315 -10.3942    247.9611     27.1860   4.6953264718e+01   2.0275736832e+01    0.2184143    0.1607199 -28.03 0.0003099811    1.148    0.129
       316 -11.2746    214.2851     27.0507   4.9952787144e+01   2.7892294488e+01    0.3464435    0.2233074 -51.13 0.0006070689    1.577    0.366
       317  -9.5049    120.0625     27.9860   6.5289162503e+01   5.1977850293e+01    0.1715695    0.1650736   9.43 0.0009332722    1.015    0.015
       318 -11.1413     69.9082     26.0219   8.0208251485e+01   6.3499062361e+01    0.4400998    0.3226867  50.23  0.002262262    1.557    0.358
       319 -13.2514      7.0580    244.4320   1.3125807909e+02   2.5509355729e+01    0.9677941    0.5965824  19.83  0.006608295    2.327    0.570
       320 -11.0003     65.1177     21.0571   7.9665617131e+01   6.5257596222e+01    0.2893921    0.2589262 -25.77  0.000751143    1.064    0.060
       321  -9.7448     21.2594     28.2806   1.0538609929e+02   6.9818228864e+01    0.1680254    0.1482957 -50.17  0.001101924    1.082    0.076
       322 -10.1439     24.8904     26.9651   1.0280817851e+02   6.9782717339e+01    0.1935879    0.1755228 -27.39 0.0004531223    1.138    0.121
       323 -10.2089    134.7418     22.6202   5.9806383633e+01   4.8923852063e+01    0.3203829    0.2512314  74.65 0.0009760531    1.392    0.282
       324  -9.6553    156.6450    245.7319   1.0614863144e+02   8.5709603968e+00    0.1035258   0.06420402  20.10 0.0003659963    1.632    0.387
       325 -10.7093    129.2944     19.3302   5.9537507381e+01   5.0746695623e+01    0.2897832    0.1957671 -15.17 0.0006618856    1.526    0.345
       326  -9.8311    146.0077     26.0397   5.9007529019e+01   4.5541978898e+01    0.2182494    0.2110913 -30.53  0.001195549    1.038    0.037
       327  -9.3144     16.4962     26.5457   1.0752748479e+02   7.0592692196e+01    0.1286121    0.1028192 -49.26 6.031196e-05    1.023    0.023
       328 -10.2430    237.4719     25.1259   4.7269269000e+01   2.2749032722e+01    0.1874603    0.1748817 -50.15 0.0007477428    1.103    0.093
       329 -10.8778    197.1998     24.8709   5.1142222836e+01   3.2322689753e+01    0.2515282    0.2140987 -14.54 0.0004801893    1.156    0.135
       330 -10.2108    112.1659     24.8530   6.5893481050e+01   5.4375437980e+01    0.2062852    0.1679684  13.63 0.0003960553    1.295    0.228
       331  -9.5763    173.2576     24.5727   5.4082175773e+01   3.8521970725e+01    0.2132493    0.1313041  53.72 0.0009522417    1.628    0.386
       332 -10.0220     93.8442     23.8803   7.0635696969e+01   5.8853541428e+01     0.276902    0.1908311 -33.42  0.001339391    1.391    0.281
       333 -10.3180     54.3234     23.7483   8.5863975748e+01   6.6649164445e+01    0.2444744     0.212467   3.61  0.000704486    1.176    0.150
       334 -10.1903    147.7445    245.2740   1.0759273863e+02   9.7722281013e+00    0.1322821   0.08096015 -29.71  0.000896152    2.400    0.583
       335 -12.1226     74.4661    238.5854   1.1968500424e+02   1.9674863354e+01    0.3888757    0.2859136  80.82   0.00295686    1.468    0.319
       336  -9.0088     97.4509     23.5111   6.9359021830e+01   5.8082565320e+01      0.14959    0.1350814   4.39 0.0003225231    1.067    0.063
       337 -10.1382    120.2262     21.4188   6.2410150178e+01   5.2820978541e+01    0.2804334    0.1866864  -2.87 0.0006586012    1.735    0.424
       338  -8.7511     36.4847     22.5416   9.4356171209e+01   6.9449262679e+01    0.1332634    0.1125645 -35.31 0.0006603771    1.004    0.004
       339  -9.7356     28.7476     21.4829   9.8238076779e+01   7.0570401827e+01    0.3461348    0.1447502 -32.22  0.001320214    3.215    0.689
       340 -10.2021    235.9139     21.1646   4.6336160464e+01   2.3488432431e+01     0.213928    0.1549774 -49.47 0.0006214707    1.313    0.238
       341 -10.3818     45.6129     20.5765   8.8524612721e+01   6.8595258374e+01    0.3072768    0.1721454  38.09  0.001227242    2.000    0.500
       342  -9.4308    115.5413    244.5328   1.1300562928e+02   1.3953510190e+01     0.103659   0.07582632  40.32 0.0001905333    1.021    0.020
       343 -10.9055     10.1184     15.5003   1.0734520280e+02   7.3500238046e+01    0.2291669    0.1632228 -35.51 0.0006162506    1.265    0.209
       344 -10.0746    161.9819     20.0032   5.4089579487e+01   4.2013101660e+01    0.2174918    0.2134879 -21.03            0    1.003    0.003
       345 -10.3901    226.7274     19.0528   4.6517028659e+01   2.5780393148e+01    0.2278176    0.1908546  64.74 0.0005032083    1.316    0.240
       346 -10.1136    109.5316    242.8483   1.1389926648e+02   1.4917087828e+01    0.2160271    0.1267458  57.52  0.001016293    1.733    0.423
       347 -10.0286    217.5687     16.4857   4.6577384218e+01   2.8181578889e+01    0.3287329    0.1462096  61.39  0.001417261    2.300    0.565
       348  -9.6299    108.5486     17.5395   6.3472066792e+01   5.6245266747e+01    0.1474673     0.138536   7.38 5.719578e-05    1.005    0.005
       349  -9.4694     63.1567    243.8609   1.2195090955e+02   2.0172483495e+01    0.1180005     0.101763  40.71  0.000463273    1.325    0.245
       350 -10.1960    179.3267    243.6718   1.0217586315e+02   5.8526260629e+00   0.09672406     0.069565  50.13  0.000705047    1.702    0.413
       351 -11.4305     37.4999    242.5238   1.2622026467e+02   2.3010767885e+01    0.3908791    0.1137452  35.85  0.002221581    2.478    0.596
       352 -10.0127     35.6847    239.6613   1.2640951547e+02   2.3610779766e+01    0.1533331    0.1243981  15.74  0.001068747    1.817    0.449
       353 -10.7191    156.3464    240.8437   1.0567905811e+02   9.1647577149e+00    0.1552167    0.1322335 -84.26  0.001243711    1.873    0.466
       354  -9.6579     50.2201     15.4402   8.3430968458e+01   6.8823440314e+01    0.2393155    0.1295116  35.58  0.001133513    2.032    0.508
       355  -9.8897     88.9759    240.9995   1.1732140147e+02   1.7652649842e+01    0.1386184    0.1153924   8.09 0.0008089159    1.686    0.407
       356  -9.6306     46.9405    241.4780   1.2458514362e+02   2.2221053529e+01     0.139107   0.07293601  38.45 0.0003117147    1.478    0.323
       357  -9.1908     50.3084    240.3218   1.2395709901e+02   2.2044686012e+01   0.08090497   0.07365055  11.56 0.0006763684    1.644    0.392
       358 -10.3520    195.6999    238.3658   9.8881029588e+01   4.2627641213e+00    0.2111745     0.134322  22.11  0.001542596    1.243    0.196
       359  -9.4124    243.5024    237.9875   9.1467170532e+01  -1.7009895180e+00     0.106762   0.08483801 -41.29 0.0008103334    2.554    0.608
       360 -10.3818     31.4544    237.2844   1.2703082639e+02   2.4374689750e+01    0.1923106    0.1132811  56.19 0.0007176413    1.208    0.172
       361 -10.1332    168.5437     13.4796   5.0825832028e+01   4.0952202828e+01     0.253251    0.1187304  56.13 0.0006403841    2.048    0.512
       362 -10.3833     29.3406    232.9836   1.2722657536e+02   2.5230658388e+01    0.2579134    0.1114414  57.62  0.001599422    1.737    0.424
       363 -10.7527    177.0041    235.4689   1.0159321590e+02   7.0312365814e+00    0.3362735    0.1716432  14.96  0.001771235    2.883    0.653
       364 -10.1962    159.9027    235.8942   1.0452972867e+02   9.2667208524e+00    0.1653483    0.1165472  22.03 0.0007125125    1.279    0.218
       365  -9.3696    231.3145    235.3301   9.2916906334e+01   4.1264265554e-03    0.1075975   0.05829106  13.38 0.0004034806    1.677    0.404
       366 -10.9877    153.4833    233.9017   1.0540851187e+02   1.0361104765e+01    0.2005877    0.1575417  -0.07  0.001018622    1.505    0.336
       367 -10.0319    167.1610    233.8199   1.0305555717e+02   8.5338292927e+00    0.1439965    0.1040595  17.15  0.000990838    1.308    0.236
       368 -10.0311     85.7960    232.8170   1.1728399983e+02   1.9191764426e+01    0.1470616    0.0924906  53.71 0.0005201511    1.304    0.233
       369  -9.7819     79.9213    231.4966   1.1823980573e+02   2.0079395239e+01     0.157673   0.07743858  39.80 0.0004809629    1.522    0.343
       370  -9.2441    156.3188    224.3384   1.0381288934e+02   1.1147342939e+01    0.1096641    0.0740061  12.35 0.0007049409    1.708    0.415
       371 -10.4961    181.0223    248.4853   1.0245100393e+02   5.1426210492e+00    0.2071514   0.09906723 -23.66  0.001200069    3.330    0.700
       372 -10.9797      5.5344    227.1006   1.3110247834e+02   2.8273655403e+01    0.3742887    0.1063031  63.99  0.002101001    2.759    0.638
       373  -8.9612    140.3129    227.3072   1.0699311436e+02   1.2962658415e+01    0.1048677   0.07410153  14.67 0.0006297795    1.622    0.384
       374  -9.9594    129.7735    226.7323   1.0882094312e+02   1.4459330636e+01    0.2385561   0.09540489  50.33  0.001183117    2.650    0.623
       375  -9.8133     24.0323    232.4432   1.2811497130e+02   2.5810871902e+01    0.1404363    0.1007333  69.11 0.0005882249    1.176    0.150
       376 -10.3306     66.7816    226.5432   1.2027382645e+02   2.2339033678e+01     0.278144    0.1107063  46.19  0.001210527    1.825    0.452
       377 -10.7120    120.0707    226.5004   1.1055190517e+02   1.5781051704e+01    0.1655187   0.08347458  38.38 0.0004663458    1.511    0.338
       378 -10.5732    123.5875    221.9980   1.0945469678e+02   1.5941619883e+01    0.2046332    0.1827859 -11.47  0.001115085    1.433    0.302
