#   1 NUMBER                 Running object number                                     
#   2 MAG_AUTO               Kron-like elliptical aperture magnitude                    [mag]
#   3 X_IMAGE                Object position along x                                    [pixel]
#   4 Y_IMAGE                Object position along y                                    [pixel]
#   5 X_WORLD                Barycenter position along world x axis                     [deg]
#   6 Y_WORLD                Barycenter position along world y axis                     [deg]
#   7 A_WORLD                Profile RMS along major axis (world units)                 [deg]
#   8 B_WORLD                Profile RMS along minor axis (world units)                 [deg]
#   9 THETA_WORLD            Position angle (CCW/world-x)                               [deg]
#  10 FWHM_WORLD             FWHM assuming a gaussian core                              [deg]
#  11 ELONGATION             A_IMAGE/B_IMAGE                                           
#  12 ELLIPTICITY            1 - B_IMAGE/A_IMAGE                                       
         1 -14.8126    162.9463    157.0267   2.9098279913e+02   4.9712266860e+00   0.04834549   0.03059605 -43.72  0.004858692    1.646    0.392
         2 -14.7968    157.5769     43.8822   2.9033391320e+02   6.2897906407e+00    0.0648322    0.0466447 -58.05  0.003835855    1.402    0.287
         3 -14.6598    169.9851     11.0830   2.8998186945e+02   6.5844509972e+00   0.06363069   0.05204165   1.30  0.005052078    1.328    0.247
         4 -12.0703    189.6909     14.5400   2.8977307574e+02   6.4221817787e+00   0.01298329   0.01263101 -46.37 0.0008753043    1.043    0.041
         5 -13.1664     30.5991    219.4233   2.9292124133e+02   5.0833270985e+00   0.02533676   0.01800361  55.43  0.001592309    1.592    0.372
         6 -13.2653    189.1335    249.5320   2.9125701088e+02   3.7569349653e+00     0.030701    0.0148584  18.96  0.002555701    2.425    0.588
         7 -19.9186     93.8320    232.8085   2.9226552287e+02   4.5392397603e+00    0.4397426    0.4035364  62.40   0.04789463    1.153    0.133
         8 -13.0763     11.8309    205.9481   2.9305669749e+02   5.3527183395e+00   0.03434551   0.01638859  21.95   0.00291724    2.284    0.562
         9 -10.2160     30.4504    199.5182   2.9279872050e+02   5.3106913718e+00  0.006640466  0.006400318 -13.27 0.0001445286    1.039    0.037
        10 -11.2875     21.8876    238.4684   2.9314188634e+02   4.9205562507e+00  0.009891547   0.00846594 -34.99  0.000525394    1.207    0.172
        11 -13.9522    195.6829    171.1523   2.9068895588e+02   4.6067823478e+00   0.04091333   0.02371066 -76.05  0.002964677    2.213    0.548
        12 -14.3653    207.5151    178.1121   2.9059447509e+02   4.4539662022e+00   0.05077584     0.035306 -69.34  0.003956132    1.566    0.361
        13 -12.2773    203.1106    172.3653   2.9060981861e+02   4.5467077639e+00    0.0185328   0.01443569 -59.73  0.001130482    1.305    0.234
        14 -12.9884    156.9024    179.6714   2.9119556680e+02   4.7514802682e+00   0.02305197   0.01240565 -62.29  0.002136739    1.921    0.479
        15 -19.1096     77.8535     95.2747   2.9159087013e+02   6.2022424897e+00    0.8207553   0.04135817 -61.19   0.02394558   19.429    0.949
        16 -12.8103    185.7361    167.8761   2.9078458294e+02   4.7059863007e+00   0.02360029   0.01249211 -62.22  0.001964392    1.953    0.488
        17 -11.9676    230.1762    166.4875   2.9025686573e+02   4.4447097461e+00   0.01636996  0.009757794 -87.88  0.001401811    2.591    0.614
        18 -12.0630    201.3349    165.2707   2.9058599213e+02   4.6383787802e+00   0.01695544    0.0122083  81.70 0.0009237902    1.808    0.447
        19 -11.1372    160.0058    247.6309   2.9158514961e+02   3.9596954335e+00   0.01843097   0.01193766  12.00  0.001639727    1.776    0.437
        20 -14.6817    154.6174    146.5234   2.9101422344e+02   5.1424532394e+00   0.06010959    0.0263401  51.33  0.004485696    3.149    0.682
        21 -14.4905    133.8513    146.2808   2.9125556709e+02   5.2744535218e+00   0.07037959   0.02715313 -71.99  0.004542786    4.312    0.768
        22 -14.4212    143.5280    144.1250   2.9112884795e+02   5.2387422372e+00   0.05089117   0.02639526 -78.32   0.00407818    2.901    0.655
        23 -12.2442    139.6367    148.9117   2.9120441128e+02   5.2085528552e+00   0.01593266   0.01291499  51.33 0.0007686405    1.301    0.231
        24 -14.1635    135.8358    127.5209   2.9111455491e+02   5.4753207082e+00    0.0817266   0.01885667 -65.56  0.003961003    7.257    0.862
        25 -13.0078    134.6665    109.8640   2.9101729825e+02   5.6832424933e+00   0.04815524  0.009489438 -62.36  0.002572301    5.808    0.828
        26 -11.2186    222.6608    161.9349   2.9031598701e+02   4.5432955364e+00   0.01682847   0.01115593  88.89  0.001059974    2.093    0.522
        27 -10.9043    150.9642    240.7696   2.9164779442e+02   4.0938931492e+00   0.01253529  0.009952617 -79.41  0.001112985    1.417    0.294
        28 -10.6044      4.1733    157.8942   2.9284625339e+02   5.9467232719e+00    0.0202753  0.009135505 -37.33  0.001545918    2.978    0.664
        29 -10.5970     12.4231    243.4715   2.9328371079e+02   4.9221590794e+00  0.006594561  0.006388762 -16.84 9.279288e-05    1.033    0.032
        30 -10.0900     22.9925    156.2502   2.9261559930e+02   5.8490307110e+00  0.009216934  0.008466209  24.87 0.0004417667    1.069    0.064
        31 -11.3797    191.7953    154.2633   2.9062827895e+02   4.8228978361e+00   0.01802473   0.01073097 -35.03  0.001682724    1.984    0.496
        32 -11.2705     17.7639    154.1750   2.9266384832e+02   5.9049839416e+00   0.01234395   0.01050159 -24.52 0.0003505875    1.249    0.199
        33 -11.6982     18.6592    149.3164   2.9262297582e+02   5.9547057458e+00   0.01998003   0.01393481  34.67  0.002124431    1.394    0.283
        34 -10.3953    182.8546    149.7858   2.9070462274e+02   4.9294921304e+00  0.009248052  0.007724133  64.08  0.000443951    1.332    0.249
        35 -13.1935    173.9357    148.4102   2.9080022160e+02   5.0006954760e+00   0.02180091   0.01732654 -84.05  0.001565889    1.448    0.310
        36 -13.4778    198.5870    223.3965   2.9098288576e+02   3.9950675770e+00   0.02361238   0.01752883 -26.07  0.001178794    1.535    0.349
        37 -12.1974     27.5112    145.0952   2.9249289377e+02   5.9479347564e+00   0.02146919    0.0207406 -13.23  0.001864096    1.035    0.034
        38 -10.8568     26.5172    138.8544   2.9246547731e+02   6.0250630735e+00    0.0123133  0.009548291  11.13  0.000540914    1.374    0.272
        39 -12.1986    176.2930    142.8830   2.9073794029e+02   5.0488104381e+00   0.01206951  0.008857892  41.30 0.0008144579    1.361    0.265
        40 -12.6503    156.1583    139.7202   2.9095347459e+02   5.2101721763e+00   0.01643853   0.01201068  70.15  0.001598416    1.711    0.416
        41 -11.2306      2.8221    135.2721   2.9272063550e+02   6.2123754562e+00   0.01260945  0.009141144   0.39  0.001153837    1.626    0.385
        42 -11.9510    156.1471    132.8648   2.9091053859e+02   5.2881427683e+00   0.01025042  0.009019263  57.71 0.0003545304    1.207    0.171
        43 -13.6228    160.8818    128.1510   2.9082554689e+02   5.3122147781e+00   0.02540337   0.02064432  33.05  0.002913832    1.203    0.168
        44 -11.7399    141.5098    121.0099   2.9100726693e+02   5.5139943381e+00   0.01387636  0.008538684  45.14  0.001334153    1.693    0.409
        45 -13.0805     38.3034    124.1423   2.9223528018e+02   6.1193767468e+00   0.02885753   0.01337078  24.10  0.002444212    2.259    0.557
        46 -12.5083    154.7984    153.0533   2.9105311005e+02   5.0671146710e+00   0.01481529   0.01214218  50.80  0.001186647    1.279    0.218
        47 -10.1698     22.2605    221.8771   2.9303407226e+02   5.1070008575e+00  0.009159038  0.005300123 -50.66 0.0003412452    1.718    0.418
        48 -10.8712    205.4316    110.1603   2.9019160060e+02   5.2387955817e+00   0.01452664  0.009886778  14.36  0.001041752    1.612    0.380
        49 -10.9283     18.1492    221.5692   2.9308023550e+02   5.1359309790e+00  0.009382817  0.008004593 -49.20 0.0004474845    1.180    0.152
        50 -11.8997     29.0851    105.1288   2.9222414184e+02   6.3926366119e+00   0.02103129   0.01194373   7.17 0.0004499937    2.422    0.587
        51 -10.3661     28.2856    240.0259   2.9307679683e+02   4.8632631711e+00  0.009956833  0.008218798  71.30  0.001118842    1.387    0.279
        52 -11.7579     16.3374    250.0672   2.9327904044e+02   4.8229253934e+00  0.009646262  0.007924956 -56.52  0.001064745    1.228    0.186
        53 -11.6471     62.0286     93.6993   2.9176639054e+02   6.3183644717e+00  0.009423546  0.008576568  22.77  0.000224645    1.080    0.074
        54 -11.5603     41.8592     92.4331   2.9199481471e+02   6.4578174394e+00   0.01421823  0.009463819 -58.35 0.0006373682    1.510    0.338
        55 -12.2374     51.6305     91.7416   2.9187595484e+02   6.4051063087e+00   0.01748702   0.01392136 -15.46  0.001200485    1.414    0.293
        56 -11.5917      3.9982     90.0000   2.9242340173e+02   6.7198391481e+00   0.01343368  0.009094495  18.92 0.0008683854    1.546    0.353
        57  -9.7867    106.4124     82.4856   2.9117598522e+02   6.1700928009e+00  0.006528713  0.006449881  -9.39 8.862485e-05    1.015    0.015
        58 -10.8991    142.1454     80.3779   2.9074434395e+02   5.9716314449e+00   0.01146186  0.008856658 -46.82 0.0006441776    1.308    0.235
        59 -14.5230    147.0969     58.4534   2.9054837846e+02   6.1897331305e+00   0.05623781   0.04330339 -43.57  0.002767398    1.327    0.246
        60 -12.1946     23.7072    217.5238   2.9298999534e+02   5.1475778901e+00   0.01151981   0.01060053 -43.02 0.0005515913    1.096    0.088
        61 -13.1813    161.4303     34.9158   2.9023229875e+02   6.3675024296e+00   0.02064962   0.01865439  31.83 0.0008481511    1.086    0.080
        62 -10.9656     13.4122     59.8780   2.9212409363e+02   7.0039060608e+00   0.01125441  0.008783529  40.39 0.0004430026    1.276    0.216
        63 -11.3517    167.6680    245.6372   2.9148320370e+02   3.9347123859e+00   0.01249122  0.007424217 -48.86 0.0009018237    1.690    0.408
