#   1 NUMBER                 Running object number                                     
#   2 MAG_AUTO               Kron-like elliptical aperture magnitude                    [mag]
#   3 X_IMAGE                Object position along x                                    [pixel]
#   4 Y_IMAGE                Object position along y                                    [pixel]
#   5 X_WORLD                Barycenter position along world x axis                     [deg]
#   6 Y_WORLD                Barycenter position along world y axis                     [deg]
#   7 A_WORLD                Profile RMS along major axis (world units)                 [deg]
#   8 B_WORLD                Profile RMS along minor axis (world units)                 [deg]
#   9 THETA_WORLD            Position angle (CCW/world-x)                               [deg]
#  10 FWHM_WORLD             FWHM assuming a gaussian core                              [deg]
#  11 ELONGATION             A_IMAGE/B_IMAGE                                           
#  12 ELLIPTICITY            1 - B_IMAGE/A_IMAGE                                       
         1 -13.5995    170.9965     52.1376   6.4934945010e+01   3.5458733639e+01     2.025613     1.209318  25.22  0.006041416    2.430    0.588
         2 -14.1549    185.5286     37.0888   5.7706450439e+01   3.3750305317e+01     1.056137     1.011344  15.71  0.003557064    1.098    0.090
         3 -13.5673    189.8914     31.1141   5.5207115915e+01   3.3354132370e+01    0.6781777    0.6026272  67.34  0.001292943    1.107    0.097
         4 -14.5600    207.4468      6.2583   4.5705240974e+01   3.1485900851e+01     1.627603     1.243918  28.33  0.004889342    1.575    0.365
         5 -12.4153     59.1449      3.5958   7.4947350167e+01   6.7632751708e+01    0.4418725    0.2579825  22.20  0.002277955    1.921    0.479
         6 -13.7956    190.7536     14.9157   5.0096166320e+01   3.4977769896e+01      1.00415    0.7017363 -66.79  0.003410083    1.546    0.353
         7 -12.2701    195.3355    196.8584   9.4631698323e+01   6.4984493317e+00     1.084529    0.7880313  82.55  0.005549616    2.833    0.647
         8 -12.9124    247.7034    246.2706   9.3540418400e+01  -6.9478805895e+00    0.5574147    0.3862932  -4.71  0.004342425    1.427    0.299
         9 -18.1763     48.4935    245.5233   1.2608711987e+02   2.1193760384e+01     6.614211     4.236848  34.37   0.04870185    1.857    0.462
        10 -12.2645    153.1718    199.2630   1.0285199732e+02   1.3478188559e+01    0.5052988    0.1965856 -50.88  0.002241112    3.202    0.688
        11 -12.6219     65.3785    198.4327   1.1987481639e+02   2.7086327313e+01    0.3659148     0.239863 -47.88   0.00157372    2.267    0.559
        12 -11.0924     82.0397    195.6402   1.1635216635e+02   2.5370403677e+01    0.2920368    0.2750018 -60.15  0.002049796    1.427    0.299
        13 -11.5918    160.1208    197.9729   1.0133698419e+02   1.2479481292e+01    0.4932272    0.3601794  88.12  0.001213637    2.139    0.533
        14 -12.1332     96.2192    188.0507   1.1266358267e+02   2.4721341482e+01    0.5346656    0.3337619  61.65  0.001380715    1.508    0.337
        15  -9.8625     58.7675    188.2877   1.2027945222e+02   2.9831081643e+01    0.2982866     0.179213 -49.07  0.001712062    2.393    0.582
        16 -11.5523    154.9937    187.4057   1.0070824704e+02   1.5053702099e+01    0.2744587    0.2265004 -75.25  0.001021944    1.525    0.344
        17 -10.0424     87.3120    204.6638   1.1623433976e+02   2.3001381914e+01    0.2300348    0.1529624  61.90 0.0007316114    1.280    0.219
        18 -11.4207     99.3046    180.9928   1.1115535816e+02   2.5582942142e+01     0.247513    0.2219648  52.41 0.0006575633    1.165    0.142
        19  -9.9093     53.3845    181.2231   1.2073854213e+02   3.1863326227e+01    0.1527334    0.1248791 -72.54 0.0004410575    1.342    0.255
        20 -10.8904    149.1760    179.9572   1.0068164574e+02   1.7341534240e+01    0.2008972    0.1662165  69.52  0.001107698    1.314    0.239
        21 -11.0700    204.5062    176.4644   8.9405007555e+01   7.6780579325e+00    0.3839248    0.2581908 -44.40  0.001552713    1.814    0.449
        22  -9.2799    198.5022    177.4945   9.0691688312e+01   8.6354393765e+00    0.1315127    0.1128188  27.42 0.0008106579    1.008    0.007
        23 -10.6604    163.9918    170.0022   9.5989156050e+01   1.6293725189e+01    0.2440718    0.1950864 -56.19 0.0003781309    1.477    0.323
        24  -9.9601    185.1195    169.7332   9.1774123714e+01   1.2312255575e+01    0.2168927    0.1869166 -49.64  0.001301865    1.384    0.278
        25 -12.8378    149.4613    187.2150   1.0177098526e+02   1.6066483400e+01    0.4489173    0.3455794  72.86  0.001628371    1.546    0.353
        26 -10.0164     88.0005    201.5012   1.1578327926e+02   2.3465813393e+01    0.2522339    0.1512104  67.20   0.00106027    1.637    0.389
        27 -19.0370     24.1670     99.8789   1.1887416005e+02   5.2514457392e+01     17.07663     1.814465 -70.04   0.04001483    8.633    0.884
        28 -10.5271    192.5707    164.8252   8.9415143068e+01   1.1644498303e+01    0.2524742    0.2384364  -6.36 0.0007349247    1.131    0.116
        29 -11.0956      5.3949    161.7173   1.2920126177e+02   4.0609814614e+01    0.2405801    0.1640789  31.43  0.001725871    1.783    0.439
        30 -12.5584     99.2412    152.6603   1.0713456997e+02   3.1262490094e+01    0.5493104    0.4422033 -29.29  0.003105507    1.729    0.422
        31 -11.1429    188.5463    154.6922   8.8176666192e+01   1.4035415943e+01    0.5435246    0.2852776  47.97  0.002465129    1.810    0.448
        32 -11.7245    133.9529    145.9407   9.7937173349e+01   2.6475234316e+01     1.121669    0.2980204 -55.12  0.002992616    5.795    0.827
        33 -10.2395    113.6237    151.5393   1.0361580002e+02   2.9070065219e+01    0.3039557    0.1877886  85.69  0.001310103    2.538    0.606
        34 -10.4859    174.5657    148.7336   8.9736688181e+01   1.7857659835e+01    0.2902054     0.235931  73.28 0.0008464478    1.525    0.344
        35 -10.0043    160.0917    147.2352   9.2444055210e+01   2.1066676842e+01    0.2558128    0.1849458 -78.40 0.0008046795    2.063    0.515
        36 -11.0552    143.8985    146.7948   9.5873691094e+01   2.4380436092e+01    0.3849466    0.2115472 -56.84  0.001678079    2.167    0.539
        37 -11.7293    109.2215    139.0923   1.0243449824e+02   3.2431663719e+01    0.5311118     0.308261 -36.70  0.002321174    2.409    0.585
        38 -12.5691     98.1417    138.3162   1.0499454072e+02   3.4487319564e+01    0.2774445    0.2503264  74.50 0.0005821635    1.020    0.020
        39 -11.4826    105.9573    130.8339   1.0166665570e+02   3.4769178625e+01    0.4083093     0.319052 -87.90  0.001220433    1.406    0.289
        40 -11.5161    104.0013    125.4265   1.0108731532e+02   3.6283631431e+01    0.2697764    0.2467738 -13.83 0.0008091752    1.350    0.259
        41 -10.8410    135.8422    127.7505   9.3749181063e+01   2.9755193569e+01    0.5280678    0.1488722 -51.45  0.001539979    4.220    0.763
        42 -10.1919    160.7995    127.8746   8.8104744518e+01   2.4515277384e+01    0.2743587    0.2085114 -65.07  0.001222453    1.617    0.382
        43  -9.7732    120.4032    123.7758   9.6613512901e+01   3.3623155507e+01    0.2009076    0.1337786 -39.62 0.0007595347    1.681    0.405
        44 -10.8019    116.1923    129.4902   9.8859775271e+01   3.3208350260e+01    0.2823239    0.2449044  -6.00 0.0007371384    1.496    0.331
        45 -10.0372    111.0890    118.7527   9.7868065177e+01   3.6453104727e+01    0.2059237    0.1820107  75.34 0.0003951194    1.142    0.124
        46 -10.1252    168.1901    113.0721   8.2960054659e+01   2.5649243927e+01    0.3335608    0.2285746 -74.48  0.001372692    2.335    0.572
        47 -10.0418    135.0000    112.4508   9.0409860038e+01   3.3048609224e+01    0.3266569    0.0844604 -45.23 0.0009334127    3.924    0.745
        48 -10.8162    118.8275    110.5068   9.3990789080e+01   3.6744111438e+01    0.5262702    0.2626149  61.96   0.00182023    3.178    0.685
        49 -10.3350    205.5067    110.1521   7.4860162703e+01   1.7673955326e+01    0.3145031     0.202558  40.77 0.0008848311    1.565    0.361
        50  -9.4643     73.6203    103.1836   1.0476918623e+02   4.6153664417e+01    0.1900106    0.1151543 -50.90 0.0005696326    1.570    0.363
        51  -9.2496     73.4960     73.4945   9.7547093706e+01   5.2801033398e+01    0.1375319    0.1256615 -54.53 0.0008105197    1.026    0.025
        52 -11.4692    167.4117     67.3294   7.0381875729e+01   3.3978450962e+01     0.864445    0.4964041 -78.97  0.002561984    4.342    0.770
        53 -11.7021    157.8133    235.7195   1.0679209250e+02   7.5175998889e+00    0.2992296    0.2044438  37.26  0.001216232    1.183    0.155
        54 -11.2638     71.7054    230.6185   1.2129891191e+02   2.0721359101e+01    0.2714677    0.1881735  52.41  0.001337335    1.129    0.114
        55 -10.5626    152.1803    210.9427   1.0467037769e+02   1.1864654960e+01    0.1769873    0.1411099  58.78 0.0003237504    1.249    0.199
        56 -10.2071     63.9636    223.6238   1.2213543269e+02   2.2843853845e+01    0.1822413    0.1089339  70.56 0.0005917077    1.465    0.318
        57 -10.3066     61.4841    220.1565   1.2232229902e+02   2.3734141374e+01    0.1520362    0.1059096 -86.99 0.0003708178    1.405    0.288
