#   1 NUMBER                 Running object number                                     
#   2 MAG_AUTO               Kron-like elliptical aperture magnitude                    [mag]
#   3 X_IMAGE                Object position along x                                    [pixel]
#   4 Y_IMAGE                Object position along y                                    [pixel]
#   5 X_WORLD                Barycenter position along world x axis                     [deg]
#   6 Y_WORLD                Barycenter position along world y axis                     [deg]
#   7 A_WORLD                Profile RMS along major axis (world units)                 [deg]
#   8 B_WORLD                Profile RMS along minor axis (world units)                 [deg]
#   9 THETA_WORLD            Position angle (CCW/world-x)                               [deg]
#  10 FWHM_WORLD             FWHM assuming a gaussian core                              [deg]
#  11 ELONGATION             A_IMAGE/B_IMAGE                                           
#  12 ELLIPTICITY            1 - B_IMAGE/A_IMAGE                                       
         1 -12.4874     74.7485     51.1778   9.1924243199e+01   5.7258126504e+01     1.349546    0.8377339 -51.30  0.006569624    1.797    0.444
         2 -12.0746     69.0509     18.8074   8.0560453498e+01   6.3424780391e+01    0.8352099    0.5182018  39.25  0.003919749    1.587    0.370
         3  -9.5936     64.8207      8.7138   7.7247210174e+01   6.5432673699e+01    0.6088303    0.5312044  53.80  0.003953109    1.512    0.339
         4 -12.2129     53.1052     30.6026   9.2061077371e+01   6.4174408673e+01     1.103438     0.414374  33.97   0.00109912    2.906    0.656
         5 -12.1417     60.5920     45.6639   9.5093451629e+01   6.0462083285e+01     1.058658    0.5268449 -42.79  0.005014986    1.805    0.446
         6 -11.5987    119.0407     57.9607   8.0572300002e+01   4.7427943257e+01      1.37631     1.140777 -88.40  0.006929855    1.623    0.384
         7 -12.0550    124.7300     27.8293   6.8133411022e+01   5.0613491804e+01    0.9024398    0.5753336  41.31    0.0034788    1.511    0.338
         8 -12.8766    120.3141     38.4792   7.3211455059e+01   5.0223172848e+01     0.808055    0.5845052 -59.02  0.002620081    1.834    0.455
         9 -10.1927     21.9413      4.5270   9.4284597908e+01   7.2068906810e+01    0.3217809    0.1581039 -46.21 0.0009761264    2.282    0.562
        10 -12.4097     18.9009     22.7610   1.0437681380e+02   6.9388588824e+01    0.9917746    0.6959779  37.93  0.006402106    1.952    0.488
        11 -11.5233     26.1699     27.5326   1.0275819857e+02   6.7882641333e+01    0.4697714    0.2898035 -47.92  0.001912001    1.459    0.315
        12 -12.4110     16.7742     13.5907   1.0151765402e+02   7.1149810559e+01    0.5589963    0.4119392 -40.73 0.0006601787    1.268    0.211
        13 -11.9220     22.4836     11.5370   9.7550647481e+01   7.0947159754e+01    0.5605256    0.3645502 -16.67  0.002801749    1.363    0.266
        14 -11.4977    178.6606     21.1164   5.6070123443e+01   3.7852224053e+01    0.6986691    0.3333235  44.61  0.002739548    2.297    0.565
        15 -10.7557    138.6077     32.4984   6.6775789988e+01   4.6664011226e+01    0.5649287     0.540027  75.91   0.00258174    1.116    0.104
        16 -12.0600    162.9753     28.6480   6.0849769444e+01   4.1004709510e+01    0.6247462    0.4734843  23.87 0.0007942675    1.510    0.338
        17 -10.9918    138.1407     21.8438   6.3045666892e+01   4.8061264056e+01     1.037178     0.276293  46.57  0.003230012    3.636    0.725
        18  -9.6914    147.4028     16.4444   5.9411583584e+01   4.6325487714e+01    0.5262499    0.4449154  47.31  0.002980471    1.110    0.099
        19 -12.3192    104.6718     12.9588   6.7041057534e+01   5.6949319812e+01    0.6371557    0.4240861 -31.32  0.003365888    1.586    0.370
        20 -12.6787    113.2163     25.2123   6.9900086215e+01   5.3620170810e+01    0.9181023    0.4526122  53.51   0.00207162    1.920    0.479
        21 -11.4019    198.9546     28.2767   5.5473538221e+01   3.1890770306e+01    0.6248689    0.4227463 -13.84  0.002069925    1.743    0.426
        22  -9.3719     87.2633      7.3291   6.9256287551e+01   6.1277474997e+01    0.5925173    0.3505985  53.50  0.003082537    1.660    0.398
        23 -10.7017     90.8544     21.0197   7.4325742949e+01   5.8989471373e+01    0.5952494    0.3810828 -19.94  0.002513702    1.551    0.355
        24 -11.5706     85.8679     15.8861   7.3575946088e+01   6.0624769953e+01    0.9818467    0.3099973 -28.48  0.003715344    3.078    0.675
        25 -10.7174     41.4378      4.6275   8.4685134850e+01   6.9644380440e+01    0.4561118    0.2250758 -12.99   0.00216177    2.498    0.600
        26 -10.6029     32.8630     12.7475   9.2926593679e+01   6.9625729061e+01     0.221233    0.2043198  45.86 0.0005773664    1.696    0.410
        27 -11.7178     36.0796     17.7228   9.3785619198e+01   6.8475699618e+01    0.6680334    0.2763048 -29.08  0.002378629    2.514    0.602
        28 -12.0898     48.3078     12.9170   8.5936175484e+01   6.7558108019e+01    0.6786821    0.3898153  33.06   0.00330663    1.748    0.428
        29 -10.4651    120.3539     18.9677   6.5729863735e+01   5.2692779635e+01     1.301896    0.2931921 -20.86  0.003179317    6.908    0.855
        30  -9.6010    141.4562     12.3397   5.9006860712e+01   4.8231744766e+01    0.2666142    0.1761481  11.37 0.0008139024    1.827    0.453
        31 -11.7705    133.5599     15.3504   6.1569834339e+01   4.9889979898e+01     1.108971    0.3965842  65.60  0.003976059    2.897    0.655
        32 -10.4523    127.2104     11.7931   6.1490100967e+01   5.1797513022e+01    0.4626837    0.2787484 -89.47  0.001527136    2.538    0.606
        33 -12.2356    239.1819     15.7492   4.8055450118e+01   2.3684610466e+01    0.9515685    0.5652496  58.98  0.003899544    1.789    0.441
        34 -11.1672    165.1358     17.7467   5.6974759608e+01   4.1676878208e+01    0.4631203    0.2897879  34.82  0.001364786    1.823    0.451
        35 -10.5378      9.6012     21.7889   1.0871823643e+02   7.0276370272e+01    0.2512044    0.1611695 -54.95  0.000738717    1.485    0.327
        36 -11.4789    245.6953      7.8466   4.5702796490e+01   2.3073653552e+01    0.4808002    0.3412957  -8.76  0.002763468    1.848    0.459
        37 -10.5363    242.2543      3.6080   4.4981668805e+01   2.4270093608e+01    0.3663704    0.1824722  82.63  0.001834542    2.026    0.506
        38 -10.0667    225.9523     15.7487   4.9216889862e+01   2.6735073005e+01    0.3516178    0.1618334 -35.01 0.0009340649    1.966    0.491
        39 -10.6112    186.4511     15.1257   5.3258595342e+01   3.6506993944e+01    0.3224384    0.2567472  61.48 0.0005996405    1.203    0.169
        40  -9.8835    191.5972     16.4758   5.3024120791e+01   3.5063563224e+01    0.3248776    0.2587673  28.64  0.001787081    1.477    0.323
        41 -11.5665    192.7186      6.9473   5.0183698548e+01   3.5740355348e+01    0.7202129    0.4679394  14.99  0.003504848    2.160    0.537
        42 -11.4181    211.6237      9.8598   4.9056524474e+01   3.0780714965e+01     0.471824    0.3370592  11.30   0.00160084    1.934    0.483
        43 -10.4526      4.8783      9.9999   1.0642860913e+02   7.2677495676e+01    0.3766551    0.1836319 -32.45  0.001886243    1.665    0.399
        44  -9.2640      5.4495      5.4647   1.0401487134e+02   7.3393389655e+01    0.2001299    0.1217135 -36.96  0.001013855    1.237    0.192
        45 -11.4476      3.3889      1.7791   1.0343462736e+02   7.4136049846e+01    0.3741772    0.1834237   9.69  0.002213674    2.289    0.563
        46  -9.9085    168.8260     10.0689   5.4001359858e+01   4.1504355765e+01    0.3089524    0.1712007  53.98  0.001446934    1.671    0.402
        47  -8.8614    163.0246     10.2607   5.4869570472e+01   4.2967783236e+01    0.1934932    0.1738047  67.42 0.0005254725    1.031    0.030
        48 -11.2274    232.8400      7.3270   4.6565133884e+01   2.6020757460e+01     0.534645    0.3128712  71.11  0.002193268    1.664    0.399
        49 -10.9560    218.8004      3.1772   4.6697030603e+01   2.9717485720e+01    0.3423788    0.2772702 -48.91  0.001119622    1.166    0.142
        50 -11.0542    225.0437      2.1891   4.5941994216e+01   2.8340442536e+01     0.618586    0.2850417  88.53  0.002691774    2.358    0.576
        51  -9.7297    185.0334      7.2416   5.1121529920e+01   3.7648174207e+01    0.2558393    0.1880427 -39.72 0.0008618466    1.383    0.277
        52 -10.0922    151.8237      7.5131   5.5616070943e+01   4.6073964099e+01    0.4600599    0.2101838  60.88   0.00132815    1.902    0.474
        53  -9.8949      1.2951      7.2392   1.0726382554e+02   7.3380173946e+01    0.1767842   0.07541872 -48.05 0.0002592437    1.801    0.445
        54 -11.0879     75.4662      4.5298   7.1520152222e+01   6.3921984511e+01    0.6243321    0.4470203  52.66  0.003594349    1.503    0.335
        55 -10.6846     82.1066      1.3346   6.7936546132e+01   6.2912198302e+01    0.2145539    0.1093327  53.35 0.0003836399    1.859    0.462
        56 -10.2481    175.6746      5.1454   5.1601372147e+01   4.0217210854e+01     0.432705    0.2459269  83.62  0.001830024    1.837    0.456
        57  -9.3888    162.8050      5.9121   5.3496957493e+01   4.3426555128e+01    0.2039787    0.1719152  38.60  0.000525156    1.219    0.180
        58  -9.5136    115.4899      6.0477   6.1661562056e+01   5.5135990865e+01    0.2866837    0.1583717   3.25 0.0006992625    2.258    0.557
        59 -10.8284    111.3190      1.6242   6.0743096420e+01   5.6493249389e+01    0.5737867    0.2007243  64.75  0.002176099    2.880    0.653
        60 -10.6033    105.3620      1.5204   6.2014142324e+01   5.7871929764e+01    0.3913954    0.2642207  76.86  0.001477705    1.821    0.451
        61 -11.4239    205.1541      2.5933   4.7750508409e+01   3.3068958375e+01    0.4392783    0.3102787  80.43  0.001024621    1.319    0.242
        62 -10.1398    142.5171      3.3299   5.5622003960e+01   4.8785198587e+01    0.3627699    0.2688448  64.23  0.001692547    1.231    0.188
        63 -11.8730    133.5973      2.5955   5.6837998993e+01   5.1063909488e+01    0.4344345    0.2520019  59.63 0.0009749439    1.517    0.341
        64  -9.9229    159.8677      1.8816   5.2590421458e+01   4.4524703460e+01    0.5722409    0.1502732  57.79  0.002035929    2.916    0.657
        65 -10.3121     12.8950      1.9944   9.7949923913e+01   7.3331127180e+01    0.2415231     0.155233   6.71  0.001032152    1.531    0.347
        66  -9.5133    169.7214      2.9321   5.1652586652e+01   4.1928638731e+01    0.2839629    0.1733468 -60.35  0.001364821    1.872    0.466
        67  -9.8142    122.5349      1.3368   5.8364122485e+01   5.3862969282e+01    0.3693855     0.111107  63.55  0.001333247    2.940    0.660
        68 -11.2026     62.5386    150.1684   1.1923939493e+02   3.6894559971e+01     0.433089    0.4017724  77.22  0.002021899    1.107    0.097
        69  -9.8219    234.6600    149.8801   8.0882140401e+01   5.4407320645e+00    0.2806197    0.1181759 -26.69  0.001096409    2.574    0.611
        70  -9.5261     85.3658    150.1670   1.1354250187e+02   3.3732529022e+01    0.1938604    0.1222789 -73.53 0.0006542564    1.681    0.405
        71  -9.9896     55.7126    149.3178   1.2081758861e+02   3.7931937381e+01    0.2323314    0.1968237 -50.48  0.001457472    1.327    0.247
        72  -9.6135    239.7893    146.5496   7.9289441779e+01   4.9980012458e+00    0.2422152     0.175465 -26.13 0.0006802778    1.257    0.205
        73 -10.8154    249.6519    142.8945   7.6884690429e+01   3.7472527381e+00    0.6009876    0.2297531 -32.12  0.002471967    2.375    0.579
        74  -9.4562    108.1337    146.0403   1.0711257570e+02   3.0984951349e+01    0.2168596    0.2033262  70.60  0.001255899    1.036    0.034
        75 -10.6342     33.1144    144.2760   1.2579360054e+02   4.1533883204e+01    0.2644399    0.2058324  75.97 0.0007441701    1.184    0.155
        76  -9.7839    104.6313    142.3297   1.0727798250e+02   3.2417879551e+01    0.2400849    0.2075399 -74.75  0.000493644    1.154    0.133
        77 -10.1701    133.3360    140.3115   9.9733361081e+01   2.7594697932e+01    0.3498569    0.2961209  33.84  0.001013086    1.213    0.176
        78 -11.9485     29.8363    132.8030   1.2526948837e+02   4.4478490376e+01    0.7740492    0.4163141 -72.85  0.003655744    1.560    0.359
        79 -11.1368     21.0122    134.4972   1.2773592487e+02   4.4856109132e+01    0.2873197    0.2371135  17.13  0.001146458    1.603    0.376
        80  -8.7975    186.4980    139.4987   8.7600850947e+01   1.6800878667e+01    0.1479244    0.1392175   5.20 0.0008106827    1.008    0.008
        81 -10.0266     78.9911    136.6669   1.1286385046e+02   3.7777624210e+01    0.3529485    0.2411752 -67.16  0.001073228    1.399    0.285
        82  -9.8504     82.3334    135.3043   1.1173360812e+02   3.7601550434e+01    0.2525147    0.2074784   7.86 0.0009284791    1.599    0.374
        83 -10.9229     71.8046    134.2518   1.1434808753e+02   3.9356452847e+01    0.5928512    0.4354751 -27.49  0.003094409    1.850    0.459
        84 -10.2543     47.4963    134.9397   1.2092156633e+02   4.2204868438e+01    0.4537461    0.1745673 -54.55  0.001926774    2.358    0.576
        85  -9.5876     44.1694    133.1142   1.2154177844e+02   4.2991020214e+01    0.2368533    0.1597267  54.79  0.000630439    1.562    0.360
        86 -11.3884     24.1670    136.8442   1.2719426959e+02   4.4052401252e+01    0.3818092    0.2513103 -55.07 0.0003291468    1.509    0.337
        87  -9.1480    216.5338    135.4335   8.0841429076e+01   1.1271588000e+01    0.1437657    0.1297785  -2.02 7.325515e-05    1.026    0.026
        88 -10.7346     92.7750    129.1680   1.0775743512e+02   3.7396411859e+01    0.3920563    0.2990636  86.61  0.001599887    1.544    0.352
        89  -9.4436     87.3215    135.3074   1.1041417326e+02   3.6842655876e+01    0.1377171    0.1085934 -24.98 0.0007033665    1.642    0.391
        90  -9.8292     62.3498    131.5181   1.1642405435e+02   4.1245997679e+01    0.4246094    0.1966737 -43.95  0.001770588    2.594    0.614
        91  -9.0595    103.8296    131.1442   1.0522717575e+02   3.5088060484e+01    0.1902948    0.1710404 -17.80 0.0004143684    1.294    0.227
        92 -10.5315     18.4594    124.9684   1.2732970036e+02   4.7247283984e+01    0.3475575     0.152041 -63.88  0.001390195    1.809    0.447
        93  -9.5964     81.6958    125.6925   1.1007397977e+02   3.9933150866e+01    0.3823099    0.2316044  55.98  0.001625519    1.929    0.482
        94  -9.4480     84.5048    122.9913   1.0875244655e+02   4.0135187576e+01    0.3303872    0.2519224  32.88   0.00175559    1.449    0.310
        95 -10.3482     45.8620    120.3035   1.1914258456e+02   4.5812845045e+01    0.3220052     0.227388  76.95  0.001207744    1.565    0.361
        96 -10.8018     55.8746    123.2785   1.1681701423e+02   4.3979099695e+01    0.4795615    0.3739204  16.41  0.001336345    1.632    0.387
        97  -9.2391     50.1737    122.6278   1.1830658244e+02   4.4792632382e+01    0.2671279    0.1964877  -5.16  0.001058179    1.990    0.497
        98  -9.0944     41.5604    126.0230   1.2122305818e+02   4.4921555968e+01    0.1916469    0.1091666 -69.13 0.0003411057    1.509    0.337
        99  -9.6269      2.3047    125.6648   1.3161239667e+02   4.8222571849e+01    0.2447569    0.1443057 -87.06  0.001231856    1.396    0.284
       100 -11.5673    104.5967    121.7686   1.0297884545e+02   3.7084661002e+01    0.4713446    0.4420641 -77.18  0.001376401    1.059    0.055
       101  -8.4544     40.6596    122.2637   1.2091106431e+02   4.5894566395e+01    0.1273043   0.08785992  69.35 0.0004521337    1.594    0.372
       102 -10.9612     33.4443    119.6284   1.2253930434e+02   4.7211625276e+01    0.3178714    0.2482899 -63.21  0.001225999    1.128    0.113
       103 -10.4145     58.5288     78.3834   1.0630270620e+02   5.4038220829e+01    0.2923291    0.2722487  80.12 0.0007986778    1.264    0.209
       104 -12.2442     78.9884     95.5929   1.0411758867e+02   4.7304222308e+01    0.7372549    0.4907514 -33.14            0    1.671    0.402
       105 -11.1196     90.4760     88.7729   9.8757650425e+01   4.6960675664e+01    0.8071182    0.4404632 -27.62  0.003072832    2.702    0.630
       106 -12.1720     72.9174     81.3713   1.0227141844e+02   5.1393703233e+01     1.984987     1.056394  31.84  0.008970355    2.127    0.530
       107 -12.2841     52.8103     74.4985   1.0725036135e+02   5.5601025942e+01    0.6738024    0.2983972 -57.28  0.001388519    2.090    0.521
       108 -10.7698     46.8981     74.2705   1.0929347551e+02   5.6332222077e+01    0.3718348    0.1932345 -59.86  0.001780712    1.786    0.440
       109 -10.8510     35.3369     93.0868   1.1751256849e+02   5.3231063468e+01     0.483902    0.3789946  80.49  0.002944571    1.454    0.312
       110 -12.1451     41.1148     86.2227   1.1417842689e+02   5.4252929995e+01     1.048959    0.5736594  18.22  0.004529314    2.369    0.578
       111 -13.3002     26.1234    108.3135   1.2297874969e+02   5.0494642581e+01      1.79145     1.076212 -53.71  0.009171283    1.472    0.321
       112 -11.6860     18.5536    104.2557   1.2463114481e+02   5.2025564424e+01    0.6386124     0.241911 -77.27  0.001207925    2.643    0.622
       113 -11.9347     20.8847     95.4623   1.2257023740e+02   5.3884941463e+01    0.6210593    0.4071765  -1.88  0.003599444    2.123    0.529
       114 -12.4225     17.9426     90.3860   1.2267628913e+02   5.5264170776e+01    0.7218481     0.366403 -31.16  0.001075665    2.566    0.610
       115 -12.3054     10.0915     95.5512   1.2596093760e+02   5.4598976459e+01    0.6102001    0.3343327 -69.58  0.001775544    1.423    0.297
       116 -11.9179      7.3125     88.7178   1.2584695832e+02   5.6321309323e+01    0.5244235     0.463143  83.43  0.002536089    1.232    0.188
       117  -9.6964      4.3261    120.8553   1.3062762903e+02   4.9181843966e+01    0.3166961    0.1829723 -73.71  0.001029454    1.335    0.251
       118  -9.7433      6.8564    114.8582   1.2931980266e+02   5.0385369462e+01    0.2771359    0.1841903  86.32 0.0009944527    1.369    0.270
       119 -11.3463      2.5589    112.1953   1.3021244168e+02   5.1254134796e+01    0.3363612      0.19735 -75.67  0.000855877    1.315    0.240
       120 -11.9580      3.7953    105.3451   1.2910244193e+02   5.2739566326e+01    0.3890214    0.3016959 -75.78 0.0007657346    1.010    0.010
       121  -9.1887    221.1980    120.4111   7.6474528942e+01   1.2796208635e+01    0.1906583    0.1418737  63.16 0.0007039765    1.662    0.398
       122  -9.2880     72.6784    119.9774   1.1146373492e+02   4.2578502420e+01    0.1983097    0.1659024 -58.50 0.0007787001    1.099    0.090
       123  -9.2378    148.4819    119.5130   9.1214706530e+01   2.8878486776e+01    0.1519087    0.1482289  -3.28 2.886726e-05    1.022    0.022
       124  -9.5484     81.7857    117.4865   1.0836600355e+02   4.1832180252e+01    0.2430255     0.181298 -59.14 0.0002776956    1.245    0.197
       125  -9.5707    113.3792    116.0971   9.9284468745e+01   3.6753108309e+01    0.2384937    0.2078342  22.95 0.0005022396    1.265    0.210
       126 -10.2576     67.1073    112.2361   1.1151671133e+02   4.5157190562e+01     0.507887    0.2911385 -67.91  0.002374755    1.773    0.436
       127  -9.7169     36.6748    114.9507   1.2091614933e+02   4.8002542573e+01    0.1871468    0.1427578 -71.66 0.0005008361    1.106    0.096
       128 -10.6895    107.4951    112.0410   9.9896701182e+01   3.8757146407e+01    0.6390343    0.3556606 -65.79  0.001799833    2.461    0.594
       129 -10.7926    102.0560    110.1156   1.0093706830e+02   4.0176477465e+01    0.5070302    0.3724585  39.20  0.002526545    1.432    0.301
       130 -10.0169    103.0166    105.9908   9.9639650192e+01   4.0930593559e+01    0.3260395    0.2192557  41.73 0.0003898327    1.556    0.358
       131  -9.2638     87.7862    114.4458   1.0599417611e+02   4.1602548434e+01    0.2724495    0.1337336  43.32  0.001138185    2.158    0.537
       132 -11.2985    171.1506    109.9238   8.3569769337e+01   2.5754501943e+01    0.6741436    0.4542722  28.02  0.002212689    1.779    0.438
       133  -9.5952     94.0214    111.7192   1.0359237325e+02   4.1206016337e+01    0.2832796    0.2056862 -77.90  0.001353813    1.687    0.407
       134  -9.7294     49.1276    112.0885   1.1679598126e+02   4.7390133795e+01    0.2095122    0.1923887  54.41 0.0009428808    1.212    0.175
       135 -10.5593     85.6493    104.7683   1.0436686418e+02   4.4170939445e+01    0.5415624    0.3340876 -20.53  0.002171516    2.739    0.635
       136  -9.9475     90.3170    104.4494   1.0291451448e+02   4.3483810056e+01    0.3733077    0.2835919  -3.22  0.001423697    1.796    0.443
       137 -11.3368     79.6050    108.3555   1.0699218206e+02   4.4283319775e+01    0.5763386    0.5182411  71.78  0.002676774    1.203    0.169
       138  -9.1225     82.2630    102.6611   1.0486738173e+02   4.5187594115e+01    0.2017825    0.1617403 -57.34 0.0004638211    1.168    0.144
       139 -10.2109    129.9242    109.4234   9.3240629691e+01   3.4928961810e+01    0.3520825    0.2026761 -40.59  0.001468792    1.742    0.426
       140 -10.0051    120.1274    109.1773   9.5748483380e+01   3.6971999659e+01    0.2320529     0.205706  -8.91  0.000819413    1.260    0.206
       141 -10.6071    157.6629    106.3019   8.5626606852e+01   2.9525640251e+01    0.4523212     0.320911  -4.73  0.001460335    1.995    0.499
       142  -9.5056     57.9241    107.3671   1.1326592502e+02   4.7475090471e+01    0.2954778     0.162565 -79.82 0.0009504565    2.442    0.591
       143 -11.0561    143.1509    106.1143   8.9031446280e+01   3.2799136646e+01    0.4530568    0.2995721  57.50  0.001355573    1.710    0.415
       144 -11.8467    145.8244    100.3749   8.6814176889e+01   3.3374573244e+01     0.619525    0.5169895  -8.60  0.001815544    1.365    0.267
       145 -11.1495     48.0054    103.3671   1.1550221232e+02   4.9560453242e+01    0.4733669    0.2773474 -27.16 0.0001857751    2.488    0.598
       146 -10.9364     52.5345     95.9585   1.1255549868e+02   5.0776717366e+01    0.8069259    0.4663104  88.18  0.003295299    3.063    0.674
       147  -9.6728     57.7303    102.4124   1.1230301512e+02   4.8657501444e+01    0.3074065    0.2039747 -72.50  0.001155997    1.548    0.354
       148 -10.0243     57.0470     97.4800   1.1145242795e+02   4.9887857213e+01    0.3060147    0.2357617 -69.74  0.001734128    1.256    0.204
       149  -9.5822     61.1660    101.1551   1.1096827036e+02   4.8521632720e+01    0.2844927    0.1621376  47.96  0.001347731    2.061    0.515
       150  -9.7322     64.3559     99.2720   1.0955574849e+02   4.8545363003e+01    0.2178842    0.1954616  10.62 0.0007532533    1.286    0.223
       151 -11.0949     68.0860     95.8352   1.0758392295e+02   4.8834623135e+01    0.4143494    0.3288105 -26.88 0.0004530657    1.399    0.285
       152  -9.6302    120.9168    101.0690   9.3392421512e+01   3.8565312222e+01     0.249072    0.1892109  -7.08  0.001135595    1.742    0.426
       153  -9.7176    210.6836     97.7026   7.2654113333e+01   1.8866100763e+01    0.3370464    0.2227685  26.72  0.001492303    1.915    0.478
       154  -9.4896    140.4756     96.4853   8.7043165828e+01   3.5350805202e+01    0.3596459    0.2463154  31.51  0.001583271    1.657    0.397
       155  -9.8029    138.3963     93.0651   8.6589673348e+01   3.6500760145e+01    0.3759533    0.2483751  29.89  0.001149546    1.796    0.443
       156 -10.0201     42.6093     94.7367   1.1548704665e+02   5.2141432654e+01    0.2886673    0.2470375 -35.43  0.001175697    1.228    0.186
       157 -10.1204    117.4424     93.1814   9.2147364752e+01   4.0946110731e+01    0.4002751    0.2667331  35.86  0.001487337    1.610    0.379
       158 -10.9355    125.1044     93.4037   9.0131562415e+01   3.9313684288e+01    0.5843902    0.3762467  39.74  0.001734643    1.618    0.382
       159 -10.5741    121.8433     89.1019   8.9765343940e+01   4.0887066065e+01    0.4343152    0.3389519  33.34  0.001732028    1.355    0.262
       160 -10.3099    119.9680     85.3771   8.9175377895e+01   4.2041485733e+01    0.4349867    0.2629727  47.11  0.001834156    1.716    0.417
       161 -10.3424    121.3884     81.7697   8.7696440946e+01   4.2468322568e+01    0.4875852    0.3525058 -79.41  0.001470382    2.172    0.540
       162  -9.6307    160.1715     93.5456   8.1537893487e+01   3.1422298420e+01    0.4599527    0.2529499  68.92  0.001564943    3.028    0.670
       163 -10.5257    152.6430     91.8797   8.2792316274e+01   3.3494527894e+01    0.4664885    0.3952649  74.28    0.0023047    1.372    0.271
       164 -11.9217    101.9476     90.2598   9.5730930973e+01   4.4586896280e+01    0.4640592    0.3917279  -9.83 0.0006344512    1.335    0.251
       165  -9.0345    211.8213     88.1637   6.9984553259e+01   2.0172808866e+01    0.2023558    0.1712584   6.19  0.000565909    1.317    0.241
       166  -8.8144    200.2963     88.3486   7.2017961770e+01   2.2831411694e+01    0.1547951    0.1163246  10.17 0.0007033829    1.679    0.404
       167 -10.3536    183.6953     85.7425   7.4394315302e+01   2.7234281672e+01    0.7310658    0.2529667 -42.67   0.00236356    2.908    0.656
       168  -9.3925    102.7208     80.9894   9.2782857813e+01   4.6400874158e+01    0.2989227    0.1409589 -41.19 0.0008919938    2.046    0.511
       169 -10.3220    104.8605     76.8194   9.0863583582e+01   4.6840941650e+01    0.3815237    0.3175909 -42.35  0.001196306    1.160    0.138
       170 -10.9600    113.5230     83.4994   9.0407402977e+01   4.3754071565e+01    0.7940571     0.352533 -34.27  0.002812213    2.600    0.615
       171 -11.0803    109.2763     80.5121   9.0714462763e+01   4.5219034620e+01    0.4178919    0.3746002 -35.41  0.001056034    1.067    0.063
       172 -10.3909    165.7310     83.5593   7.7444864258e+01   3.1950042082e+01    0.4248908    0.3674173 -68.84   0.00165688    1.317    0.241
       173 -11.3630    143.1929     84.0836   8.2766306575e+01   3.7174759304e+01     0.369154    0.3310567 -40.24  0.001363781    1.107    0.097
       174 -10.6047    127.3161     83.2590   8.6556126534e+01   4.0896746987e+01    0.3785922    0.3114461 -29.06  0.001354396    1.219    0.179
       175 -10.3919    232.5069     77.0881   6.3974711652e+01   1.7199933217e+01    0.5511851    0.2379917 -44.37  0.002193328    2.258    0.557
       176 -11.8158     14.1391     74.6462   1.2115660519e+02   5.9084042103e+01    0.5066601    0.3696443 -48.66  0.002163445    1.180    0.152
       177  -9.3717      9.0050     76.2991   1.2327354313e+02   5.9025075980e+01    0.1624709    0.1278125 -57.50  0.000271527    1.054    0.051
       178 -10.9733     14.3032     66.7255   1.1949678926e+02   6.0830065208e+01     0.291922    0.2176573 -60.61  0.000646883    1.085    0.078
       179  -9.3595    170.3296     77.9327   7.4831342592e+01   3.1830458842e+01    0.2193892    0.2012608 -27.78 0.0006196226    1.079    0.073
       180 -10.0695     98.2751     62.7632   8.8258080959e+01   5.0874580497e+01    0.5072756    0.3306243  -2.69  0.002025125    2.333    0.571
       181  -9.1534    243.0000    248.4666   9.7585126080e+01  -8.4873974566e+00    0.2074671   0.05771889 -32.35 0.0009411977    3.987    0.749
       182 -10.5921     93.7369     76.3809   9.4104093522e+01   4.9025730637e+01    0.5225912    0.3412428  24.69  0.001438714    1.852    0.460
       183 -11.7444     85.5884     73.5753   9.5817301442e+01   5.1038003704e+01    0.7022384    0.5981934  42.49  0.003793449    1.287    0.223
       184 -10.5460     79.0425     67.4704   9.6041358935e+01   5.3384217663e+01    0.5566416    0.4878234  25.52  0.003227487    1.211    0.174
       185 -10.9992     91.4352     62.6610   9.0372255783e+01   5.2184770548e+01    0.3517911    0.3447672  11.67  0.001052712    1.124    0.110
       186 -11.5455     89.3432     57.5745   8.9281663020e+01   5.3531517691e+01    0.6071913    0.5348797  35.09  0.002259857    1.200    0.167
       187  -9.8021     33.2253     77.4398   1.1494471528e+02   5.6994749585e+01      0.22459    0.1526989 -56.99 0.0005719137    1.208    0.172
       188 -10.5624     23.1971     37.0611   1.0768256634e+02   6.6368178221e+01    0.4173821    0.3192534  72.83  0.001627719    2.311    0.567
       189 -10.2152    143.0724    249.2018   1.1495163900e+02   6.0870816381e+00    0.1786794    0.1362756  30.46  0.001239515    1.251    0.201
       190  -9.7049    174.8601    247.0753   1.0902986395e+02   1.5589599717e+00    0.2301151    0.1474784  30.22  0.001457152    1.324    0.245
       191 -10.9129     58.1851     61.9112   1.0160901019e+02   5.7609199112e+01    0.4872203    0.4095729 -82.64  0.002163714    1.601    0.375
       192 -12.5838     43.4783     46.8359   1.0231685712e+02   6.2452331986e+01    0.7990794    0.6755053  51.26  0.001842579    1.608    0.378
       193 -11.5924     22.8128     47.1872   1.1111088895e+02   6.4384740695e+01    0.6269222    0.4007541   5.74  0.002476167    1.855    0.461
       194 -11.0804     33.9171     42.8598   1.0494850753e+02   6.4253762081e+01    0.6868506    0.2523386 -41.77  0.003048298    2.296    0.564
       195  -9.1969    156.4995    246.4812   1.1222934795e+02   4.4370293491e+00    0.1174922   0.09174681  40.71 4.043907e-05    1.032    0.031
       196 -12.5215     49.7814     60.2811   1.0424122089e+02   5.9004068360e+01    0.6132154    0.4728503  52.60  0.001351104    1.724    0.420
       197 -11.6283     25.4518     56.0628   1.1255926374e+02   6.2327896882e+01    0.8149713    0.6589749  -0.46  0.005452545    1.396    0.284
       198 -10.7845     32.8702     58.7711   1.1035088026e+02   6.1110160199e+01    0.4224509    0.2302618 -26.06 0.0009333707    2.194    0.544
       199  -9.7092    199.0232    244.5193   1.0442618760e+02  -1.7762490601e+00    0.1848658   0.09146094  38.62  0.001037516    1.612    0.379
       200 -11.7807      1.9763     71.3795   1.2490485802e+02   6.0490704771e+01    0.6989773    0.1930103 -70.57  0.002865189    2.982    0.665
       201 -12.3872      6.6376     62.5111   1.2152744179e+02   6.2201188404e+01    0.8667781    0.4086569 -37.71  0.004230841    2.051    0.512
       202  -9.6639    134.6188     77.4562   8.2879421377e+01   4.0395410419e+01    0.3568476    0.1962274  58.28  0.001393538    2.150    0.535
       203  -9.9303    126.9552     76.9568   8.4710494112e+01   4.2205202148e+01    0.2268894    0.2189273 -13.03 0.0003061475    1.002    0.002
       204 -12.0034    186.4955     70.6594   6.9585532087e+01   2.9075778188e+01    0.9234656    0.6540459 -35.31  0.003254639    1.375    0.272
       205  -9.7636    184.3476     61.4846   6.7305445309e+01   3.1052327297e+01    0.2968002    0.2425072 -37.79  0.001349807    1.203    0.168
       206  -9.5942    151.3733     73.5597   7.7628154761e+01   3.7192019872e+01    0.3873227    0.1712248  42.94  0.001375134    2.421    0.587
       207 -11.6683     40.6129     70.4798   1.1057993166e+02   5.7833996489e+01    0.5897627    0.2706099 -55.93  0.002543937    1.824    0.452
       208 -11.2184     32.4746     71.9686   1.1393812336e+02   5.8283100272e+01     0.499875     0.275102  25.04  0.002407154    2.146    0.534
       209  -9.3746     24.3558     73.8558   1.1732489015e+02   5.8539934971e+01    0.2227096    0.1201828 -54.29 0.0004532276    1.453    0.312
       210 -10.0460    128.4621     64.6054   8.0330645854e+01   4.4151191660e+01    0.5369367    0.2453843 -42.35  0.002032807    2.212    0.548
       211  -9.9712    123.1987     72.9343   8.4439563981e+01   4.3797123888e+01    0.2835982    0.2548096  38.06 0.0004063752    1.127    0.113
       212 -11.6268    122.4693     68.3389   8.3145784836e+01   4.4816507419e+01    0.7614748    0.3843362  45.59  0.002483666    2.001    0.500
       213  -9.9150    161.9792     70.6281   7.4390552659e+01   3.5128350213e+01     0.345191    0.2676898  81.42  0.001134889    1.593    0.372
       214 -10.5758    171.6838     66.9052   7.1278224293e+01   3.3352208889e+01    0.6086794     0.322556 -46.89  0.002409775    2.040    0.510
       215 -11.3256    219.6852     66.7231   6.3133939945e+01   2.1666232861e+01    0.6665863    0.3244905  61.08  0.002463901    2.181    0.542
       216  -9.2412    208.3523     68.3313   6.5258108973e+01   2.4112449568e+01    0.2269445    0.1690998  22.47  0.001085277    1.681    0.405
       217  -9.5940     21.4372     65.2493   1.1646594044e+02   6.0662872874e+01     0.288152    0.2072443  72.05  0.001295267    1.946    0.486
       218  -8.9651     25.6121     65.4171   1.1491486180e+02   6.0304949235e+01    0.1748515    0.1380406 -35.57 7.114892e-05    1.192    0.161
       219  -9.6970    192.4835     65.7745   6.7134344753e+01   2.8370334863e+01    0.2879331     0.222613 -70.20 0.0008642952    1.517    0.341
       220 -11.6022     39.6104     55.4137   1.0668873707e+02   6.1149760960e+01    0.4805578    0.3831235  88.50  0.002829507    1.839    0.456
       221  -9.6854    100.8579     55.8414   8.5047956593e+01   5.1637302681e+01    0.4482716    0.2644644 -65.27  0.001561185    3.708    0.730
       222  -9.9511    106.7430     63.6014   8.5992157676e+01   4.9033456073e+01     0.300307    0.2744909  37.66  0.001302286    1.136    0.119
       223 -10.3584    105.8086     59.6158   8.4896280136e+01   4.9956078393e+01    0.4053066    0.2578583 -37.71  0.001892689    1.520    0.342
       224  -9.3320    198.3088     62.6522   6.5284131161e+01   2.7412306639e+01    0.2426263     0.164809 -62.73 0.0008169907    1.765    0.433
       225 -10.7408    159.3209     61.8143   7.2220697598e+01   3.7246978221e+01    0.5295234    0.3377015  34.14  0.002270365    1.817    0.450
       226 -11.1561    157.5531     54.8866   7.0386839708e+01   3.8781238879e+01    0.5634844    0.5175195 -41.04  0.003043812    1.108    0.098
       227 -11.2676    155.1153     49.6504   6.9191152390e+01   4.0182338179e+01    0.4141273    0.2865682  -6.38 0.0004715699    1.799    0.444
       228  -8.7867    163.6699    243.3432   1.1054737333e+02   3.7704455187e+00    0.1154562   0.08208255  61.77 0.0007050959    1.749    0.428
       229 -10.6060    127.5853    241.2269   1.1684589427e+02   9.5879639870e+00    0.1965784    0.1543683 -56.27  0.001372904    1.579    0.367
       230 -11.3160    112.8546     49.7625   7.9361960384e+01   5.0165492466e+01    0.5978327    0.4250695  29.93  0.002368012    1.487    0.328
       231 -12.8173    116.4168     42.2045   7.5611414123e+01   5.0563872593e+01    0.9878438     0.751839 -85.70  0.004714492    1.989    0.497
       232 -10.6929    148.9196    237.1805   1.1245391676e+02   6.9349877885e+00    0.4124052    0.2204553  41.43  0.002330067    1.498    0.333
       233  -9.5399    147.4604     60.6468   7.4427858460e+01   4.0348685930e+01    0.3718459    0.1492059  58.99    0.0012487    2.808    0.644
       234 -10.6991    135.9234     55.1105   7.5277283627e+01   4.4026195018e+01    0.9864846    0.6721777 -37.39  0.004632532    1.471    0.320
       235 -11.1431    140.3338     43.8305   7.0383882001e+01   4.4692597880e+01    0.5532032    0.4326823  26.70  0.001091115    1.362    0.266
       236 -10.3681    145.8796     52.1448   7.1981355935e+01   4.2091474096e+01    0.3845073    0.3026387  39.52  0.001176584    1.273    0.214
       237 -11.4749    146.0407     46.1780   6.9939842631e+01   4.2949240977e+01     0.821985    0.4352531 -21.15  0.003144881    2.205    0.547
       238  -9.0167      1.9910     56.2199   1.2204447966e+02   6.3793605829e+01    0.1232419   0.09434356   4.10 0.0005212638    1.610    0.379
       239  -9.5708    187.9787     55.0558   6.4800347327e+01   3.1107715377e+01    0.3055356    0.2010389  59.71  0.001418733    1.520    0.342
       240  -9.9296     66.9478     54.5914   9.5948743852e+01   5.7837723351e+01    0.2883887    0.1884063 -52.43  0.001012927    1.620    0.383
       241  -9.8447    249.0582     53.1744   5.6041239284e+01   1.6936242755e+01    0.3287323    0.1920103 -63.85  0.001558415    2.044    0.511
       242  -9.6015    244.5918     50.8115   5.5963036249e+01   1.8222047191e+01    0.2552456    0.1856771 -49.20  0.001022473    1.257    0.204
       243 -11.0658    240.3932     50.2746   5.6300842978e+01   1.9223077653e+01    0.4300241    0.3289231 -16.96   0.00154211    1.438    0.305
       244 -11.1449    201.9447     47.6255   6.0509670282e+01   2.8674527641e+01    0.7873654    0.4485573 -36.08  0.003568758    1.670    0.401
       245 -10.9241    173.8457     48.2396   6.5177408856e+01   3.5660759730e+01    0.6110831    0.4132446  70.24  0.002727512    1.582    0.368
       246  -9.7336    176.1927     43.3763   6.3275142815e+01   3.5741727354e+01    0.3177191    0.2560243 -75.43  0.001313702    1.393    0.282
       247  -9.6725     91.0759     48.0438   8.5244765769e+01   5.4914818928e+01    0.3080841    0.2108456 -47.11   0.00145216    1.602    0.376
       248 -10.2117     13.7709     46.5071   1.1480014544e+02   6.5180178975e+01    0.5131315    0.1739555 -32.94  0.002032539    3.708    0.730
       249  -9.7615     17.8543     41.5430   1.1155400939e+02   6.5906213822e+01    0.3005435    0.1896051 -29.81  0.001837043    1.464    0.317
       250 -10.2513      3.3717     45.7595   1.1909645916e+02   6.5934126424e+01    0.8458622    0.1633777 -54.07  0.003559249    2.823    0.646
       251 -10.4318      4.7098     35.7749   1.1581266543e+02   6.7897301091e+01    0.3136684    0.2487102  -4.85  0.001105168    1.408    0.290
       252  -8.5946      7.2048     30.7260   1.1307022507e+02   6.8747485859e+01    0.4162292    0.2398786  -6.23  0.002063051    1.997    0.499
       253 -10.4734    197.5456    232.1569   1.0288281991e+02  -7.0493052928e-03    0.2553539     0.130046  27.33   0.00132689    1.909    0.476
       254  -9.6550     15.0524    233.8825   1.3601584461e+02   2.5083864260e+01    0.1727202    0.1139307  81.84 0.0008159257    1.204    0.169
       255 -10.3426    242.5037    231.2666   9.4971787447e+01  -6.6167867514e+00    0.2306544    0.2090793  76.15  0.001600939    2.238    0.553
       256  -9.6584     23.7078    231.8708   1.3449136358e+02   2.4571132894e+01     0.185945   0.09147008  55.07  0.001229507    1.538    0.350
       257  -9.7377    247.4711    231.1124   9.4127612995e+01  -7.2961977068e+00    0.1556641   0.09926343 -20.99 0.0007422537    1.556    0.357
       258 -11.0417     60.7004     36.1479   9.1329493821e+01   6.2137241460e+01    0.3904997    0.2164778 -35.69  0.001100621    1.624    0.384
       259  -9.7720    194.6167     46.4937   6.1266638841e+01   3.0655175400e+01    0.5431202    0.2715105  89.77  0.001726324    3.975    0.748
       260 -10.3098    233.7364     44.9319   5.5729472875e+01   2.1430926714e+01    0.3044348     0.270976  48.90  0.001295213    1.261    0.207
       261  -9.7137    101.3967     44.2254   8.0600812066e+01   5.3496552662e+01    0.2601197    0.2299003 -69.47  0.001161261    1.466    0.318
       262 -11.1271     95.0288     41.4618   8.1472698728e+01   5.5231907172e+01    0.6505126    0.3081236  48.51  0.002625158    2.190    0.543
       263 -11.4183    156.0584     41.8550   6.6441209916e+01   4.1062306685e+01    0.3872868    0.3625284   3.69 0.0008773357    1.100    0.091
       264 -10.7935    153.3091     36.2782   6.5116615947e+01   4.2506024086e+01    0.3389104    0.2965076 -62.40 0.0005655647    1.256    0.204
       265 -10.7023    189.1288     41.6161   6.0678553637e+01   3.2693835047e+01     0.498316    0.2180558 -23.55 0.0008142595    2.591    0.614
       266  -9.6335     86.4878     30.9370   7.9928514496e+01   5.8515273163e+01    0.5511404    0.2895937 -15.16  0.002292015    2.487    0.598
       267 -10.9026     80.9182     39.9183   8.5462635707e+01   5.8163836681e+01    0.6183432     0.388961  44.83  0.002954538    1.702    0.412
       268 -10.8071     77.6063     34.3082   8.4322593137e+01   5.9658044504e+01    0.5103895    0.2873451  39.66  0.002496458    1.801    0.445
       269 -10.1048     81.4168     30.7357   8.1518826147e+01   5.9507740822e+01    0.3593929    0.2085934 -45.69  0.001695915    2.061    0.515
       270 -10.3245    231.6134     39.2471   5.4540252731e+01   2.2649206092e+01     0.298411    0.2157168 -42.55 0.0009365379    1.259    0.206
       271  -8.9989      9.7160    227.6324   1.3660677533e+02   2.6694322987e+01   0.08879888   0.06967719 -65.52 0.0004092981    1.695    0.410
       272 -11.4322    183.2381     25.0147   5.6610530491e+01   3.6245771466e+01    0.6779805    0.3193114  50.14  0.002827206    2.120    0.528
       273 -11.2822    176.1116     36.3914   6.1138623673e+01   3.6686044848e+01    0.6589691    0.4497662 -66.00  0.002357317    1.762    0.433
       274 -10.4825    176.3740     30.0978   5.9156836982e+01   3.7401870368e+01    0.4148224     0.271707  47.22  0.001238175    1.544    0.352
       275  -9.7800    206.8296     37.1682   5.6941931313e+01   2.8843747120e+01    0.2384793    0.2168978 -67.53 0.0007015212    1.054    0.051
       276  -9.6378    133.5381     37.1420   6.9549097300e+01   4.7285613487e+01    0.3967693    0.2662725 -66.98  0.001726872    2.217    0.549
       277  -9.0595    217.5277     39.0218   5.6106900611e+01   2.6001773317e+01    0.2095997    0.1307068 -31.24 0.0006741554    1.551    0.355
       278 -10.0957    234.3319    222.9111   9.4971244186e+01  -4.4855064436e+00    0.1664841    0.1276128   5.77 0.0007070784    1.099    0.090
       279 -10.1419    165.5396    212.5998   1.0588513582e+02   8.0093135975e+00    0.2543647    0.1302483  54.76  0.001145893    2.432    0.589
       280 -10.7882    145.3391     24.9093   6.2742495979e+01   4.5916762918e+01     0.704791    0.3539341  54.76  0.002756255    1.808    0.447
       281  -9.5316    152.7737    207.7915   1.0766470806e+02   1.0952236772e+01    0.1746809    0.1404188  58.77  0.001055352    1.310    0.236
       282  -8.8346     61.1674    207.1752   1.2598353924e+02   2.4915021523e+01    0.1650715    0.1098946  66.24 0.0004414933    1.303    0.232
       283 -11.0390    154.3234     25.4799   6.1293269755e+01   4.3582246764e+01    0.7598338    0.3452457  49.24  0.003090153    2.077    0.519
       284 -10.0741    156.9776     20.4936   5.9165848449e+01   4.3467171305e+01    0.4957859    0.2670391  62.03  0.002221652    1.715    0.417
       285 -10.5521    240.4034     32.4652   5.1954868809e+01   2.1482630451e+01    0.4792489    0.3887264 -44.21  0.002894473    1.113    0.101
       286 -10.6276      4.2679    204.7731   1.3647713101e+02   3.1402105397e+01    0.4262318   0.09308906 -68.12  0.001937855    3.764    0.734
       287 -12.3030    105.9995     20.1212   6.9690705028e+01   5.5858943029e+01     0.293907    0.2448186 -16.34  0.000351486    1.202    0.168
       288 -11.9888    105.6184     33.1358   7.5066529235e+01   5.4268766569e+01    0.5623552    0.3342697  13.97  0.001515322    2.385    0.581
       289 -12.5148      5.3109    185.1196   1.3525218792e+02   3.5180278619e+01    0.9057902    0.4184595 -89.78  0.005328427    1.807    0.446
       290  -9.9708    162.6812     43.9228   6.5849998917e+01   3.9101268201e+01    0.2846349    0.2185652  66.64 0.0009133596    1.325    0.245
       291 -10.0811     68.5485     32.8100   8.6954372471e+01   6.1451356630e+01    0.4359147    0.3021156  26.79  0.002415085    1.465    0.317
       292  -9.6798    248.6415     33.5623   5.1429070788e+01   1.9521823705e+01    0.2689278    0.1423894 -35.29  0.001340728    1.657    0.397
       293 -10.0422    238.6954    203.8271   9.0918418829e+01  -2.8198846221e+00    0.1988999    0.1335309  -3.22  0.001182964    1.447    0.309
       294  -9.1071    216.6145     32.2255   5.4418767220e+01   2.7069014490e+01    0.1785114    0.1308947 -15.01 0.0003126456    1.570    0.363
       295 -10.6017    189.3962     28.8087   5.6884521263e+01   3.4236736070e+01    0.6141461    0.2983661 -21.61  0.002528844    2.320    0.569
       296 -10.0223    182.3782     32.1233   5.8868984604e+01   3.5621519408e+01    0.2477239     0.187768  53.05 0.0005795163    1.301    0.231
       297  -8.8043     21.7069     32.1732   1.0663932433e+02   6.7427055078e+01    0.1623886   0.08186732 -44.21 0.0002509234    1.548    0.354
       298  -9.5004    210.9673     30.0115   5.4485450272e+01   2.8709366556e+01    0.2541224    0.1764835 -32.39  0.001170792    1.414    0.293
       299  -9.6040    221.2461     29.4378   5.3171858364e+01   2.6293195415e+01    0.2365538    0.1775705 -35.06 0.0004997556    1.285    0.222
       300 -11.0925     98.5079     27.4733   7.4797362855e+01   5.6564520033e+01    0.4088733    0.2791772 -42.55 0.0006023751    1.667    0.400
       301  -9.9932    230.3972     27.3225   5.1680344938e+01   2.4387301751e+01    0.3656171    0.1753512 -33.94  0.001350961    1.893    0.472
       302  -9.6710    250.5381     26.4468   4.9597166580e+01   1.9955516798e+01    0.2595705    0.1129883 -30.71 0.0007301599    2.096    0.523
       303  -8.8534     41.8666     27.0255   9.5328341754e+01   6.6257437944e+01    0.1391887    0.1158524 -10.42 0.0005230567    1.073    0.068
       304 -10.6899    214.3975     23.6959   5.2413644497e+01   2.8612958905e+01    0.3988016    0.3145755 -15.96  0.001777901    1.436    0.304
       305 -11.7293    147.6083     31.6517   6.4647783087e+01   4.4533675415e+01    0.3112961    0.2816923 -21.15 0.0007430517    1.142    0.125
       306 -10.6558    245.4840    200.8180   8.9222648958e+01  -3.4888022261e+00    0.2168189    0.1493932  28.82 0.0005930845    1.295    0.228
       307  -8.5788    207.3310    201.3098   9.6048756234e+01   2.6146861533e+00    0.1338053   0.08871333  10.72 0.0007041792    1.669    0.401
       308  -8.7577      1.3302    200.2778   1.3678456094e+02   3.2516696991e+01   0.08990571   0.07348084 -63.11 0.0003461846    1.599    0.375
       309 -10.0193     80.7498     19.1397   7.6670969984e+01   6.1231605869e+01    0.3709195    0.1890223  45.21  0.001297763    1.892    0.472
       310 -11.4261     31.2430     28.3198   1.0069323119e+02   6.7238967104e+01    0.4417918    0.3901826  61.33  0.001103677    1.794    0.442
       311 -10.2068    242.5382     22.3268   4.9328233089e+01   2.2195594678e+01    0.2907817    0.2135643  71.27  0.001321915    1.401    0.286
       312 -10.0925    234.3272    196.8863   9.0403698552e+01  -1.2344074660e+00     0.375993    0.2188961  22.83  0.001885994    1.683    0.406
       313 -10.3157     47.1566     18.8380   8.9306616016e+01   6.6868458177e+01    0.3213415    0.2342625 -11.66   0.00125429    1.211    0.174
       314 -10.1849     38.7313     21.8586   9.4461590224e+01   6.7495126991e+01    0.3112535    0.1709568 -31.48  0.001190573    1.579    0.367
       315  -9.9263    169.5725    191.5896   1.0165144938e+02   1.0762054418e+01     0.335439    0.1889091  30.46  0.001084176    1.841    0.457
       316  -9.3923    239.8200    184.4275   8.7098632157e+01  -4.5736354245e-01    0.1703604    0.1445173  -7.13  0.000680272    1.113    0.102
       317  -9.6736    212.4866    181.2644   9.1363275518e+01   4.6853289041e+00    0.3282626     0.149947  18.95 0.0009019828    6.090    0.836
       318  -9.3074    223.0933     22.4635   5.1186696910e+01   2.6665780692e+01    0.2227648    0.1641846 -61.82 0.0007146661    1.303    0.233
       319  -9.0689    221.0009     19.1986   5.0561153413e+01   2.7529940199e+01    0.1769294    0.1572352 -70.16   0.00108396    1.021    0.020
       320  -9.7960    124.3224     20.5798   6.5464420905e+01   5.1569619679e+01    0.3876743    0.2627444  88.47  0.001793343    2.120    0.528
       321  -9.5597    250.1058    179.9190   8.4489382245e+01  -1.5220840038e+00    0.2380894    0.1552851 -19.29  0.001368691    1.403    0.287
       322  -9.8136    100.9784    175.9917   1.1388100145e+02   2.5651155286e+01    0.1862109    0.1672968  69.02  0.001147258    1.007    0.007
       323  -9.3873     28.1598    175.9370   1.2999948909e+02   3.5018324050e+01    0.1904747    0.1275595  72.55  0.001228321    1.282    0.220
       324  -8.8827    230.4629    175.4852   8.6963227118e+01   2.3767371447e+00    0.1331592    0.1123256   4.35 7.980336e-05    1.009    0.009
       325  -9.1190     57.2666    174.9849   1.2359086013e+02   3.2016671435e+01    0.1696464    0.1412826  89.95 0.0004317996    1.058    0.055
       326  -9.7829    247.3316    174.0100   8.3777962454e+01  -2.7428478918e-01    0.3742366    0.1470464  27.57  0.001349791    3.808    0.737
       327  -9.7116     39.5005    173.5067   1.2735020551e+02   3.4374666917e+01    0.2073172     0.160419 -79.60 0.0008234718    1.158    0.136
       328 -10.4072     35.8689    170.2942   1.2784203162e+02   3.5452599211e+01    0.3241312    0.1824819  74.36  0.001697324    1.755    0.430
       329 -10.1517    211.3013     18.8507   5.1461311247e+01   2.9909489837e+01    0.2445662     0.196662  63.89 0.0003021331    1.247    0.198
       330  -9.8054     51.7251    172.9305   1.2459896811e+02   3.3126554462e+01     0.235294    0.1468832  87.30  0.001325562    1.561    0.359
       331 -10.1440      8.9201    155.9906   1.3258093444e+02   4.1019946512e+01    0.2332508    0.1622767 -73.08  0.001589176    1.250    0.200
       332 -11.8426      9.8755    166.4621   1.3314349294e+02   3.8685013469e+01    0.5496235    0.3392719 -78.55  0.002838531    1.321    0.243
       333 -10.8272     13.9006    157.6883   1.3160611532e+02   4.0249459585e+01    0.4155721    0.1725188 -78.76   0.00144563    2.003    0.501
       334  -9.0841    197.8538    167.8759   9.1484737484e+01   9.5243275438e+00    0.1763619    0.1687909 -63.00 0.0006050086    1.301    0.231
       335  -9.3527    115.2500     17.5746   6.6359106033e+01   5.4042186929e+01    0.2003705    0.1145049  46.07 0.0008799622    1.597    0.374
       336  -9.4578    220.0132     12.5978   4.8971595839e+01   2.8477781509e+01    0.2931652    0.1193019  71.63  0.001243309    2.373    0.579
       337  -9.9821     40.4893    165.5180   1.2634369703e+02   3.6010312076e+01     0.315464    0.1323283 -69.24  0.001538422    2.078    0.519
       338 -10.1688     18.8433    165.2410   1.3112582227e+02   3.8184011599e+01    0.2446083    0.2240446  39.94  0.001790671    1.399    0.285
       339  -9.8765    188.8591    164.1811   9.2512474952e+01   1.1889456405e+01    0.2913778    0.1981465 -28.16  0.001157906    1.562    0.360
       340 -10.0651     27.5382    163.4919   1.2906003376e+02   3.7765548100e+01    0.2835151    0.1738984  74.48  0.001259004    1.506    0.336
       341  -9.3574     28.6960    160.3235   1.2850649688e+02   3.8351832710e+01    0.2225806    0.1233338 -79.94 0.0008567005    1.547    0.354
       342  -9.7592    208.7534    162.1944   8.8204931008e+01   8.3831358137e+00    0.4523185    0.1416587 -43.57  0.001510838    3.655    0.726
       343  -9.5671    204.9729    163.0311   8.9101630958e+01   8.9685722203e+00    0.2160281     0.189505  12.08 0.0006269744    1.043    0.041
       344  -9.6002     79.8437    159.9288   1.1642381362e+02   3.2341326707e+01    0.2522332    0.1791136 -75.96  0.001384769    1.382    0.276
       345 -10.2838    246.5181    158.5243   8.0737214834e+01   2.0337067379e+00    0.2791897    0.1173777 -32.50  0.001219433    2.197    0.545
       346  -9.5912    215.5828    158.1418   8.6066180796e+01   7.7373735324e+00    0.2770568    0.1668042 -19.20  0.001280485    1.881    0.468
       347  -8.8772    223.7204    156.6598   8.4265257054e+01   6.4339584270e+00    0.1419169   0.09874737   2.21 0.0007007262    1.624    0.384
       348 -10.4752    104.8383    154.2076   1.0943123529e+02   2.9731453396e+01    0.4000839    0.3599633 -76.16  0.002342746    1.087    0.080
       349 -10.5419     10.8031    127.1633   1.2957622437e+02   4.7314744509e+01    0.6621135    0.2880802 -74.41  0.002661915    1.821    0.451
       350 -12.1489     22.6095    149.3977   1.2887327129e+02   4.1343429883e+01    0.6379754    0.3724733 -51.41  0.003176508    1.888    0.470
       351 -10.8850     15.3253    147.8417   1.3044401508e+02   4.2306822895e+01    0.3257028    0.2373583  63.25  0.001146957    1.307    0.235
       352 -11.5984     12.6562    139.4093   1.3031027206e+02   4.4405921748e+01    0.7072632    0.3950109 -88.10  0.003700356    1.545    0.353
       353 -10.7651     31.2783    152.7373   1.2715779137e+02   3.9793990849e+01    0.5149985    0.2746584 -86.10  0.002748317    1.759    0.431
       354 -10.2430     72.5609    152.5654   1.1710354935e+02   3.5024472786e+01    0.4736187    0.2355698  55.09  0.002112482    2.260    0.558
       355 -11.7884      3.8490    147.3929   1.3306546320e+02   4.3280097290e+01    0.6814682    0.3814486 -80.51  0.003594975    1.398    0.285
       356 -11.4807      4.0071    142.0630   1.3260952948e+02   4.4444637251e+01    0.3440022    0.3024688  17.04    0.0022241    1.560    0.359
       357 -11.8318      3.9897    136.9499   1.3219103921e+02   4.5582398292e+01    0.2411674    0.1715129 -74.66 -0.002661949    1.149    0.129
       358  -9.4813     42.4865    148.4834   1.2397828889e+02   3.9620435943e+01    0.2935036    0.1980773  76.05  0.001700416    1.464    0.317
       359  -9.9680     48.1146    151.9189   1.2302201465e+02   3.8220731475e+01    0.2591444    0.2480242  15.60 0.0009879835    1.350    0.259
       360 -10.9614     47.4214    146.6991   1.2253491250e+02   3.9491361429e+01    0.5230247     0.280684 -62.74  0.002733459    1.645    0.392
       361  -9.8137    214.7597    151.4713   8.4776052709e+01   8.9774564230e+00     0.225134    0.2075501  33.94 0.0006926171    1.169    0.144
