#   1 NUMBER                 Running object number                                     
#   2 MAG_AUTO               Kron-like elliptical aperture magnitude                    [mag]
#   3 X_IMAGE                Object position along x                                    [pixel]
#   4 Y_IMAGE                Object position along y                                    [pixel]
#   5 X_WORLD                Barycenter position along world x axis                     [deg]
#   6 Y_WORLD                Barycenter position along world y axis                     [deg]
#   7 A_WORLD                Profile RMS along major axis (world units)                 [deg]
#   8 B_WORLD                Profile RMS along minor axis (world units)                 [deg]
#   9 THETA_WORLD            Position angle (CCW/world-x)                               [deg]
#  10 FWHM_WORLD             FWHM assuming a gaussian core                              [deg]
#  11 ELONGATION             A_IMAGE/B_IMAGE                                           
#  12 ELLIPTICITY            1 - B_IMAGE/A_IMAGE                                       
         1 -13.5072     65.0906     52.7726   7.0370966063e+01   5.8919959874e+01     1.356074     0.693365 -28.67  0.006010856    2.220    0.549
         2 -14.9444      6.5669     70.9196   1.0148870376e+02   6.2045578388e+01     1.344597    0.7224247 -56.04  0.005421045    1.519    0.342
         3 -14.2131    166.5793     29.5717   3.8126027424e+01   3.9838061551e+01    0.9953176    0.7022826  76.67  0.003630641    1.276    0.216
         4 -14.4160    147.3778     29.2584   4.0876752328e+01   4.4371115367e+01     1.185129    0.7291862  69.24  0.005241015    1.471    0.320
         5 -13.8692    122.1054     36.7250   4.7853793452e+01   4.9405720890e+01    0.8665479    0.4994353  39.53  0.004137722    1.870    0.465
         6 -13.0404      8.0235      2.7416   7.5587575438e+01   7.4030401882e+01    0.5986268    0.4002577  39.55  0.002635157    2.129    0.530
         7 -13.5858      2.8057     10.4878   8.2857285943e+01   7.3496634237e+01    0.7061281    0.4471586 -41.69  0.004720572    1.663    0.399
         8 -15.9326     12.7475     21.4177   8.1994329617e+01   7.0970860087e+01     1.896769     1.024947 -20.86  0.009062819    1.766    0.434
         9 -13.2908    187.6358     11.0717   3.1209397345e+01   3.7072285725e+01     0.801811    0.3321358 -37.91  0.004035831    2.335    0.572
        10 -12.5062    120.6413     26.3188   4.4804507930e+01   5.0955879472e+01    0.5073016    0.3044651  53.79  0.002348019    1.448    0.309
        11 -11.5485     46.7462     20.6296   6.4634490378e+01   6.6631802568e+01    0.3901564    0.2529866  22.59  0.002310857    1.394    0.283
        12 -11.6710     59.1808     16.3531   5.7796555147e+01   6.4979297104e+01    0.2919685    0.2751566  23.05  0.002066889    1.257    0.204
        13 -14.9936     98.9546     11.7567   4.4438057987e+01   5.7298469201e+01     1.311187    0.6977007  60.42  0.006849539    1.609    0.379
        14 -12.3152     69.9777     16.1066   5.3981476887e+01   6.2964036812e+01    0.3697929    0.2911837  70.83  0.001915237    1.663    0.399
        15 -11.9236    222.4957     10.1391   2.8146613516e+01   2.9787490061e+01    0.2528427    0.1547514 -69.33  0.001613313    1.354    0.261
        16 -13.0806    218.9391     15.6621   2.9509669677e+01   2.9904179697e+01    0.2978546    0.2729712 -75.37  0.002246699    1.291    0.226
        17 -13.0195    214.8911     10.2138   2.8720029030e+01   3.1330172800e+01    0.4009246    0.2637554 -55.98  0.001476415    1.301    0.232
        18 -11.5470     46.7002     13.0269   6.1131318053e+01   6.7515151388e+01      0.25715    0.2253202  40.01  0.001478034    1.360    0.265
        19 -13.8334     41.6116      4.4619   5.9099892808e+01   6.9231245356e+01    0.7028258    0.4820632  25.61  0.004636169    1.182    0.154
        20 -12.1934     85.2999     14.3007   4.8741755823e+01   6.0020258829e+01    0.3400385    0.3001555  15.28  0.001638195    1.163    0.140
        21 -11.0479    168.2418      9.9495   3.2920964493e+01   4.1544523728e+01    0.1488917    0.1006006 -36.27   0.00088846    1.627    0.385
        22 -11.5273    152.7876      9.0187   3.4496994643e+01   4.5185987696e+01    0.2461526    0.1547343  63.02   0.00122891    1.380    0.275
        23 -11.0118    133.3054      8.8198   3.7125157093e+01   4.9724201679e+01    0.2025875     0.144835  77.64  0.000328245    1.247    0.198
        24 -10.6720     59.0346      7.8051   5.4011677144e+01   6.5852544005e+01    0.2081637    0.1034577  31.94 0.0008645961    1.915    0.478
        25 -11.7769    225.1007      4.3768   2.6850920779e+01   2.9875662966e+01    0.2758026    0.1402494  51.17  0.001472291    2.935    0.659
        26 -11.6008    120.0038      3.7499   3.7659371330e+01   5.3210926536e+01    0.3723671    0.1540942  76.19  0.001594806    2.602    0.616
        27 -11.0072    117.2490      1.5893   3.7420805206e+01   5.4006216929e+01    0.2374023    0.1419466  60.19 0.0009598801    1.352    0.261
        28 -10.8989    232.5497      1.7759   2.5893023758e+01   2.8681709874e+01    0.2043213      0.12675  87.06  0.001260045    1.378    0.274
        29 -11.3690     61.2620      1.6499   5.0470148642e+01   6.5957322208e+01    0.3421771     0.128971  55.59  0.001574115    2.366    0.577
        30 -13.5436    189.0645     26.1883   3.4554790560e+01   3.5104420718e+01     1.011605    0.4119071 -55.54  0.004440825    2.626    0.619
        31 -11.2126     81.6738      1.4321   4.4588674677e+01   6.1861694793e+01    0.4083277   0.09404352  59.68  0.001509007    3.424    0.708
        32 -13.9083     25.3251     14.0818   7.1634606935e+01   7.0570726949e+01    0.7383183    0.2828313  31.69  0.003621366    2.394    0.582
        33 -12.8956     98.9883    187.8471   9.3201381532e+01   2.1779320209e+01    0.4726997    0.2909539  31.23  0.002106359    1.657    0.397
        34 -13.8840     92.2375    230.3008   1.0093431484e+02   1.2970326724e+01    0.6864313    0.6539005  60.22  0.004353437    1.068    0.064
        35 -12.6952    107.1385    247.0778   9.9610533110e+01   7.3671998998e+00    0.7381961    0.5133974  74.83   0.00395837    1.889    0.471
        36 -13.1310     99.0021    238.8791   1.0043386613e+02   1.0185429867e+01     1.030707    0.4885104  36.33  0.004756512    1.837    0.456
        37 -11.7838     60.4610    246.0263   1.0967936984e+02   1.3953567420e+01    0.3763057    0.2400565   7.19  0.001841417    2.623    0.619
        38 -11.9970     51.4639    248.8647   1.1182074349e+02   1.4487951135e+01    0.4146234    0.3017687 -68.71  0.002600105    1.483    0.326
        39 -12.4377     28.3246    246.1102   1.1637758448e+02   1.7739956583e+01    0.4705952    0.3268067  67.98  0.003023185    1.208    0.172
        40 -12.6293      2.9090    248.9136   1.2149078804e+02   1.9761375789e+01    0.4808268    0.2876945  76.21  0.002917147    1.379    0.275
        41 -13.4632      9.3937    245.9007   1.2010733886e+02   1.9750247034e+01     0.745304    0.3713638  61.15  0.003310638    1.673    0.402
        42 -12.0224    155.9911    184.6360   7.8339375933e+01   1.2682126444e+01    0.3479867    0.2116181 -46.84  0.001552937    1.630    0.386
        43 -11.3139    122.1432    181.6373   8.6080783964e+01   1.9385339191e+01    0.4852078    0.2942196  78.55  0.001603761    3.614    0.723
        44 -11.8843     49.0304    181.9988   1.0568072737e+02   3.0362874787e+01    0.4074444    0.2606192 -56.45  0.002015714    1.527    0.345
        45 -12.1635    198.3198    181.6425   6.8548256796e+01   5.9770994179e+00    0.3002711    0.2742363  20.94  0.001550569    1.167    0.143
        46 -12.6686     90.4177    181.7735   9.4473603154e+01   2.4651365022e+01     0.397565     0.175763  49.62  0.001417774    2.614    0.617
        47 -12.9452    124.1389    166.9112   8.2693266300e+01   2.2576128208e+01    0.6873509    0.4474404 -74.86  0.002756811    2.173    0.540
        48 -11.0527    177.6732    167.3346   6.9914033665e+01   1.2484486455e+01    0.1467201    0.1200373 -86.96 0.0007051632    1.719    0.418
        49 -11.0560    101.9977    161.4831   8.7611010449e+01   2.7875992611e+01    0.2426665    0.1535427  35.18  0.001039332    1.611    0.379
        50 -12.0113     25.1050    159.4080   1.0953146264e+02   3.8760416577e+01     0.354618    0.2536827 -17.80  0.001854412    1.860    0.462
        51 -12.0775    237.7695    159.7507   5.7042806431e+01   3.7279665364e+00    0.3426604     0.111829  40.31  0.001320839    3.719    0.731
        52 -12.3398     76.8151    156.9211   9.3984288113e+01   3.3136261700e+01    0.6135394    0.3572032  26.10  0.002277822    1.930    0.482
        53 -13.3611     73.4369    153.6709   9.4390524034e+01   3.4488914669e+01    0.8571689    0.5824312  25.72  0.003368988    1.624    0.384
        54 -11.9309    110.6540    155.4232   8.3960918401e+01   2.7868809210e+01    0.5496598    0.3195802 -74.58  0.001949597    2.689    0.628
        55 -11.7784    205.5044    155.4934   6.1777559962e+01   9.8578691968e+00    0.1432351    0.1269464 -32.70 0.0005499115    1.005    0.005
        56 -11.7493     85.8265    153.4985   9.0682742931e+01   3.2622801734e+01    0.5389167    0.2462834 -44.14  0.001944145    2.362    0.577
        57 -11.8747     12.8714    149.7877   1.1194807724e+02   4.2280281210e+01    0.5138822    0.1946065 -85.91  0.001840606    3.175    0.685
        58 -11.4526    103.3681    150.1138   8.4892787664e+01   3.0512386436e+01    0.3957127    0.2546855 -29.82  0.001601735    1.982    0.495
        59 -11.8431      7.9567    144.5509   1.1280930789e+02   4.3983290409e+01    0.4932274    0.2911341 -31.41  0.002467596    2.092    0.522
        60 -11.3022    191.6069    150.8024   6.3460768722e+01   1.3329358794e+01    0.2674074    0.1159238  40.50  0.001017557    2.553    0.608
        61 -12.5787     60.1964    147.3770   9.7269177010e+01   3.7998332949e+01    0.5294366     0.383667  16.07  0.002564764    1.625    0.385
        62 -11.6342     74.0871    145.3446   9.2613772748e+01   3.6567472844e+01    0.3068695    0.2261051 -69.07 0.0008994468    1.375    0.273
        63 -11.3702     38.1341    145.9106   1.0384329236e+02   4.1009759799e+01    0.2193978    0.1848533  79.86 0.0005559992    1.219    0.179
        64 -12.1990     40.6569    137.3214   1.0168222806e+02   4.2994348104e+01    0.3702622    0.2801282  61.67  0.001921233    1.494    0.330
        65 -12.2086     45.0434    134.6959   9.9813579067e+01   4.3195344566e+01    0.4911709    0.3247125 -58.65  0.002189116    1.345    0.257
        66 -11.2287    246.9997    135.6607   5.0864961245e+01   6.5056934193e+00    0.1850454    0.1071959  76.47 0.0007050501    4.467    0.776
        67 -10.6647     10.8027    133.8567   1.1068686366e+02   4.6528750313e+01    0.1962752    0.1575522 -54.41 0.0004953541    1.152    0.132
        68 -12.6514    135.9955    132.6462   7.1929994889e+01   2.8452046618e+01     0.623925    0.2497786  41.19  0.002107394    2.583    0.613
        69 -11.9194    111.6168    132.2004   7.8471501379e+01   3.3434043458e+01    0.4155637    0.2678638 -35.84  0.001733811    1.705    0.413
        70 -13.5481     83.0571    113.9122   8.2712902442e+01   4.3096627301e+01     1.593494     1.029624  50.99  0.006951874    1.807    0.447
        71 -13.6837    108.5635    124.3395   7.7435883556e+01   3.5922079343e+01     1.369561    0.6468918  30.84  0.004764854    2.582    0.613
        72 -13.3909    111.0620    117.2294   7.4900636743e+01   3.7114447631e+01    0.8620365     0.443962  29.16  0.003094027    2.483    0.597
        73 -14.4887    106.5626    105.4179   7.3078257209e+01   4.0716336091e+01     2.076818      1.16823 -32.96  0.008085199    2.118    0.528
        74 -13.4477     95.4848    110.5318   7.7850737875e+01   4.1685775108e+01    0.8596917    0.7780788 -70.46  0.004081029    1.203    0.169
        75 -12.6778     28.6570    122.2429   1.0310603558e+02   4.8093824143e+01    0.4884556    0.3071437 -56.81  0.002468908    1.358    0.264
        76 -10.1442     58.7033    125.3054   9.3478607975e+01   4.3944379837e+01    0.1466684    0.1138848  73.57 0.0005523802    1.585    0.369
        77 -12.5378    180.9285    121.2818   5.8882706549e+01   2.1471091911e+01    0.4588622    0.3729612 -31.15  0.002363406    1.261    0.207
        78 -11.9239      4.2736    119.7943   1.1098567931e+02   5.0515775295e+01     0.536465    0.2094906  17.18  0.002272876    2.999    0.667
        79 -11.5081     34.6027     86.6188   9.3411923182e+01   5.6253840346e+01    0.3810835    0.2393784 -25.30  0.001269711    1.691    0.409
        80 -12.3081     36.6554     93.1187   9.4205605747e+01   5.4527890141e+01    0.4846011    0.3111503   5.06  0.001552425    1.817    0.450
        81 -14.1380     18.1620    111.1450   1.0487548432e+02   5.1772038528e+01    0.8972179    0.6671956 -44.73  0.003409203    1.215    0.177
        82 -14.0273     12.0684    103.7844   1.0582834626e+02   5.4023721292e+01    0.7338894    0.6653108  27.29  0.004738938    1.300    0.231
        83 -13.4588      2.2899     97.1448   1.0836720391e+02   5.6206900915e+01    0.8744219    0.3687229 -73.90  0.003269768    2.258    0.557
        84 -14.4406     23.1444     95.0274   9.9933252548e+01   5.5335757586e+01     1.360138     1.009786  11.94  0.007002723    1.492    0.330
        85 -11.0278     43.9728    112.6694   9.5902190415e+01   4.8968791822e+01    0.5421701    0.2591163 -22.30  0.001759258    3.996    0.750
        86 -11.7970     63.4711    111.2607   8.8682408984e+01   4.6817054029e+01    0.5499001    0.3045989  49.04  0.002254833    2.251    0.556
        87 -13.0469     29.4545     89.2367   9.6129470608e+01   5.6152328997e+01    0.9187675    0.5421224  67.69  0.003646966    3.393    0.705
        88 -10.8052     42.0061    107.4585   9.5486363754e+01   5.0486239807e+01    0.2057413    0.1409952  22.12 0.0009717768    1.597    0.374
        89 -12.3937    120.9416    112.0722   7.0739888415e+01   3.6281557239e+01    0.4976876    0.3695693 -78.13  0.001318725    1.837    0.455
        90 -13.3718    121.0788    102.3913   6.8079453261e+01   3.8379051994e+01     0.702979     0.340681  39.15  0.002630985    2.194    0.544
        91 -12.7014    136.1138    103.2627   6.4359540903e+01   3.4934492583e+01    0.7253146    0.3462653  49.74  0.001633906    2.157    0.536
        92 -11.9496     46.8547     99.8481   9.1928506469e+01   5.1780801994e+01    0.5238803     0.388632  69.14  0.002585573    1.898    0.473
        93 -11.4734     52.4512     97.8570   8.9336958631e+01   5.1556215336e+01    0.3670093    0.2266903 -15.90  0.001526468    2.159    0.537
        94 -12.2239     49.2208     93.6317   8.9469596345e+01   5.2960409619e+01     0.457874    0.3764961  78.85  0.001687195    1.638    0.389
        95 -12.2911    163.4857     98.4910   5.6809136180e+01   2.9783465145e+01    0.3369929    0.2876552  65.83 0.0005345205    1.212    0.175
        96 -11.8078     61.1924     98.0726   8.6164416853e+01   5.0310528807e+01    0.3674134     0.296131  72.31  0.001862025    1.671    0.402
        97 -12.7710    136.2578     95.1574   6.2106785764e+01   3.6563319021e+01    0.4666199    0.3646465  49.74  0.001492247    1.283    0.221
        98 -11.6049     42.6820     91.0034   9.1318748785e+01   5.4359709617e+01    0.3222646    0.2395979 -72.78 0.0007665274    1.607    0.378
        99 -11.1885    125.0705     91.8802   6.4046999650e+01   3.9701623820e+01    0.2380334    0.2098657  86.34  0.001218171    1.289    0.224
       100 -11.2460     89.9491     87.6370   7.3165299432e+01   4.7823840958e+01    0.3965991    0.2264863  53.32  0.001617999    2.161    0.537
       101 -13.3760    187.9901     84.5703   4.8736754167e+01   2.6867466696e+01    0.6313891     0.324471  44.15  0.002222631    2.383    0.580
       102 -11.6087    242.5145     84.4939   4.1172658180e+01   1.5835900337e+01    0.2294344    0.1232891  62.11  0.001206343    2.149    0.535
       103 -13.9998    164.2550     71.6163   4.9611044063e+01   3.4444245358e+01     1.021383    0.5903565  49.50  0.004668793    1.781    0.438
       104 -14.3813    169.4990     77.1541   5.0099173160e+01   3.2304728980e+01     1.408496    0.4721811  53.47  0.004969959    2.923    0.658
       105 -12.9559    161.1496     80.8157   5.2652499933e+01   3.3588690105e+01    0.4535855    0.3853855  30.87   0.00183141    1.388    0.280
       106 -12.2495    158.1990     83.6212   5.3995658586e+01   3.3766910450e+01    0.3328756     0.258702  76.43 0.0004921796    1.408    0.290
       107 -11.9669     47.4129     82.0944   8.7034998957e+01   5.5805675537e+01     0.424051    0.3325232 -43.19  0.002362109    1.170    0.146
       108 -13.7153    171.2502    242.4141   8.5040328325e+01  -1.1264032836e+00    0.8605466    0.5935428  19.88  0.004915781    1.316    0.240
       109 -13.3793     87.2135     65.3524   6.6971198528e+01   5.2684538964e+01     1.010543    0.5973554  12.37  0.003859689    2.955    0.662
       110 -13.1870     91.6809     58.1192   6.3076958261e+01   5.3032778524e+01    0.5180197    0.4424378 -21.02   0.00166274    1.204    0.169
       111 -13.4304     53.5364     68.8070   8.0512412680e+01   5.7777815072e+01     1.629729    0.6916747  33.86  0.006817776    2.373    0.579
       112 -14.0257     61.1419     75.8373   7.9761822268e+01   5.5227138957e+01    0.6941977    0.4809583 -28.70   0.00141743    1.452    0.311
       113 -12.9389     71.3256     75.0746   7.5701772053e+01   5.3744916351e+01    0.6367114     0.381277  15.23  0.002309491    2.236    0.553
       114 -12.2843     77.1650     73.3034   7.3033319849e+01   5.3080712149e+01    0.5408094    0.3178982 -23.64  0.001631694    2.183    0.542
       115 -10.6099    126.4910     83.4637   6.1244752822e+01   4.1032834853e+01    0.1489708    0.1439487  23.68 -5.698991e-05    1.057    0.054
       116 -13.5362    214.5056     79.5032   4.3594534509e+01   2.2068128332e+01     0.851894    0.4763598  82.53  0.003819315    2.508    0.601
       117 -12.5699    135.6335     79.7712   5.7910092663e+01   3.9652523139e+01    0.7360874    0.3707432  55.20  0.002412901    2.026    0.506
       118 -11.8429    114.3061     80.3456   6.3574508951e+01   4.4310777650e+01    0.3406362    0.3206055  59.21 0.0008481296    1.093    0.085
       119 -10.1501     69.3321     80.2888   7.8071674652e+01   5.3009162759e+01    0.1480069    0.1072063  -8.09 0.0006048897    1.625    0.385
       120 -11.7728     42.0930     77.0560   8.7745147692e+01   5.7558861524e+01    0.5159606    0.2169161 -57.93  0.002048798    2.592    0.614
       121 -12.2451    147.4277    238.8927   8.9612260540e+01   2.9886830776e+00    0.2682034    0.2195342 -65.75  0.001257943    1.570    0.363
       122 -13.5221      4.3379     63.9272   1.0082772391e+02   6.3691083276e+01     0.575667    0.3594329  27.58  0.003347709    1.879    0.468
       123 -11.4776     26.7436     75.1283   9.3688208327e+01   5.9602177080e+01    0.4766823    0.2900644 -81.17  0.002111288    2.808    0.644
       124 -12.2841    237.2518     80.7188   4.1013654872e+01   1.7405455508e+01    0.3106684    0.1744868  72.46   0.00160998    2.141    0.533
       125 -13.5264    198.9931     70.3167   4.3646218993e+01   2.6819174788e+01    0.7209329    0.4582832  46.44  0.002574638    1.910    0.476
       126 -12.4401    134.9722     66.3063   5.4129310134e+01   4.2141303875e+01    0.5393508    0.3892283  39.66   0.00158788    1.467    0.318
       127 -12.0893     31.6076     63.1260   8.8050235117e+01   6.1656993797e+01    0.5392789    0.3108204 -59.81  0.002660469    2.020    0.505
       128 -12.0134     24.7619     59.3479   8.9992794659e+01   6.3107964111e+01    0.4362547     0.287698 -43.16  0.001763411    1.319    0.242
       129 -10.7575     99.9547     65.5307   6.3038559723e+01   5.0069887424e+01    0.2216367    0.1363025  46.81 0.0005996272    1.566    0.362
       130 -11.5886    200.0412     62.0733   4.1583655155e+01   2.7864838641e+01     0.238753    0.1859969 -44.81  0.001390368    1.246    0.197
       131 -13.3270    177.8950     58.1768   4.3815812072e+01   3.3406612090e+01    0.6779395    0.5232196 -55.74  0.002234329    1.240    0.193
       132 -12.8528     78.8465     60.6879   6.8199612698e+01   5.5105733580e+01    0.6840529    0.5136557  51.93  0.003614894    1.499    0.333
       133 -12.9450     82.3538     54.5909   6.4859160744e+01   5.5465617457e+01    0.6349092    0.4500903  35.20  0.002577161    1.331    0.249
       134 -11.3561     38.8253     60.3093   8.3922305946e+01   6.1397496121e+01    0.2735809    0.2238376  56.16  0.001578431    1.772    0.436
       135 -12.0671    136.2934     49.7645   4.8909444829e+01   4.4365105812e+01    0.4176983    0.2612334  39.26  0.001541622    1.798    0.444
       136 -11.3702    111.5135     59.5029   5.7799486014e+01   4.8580727836e+01    0.2325689     0.212128  -7.32 0.0006370349    1.165    0.142
       137 -14.4523    120.5621     54.9525   5.4033668527e+01   4.7253536904e+01    0.8617962     0.536653  41.70  0.002092282    1.613    0.380
       138 -12.8771     54.5583     82.2527   8.4260994717e+01   5.4824000345e+01    0.5410305    0.3881684 -45.25  0.001717075    1.305    0.234
       139 -11.2219     17.7797     55.4009   9.2065844777e+01   6.4521704266e+01    0.3100565    0.1636096 -55.79  0.001596372    1.854    0.461
       140 -12.2469     99.8312     44.1420   5.5810505737e+01   5.3440342091e+01    0.3956475     0.278182  46.39  0.001274588    1.291    0.226
       141 -13.5211    102.9690     50.5714   5.7158385424e+01   5.1835306995e+01    0.5814701     0.461447 -79.57 0.0009808284    1.736    0.424
       142 -12.9230     97.8305     50.7973   5.8693710455e+01   5.2905876270e+01     0.408958    0.3715717 -73.43  0.001499482    1.339    0.253
       143 -11.7510     35.5366     53.7703   8.3162300563e+01   6.3040338477e+01    0.4668371    0.2468538  -3.41  0.001968199    2.858    0.650
       144 -10.8615      5.9225     51.0521   9.6586802170e+01   6.6259217243e+01    0.2127928    0.1101132 -29.77  0.001137704    1.721    0.419
       145 -10.7007     22.6292     50.4566   8.8105310744e+01   6.5048575474e+01    0.3121494    0.1445945  10.01  0.001407127    2.610    0.617
       146 -13.1924    158.8049     43.8474   4.3084089771e+01   3.9873265021e+01    0.6974483    0.3773476  48.31  0.003262899    1.955    0.489
       147 -13.0636    211.7561     44.4306   3.6208210631e+01   2.7865447124e+01     1.135054    0.5150505 -84.94  0.004379518    3.617    0.724
       148 -13.7835    219.5384     41.7984   3.4841962354e+01   2.6593557872e+01     2.221584    0.6080769  75.58  0.006495931    6.541    0.847
       149 -12.7329      3.7752     43.3889   9.5346235812e+01   6.7889212912e+01    0.5098152    0.3286131 -13.27  0.003174315    1.419    0.295
       150 -12.3135     11.7610     43.6780   9.1258227674e+01   6.7271054611e+01    0.4537832    0.2449914  -7.51  0.002011644    1.997    0.499
       151 -10.8229     27.6635    235.3694   1.1579402501e+02   2.0093528411e+01    0.2051733    0.1107637  61.63 0.0007983475    1.669    0.401
       152 -12.5018     24.3333    217.1786   1.1520063515e+02   2.4518715309e+01    0.6752628    0.3237904  51.74  0.003373872    1.879    0.468
       153 -12.9249    138.0886     21.8983   4.0252560566e+01   4.7358290249e+01    0.7228495    0.2772422  66.68  0.003040468    2.346    0.574
       154 -12.2380    109.3585     42.0927   5.2591650522e+01   5.1620844857e+01    0.4896559    0.2119891  56.94  0.001299329    2.193    0.544
       155 -12.9973    132.1468     32.9692   4.4639612794e+01   4.7521163154e+01    0.5468151     0.387648  50.97  0.001682863    1.312    0.238
       156 -12.2839     13.9741    222.0185   1.1779934602e+02   2.4455174646e+01    0.4363707    0.3120185  87.15  0.001634428    1.197    0.164
       157 -12.9422    113.7696     38.1247   5.0188240209e+01   5.1142158435e+01    0.4748405    0.3351313  72.18  0.002354698    1.554    0.356
       158 -11.5541    135.0892     39.8444   4.6164196619e+01   4.5984110472e+01    0.3628108    0.2144541  70.07  0.001435528    1.723    0.420
       159 -12.4357     75.5440     37.2661   6.0712233289e+01   5.9372525124e+01    0.3840495    0.2161943  44.30  0.001009214    1.613    0.380
       160 -11.7673     70.7440     36.5739   6.2098072832e+01   6.0379943771e+01    0.2851763    0.2544041  29.73 0.0008587082    1.110    0.099
       161 -12.6012    241.7544     36.1681   3.1722328359e+01   2.2924587925e+01    0.4517196    0.2389789  75.19   0.00213273    1.901    0.474
       162 -10.7395    104.4917     36.9982   5.2079257316e+01   5.3367767904e+01    0.1939494    0.1329193 -32.28  0.001031515    1.600    0.375
       163 -11.0285     35.2502     35.0301   7.6141742038e+01   6.6304017931e+01    0.3009489     0.184146 -19.25  0.001425696    1.646    0.392
       164 -12.7583     44.8772     33.6177   7.1134158911e+01   6.5170768174e+01    0.6935986    0.4437661  35.91     0.003813    1.519    0.342
       165 -13.4798     25.9553    226.9525   1.1556414412e+02   2.2129464907e+01    0.8670425     0.391932 -54.04  0.004089383    2.635    0.621
       166 -13.2061     20.2466    224.5168   1.1662169383e+02   2.3268969495e+01    0.6188398    0.4550227 -65.46  0.002825303    1.447    0.309
       167 -11.6533    237.1880    229.6035   7.0094231807e+01  -7.7800305286e+00    0.1683415   0.09877113  15.05 0.0009587435    1.716    0.417
       168 -13.3818     64.9178    223.5044   1.0649950666e+02   1.8267263215e+01     1.188861    0.6933828  48.96  0.006023484    1.570    0.363
       169 -11.3242     63.5496     20.7673   5.8145494352e+01   6.3692303690e+01    0.3353742    0.2598768  80.56  0.001434244    2.204    0.546
       170 -13.2714     55.3829     27.2931   6.4027045722e+01   6.4361879323e+01    0.6861266    0.3252394  43.30  0.002804906    1.958    0.489
       171 -11.4213     64.0060     24.7560   5.9678918380e+01   6.3145832832e+01    0.3208424     0.168182  36.40  0.001611165    1.718    0.418
       172 -12.0819    216.5330     28.7116   3.2386443034e+01   2.8878796890e+01    0.1921028    0.1787724 -35.37 0.0009506952    1.427    0.299
       173 -12.6856     59.4836    212.9932   1.0665189872e+02   2.1408485572e+01    0.3939549    0.2324843 -50.87  0.001193454    1.901    0.474
       174 -10.5111     98.5235     27.3304   5.0179916859e+01   5.5836302879e+01    0.2368489    0.1089502  56.09  0.001070694    1.925    0.481
       175 -11.1677     30.6098     25.7952   7.4429118516e+01   6.8296731285e+01    0.2832575    0.1529186  20.79   0.00152894    1.803    0.445
       176 -10.9836     36.1178     23.7576   7.0838535431e+01   6.7837930690e+01    0.2544695    0.1690583 -29.92   0.00155683    1.490    0.329
       177 -11.0034    249.2097    225.4059   6.7300936494e+01  -8.5554813592e+00    0.1485525     0.104983  32.63  0.000959556    1.713    0.416
       178 -11.2961     51.5118     20.5524   6.2622650757e+01   6.5853675472e+01    0.2570453     0.147544  34.61 0.0009837039    1.519    0.342
       179 -11.9044    223.9711     21.0368   3.0191515291e+01   2.8268749676e+01    0.2598787    0.1866921  61.86  0.001507256    1.614    0.381
       180 -13.7377     64.0697    214.5400   1.0572215011e+02   2.0445933778e+01    0.6948493    0.5295659  61.87  0.003753994    1.238    0.192
       181 -12.4128     94.3865    218.5487   9.8926358114e+01   1.5244538366e+01    0.2656483    0.2491459  18.73  0.001370839    1.146    0.128
       182 -11.6643    156.7248    214.5043   8.3645520553e+01   6.2720844758e+00    0.3087195    0.2157816 -34.14  0.001582258    1.483    0.326
       183 -12.0804      4.0026    212.0949   1.1932396329e+02   2.7636139965e+01    0.4702412    0.2236257 -83.54   0.00242781    1.839    0.456
       184 -10.8137    136.5218    211.0388   8.7716248885e+01   1.0268701015e+01    0.2110248     0.141846 -51.88  0.001026953    1.577    0.366
       185 -11.7914     72.5609    208.0049   1.0288122542e+02   2.0841258923e+01    0.4601367       0.2533 -74.44  0.002066622    1.992    0.498
       186 -12.0475     41.1350    206.6959   1.1040968048e+02   2.5153033777e+01    0.2401321    0.1670712  85.38  0.001312052    1.373    0.272
       187 -12.2026     57.5027    203.4430   1.0606643200e+02   2.3950356569e+01    0.5875745    0.2894643 -86.36  0.002355288    2.614    0.617
       188 -11.8081    194.4726     23.8653   3.3449669895e+01   3.4175062696e+01    0.3041013    0.2154543  60.04   0.00172868    1.493    0.330
       189 -13.1665     15.2572    197.4643   1.1577144151e+02   3.0073706920e+01    0.8128879    0.4232193 -66.97  0.004171763    1.731    0.422
       190 -13.1421     36.9837    195.4762   1.1031378717e+02   2.8357994468e+01    0.4549492     0.259522 -78.40  0.002236857    1.654    0.396
       191 -11.2793    178.5307     17.4513   3.3632360291e+01   3.8445798574e+01    0.2110922   0.09229908  60.71 4.008849e-05    2.073    0.518
       192 -13.2206     40.4158    195.2352   1.0943098285e+02   2.8033345778e+01    0.4617111    0.2875136  77.14   0.00229328    1.677    0.404
       193 -13.9043     22.4843    166.8607   1.1110938195e+02   3.7073443363e+01     1.085832    0.5814612  62.94  0.001588797    2.103    0.524
       194 -13.6529     29.8833    169.2881   1.0934825993e+02   3.5742936828e+01     1.022278    0.9496158 -50.21  0.006326091    1.199    0.166
       195 -13.5759     22.1607    181.3549   1.1267312061e+02   3.3409537393e+01     1.078709    0.4206909 -59.22  0.004602961    2.296    0.564
       196 -15.2333      7.9516    183.7222   1.1645482091e+02   3.4072726598e+01     1.647823     1.044101 -78.82  0.009275916    1.336    0.252
       197 -15.0200     15.8238    175.4011   1.1374838208e+02   3.5486729046e+01     2.587736     1.125397  68.88   0.01025602    2.908    0.656
       198 -12.7852    164.5219    196.2348   7.8605515095e+01   8.7243726251e+00    0.4071814     0.290288  88.51  0.001712547    2.735    0.634
       199 -10.7489    149.9559    207.4918   8.3976490236e+01   8.8114838178e+00     0.227822    0.1347815  34.36  0.001042095    1.618    0.382
       200 -12.3299    200.8576    191.7841   7.0030370773e+01   3.6244029608e+00    0.3703901    0.2914854 -13.28  0.001333285    1.223    0.183
       201 -11.1527     80.0125    193.0849   9.8983318345e+01   2.3407163648e+01    0.4143532    0.1421603  42.99  0.001440263    2.809    0.644
