#   1 NUMBER                 Running object number                                     
#   2 MAG_AUTO               Kron-like elliptical aperture magnitude                    [mag]
#   3 X_IMAGE                Object position along x                                    [pixel]
#   4 Y_IMAGE                Object position along y                                    [pixel]
#   5 X_WORLD                Barycenter position along world x axis                     [deg]
#   6 Y_WORLD                Barycenter position along world y axis                     [deg]
#   7 A_WORLD                Profile RMS along major axis (world units)                 [deg]
#   8 B_WORLD                Profile RMS along minor axis (world units)                 [deg]
#   9 THETA_WORLD            Position angle (CCW/world-x)                               [deg]
#  10 FWHM_WORLD             FWHM assuming a gaussian core                              [deg]
#  11 ELONGATION             A_IMAGE/B_IMAGE                                           
#  12 ELLIPTICITY            1 - B_IMAGE/A_IMAGE                                       
         1 -12.1143     76.5592     24.4868   9.2997727074e+01   6.0148095844e+01    0.4270256    0.2950889 -35.43  0.001028862    1.588    0.370
         2  -9.7073     88.5073      7.0185   8.2598458286e+01   5.9850376669e+01    0.2070678    0.1414481  -4.68 0.0006636505    1.498    0.333
         3 -11.3295     90.1708     16.0062   8.5625017121e+01   5.8655751719e+01    0.3514644    0.2242291 -14.95 0.0004250779    1.626    0.385
         4 -10.2515     87.2628     11.9244   8.4861104047e+01   5.9620602719e+01    0.2522815    0.1726188  -3.37 0.0009521946    1.490    0.329
         5 -11.0403     13.3742     20.5508   1.1573253516e+02   6.8557488555e+01    0.3124604    0.2626013  -5.06  0.001607543    1.282    0.220
         6 -10.5362     12.5735     16.0510   1.1434906487e+02   6.9280670932e+01    0.2843733    0.1700424  24.72  0.001116818    1.856    0.461
         7 -10.0675     26.3420     16.3764   1.0844512456e+02   6.8001167034e+01    0.2517038    0.2064934   7.04  0.001944079    1.283    0.220
         8 -10.4530    100.3067     18.8741   8.3957383601e+01   5.6370311357e+01    0.3189042    0.2405953 -55.18  0.001818636    1.900    0.474
         9 -11.2753     41.2192     19.0777   1.0343986241e+02   6.5992761689e+01    0.3562084     0.226901   9.89  0.002264548    1.509    0.337
        10  -9.8839    108.2485     16.7552   8.1177099025e+01   5.4959784147e+01    0.1688201     0.158136  25.42 0.0003901062    1.116    0.104
        11 -11.5135     30.1501      7.1880   1.0288513697e+02   6.8774796233e+01    0.3035406    0.2299904   3.90  0.001139788    1.111    0.100
        12 -11.6005     34.8396     13.1120   1.0351029659e+02   6.7515026301e+01    0.3723811    0.2363846 -35.09  0.001675653    1.583    0.368
        13 -11.7499     39.6767     10.3383   1.0035068487e+02   6.7275716489e+01    0.4303797    0.2360027 -15.51  0.002567131    1.751    0.429
        14 -10.5764    212.4524     12.0936   6.2755228957e+01   3.0773791241e+01    0.2561242    0.1948608 -89.87 0.0007019894    1.135    0.119
        15 -10.6207     69.0869     11.9093   9.0363281755e+01   6.2835003495e+01    0.2770108    0.1788414 -31.65 0.0009754943    1.680    0.405
        16 -11.7264     69.2890      6.6778   8.8120707039e+01   6.3330622536e+01    0.6166913    0.2246153  48.45 0.0008003513    2.606    0.616
        17 -11.9553     80.1376      2.0366   8.2933931039e+01   6.1851409508e+01    0.5198755    0.1904315  39.11  0.002408099    2.390    0.582
        18  -9.6318    118.9949     11.7581   7.6946673851e+01   5.3138293242e+01    0.1841968    0.1467639  49.39 0.0003784823    1.094    0.086
        19 -11.8055    150.8407      8.0750   6.9780199229e+01   4.6136731505e+01    0.4235732    0.2718024  47.21  0.002303834    1.437    0.304
        20 -10.6823     93.0663      9.1447   8.2201040698e+01   5.8775264227e+01    0.2111642    0.1543359  30.95 0.0004133852    1.175    0.149
        21  -9.4318     92.6728      4.2353   8.0414838443e+01   5.9290693335e+01    0.2996028    0.1498103 -35.38  0.001538956    2.368    0.578
        22 -10.7850     55.7481      7.7566   9.3146758864e+01   6.5367208885e+01     0.268513    0.1677767 -41.30  0.001273984    2.208    0.547
        23 -11.7182     58.4931      4.4077   9.0730081709e+01   6.5291070324e+01    0.5738391    0.3200232  26.83  0.003410774    1.619    0.382
        24 -10.9257     53.4705      4.5035   9.2540068717e+01   6.6040052951e+01    0.2825507    0.2232428 -44.88  0.001903662    1.993    0.498
        25 -11.2265     22.0715      9.4331   1.0736810647e+02   6.9343043576e+01    0.2746515    0.1632124  -5.79 0.0008115234    1.564    0.361
        26 -11.0260     11.7349      7.7281   1.1131100966e+02   7.0501058103e+01    0.3559339    0.2823986   5.58  0.002899762    1.329    0.247
        27 -10.5690      8.0083      5.3347   1.1202774823e+02   7.1119699902e+01    0.1799825    0.1328241   7.44 0.0005275125    1.331    0.249
        28 -10.6415      1.8326      3.1579   1.1405621592e+02   7.1870535522e+01    0.2117126    0.1296984 -28.87 0.0009397343    1.205    0.170
        29 -11.5479      4.3096      9.7423   1.1562272836e+02   7.0795374438e+01     0.288952    0.1989717   6.15 0.0007500193    1.401    0.286
        30 -10.5665      2.6706      6.3281   1.1499609323e+02   7.1383726114e+01    0.1673198    0.1095717  13.76 0.0005532355    1.558    0.358
        31 -10.2862    210.2464      7.6261   6.1947171721e+01   3.1785118436e+01    0.2259478    0.1387646 -48.01  0.001035305    1.613    0.380
        32 -10.9582     38.6763      2.2777   9.7150490375e+01   6.8307777877e+01    0.6167362    0.3438776  48.14  0.003550106    2.699    0.630
        33  -9.2169    183.0612      7.6264   6.5048796268e+01   3.8364318907e+01     0.234869   0.05138499  51.09 -0.0001435487    4.567    0.781
        34 -10.5776    144.8379      5.9256   7.0117601218e+01   4.7753994715e+01    0.2078647    0.1705308  12.37 0.0007321541    1.404    0.288
        35 -10.5071    136.5833      5.2486   7.1330436531e+01   4.9742471614e+01    0.1666431    0.1211835   5.54 0.0009513149    1.641    0.391
        36 -10.6642    243.9733      2.6860   5.7828642483e+01   2.4547896015e+01    0.2613153    0.2228206 -17.31   0.00174515    1.692    0.409
        37  -9.7354    235.6516      4.6838   5.8918845549e+01   2.6188631117e+01    0.1190823   0.08827458  49.41 0.0003468494    1.727    0.421
        38 -10.7297    194.5073      3.3736   6.2619542764e+01   3.6000724951e+01    0.2729302    0.1412423 -60.95 0.0009577592    2.185    0.542
        39 -11.4520    130.7351      3.5738   7.1851389480e+01   5.1227570758e+01    0.3168611    0.2091908  65.95  0.001366595    1.390    0.280
        40  -9.9124    120.8464      4.1225   7.3940974018e+01   5.3404137325e+01      0.17572    0.1622707  65.48 0.0004106704    1.168    0.144
        41 -10.7443     18.8617      2.5929   1.0576634489e+02   7.0507614552e+01    0.3143631      0.15681  15.02  0.001927261    2.053    0.513
        42  -9.0293    204.2951      1.3101   6.1083165322e+01   3.3852382267e+01    0.1224201   0.08882786  47.69 0.0002473975    1.592    0.372
        43  -9.6050    157.6667      1.2886   6.6744769967e+01   4.5101967642e+01    0.1293076   0.09088413 -76.10 0.0002469774    1.627    0.386
        44  -9.2914     67.3325      1.2776   8.6455768598e+01   6.4160000540e+01    0.1222622   0.07089077  22.61 0.0002776336    1.603    0.376
        45  -9.7469     32.5443      1.1281   9.9125630601e+01   6.9188985548e+01    0.2322532     0.060929  36.35 0.0008070591    3.667    0.727
        46  -9.6823     10.1052      1.5000   1.0933750323e+02   7.1440425688e+01    0.1410723   0.08582726  15.42  0.001019836    1.552    0.356
        47 -10.2115    249.0102    111.9779   8.1165152458e+01   7.2787707131e+00    0.1755105    0.1573764 -46.23  0.001011312    1.003    0.003
        48 -12.7397      5.0329    240.4916   1.5138055755e+02   2.4299864748e+01     1.301411    0.2757707  59.89  0.005165507    4.697    0.787
        49 -11.2210      1.8384    248.7540   1.5227589482e+02   2.3116531010e+01    0.3564051    0.1654792 -86.88  0.002366319    1.694    0.410
        50 -12.8983      9.7429    245.3161   1.5091874379e+02   2.2925546734e+01    0.5735906    0.2557582  45.78  0.003683225    1.995    0.499
        51 -11.6525      5.0433    108.7487   1.3989422138e+02   5.2141292365e+01    0.2779023    0.2158111   2.94  0.001972181    1.732    0.423
        52  -9.9007     66.0017    110.7953   1.2290975081e+02   4.5871164579e+01    0.2015554    0.1439317 -77.49  0.001037751    1.616    0.381
        53 -10.6213     58.2476    107.8291   1.2452127167e+02   4.7536198774e+01    0.2536068    0.1585186 -42.28 0.0007671493    1.539    0.350
        54  -9.7142     79.2641    106.9678   1.1817471476e+02   4.4851844827e+01    0.2013683    0.1713598 -50.98 0.0004223957    1.067    0.062
        55  -9.6632    113.4951    102.5040   1.0732494204e+02   3.9868949318e+01     0.149077    0.1436115 -36.85 -6.955044e-05    1.014    0.013
        56  -9.9208     66.8279    101.8716   1.2062562862e+02   4.7767364331e+01    0.1866395    0.1535307 -74.79 0.0008910042    1.332    0.249
        57 -10.8377     57.8704    101.3320   1.2318838094e+02   4.9037775292e+01    0.2380009     0.172863 -65.04   0.00132251    1.349    0.259
        58 -10.6318     38.5056     96.6519   1.2804116854e+02   5.2189245747e+01    0.3244008    0.1958513 -81.11  0.001063546    2.244    0.554
        59  -9.4654     38.4730     92.4342   1.2714235898e+02   5.3109558761e+01    0.1271136    0.1035082 -47.30 5.211102e-06    1.042    0.040
        60 -11.7003     17.5186     94.9414   1.3408226841e+02   5.4320107402e+01    0.3453488    0.2343923 -36.73  0.001693271    1.470    0.320
        61 -10.8528     20.4948     91.4708   1.3252272222e+02   5.4849887456e+01    0.1957864    0.1739698 -53.38 0.0006753039    1.124    0.110
        62 -10.6511     78.9178     94.9488   1.1526659728e+02   4.7550058722e+01    0.2092919    0.1853188 -36.31 0.0003149438    1.050    0.048
        63 -10.0412      3.2400     95.2525   1.3836669984e+02   5.5162787581e+01    0.1494714    0.1150073 -85.43 0.0007623924    1.335    0.251
        64  -9.3515     99.8612     94.1824   1.0888482029e+02   4.4219737685e+01    0.1937802    0.1631874 -15.68            0    1.295    0.228
        65 -10.4736     84.1966     93.8407   1.1338968964e+02   4.6964288747e+01    0.2896171    0.2337336  17.38  0.001238208    1.400    0.286
        66 -11.2801     27.5972     90.9865   1.3022593175e+02   5.4396093058e+01    0.4773022    0.2819533  57.45  0.002477101    2.611    0.617
        67  -9.8893     25.4841     84.9909   1.2963312097e+02   5.5843617848e+01    0.2587865    0.1736134 -66.00 0.0008588225    1.390    0.280
        68 -10.3270     57.9444     91.7656   1.2089811869e+02   5.1120300171e+01    0.2646997    0.1806555 -19.92  0.001116909    1.792    0.442
        69 -11.5047     11.1569     87.9257   1.3473105284e+02   5.6246941005e+01    0.5594513    0.1935281 -63.07  0.002556314    2.216    0.549
        70 -10.4635     16.1351     89.1746   1.3342668213e+02   5.5652686737e+01    0.2281903    0.1439438 -26.30 0.0008383106    1.809    0.447
        71  -9.6678    118.6444     90.3246   1.0254525380e+02   4.1381497132e+01    0.1536404    0.1202247 -88.26 0.0007045939    1.768    0.434
        72 -10.5791     76.3888     89.1637   1.1450122285e+02   4.9163386430e+01    0.2366498    0.2167228  -4.35 0.0004798418    1.134    0.118
        73 -10.0884     44.2533     89.7441   1.2471779896e+02   5.3108392267e+01    0.2667221    0.1515689  45.81   0.00136075    2.278    0.561
        74 -10.5033      1.7878     89.6930   1.3789179117e+02   5.6421650069e+01    0.2034196    0.1166765 -62.52 0.0002220795    1.294    0.227
        75 -10.8773     54.5775     84.6904   1.2018586336e+02   5.3029040875e+01    0.4228308    0.1959518 -48.93  0.001048802    1.823    0.451
        76  -9.7903    123.9788     86.9661   1.0014732515e+02   4.0939445580e+01    0.2256805    0.2231643 -28.09 0.0006806056    1.025    0.025
        77 -10.1956    104.3141     87.6887   1.0578003274e+02   4.4741578146e+01    0.1427986    0.1169347 -87.00 0.0007031159    1.634    0.388
        78 -10.5210      3.8833     82.9225   1.3607546717e+02   5.7724864571e+01    0.2493697    0.1225339 -57.07  0.001341899    1.468    0.319
        79  -9.7556     78.2071     83.1898   1.1229077284e+02   5.0127027265e+01     0.170434    0.1592493  81.61 0.0002847107    1.305    0.234
        80 -11.6400     63.7850     80.9688   1.1623426068e+02   5.2642394063e+01    0.4056564    0.3308265  55.10  0.002385651    1.567    0.362
        81 -10.3785     65.4772     75.6079   1.1418064707e+02   5.3496038605e+01    0.3514785    0.2143237 -24.35 0.0009346281    1.925    0.480
        82  -9.9394    250.3822     80.8085   7.3959362775e+01   1.2274031949e+01    0.1916071    0.1256717 -30.22 0.0006053422    1.650    0.394
        83 -10.0837     89.3817     80.4248   1.0806331502e+02   4.8878780133e+01    0.2639623    0.1649669 -47.57 0.0007027103    1.553    0.356
        84  -9.3220    124.4005     79.2398   9.7759919516e+01   4.2342421918e+01    0.2005779    0.1377347 -50.96 0.0005422778    1.575    0.365
        85  -9.6348     19.3286     79.6742   1.3048321731e+02   5.7422105971e+01    0.1109164   0.08671919  82.84 0.0005290093    1.701    0.412
        86 -10.0679    176.6767     77.1232   8.5070458815e+01   3.0430107647e+01    0.3059509    0.2211338  50.99  0.001441897    1.367    0.268
        87 -11.0188     55.6453     75.6821   1.1743349694e+02   5.4748549581e+01    0.2920383    0.2301211  -3.16 0.0007004149    1.381    0.276
        88 -10.5094     15.5395     75.9721   1.3093304494e+02   5.8448126836e+01    0.1646523    0.1457422 -22.66 0.0007756869    1.234    0.189
        89  -9.4749     74.9708     75.5453   1.1110313659e+02   5.2149363370e+01     0.178428    0.1319442  31.51 1.363357e-06    1.446    0.308
        90 -11.6141     34.2940     72.8517   1.2386994005e+02   5.7593382181e+01     0.482436     0.333568  13.17  0.002984702    1.688    0.408
        91  -9.5576    224.0444     74.2749   7.6140006231e+01   1.9320338560e+01     0.194107    0.1707896  86.62 0.0002854221    1.107    0.097
        92  -9.9276    136.5613     74.0650   9.3102755806e+01   4.0604226187e+01    0.2194457    0.1985737  41.60 0.0004210644    1.086    0.079
        93 -10.9893      3.6764     73.7433   1.3439773768e+02   5.9619019664e+01    0.2766552    0.1918752  14.03  0.001136257    1.808    0.447
        94  -9.7531    216.8520     72.3864   7.6769252020e+01   2.1345837909e+01    0.2238954    0.1740788 -33.27 0.0005065296    1.364    0.267
        95 -10.1120     81.2037     72.5503   1.0823223837e+02   5.1763444644e+01    0.2645105     0.176788 -60.51  0.001053417    1.934    0.483
        96 -10.1597    105.8620     71.4986   1.0049042370e+02   4.7580924068e+01    0.2357644      0.19383 -32.95 0.0004920596    1.184    0.155
        97  -9.3301     92.4792     72.4631   1.0472755710e+02   4.9883780662e+01    0.1378656    0.1296567 -20.12 0.0001123629    1.048    0.046
        98  -9.3581     90.5764     69.4297   1.0436262150e+02   5.0783252520e+01    0.1354029     0.126919 -20.57 0.0001460643    1.061    0.057
        99 -10.1612     46.0561     69.2464   1.1887367102e+02   5.7129880489e+01    0.2667153    0.1954099  30.94  0.001490266    1.569    0.363
       100 -10.0143     10.2270     68.7739   1.3114640955e+02   6.0242135172e+01    0.2554275     0.115446 -51.12  0.001437291    1.606    0.377
       101  -9.0192    114.4830     66.5129   9.6512315152e+01   4.6745233162e+01    0.1403346    0.1379103  -1.31 2.189222e-05    1.073    0.068
       102 -11.7183     34.2688     65.1349   1.2183837539e+02   5.9119761831e+01    0.2562054    0.1874379 -33.53   0.00041625    1.160    0.138
       103 -11.3586     39.8650     61.7113   1.1888694049e+02   5.9231622570e+01    0.5930547    0.2244878 -36.75  0.002402513    2.649    0.622
       104 -10.9903     16.8698     64.2527   1.2777035377e+02   6.0701278393e+01    0.2841178    0.2346084  -8.40   0.00208321    1.317    0.241
       105 -10.4915    131.3486     64.2630   9.1400167121e+01   4.3488164960e+01    0.4188252    0.2830734  62.30  0.001189105    1.670    0.401
       106  -9.0468    101.5173     65.4900   9.9848760172e+01   4.9499257485e+01    0.1401645    0.1302356  -3.92 0.0001395621    1.000    0.000
       107  -9.0797    109.6591     64.2707   9.7133568151e+01   4.8117913879e+01    0.1353623    0.1144697  88.36 0.0003624306    1.607    0.378
       108  -9.7460     72.9865     63.9727   1.0820483906e+02   5.4643173949e+01    0.2257086    0.1401318 -62.85  0.001015261    2.567    0.610
       109 -10.4943      2.5865     60.0682   1.3185849766e+02   6.2381835973e+01    0.2253483    0.1713085  89.72   0.00155889    1.817    0.450
       110 -11.0363      7.6764     61.6843   1.3041809041e+02   6.1788147002e+01    0.5151259    0.1499567 -46.38  0.002464992    2.393    0.582
       111 -10.8992      7.6942     55.7941   1.2898580124e+02   6.2915573367e+01    0.2298135    0.1864834 -52.79  0.000854819    1.184    0.155
       112 -10.5684     62.7805     62.2522   1.1106354350e+02   5.6416840863e+01    0.2635908    0.1534008 -34.07  0.001010124    1.596    0.373
       113 -10.4556     51.4156     59.7437   1.1420511491e+02   5.8324678918e+01    0.3696287    0.1994271 -56.08  0.001136698    2.171    0.539
       114 -10.8928     54.5612     57.3097   1.1233513911e+02   5.8384029962e+01    0.6057681    0.2555392 -50.66  0.002695777    2.455    0.593
       115 -11.1346     11.3283     48.8869   1.2580110969e+02   6.3975339161e+01     0.552969    0.2514763  20.57  0.003179224    2.554    0.608
       116 -11.1485     16.6656     44.6499   1.2250677776e+02   6.4369768045e+01    0.3310217    0.2949031 -41.57   0.00242529    1.284    0.221
       117 -12.7544     20.9851     57.7461   1.2460536023e+02   6.1653362995e+01    0.3999428    0.3534492  81.39  0.002396907    1.649    0.394
       118 -10.9480     20.3521     50.7752   1.2289060770e+02   6.2995398254e+01    0.4137469    0.1677615 -47.29  0.001457129    1.868    0.465
       119  -9.2771     66.7930     60.4196   1.0912642145e+02   5.6193201185e+01    0.1692789    0.1182265  16.75 0.0006004024    1.558    0.358
       120 -11.2687     83.4515     56.9657   1.0254741821e+02   5.4215120717e+01    0.2814263    0.2237141 -29.25 6.472517e-05    1.178    0.151
       121 -11.7524     87.4801     53.9948   1.0028521506e+02   5.4022388483e+01    0.4249379    0.2831181  39.57  0.001180013    1.517    0.341
       122  -9.5945     71.4448     57.6988   1.0668655243e+02   5.5997016949e+01    0.1719975    0.1124807 -29.41 0.0003252549    1.445    0.308
       123 -10.2986     60.4541     57.7415   1.1042302505e+02   5.7546502250e+01    0.2135135    0.1929917 -16.22 0.0008057548    1.102    0.092
       124  -9.6488    157.8835     56.4987   8.2998830854e+01   3.8480056237e+01    0.2727597    0.1608813 -57.11 0.0008131957    2.188    0.543
       125 -11.9813     66.6965     52.6292   1.0659296016e+02   5.7569436707e+01    0.5931001    0.2930828  33.33  0.002495056    2.128    0.530
       126 -10.9367    114.9217     53.9561   9.2339484101e+01   4.8737274587e+01    0.3340585    0.2666537  34.70  0.001279797    1.207    0.171
       127  -9.4082    162.5069     54.4892   8.1471777370e+01   3.7651917823e+01    0.1463605    0.1380527  60.40 -6.883889e-06    1.016    0.015
       128 -10.0341    106.4030     53.3783   9.4481906852e+01   5.0573995679e+01    0.2951643    0.2166872 -78.35  0.001370789    2.406    0.584
       129 -10.4094      2.4625     53.9402   1.3045965659e+02   6.3556344623e+01     0.274085    0.1226639 -23.98  0.001067675    2.554    0.608
       130  -9.7269     34.7308     53.1168   1.1818770389e+02   6.1329576847e+01    0.2182469    0.1269943 -17.16  0.001027373    1.960    0.490
       131  -9.4222    176.1825     52.3460   7.8272182031e+01   3.4574414395e+01    0.1998096    0.1314902  71.50 0.0003661604    1.570    0.363
       132 -10.0803     46.4247     49.7085   1.1278604523e+02   6.0698980722e+01    0.4068356    0.1319735 -35.71  0.001578971    3.257    0.693
       133  -9.1511    147.6244     49.8191   8.3147826171e+01   4.1967818807e+01    0.1974506    0.1297398 -45.31            0    1.656    0.396
       134 -10.8794     77.7356     46.4403   1.0077167464e+02   5.6880600807e+01     0.401831    0.2688173   0.86  0.002110879    1.761    0.432
       135  -9.7208     38.1822     49.0303   1.1561670341e+02   6.1713485999e+01    0.1875628     0.128986 -24.26  0.001174895    1.285    0.221
       136  -9.1502    212.0138     48.7909   7.1646363467e+01   2.6185884938e+01    0.1786859    0.1070727  66.79 0.0003135154    1.599    0.375
       137  -9.4688     53.6422     48.2097   1.0966288638e+02   6.0084268302e+01    0.1770971   0.09692989 -33.08 0.0003761982    1.651    0.394
       138  -9.7577    105.4125     47.4453   9.2754149738e+01   5.1684733750e+01     0.243307    0.1311448  59.48  0.001027054    2.447    0.591
       139 -10.2074     68.6295     46.8535   1.0394605944e+02   5.8239113792e+01    0.2022035    0.1596498  19.84 0.0002588443    1.234    0.190
       140  -9.5029     64.6889     46.2868   1.0509780683e+02   5.8908523998e+01    0.1853625    0.1235429  35.59 0.0004816942    1.581    0.367
       141  -9.7369     30.7835     46.8741   1.1772461603e+02   6.2812505875e+01    0.2443328    0.1626025 -34.50  0.001079171    1.205    0.170
       142  -9.5123     91.2534     44.5813   9.5872885126e+01   5.4825194475e+01    0.1729648    0.1168068  31.00 0.0002850885    1.451    0.311
       143 -10.1297     26.3386     30.6670   1.1397622760e+02   6.5908419155e+01    0.1916953    0.1468488 -65.28 0.0007901443    2.250    0.555
       144 -11.0721     25.2853     43.2825   1.1870401376e+02   6.3925802424e+01    0.2484306    0.2201423 -56.35  0.001029379    1.471    0.320
       145 -10.6960     22.7664     38.5995   1.1817610389e+02   6.4935895250e+01    0.2002338    0.1903675  27.64 0.0008554594    1.514    0.339
       146 -11.1331     26.5065     35.2802   1.1554632136e+02   6.5158225704e+01    0.3618464    0.1849081 -28.99  0.001225296    1.755    0.430
       147 -10.8414    182.1483     40.7352   7.4039443436e+01   3.4728230478e+01    0.3483072    0.2725995  46.76 0.0009751985    1.328    0.247
       148 -10.9464    139.6431     40.1191   8.1847456152e+01   4.5217735972e+01    0.4189642    0.2073832 -36.59  0.001595352    2.126    0.530
       149 -10.4736     70.4389     41.3694   1.0137748484e+02   5.8821009390e+01    0.3104865    0.2070416 -20.55  0.001757194    1.448    0.309
       150 -10.3957      2.8509     41.6778   1.2710481397e+02   6.5778038478e+01    0.3398906    0.1532343 -19.98  0.001855323    2.569    0.611
       151  -8.9925    212.3689     41.1674   6.9722126452e+01   2.7178583907e+01    0.1737304    0.1195935 -50.02 0.0002267704    1.411    0.291
       152 -10.1623     36.0627     40.8032   1.1368421690e+02   6.3331195712e+01    0.2946308    0.1513764 -30.76  0.001618031    1.757    0.431
       153  -9.3168     51.2617     39.9837   1.0765054769e+02   6.1726202756e+01    0.1524465     0.092159 -36.93 0.0008698456    1.480    0.324
       154 -10.0913    130.8279     37.7141   8.3035616630e+01   4.7576110383e+01     0.243131    0.2126714  41.76 0.0007485287    1.048    0.046
       155 -11.9663    121.3902     36.5671   8.4877254075e+01   4.9840252275e+01    0.5031031    0.4239891  86.76  0.002848787    1.510    0.338
       156 -10.2191     13.0506     37.9109   1.2187545847e+02   6.5798013563e+01    0.3317133   0.06601799 -44.75  0.001380874    3.257    0.693
       157 -11.7608    145.0493     33.0309   7.8487247388e+01   4.4848334783e+01    0.2510445     0.233667 -32.38  0.001509153    1.173    0.148
       158 -10.0527     70.1423     35.4413   9.9295790308e+01   5.9740421501e+01    0.3060704     0.149121 -21.54  0.001292466    2.445    0.591
       159 -10.3288      2.1340     35.8139   1.2570049160e+02   6.6841252492e+01    0.1975417    0.1281051 -11.64  0.001408855    1.523    0.343
       160 -11.0490     50.3002     33.8362   1.0574895085e+02   6.2792054729e+01    0.2292037    0.1927824   2.45 0.0004657623    1.122    0.108
       161 -11.0962    134.3254     33.9637   8.1034012869e+01   4.7251933637e+01    0.2331385    0.1732099  44.67 0.0003099389    1.235    0.190
       162  -9.8840    166.7251     31.8265   7.4105589125e+01   3.9719504467e+01    0.3710343    0.1344785 -40.73  0.001400184    2.885    0.653
       163 -10.9266     19.5551     31.8038   1.1717764717e+02   6.6318317481e+01    0.3875331    0.2008896  -6.55  0.002135273    2.393    0.582
       164 -11.6164     44.0419     29.0822   1.0631859800e+02   6.4266769704e+01    0.4581413    0.2760168 -20.77  0.002350901    1.529    0.346
       165  -9.3423    187.8042     29.4063   7.0125971072e+01   3.4780682375e+01     0.207707    0.1111718  55.61 0.0009518284    1.730    0.422
       166  -9.7529    151.2513     29.5909   7.6218504596e+01   4.3776643549e+01    0.2052844    0.1128775  51.25   0.00094912    1.630    0.386
       167 -10.4343    140.1562     27.2586   7.7656327765e+01   4.6697002375e+01    0.5104117    0.2787723  61.06   0.00239788    1.705    0.413
       168  -9.5641    103.9812     29.5025   8.6854782943e+01   5.4412582967e+01    0.3161967    0.1463193  36.46  0.001375759    2.231    0.552
       169 -10.3722     69.5746     28.1471   9.6710506248e+01   6.0830683189e+01    0.2450672    0.1972467 -30.25  0.001044971    1.332    0.249
       170  -9.8750      7.7496     28.1429   1.2089943221e+02   6.7779988736e+01    0.1606425    0.1303231   9.68 0.0006726945    1.427    0.299
       171 -10.4205     34.1315    247.1211   1.4721419913e+02   1.9852481828e+01    0.1564129    0.1226964  76.96 0.0005087575    1.188    0.158
       172  -9.6309    214.3302     26.2709   6.5881070482e+01   2.8656558088e+01    0.1292968   0.09670797  46.41 0.0002469928    1.586    0.369
       173 -10.2774    153.9743     25.9442   7.4611880542e+01   4.3543397710e+01    0.3361489    0.1899018  73.25  0.001526397    1.916    0.478
       174 -10.2396    113.9461     25.2023   8.2786271449e+01   5.2841169682e+01    0.2187534    0.1880927 -15.13 0.0007757327    1.223    0.183
       175 -10.3098     58.8452     24.5189   9.9008600260e+01   6.2934492554e+01    0.2574638     0.163684  -0.11  0.001118172    1.655    0.396
       176  -9.6117    192.8589     23.8468   6.7972740401e+01   3.4198903278e+01    0.1862483    0.1431791 -76.24 0.0002799015    1.290    0.225
       177 -10.2366     50.7730     22.9388   1.0133297874e+02   6.4265928052e+01    0.2298497    0.1966618   1.00  0.001167229    1.165    0.142
       178 -10.0657     89.3349     21.9156   8.8121828533e+01   5.8167505498e+01    0.3487411    0.1676196 -31.35  0.001714739    2.141    0.533
       179  -9.5800     84.8430     21.3440   8.9221624164e+01   5.9062695343e+01    0.2840268      0.12617  29.39  0.001104782    2.718    0.632
       180  -9.9218     85.9788     17.2390   8.7298634230e+01   5.9310872611e+01    0.1743378    0.1387113  34.05 0.0003475533    1.129    0.114
       181 -11.1371      9.1376    111.8728   1.3923292383e+02   5.1194891830e+01    0.1706151     0.133301 -86.53  0.000248411    1.244    0.196
       182  -9.2837    136.3217    245.6749   1.2902317011e+02   4.9656647288e+00    0.1304846   0.08583868  68.27 0.0003980891    1.682    0.406
       183  -9.7414    217.4411    245.0000   1.1371171725e+02  -8.7607673630e+00    0.2786341   0.05964902  41.38 0.0009411606    3.987    0.749
       184 -10.9393     19.9985     16.8039   1.1135985468e+02   6.8545131648e+01    0.2384693    0.1453046  11.69  0.001297031    1.605    0.377
       185  -9.7067    146.3284    244.3311   1.2695900858e+02   3.4743229315e+00    0.1220683    0.0963509  14.44 0.0007051538    1.713    0.416
       186 -11.2351     37.4714    241.8051   1.4630757063e+02   2.0441109273e+01    0.3527489    0.1027331  58.61  0.001522479    3.326    0.699
       187  -9.7431    124.9941     21.4758   7.8952727626e+01   5.0828958893e+01    0.1866042    0.1706793   2.16 5.500176e-06    1.151    0.131
       188  -9.6522      1.8474     21.5365   1.2120749857e+02   6.9203328315e+01    0.1653578    0.1245514 -47.52  0.001273252    1.421    0.296
       189 -10.3397     31.0844     19.8954   1.0788403151e+02   6.7030533463e+01    0.2195843     0.154591 -35.10   0.00100199    1.393    0.282
       190  -9.6336    202.5064    240.1191   1.1568462570e+02  -5.6065009473e+00    0.1648521    0.1244208 -34.64  0.000729629    1.519    0.342
       191 -10.0422    175.1399     20.4776   6.9571173253e+01   3.8965772046e+01    0.2104102    0.1195591  65.27   0.00101606    1.546    0.353
       192  -9.0175    131.6699     20.6495   7.7256760980e+01   4.9401903543e+01    0.1448972   0.09004072  30.56 0.0007048025    1.769    0.435
       193  -9.2932     60.4609    241.0000   1.4235327111e+02   1.7635559768e+01    0.2407171   0.05680801  40.43 0.0009279072    3.880    0.742
       194 -12.0720     15.3450    239.5318   1.4972795692e+02   2.3401361066e+01    0.2895763    0.1087596  64.07  0.001565247    2.305    0.566
       195  -9.5275    148.7530     18.8200   7.3388409750e+01   4.5582720881e+01    0.1769593    0.1485088 -85.11 0.0003685428    1.312    0.238
       196 -10.2041    199.9391     17.0733   6.5364637570e+01   3.3241259614e+01    0.2053923    0.1739758 -84.75 0.0005490361    1.057    0.054
       197 -12.3518     26.3845    235.8719   1.4772487226e+02   2.2872720454e+01    0.3421941    0.2039415 -78.22  0.001755596    1.469    0.319
       198 -12.2007      2.2778    221.9963   1.5079843742e+02   2.8086436049e+01    0.7326425    0.1336196 -75.77  0.002906769    4.343    0.770
       199 -13.1575      9.7230    229.4238   1.5002838410e+02   2.5910644175e+01     0.622506    0.3172289 -86.01  0.002892995    1.546    0.353
       200  -9.7925    249.1799    234.1180   1.0617017730e+02  -1.2286497519e+01    0.1826195    0.1344545  11.39  0.000535544    1.172    0.147
       201  -9.7206     76.0778     14.6839   8.9269631345e+01   6.1357540566e+01     0.171764    0.1268711  27.35 0.0005092099    1.164    0.141
       202 -10.3981    190.5934     13.8249   6.5698507647e+01   3.5884215098e+01    0.1776288    0.1146196 -46.87 0.0005276114    1.612    0.379
       203 -10.4894    156.3674     14.0552   7.0658200492e+01   4.4236707277e+01    0.2383494     0.163065  53.33  0.001071622    1.295    0.228
       204  -9.5423    144.2393     14.4153   7.2840151996e+01   4.7105089348e+01    0.1771671    0.1181274  72.20 0.0004447557    1.486    0.327
       205  -9.0520    209.5146    229.5054   1.1260427228e+02  -5.2396582689e+00    0.1299601    0.1099275  23.22 0.0008104383    1.016    0.016
       206  -9.6720    140.0688    227.0630   1.2578135022e+02   7.6096462363e+00    0.2155051    0.1447416  68.97 0.0006553954    1.703    0.413
       207 -10.1581     32.6820    225.2156   1.4591008127e+02   2.4225013837e+01     0.252964    0.1274082  49.72  0.001516439    1.738    0.425
       208 -10.0952     25.5064    225.0197   1.4712866914e+02   2.5082923902e+01    0.1660899   0.08867753 -79.20 0.0006495772    1.569    0.363
       209 -11.4964      7.7391    217.6647   1.4963966752e+02   2.8407652208e+01    0.2648657    0.1827952  89.85  0.001290088    1.110    0.099
       210  -9.4535    246.4889    216.5179   1.0347542336e+02  -9.5018280301e+00    0.1280638    0.1044778   6.35 0.0001342575    1.046    0.044
       211 -11.7272      4.2614    232.5844   1.5107576145e+02   2.5858103098e+01     0.276452    0.1754988  72.04 0.0004434374    1.135    0.119
       212  -9.6099    209.6428    211.8343   1.0945146235e+02  -2.5074763082e+00    0.1934738    0.1563006  21.46  0.001123848    1.158    0.137
       213 -10.8759     16.0298    211.9659   1.4784350773e+02   2.8719780347e+01    0.1798584    0.1307016  82.65 0.0007943775    1.019    0.019
       214  -9.7839    246.8377    206.9370   1.0161414384e+02  -8.1789420999e+00    0.2004403     0.151982  -5.24 0.0009752618    1.253    0.202
       215  -9.4316    196.8944    203.8420   1.1047485162e+02   1.2006447701e+00    0.1862278    0.1637892  64.94 0.0007817752    1.331    0.249
       216 -11.2236      9.1836    203.4332   1.4845126580e+02   3.1146098430e+01    0.2278346    0.1738825  70.49 0.0009707942    1.184    0.156
       217  -9.0521    181.5008    199.4966   1.1278438279e+02   4.9472295616e+00    0.1413799    0.1306144  44.67 0.0008102315    1.047    0.045
       218  -9.6390     23.2261    197.5714   1.4543422860e+02   3.0969322368e+01    0.1320567    0.1132766  34.34 0.0004218837    1.634    0.388
       219  -9.8177      6.7472    191.7272   1.4805252327e+02   3.3812145936e+01     0.159768   0.09667336  76.77  0.001037984    1.357    0.263
       220  -9.5600     15.3808    185.2046   1.4590039930e+02   3.4402363309e+01    0.1684223   0.08556499 -86.93 0.0009410802    1.660    0.397
       221  -9.3900      1.3209    183.2651   1.4843930198e+02   3.6074169942e+01    0.1555688   0.07785267 -85.43 0.0005639531    1.558    0.358
       222  -9.0441    250.4679    183.4683   9.6357525757e+01  -5.1968001073e+00    0.1332656    0.1160609  -6.63 0.0001908159    1.010    0.010
       223 -10.7572      4.8047    167.5025   1.4649337321e+02   3.9179656782e+01    0.2805282    0.1540661  62.14  0.001596397    1.805    0.446
       224  -9.1756    111.5719    162.5475   1.2142864622e+02   2.6466101608e+01    0.1470051     0.134596  89.42 7.057076e-05    1.014    0.014
       225  -9.2274     41.6261    157.9018   1.3741365714e+02   3.7839825220e+01    0.1876284    0.1024862 -80.52 0.0009392879    1.744    0.426
       226  -9.1550    247.4698    155.5416   9.1043147652e+01  -2.7485203375e-02    0.1384715    0.1251655 -20.56 0.0001179701    1.003    0.003
       227  -9.5540      2.3183    153.3177   1.4573431157e+02   4.2482316110e+01    0.1131041   0.07011048 -53.75 0.0002658852    1.657    0.397
       228  -9.7542     14.6015    150.7639   1.4276082001e+02   4.2085861926e+01    0.1699379   0.09143404 -82.13  0.000915797    1.582    0.368
       229 -10.0596     21.9293    143.3210   1.4019398077e+02   4.3143902886e+01    0.2231562    0.1381219 -80.82  0.001308161    1.379    0.275
       230  -9.4409      2.2901    138.3350   1.4423917592e+02   4.5793156983e+01    0.1167218     0.067536 -53.41 0.0006216048    1.634    0.388
       231  -9.4853      8.7546    134.9942   1.4234034083e+02   4.6079670039e+01    0.1643168   0.07805182 -71.08 0.0008878887    1.605    0.377
       232 -10.7741     12.6826    130.6018   1.4084729748e+02   4.6773452224e+01    0.4097006    0.1946133  72.64  0.001582928    3.158    0.683
       233  -9.5907     21.3945    126.1952   1.3804940372e+02   4.7083466956e+01    0.1759543      0.12716 -71.70 0.0003492996    1.106    0.096
       234 -11.8233     23.8931    121.8759   1.3676062241e+02   4.7854865524e+01    0.4295748    0.2278806 -84.70 0.0006006767    2.132    0.531
       235 -10.2664      3.5035    118.9973   1.4168525713e+02   4.9988237586e+01    0.1805822   0.08930253 -71.08 0.0005283805    1.544    0.352
       236  -9.4856      2.3157    114.2943   1.4138288752e+02   5.1094350790e+01    0.1163199   0.06736032 -48.16 0.0002490223    1.602    0.376
