#   1 NUMBER                 Running object number                                     
#   2 MAG_AUTO               Kron-like elliptical aperture magnitude                    [mag]
#   3 X_IMAGE                Object position along x                                    [pixel]
#   4 Y_IMAGE                Object position along y                                    [pixel]
#   5 X_WORLD                Barycenter position along world x axis                     [deg]
#   6 Y_WORLD                Barycenter position along world y axis                     [deg]
#   7 A_WORLD                Profile RMS along major axis (world units)                 [deg]
#   8 B_WORLD                Profile RMS along minor axis (world units)                 [deg]
#   9 THETA_WORLD            Position angle (CCW/world-x)                               [deg]
#  10 FWHM_WORLD             FWHM assuming a gaussian core                              [deg]
#  11 ELONGATION             A_IMAGE/B_IMAGE                                           
#  12 ELLIPTICITY            1 - B_IMAGE/A_IMAGE                                       
         1 -18.0783    119.9909    135.9223   1.1138676442e+02   3.1363961883e+01     5.253173     2.904521 -51.42   0.02132671    1.803    0.445
         2 -17.4160     45.4254     57.7343   1.1422983159e+02   5.9950277030e+01     1.725812     1.079196  11.30  0.009691576    1.747    0.428
         3 -17.3161     15.3463     88.1544   1.3275572821e+02   5.6412622285e+01     2.019881     1.288257 -39.05   0.01253829    1.409    0.290
         4 -15.7174    173.8479      5.6733   6.3295552791e+01   4.0766354338e+01     1.102097     0.493729  76.78  0.004881619    2.134    0.531
         5 -16.3157    201.2760    227.5637   1.1084226811e+02  -3.8933598489e+00      1.31972     1.111364  22.49  0.006272966    1.024    0.024
         6 -15.9573     65.6792    205.3234   1.3655522528e+02   2.4121227009e+01    0.9998703    0.8339252   0.81  0.003950762    1.947    0.486
         7 -16.4185     74.2757    187.3867   1.3242610375e+02   2.6961140797e+01       1.3872     1.163006 -68.27  0.005564442    1.196    0.164
         8 -18.2763    115.9783    188.0245   1.2272024016e+02   1.9904342205e+01      3.81259     2.259948  48.82   0.01461688    1.596    0.373
         9 -16.0561     13.3093    214.2375   1.4774160746e+02   2.8446411282e+01    0.9968911    0.6022389 -79.79  0.005737656    1.367    0.269
        10 -15.8662     91.6749    168.4173   1.2533411131e+02   2.8737417263e+01     1.194264    0.9637578 -46.16  0.004968531    1.369    0.270
        11 -17.1043    177.8364    195.7618   1.0995157636e+02   6.1773999774e+00     2.269765      1.54842  61.90   0.01042556    1.839    0.456
        12 -16.1951    156.8518    173.3922   1.1027217918e+02   1.5119039981e+01     1.715974    0.9780629 -57.48  0.006946251    2.045    0.511
        13 -16.2787    147.4680    155.9082   1.0882281154e+02   2.1008797091e+01     2.020073     1.509099  42.22  0.009412549    1.313    0.239
        14 -14.4466    223.8712    195.7125   1.0038709100e+02  -2.6218925311e+00    0.5406255    0.2411042  30.70  0.002116349    2.623    0.619
        15 -16.3149    196.1338    181.5979   1.0318130743e+02   5.2704577642e+00     1.623564    0.8365623 -49.41  0.006615562    2.188    0.543
        16 -16.3389    200.2728    166.1917   9.9045035422e+01   7.4396482454e+00     1.525212     1.274805  47.88  0.007912199    1.220    0.180
        17 -15.7106      9.6435    145.4611   1.4266614518e+02   4.3943724239e+01     1.251562    0.5118003 -76.55  0.005869136    2.067    0.516
        18 -16.4142     43.9025    156.5911   1.3556045343e+02   3.8190044133e+01     2.029686     1.542552  -4.60  0.009874229    1.975    0.494
        19 -13.1684     95.8300    145.1552   1.1993218648e+02   3.3649175022e+01    0.3903794    0.3251773  34.01  0.001669921    1.294    0.227
        20 -15.8063     95.7097    131.6103   1.1710605686e+02   3.6921676408e+01     1.164501     1.136611 -13.39  0.004963753    1.101    0.091
        21 -14.0464     79.0190    134.2527   1.2238369063e+02   3.8992792813e+01    0.4298258    0.3538586  42.36  0.001816595    1.289    0.224
        22 -14.8151     85.6102    115.5848   1.1637858499e+02   4.2381195916e+01    0.7844774    0.5475283 -46.71  0.003875503    1.356    0.263
        23 -14.9397     81.9438    124.5872   1.1951074357e+02   4.0852165205e+01    0.7160513    0.4255465 -62.53  0.003220296    1.718    0.418
        24 -14.7961     73.3406    120.6477   1.2118503806e+02   4.3070344516e+01    0.6522441    0.5081779 -62.25  0.002694561    1.223    0.182
        25 -16.1411    133.9279    214.3153   1.2287421568e+02   1.0922406244e+01     2.139857     0.923623  34.54  0.008214846    2.527    0.604
        26 -15.6889    247.1218    113.5592   7.8647407854e+01   7.5518797626e+00    0.6895201    0.5301141   9.11  0.003514411    1.874    0.466
        27 -16.0535    151.1378    104.8561   9.5406467600e+01   3.1470078803e+01     1.840512    0.7304989  61.60  0.004417758    5.454    0.817
        28 -15.9822    210.0768    205.7210   1.0507994593e+02  -1.8301611180e+00     1.021079    0.5451222 -38.83  0.004720779    1.965    0.491
        29 -15.7688    115.0682     83.2592   9.8878568734e+01   4.3887768310e+01      1.74878    0.9221764 -51.12  0.006999786    2.195    0.544
        30 -15.3832    126.2616     76.2029   9.3644057466e+01   4.2805558477e+01     1.121287    0.7718876  39.71  0.005283661    1.424    0.298
        31 -16.4955    243.5522     79.2373   7.1591872467e+01   1.4171967687e+01     1.545948    0.5437338 -47.34  0.005821635    2.653    0.623
        32 -13.7697     70.0616     96.3519   1.1648413824e+02   4.9073526202e+01    0.3624576    0.2340707  -3.48  0.001636429    2.276    0.561
        33 -14.7552     91.7279     70.8736   1.0214394114e+02   5.0775447126e+01     1.078573    0.7133882 -60.34   0.00497284    2.152    0.535
        34 -16.9175     99.2204    217.2539   1.3082732098e+02   1.6391849190e+01     2.090235     1.254375  30.30  0.008210285    2.034    0.508
        35 -15.9193    101.9389     67.3127   9.7835902329e+01   4.9501180046e+01    0.7231849    0.5969968 -67.42  0.003827047    1.626    0.385
        36 -14.6881     76.4043     85.1789   1.1141124812e+02   5.0521012834e+01    0.5512586    0.2925858 -26.15  0.002195077    2.639    0.621
        37 -16.2869     77.2171     52.4607   1.0087477051e+02   5.6478682073e+01     1.212796    0.5625398  39.76   0.00551188    2.137    0.532
        38 -17.6449     50.5813     76.0087   1.1769119230e+02   5.5849337928e+01     1.793566     1.118638 -27.01  0.009504043    1.657    0.396
        39 -12.4313     80.4028    107.3618   1.1597760952e+02   4.5089166920e+01    0.2801224     0.179002  37.66  0.001340547    1.659    0.397
