#   1 NUMBER                 Running object number                                     
#   2 MAG_AUTO               Kron-like elliptical aperture magnitude                    [mag]
#   3 X_IMAGE                Object position along x                                    [pixel]
#   4 Y_IMAGE                Object position along y                                    [pixel]
#   5 X_WORLD                Barycenter position along world x axis                     [deg]
#   6 Y_WORLD                Barycenter position along world y axis                     [deg]
#   7 A_WORLD                Profile RMS along major axis (world units)                 [deg]
#   8 B_WORLD                Profile RMS along minor axis (world units)                 [deg]
#   9 THETA_WORLD            Position angle (CCW/world-x)                               [deg]
#  10 FWHM_WORLD             FWHM assuming a gaussian core                              [deg]
#  11 ELONGATION             A_IMAGE/B_IMAGE                                           
#  12 ELLIPTICITY            1 - B_IMAGE/A_IMAGE                                       
         1 -16.1799    190.8952    154.1508   5.0412146048e+01   1.2124256907e+01     12.05714     9.165931 -59.01   0.05860202    1.571    0.364
         2 -16.6775    246.4633     67.2565   2.0341724405e+01   1.5358628467e+01     6.750639      3.74017 -70.47   0.01455739    2.503    0.600
         3 -16.8072    242.6941    101.2128   2.8697497951e+01   1.0740436696e+01     5.588851     1.727548  52.31   0.01887821    3.448    0.710
         4 -11.4801    249.7294     15.5738   8.5428190560e+00   2.1643209808e+01    0.3142853    0.2628519 -40.15 0.0005050109    1.306    0.235
         5  -9.9646    114.2440     13.6555   2.6729387273e+01   5.4692876918e+01    0.2406322    0.1947777  28.36  0.000387965    1.175    0.149
         6  -9.3934     33.9607    218.3536   9.4488867839e+01   2.5166455618e+01    0.1535111   0.09971243   3.51 0.0007045644    4.432    0.774
         7 -10.4084    249.7264    248.6772   5.7047651195e+01  -1.2400213592e+01     0.275589    0.1955422 -14.71  0.001947954    1.347    0.258
         8  -9.9442     37.9744    213.6976   9.3394209232e+01   2.5649192016e+01    0.1743839    0.1276486  66.05  0.001186192    1.091    0.084
         9  -9.8600     97.0707    248.3076   8.5211171280e+01   1.1131865673e+01    0.1885327    0.1584037 -89.19 0.0005021053    1.279    0.218
        10 -10.0233    236.0744    187.8185   4.8636895284e+01  -2.3291371601e+00    0.2840784    0.2100179 -17.05  0.001068094    1.278    0.218
        11 -12.2760    210.6069    178.1554   5.1497826261e+01   3.7910670188e+00    0.9019689    0.6232146  48.80  0.004603705    1.565    0.361
        12 -15.6289    243.3206    121.5986   3.3268441775e+01   7.1912112122e+00     2.365071     2.149245  34.80  0.005463392    1.202    0.168
        13  -8.8315    121.7714    237.0657   7.9298349678e+01   9.2728847579e+00    0.1614641    0.1419577  57.02 0.0002834482    1.091    0.084
        14  99.0000     67.2486    143.4114   7.8717537791e+01   3.7909518516e+01     4.851796     1.335757 -60.22   0.01661789    3.147    0.682
        15 -13.4550     43.1515    123.5974   8.2167329231e+01   4.5598023841e+01    0.9095128    0.8002244  15.07  0.003442671    1.399    0.285
        16 -12.7667     59.6519    123.5954   7.7390458499e+01   4.3698670407e+01    0.9107111    0.5029843 -50.95  0.001609388    1.681    0.405
        17 -12.9131     54.9575    119.6750   7.8044249225e+01   4.5218782226e+01     1.075563    0.4615807 -57.84  0.004650431    1.979    0.495
        18  -8.9485    117.9649    166.2000   6.9697130201e+01   2.4314421679e+01    0.2135837    0.1799083  75.84 0.0004191383    1.219    0.180
        19 -12.5290      2.6775    134.5911   9.4486707958e+01   4.6387943874e+01     1.455187    0.2267764 -74.35  0.004605283    4.914    0.796
        20 -13.7791     14.3468    127.4769   9.0724854044e+01   4.7227392725e+01     1.049072     0.914435 -62.78  0.004473616    1.188    0.158
        21  -8.6368     94.2940    116.9656   6.5867213726e+01   4.0135864967e+01    0.2034031    0.1839601 -54.95 0.0004596539    1.051    0.049
        22 -11.1562     33.3616    132.3909   8.6214927172e+01   4.4470062890e+01     0.239648    0.1938761 -87.57  0.000591771    1.109    0.099
        23 -11.8187    126.5334    106.3458   5.4086644712e+01   3.6343303946e+01     1.241811    0.6154852 -61.16   0.00406521    3.091    0.676
        24 -11.5244    121.4036    103.1912   5.4639328252e+01   3.8118713275e+01    0.5851554    0.3311715 -56.54  0.001902865    2.014    0.503
        25 -14.7893    249.6345     85.4204   2.4093105155e+01   1.1859776410e+01    0.8821737    0.7345923  15.85  0.002794415    1.569    0.363
        26 -10.1052    108.5115    107.9407   5.9534672040e+01   3.9641653102e+01    0.8983134    0.4010513  28.05  0.002761412    3.785    0.736
        27  -9.1743    218.0578    203.6605   5.4996701393e+01  -1.6985950457e+00    0.2716822    0.1842147  54.64  0.001408289    1.971    0.493
        28 -10.5634    140.5194    101.8326   4.9177029683e+01   3.4243521042e+01    0.3893274    0.3058665  70.62  0.001010069    1.500    0.333
        29 -10.3987    127.4079     91.6456   4.9755350694e+01   3.9308575441e+01     0.340043    0.2608758 -45.56 0.0005441078    1.301    0.231
        30 -10.3946    158.0183     88.2594   4.1093277103e+01   3.2884769353e+01    0.5832161      0.23792 -33.45  0.001900722    2.836    0.647
        31  -9.0264     24.5026    202.5005   9.5178403237e+01   2.9439609156e+01    0.1165927   0.08952413  79.81  0.000810442    1.035    0.034
        32  -8.9417    142.4136     75.2469   4.0971233853e+01   3.9101810450e+01    0.2073327    0.1451345 -48.21 0.0005396508    1.503    0.335
        33  -9.1924    135.0215    185.9193   6.9164661379e+01   1.6849604852e+01     0.202478    0.1893825  59.67  0.000341438    1.024    0.023
        34  -9.1718    155.6048     68.2500   3.5755338575e+01   3.7149014201e+01    0.2115482    0.1496179 -23.28 0.0007921988    1.618    0.382
        35 -14.9789    226.0753     78.9820   2.5871013292e+01   1.8066010105e+01     1.592857     1.403185  74.10  0.006303291    1.180    0.152
        36 -10.4263    116.4235     63.1397   4.3960870881e+01   4.7254323020e+01    0.3673315    0.2966904  43.57   0.00146041    1.219    0.180
        37 -10.1976    138.1850     63.0441   3.8201918848e+01   4.2287596896e+01    0.2407403    0.2032164  16.91 0.0008477486    1.313    0.238
        38  -8.3288     48.3892    235.5421   9.3058508681e+01   2.0111113070e+01    0.1129152   0.08652759  71.16 4.966149e-05    1.049    0.047
        39  -9.8792     99.2317     53.5436   4.5752424440e+01   5.2524126505e+01    0.3896732    0.1832707 -33.62  0.001590442    2.191    0.544
        40  -8.4287    133.6274     51.7415   3.5633590120e+01   4.5229669101e+01    0.1550479    0.1075174  28.69 0.0006973935    1.651    0.394
        41  -9.1155    118.6110     50.1173   3.8933793945e+01   4.8964888355e+01    0.4126748    0.1460948 -29.20   0.00133201    3.480    0.713
        42 -12.0443    138.9917     43.3921   3.1595437862e+01   4.5189324165e+01    0.6758542    0.5858246  -3.30  0.003683425    1.263    0.208
        43  -9.8103    101.1479     45.1229   4.2134903536e+01   5.3513748377e+01    0.4962168     0.218349 -26.45  0.001875332    2.765    0.638
        44 -11.5782    193.2550    194.5836   5.8169769371e+01   4.1925391321e+00    0.8914002    0.5382133 -64.99  0.003576281    3.291    0.696
        45  -9.6245    169.5985     41.2407   2.4795204373e+01   3.7810527487e+01    0.1955347    0.1439406 -13.09 0.0009462184    1.674    0.403
        46  -9.6974    171.6476     35.3324   2.2687477345e+01   3.8078216602e+01    0.2925589    0.1911969  29.00  0.001317169    2.042    0.510
        47 -10.9201    148.9034     33.4761   2.6239416055e+01   4.4082825008e+01     0.313646    0.2427121  55.49 0.0007503707    1.187    0.157
        48  -8.2259     42.0000     30.0078   5.7903372092e+01   6.5648821399e+01    0.1976878   0.06109548 -43.29 0.0008007272    2.931    0.659
        49 -10.5771    147.9846     25.1929   2.3725326355e+01   4.5324780564e+01    0.3386169    0.2144032  -9.35  0.001041544    2.040    0.510
        50 -10.0937    224.1345     20.1247   1.1833870303e+01   2.6912023354e+01    0.2611683    0.2181313  28.25  0.001003845    1.658    0.397
        51  -9.5564    245.0931     18.2352   9.4922666660e+00   2.2344069513e+01    0.2060566    0.1462047  74.66 0.0006120462    1.375    0.273
        52 -10.7585    240.7072    214.8292   5.2877373775e+01  -6.9633176820e+00    0.3145082    0.2388019 -17.68  0.001207513    1.244    0.196
        53 -10.8292    162.2367    158.7462   5.7700188200e+01   1.7206788341e+01      0.41074    0.3157149  77.20 0.0007603383    1.705    0.414
