#   1 NUMBER                 Running object number                                     
#   2 MAG_AUTO               Kron-like elliptical aperture magnitude                    [mag]
#   3 X_IMAGE                Object position along x                                    [pixel]
#   4 Y_IMAGE                Object position along y                                    [pixel]
#   5 X_WORLD                Barycenter position along world x axis                     [deg]
#   6 Y_WORLD                Barycenter position along world y axis                     [deg]
#   7 A_WORLD                Profile RMS along major axis (world units)                 [deg]
#   8 B_WORLD                Profile RMS along minor axis (world units)                 [deg]
#   9 THETA_WORLD            Position angle (CCW/world-x)                               [deg]
#  10 FWHM_WORLD             FWHM assuming a gaussian core                              [deg]
#  11 ELONGATION             A_IMAGE/B_IMAGE                                           
#  12 ELLIPTICITY            1 - B_IMAGE/A_IMAGE                                       
         1 -17.5661    185.1468    108.2728   7.8246764103e+01   2.2632867091e+01     2.651943     2.635344 -27.01   0.01505638    1.061    0.057
         2 -19.2034    186.0342    133.3222   8.4085158225e+01   1.8110958257e+01     8.709207     4.639478  46.35   0.03798906    1.789    0.441
         3 -17.5373    172.0040     69.7376   7.0189405317e+01   3.2422142859e+01     7.811217     3.497181  45.31   0.02836336    2.331    0.571
         4 -11.3470    166.8340     32.3130   5.9204847618e+01   3.9320677108e+01    0.3290167    0.2262452 -36.68  0.001005843    1.462    0.316
         5 -13.5329    198.6654     32.6452   5.4455382046e+01   3.0861897257e+01    0.5093232    0.3999572  39.56 0.0008388644    1.384    0.277
         6 -11.2051     89.9516     13.7481   6.9381935103e+01   6.0476313404e+01    0.2296858    0.1811024 -15.20 0.0004318253    1.213    0.176
         7 -12.4602    244.2067      9.2858   4.3336610441e+01   2.2127301213e+01    0.2757323    0.1854598 -42.67  0.001497657    1.317    0.240
         8 -12.1649    248.6308      4.4815   4.1830321108e+01   2.1588224921e+01    0.3894739      0.24104 -14.31  0.002026035    1.860    0.463
         9 -12.4983    238.6189      3.1450   4.2222627600e+01   2.4055235345e+01    0.4667334    0.2415644 -12.26  0.002100893    2.423    0.587
        10 -10.4889    178.2257      4.9914   4.8493199785e+01   3.9304133683e+01    0.3116791    0.1696502 -37.56  0.001394824    1.831    0.454
        11 -11.2699    224.0340      4.9986   4.3856316971e+01   2.7412213403e+01    0.1640581    0.1481173 -59.92 0.0003795134    1.024    0.024
        12 -10.9170    202.2531      4.0039   4.5563089102e+01   3.3047689630e+01    0.1919925    0.1759171 -59.47 0.0004726033    1.056    0.053
        13 -11.3268     25.8409      8.1217   9.2940390709e+01   7.1608393171e+01    0.2856756    0.1872901 -23.55  0.001760576    1.364    0.267
        14 -10.4912     39.4964      2.4760   8.2957440295e+01   7.0817592837e+01    0.1218301   0.09832536 -12.44 3.220998e-05    1.006    0.006
        15 -10.4660    207.7703      1.5889   4.4346089856e+01   3.1847929887e+01    0.1957263    0.1233499 -88.00 0.0006776502    1.616    0.381
        16 -10.7187     43.3857    238.1515   1.2651283986e+02   2.2921196368e+01    0.1378489   0.07347276  81.49 0.0009486913    1.734    0.423
        17 -11.8506    201.9987    249.5178   1.0112637722e+02  -7.7930268466e-01    0.2241076    0.1500366  34.23 0.0004539868    1.077    0.071
        18 -12.5777    190.1596    249.0212   1.0297958097e+02   1.0198145058e+00    0.4547147    0.1903986  38.77 0.0002463111    1.761    0.432
        19 -12.4579    189.1988    241.8786   1.0224177694e+02   1.9451078954e+00    0.3625255    0.1630871  38.97 0.0007560185    1.663    0.399
        20 -11.6478    245.4792    235.4509   9.2313051876e+01  -5.6950452170e+00    0.2873154    0.0988859 -29.53  0.001504902    3.320    0.699
        21 -12.0966    233.4943    235.9706   9.4256101065e+01  -4.0388152787e+00    0.3215842    0.1728303  28.83  0.001948249    1.461    0.316
        22 -10.4020    143.5411    236.0936   1.0930340243e+02   9.6660108975e+00    0.1318798    0.1136481 -60.45 0.0004705861    1.516    0.340
        23 -10.4297    102.7881    235.9761   1.1636411954e+02   1.5698817356e+01    0.1783472    0.1030251  72.54  0.001081241    2.015    0.504
        24 -10.4606    215.6332    234.6926   9.6930604523e+01  -1.2812272624e+00    0.1185572   0.06803125  20.17 0.0007036772    1.752    0.429
        25 -10.9071    201.1635    233.1589   9.9096356464e+01   1.0853187181e+00    0.1456446    0.1163308  45.47 0.0003512281    1.326    0.246
        26 -12.4269    175.7557    230.6107   1.0306082665e+02   5.3572630725e+00    0.3506283    0.2775024 -13.20  0.002494937    1.611    0.379
        27 -10.2989    249.6237    231.7345   9.1119604159e+01  -5.9393975064e+00    0.1273203   0.09391517 -24.24 0.0009465882    1.643    0.391
        28 -11.3588    183.4146    229.2293   1.0156094895e+02   4.3164857120e+00     0.199967    0.1651473  41.95 0.0005876545    1.159    0.137
        29 -10.3065     81.8449    230.1247   1.1950445417e+02   1.9477221084e+01    0.1648109    0.1104389  60.36  0.000271715    1.157    0.136
        30 -10.7140     69.4556    230.0502   1.2164508054e+02   2.1099333824e+01    0.1757683    0.1284844  40.50 0.0003708383    1.438    0.305
        31 -15.3192    219.1992    210.1458   9.2642023075e+01   8.4443370219e-01     2.328669    0.9382393  36.95  0.008661379    2.062    0.515
        32 -16.3203    170.6686    197.8071   9.9319572210e+01   1.0668915152e+01     2.962558     1.364411  43.32   0.01447498    1.810    0.448
        33 -16.3285    225.8418    179.3833   8.6192743499e+01   3.4599228200e+00     1.974475     1.456524 -20.58   0.01217746    1.386    0.279
        34 -11.3023    175.5201    220.5075   1.0174918649e+02   6.6855112906e+00     0.199967   0.09420729  42.10 0.0001804738    1.671    0.402
        35 -11.4983    187.5792    221.8589   9.9826148818e+01   4.5567901977e+00    0.2972247    0.2161271  63.69  0.001855287    1.893    0.472
        36 -12.2978    182.8639    221.1772   1.0055149325e+02   5.4055062788e+00    0.3448365      0.22497  24.44  0.001496406    1.539    0.350
        37 -10.3182     37.8777    165.8595   1.2264010650e+02   3.6725526535e+01    0.1628134     0.107844  71.50 0.0003350086    1.280    0.218
        38 -10.0400     49.3139    165.6551   1.2014454812e+02   3.5489345722e+01    0.1289057   0.07260367  69.26 0.0007047262    1.712    0.416
        39 -10.9114    217.0219    222.0192   9.4851655850e+01  -1.4349525335e-01    0.1740855    0.1344807  29.37 0.0004145188    1.065    0.061
        40 -10.9473     42.2321    159.3530   1.2109574455e+02   3.7605457081e+01    0.3194688    0.1350267 -76.86   0.00158209    2.224    0.550
        41 -11.2599    248.3718    159.7301   7.8662002796e+01   1.9919621093e+00    0.2202636    0.1967783   7.04 0.0003501801    1.151    0.131
        42  -9.4662     30.3367    222.2707   1.2783768351e+02   2.6945876289e+01   0.08092833   0.07747412  70.72 0.0002566214    1.599    0.375
        43 -11.8497     86.6080    159.0306   1.1099961702e+02   3.1906175993e+01    0.2208951    0.1567365  56.40 0.0007212069    1.288    0.224
        44  -9.9730    237.4896    221.4676   9.1440441354e+01  -3.2071169342e+00    0.1149135   0.08468567  21.54 6.910103e-05    1.014    0.013
        45 -12.3609     84.3502    154.6686   1.1090392474e+02   3.3157092312e+01    0.3542025    0.2353949  26.34  0.001860364    1.971    0.493
        46 -12.6172     81.8060    151.2156   1.1100423930e+02   3.4265486261e+01    0.4255922    0.2542579  85.39  0.001729492    2.096    0.523
        47 -13.5942     98.7325    150.2593   1.0686965824e+02   3.1847683094e+01    0.5881121     0.450362  57.40  0.002424409    1.218    0.179
        48 -12.4870     90.1562    150.0523   1.0885857331e+02   3.3253079578e+01    0.4126959    0.2349387 -52.03  0.001331724    1.880    0.468
        49 -11.8173    230.9962    220.0501   9.2261851610e+01  -2.0845104451e+00    0.4490425     0.191919  47.10  0.002282444    2.412    0.585
        50 -11.1260     50.0542    149.6618   1.1829718863e+02   3.8782967750e+01    0.1669873    0.1398077  69.03 0.0004725944    1.096    0.087
        51 -10.3932    199.6452    220.6817   9.7577817104e+01   2.7572172935e+00    0.2185382    0.1138056  32.83  0.001220483    1.633    0.388
        52 -11.4487     56.9344    145.6033   1.1617925999e+02   3.8839206320e+01    0.2195875    0.1728801 -81.61 0.0006449406    1.127    0.113
        53 -12.4670     86.9381    140.5115   1.0812349429e+02   3.5800512749e+01    0.4340595    0.2384725  39.51 0.0004220832    1.837    0.456
        54 -12.1067    128.5129    211.0442   1.0910391032e+02   1.5700266693e+01    0.2316562    0.1807269  68.14 0.0007755174    1.292    0.226
        55 -12.0197    100.1748    140.1796   1.0482611048e+02   3.3749055312e+01    0.2671756     0.191458  50.31 0.0007978052    1.335    0.251
        56 -13.0876     96.0010    139.4639   1.0572098129e+02   3.4591428320e+01    0.5219396    0.3010945  29.12  0.001978338    2.234    0.552
        57  -9.6776     14.4771    140.4749   1.2576089827e+02   4.4295903591e+01    0.1141153   0.08860231  87.81 0.0001252625    1.027    0.026
        58 -11.6902     71.0868    137.8937   1.1164621218e+02   3.8687732200e+01    0.3320009    0.1828188  56.78  0.001632049    1.902    0.474
        59 -11.5773    121.2126    218.0698   1.1128012086e+02   1.5732846373e+01    0.3534639    0.2279369 -39.96  0.001984109    2.311    0.567
        60  -9.9320     80.4845    137.5145   1.0923778928e+02   3.7429235421e+01    0.1316963     0.118375  86.37 -3.791269e-07    1.026    0.026
        61 -12.7628    125.1087    215.7336   1.1029498629e+02   1.5495673993e+01     0.504943    0.3088628  53.06  0.002241644    1.380    0.276
        62 -11.6852     59.2449    216.2976   1.2244179247e+02   2.4669051947e+01    0.3717076    0.2628676  21.98   0.00242087    2.258    0.557
        63 -13.2343    101.6347    127.3685   1.0207727504e+02   3.6272181710e+01    0.6470649    0.4026629 -70.97  0.003026763    1.859    0.462
        64 -11.3552     87.9379    127.5857   1.0563488869e+02   3.8485348352e+01    0.2807612    0.2312429  -1.86  0.001250426    1.757    0.431
        65 -12.3577     95.1265    124.6512   1.0321659452e+02   3.7970169294e+01    0.4224336    0.2562552  79.56  0.001761564    2.577    0.612
        66 -10.4086     81.1753    125.0631   1.0694096850e+02   4.0089960448e+01    0.1914783    0.1720249 -53.55 0.0003156853    1.204    0.170
        67 -10.1321      6.7040    124.3521   1.2632216728e+02   4.8378736991e+01    0.1206831   0.06662635  71.08  0.000703368    1.686    0.407
        68  -9.9581     63.5584    122.4727   1.1118162740e+02   4.3151849160e+01     0.130297    0.1139522 -83.63 0.0001107397    1.013    0.012
        69 -10.7842     78.8152    129.8460   1.0839366530e+02   3.9373198277e+01    0.3921031    0.1892999 -50.48  0.001762487    2.153    0.536
        70  -9.7179     68.6696    120.7300   1.0951179813e+02   4.2863548829e+01    0.1232071    0.1017139 -29.23 0.0002597116    1.585    0.369
        71 -10.9178     34.4718    117.9734   1.1838916014e+02   4.7481173272e+01    0.1928796    0.1024063 -71.02 0.0004830952    1.590    0.371
        72 -10.6115    234.9362    214.8480   9.0804204396e+01  -2.1422160552e+00    0.2538039    0.1229483  30.05   0.00140444    1.779    0.438
        73 -11.9651     93.5548    214.5201   1.1602396001e+02   2.0417541858e+01    0.2885332    0.1951736  40.16 0.0007653343    1.400    0.286
        74 -11.1174    249.6097    114.2368   6.8635755421e+01   7.7000223045e+00    0.2897141    0.2069132  13.75  0.001549911    1.529    0.346
        75 -11.7408      5.6621    114.0877   1.2569631313e+02   5.0700954603e+01    0.2177109    0.1571434 -88.78 0.0005172087    1.089    0.081
        76 -10.8708      9.8581    116.9188   1.2485354358e+02   4.9785957840e+01     0.168614    0.1294879 -68.14 0.0003059771    1.222    0.182
        77 -11.3973    172.8928    247.1272   1.0558936922e+02   3.8143254167e+00    0.2316251    0.1359779  44.87 0.0008121968    1.316    0.240
        78 -12.0391     86.1506     99.6268   1.0034125029e+02   4.5026794055e+01    0.6501518    0.2502884 -47.37  0.002463785    2.561    0.610
        79 -11.4692    241.4583    104.1956   6.7488516542e+01   1.0736978481e+01    0.3042379    0.2123633 -23.71 0.0006715452    1.337    0.252
        80 -10.5984     72.3700     97.3874   1.0388610089e+02   4.7650174485e+01    0.2368684    0.1984762 -87.00 0.0006446264    1.224    0.183
        81 -11.6920     33.1021     94.6885   1.1537568960e+02   5.2915911788e+01    0.2309339    0.1649008 -66.90 0.0003296092    1.166    0.142
        82 -10.4383     99.4538     91.4752   9.4483287139e+01   4.4526068440e+01    0.2120933    0.1311065 -41.53  0.000129186    1.650    0.394
        83 -11.1699     74.9007     93.5469   1.0225203388e+02   4.8146332355e+01    0.3089232    0.2066915  53.51 0.0005013632    1.671    0.402
        84 -16.9653    146.4089    192.4296   1.0316075341e+02   1.5739084294e+01     4.724826     2.649812  64.52   0.02175701    2.554    0.608
        85 -12.1805    146.2743    208.4608   1.0543862559e+02   1.3217328613e+01    0.3727838    0.3200315  28.54  0.001790419    1.231    0.187
        86 -12.1959    138.0746    215.5964   1.0788016298e+02   1.3464535178e+01    0.2510997    0.2415231  48.01   0.00132295    1.223    0.183
        87  -9.8278     18.2927     91.6638   1.1949769163e+02   5.4838594546e+01    0.1215291   0.07842661  75.95 0.0002640116    1.642    0.391
        88 -10.4147     11.6675    207.7061   1.3032183680e+02   3.1328681713e+01   0.08357201   0.07378467 -69.79  0.000302694    1.637    0.389
        89 -10.6864    242.8413     88.4147   6.3460562522e+01   1.2643893732e+01    0.2799951    0.1722095 -26.10 0.0009874522    1.517    0.341
        90 -10.7349     87.5408     88.9993   9.7326391352e+01   4.7156962622e+01    0.2672465    0.2074866  13.49  0.001371159    1.687    0.407
        91 -10.6144     79.9524     88.0068   9.9369591749e+01   4.8611648268e+01    0.2066188     0.188969 -65.75 0.0003608221    1.032    0.031
        92  -9.6164     93.6145     87.7318   9.5189606193e+01   4.6387858234e+01    0.1422198    0.1127458  -3.79 0.0006988337    1.701    0.412
        93 -10.2405    240.2008     82.8440   6.2448169191e+01   1.3989911100e+01    0.2035996    0.1766002 -47.77 0.0006980088    1.195    0.163
        94 -10.4364    248.3320    206.0596   8.7222508563e+01  -3.2686594861e+00    0.1506015    0.1191943   9.19 0.0003543247    1.092    0.084
        95 -16.0114    205.9275    178.7263   8.9564874225e+01   7.1017193460e+00     2.014323     1.145092 -33.59  0.009634205    1.931    0.482
        96 -16.6847    212.9048    137.3870   7.9919446918e+01   1.1806021893e+01     2.250322     1.262399  64.56  0.009069052    2.864    0.651
        97 -11.9002    197.2321    226.7472   9.8861652676e+01   2.4274803014e+00    0.2319487     0.198307  16.07 0.0007270303    1.176    0.150
        98 -11.8528      7.2015     72.7442   1.2032966043e+02   5.9821819474e+01    0.3377318    0.1588433 -69.49  0.001374792    1.632    0.387
        99 -10.1955    240.9767     72.3020   5.9693350694e+01   1.5264432303e+01     0.183224    0.1796876   4.55 0.0005888172    1.078    0.072
       100 -11.8067    100.1294     71.4642   8.8558949988e+01   4.8620363380e+01    0.2644641    0.2560601  22.39 0.0003521697    1.076    0.071
       101 -10.3960     93.8610     72.1584   9.0670374336e+01   4.9656699664e+01    0.1893341    0.1656223 -13.17 0.0003618374    1.261    0.207
       102 -10.3482     63.1185     68.4909   9.9631022651e+01   5.5395908227e+01     0.200844    0.1586428 -51.93 0.0003096212    1.128    0.114
       103 -10.8463     53.5293     68.5380   1.0299620924e+02   5.6639939381e+01    0.2855468    0.1154286 -56.45 0.0009633087    2.171    0.539
       104 -10.2956     43.7431     68.9613   1.0658807213e+02   5.7678363648e+01    0.1794789    0.1445777 -57.65 0.0003204042    1.060    0.056
       105 -10.9945     76.8579    202.1684   1.1800018299e+02   2.4892294793e+01    0.2571336    0.1467225 -80.30 0.0009218833    1.888    0.470
       106 -11.5714    242.9477     65.7639   5.7785802403e+01   1.5700452064e+01    0.4274986    0.2696552 -83.34   0.00153772    2.380    0.580
       107 -16.2216    230.6879    122.4418   7.3470896100e+01   1.0368292197e+01     1.661094     1.525767 -85.76  0.009836822    1.420    0.296
       108 -11.1034    112.2915     63.3974   8.2417914965e+01   4.7744820282e+01    0.2703071    0.1802588 -28.52 0.0007917425    1.617    0.382
       109 -10.2610    230.1525     63.1394   5.8763924531e+01   1.8995479713e+01    0.2045256    0.1836914   1.15 0.0003938358    1.175    0.149
       110 -11.4013     29.9141     62.2168   1.1003615840e+02   6.0524315497e+01    0.2207537    0.1834569 -38.57 0.0004365614    1.203    0.169
       111 -16.8496    190.1448    169.2082   9.0714536712e+01   1.1435281471e+01       2.8125     1.740093  22.70   0.01366051    1.921    0.480
       112 -16.6974    172.7685    155.3751   9.1448013178e+01   1.7076847065e+01     2.616309     1.530042  20.86  0.008828473    2.648    0.622
       113 -12.7981    142.4885    215.3336   1.0703343217e+02   1.2793994412e+01    0.4485359    0.3006262  81.74   0.00253384    2.268    0.559
       114 -11.3618     45.9020    201.0384   1.2378692567e+02   2.8973012682e+01    0.2524474    0.1660674 -67.12  0.001189005    1.678    0.404
       115 -13.2270    245.2518    222.1936   9.0328280526e+01  -4.4225497852e+00    0.4042283    0.2537495  10.78 0.0008042786    1.472    0.321
       116 -10.6018      9.5079     60.4372   1.1739798141e+02   6.2411718250e+01    0.1174428   0.09256742 -64.10 7.194319e-05    1.008    0.008
       117 -13.1397    156.6359    244.9146   1.0805164358e+02   6.5313245966e+00     0.321756    0.2386957  30.42  0.001044148    1.282    0.220
       118 -10.1940    244.8314    191.1993   8.5203900547e+01  -1.1285587479e+00    0.1706476    0.1149821  13.30 0.0003932596    1.346    0.257
       119 -11.9369     92.6893    190.5681   1.1367423697e+02   2.4779059147e+01     0.300229    0.1652967  48.71  0.001668361    1.532    0.347
       120 -10.0623      1.4947     57.5352   1.1992864342e+02   6.3476928088e+01    0.1155787   0.08873822 -66.02 8.972213e-05    1.004    0.004
       121 -10.5914     23.4100    198.8920   1.2780635282e+02   3.1782676707e+01    0.1681143    0.1071669  58.38 0.0003751964    1.214    0.177
       122 -10.7344    118.9919     56.0234   7.8052421820e+01   4.7638076785e+01    0.2153664    0.2014717 -73.11            0    1.186    0.157
       123 -13.0438    120.6096     52.8066   7.6490477410e+01   4.7837314664e+01    0.5934089    0.3594032  74.00  0.002267626    2.716    0.632
       124 -10.9384    249.3564     53.0405   5.3823432501e+01   1.5911338046e+01    0.2129973    0.1889841 -74.12 0.0003691571    1.199    0.166
       125 -10.0383     56.6740     52.9499   9.7241240572e+01   5.9559725593e+01    0.1821649    0.1525674 -44.12 0.0004172145    1.047    0.045
       126 -13.5403    140.6842     48.7064   7.0076952125e+01   4.3727010811e+01    0.7099605    0.4185195 -37.44  0.001642984    1.687    0.407
       127 -10.3424     49.3251    191.6563   1.2242843988e+02   3.0327263382e+01    0.1242062   0.06481867  66.42 0.0007050711    1.738    0.424
       128 -12.8646    242.4637     48.4855   5.3441185135e+01   1.8046769851e+01    0.3024914    0.2676186  30.50 0.0006683311    1.271    0.214
       129 -11.2572    106.1255    190.1358   1.1090181019e+02   2.2816437647e+01    0.1825298     0.156982  43.69 0.0006901967    1.208    0.172
       130 -12.8005    243.9286    243.6164   9.3737316099e+01  -6.2052091599e+00    0.2678652    0.2115367  18.72 0.0008326179    1.192    0.161
       131 -13.2029    127.1099     46.6009   7.2588264434e+01   4.7363758969e+01    0.4977469    0.4299144 -26.55  0.001779892    1.152    0.132
       132 -11.0017    230.1925     47.3198   5.4566764938e+01   2.1079736262e+01    0.2446926    0.2069656 -36.61 0.0004074791    1.104    0.094
       133 -11.5081    113.8401     47.5781   7.6444632205e+01   5.0258964893e+01    0.3634673    0.2347312  18.73  0.001387016    2.185    0.542
       134 -12.7064    155.6994     44.5988   6.5433396736e+01   4.0546172806e+01    0.5132424    0.2876313 -34.13  0.001540231    1.768    0.434
       135 -10.1536     63.1868     47.5926   9.2972327645e+01   5.9726808699e+01    0.1831513    0.1259436  19.48 0.0009567878    1.752    0.429
       136 -11.4590    195.0218     44.0818   5.8397328192e+01   3.0337714140e+01    0.3129581    0.2203885  44.21 0.0005836444    1.498    0.332
       137 -10.8129     31.1445    187.1924   1.2563921669e+02   3.3191891081e+01    0.2075132    0.1366606  34.20 0.0009968341    1.752    0.429
       138 -11.0091    149.0926     38.6023   6.4711361869e+01   4.3116255374e+01    0.3039786    0.2173238 -20.76 0.0004312529    1.480    0.324
       139 -11.0903    248.7293    185.3062   8.3516361768e+01  -1.0930067300e+00      0.40129    0.1303264  35.56  0.001676084    2.969    0.663
       140 -12.2208    145.8824     42.8464   6.6876030770e+01   4.3320950356e+01    0.4043048    0.2514734  52.04  0.001179714    1.556    0.358
       141 -10.6272    240.0515    183.8823   8.4653187167e+01   4.8884343540e-01    0.1883365    0.1434767  14.50 0.0005805649    1.104    0.094
       142 -12.6704    130.6250    221.8539   1.0998742794e+02   1.3694767731e+01    0.4442378    0.3499914  45.98  0.002126481    1.063    0.059
       143 -10.3849     92.4633    183.5026   1.1289368916e+02   2.6142879246e+01    0.1240295    0.1036735  65.06 4.866367e-05    1.010    0.010
       144 -12.0346    117.5933     39.8158   7.2525252833e+01   5.0674348940e+01    0.4808511    0.2924575  24.74   0.00115391    2.201    0.546
       145 -10.2355     29.4997     40.9801   1.0437026061e+02   6.5092546423e+01    0.1820956    0.1016695 -54.72 0.0003744672    1.486    0.327
       146 -11.1319     85.9359    181.2124   1.1398310936e+02   2.7543807455e+01     0.302342    0.1914249  76.78  0.001044985    1.693    0.409
       147 -11.9938    132.2012     39.1358   6.8624092115e+01   4.7293386229e+01    0.3998206    0.2365312 -43.99   0.00131006    1.805    0.446
       148 -12.2040    133.7128     34.6582   6.6614705761e+01   4.7570616253e+01    0.4029106    0.3313711  47.20  0.001285551    1.181    0.154
       149 -11.2172    166.7325     38.6431   6.1333571114e+01   3.8508913077e+01    0.3244711    0.3111405  18.81 0.0005900576    1.069    0.065
       150  -9.6132    132.6700    246.3257   1.1223865018e+02   9.9214348345e+00    0.1120846   0.06769639  61.20 0.0007050663    1.704    0.413
       151 -12.5333    233.9442    243.8495   9.5309488562e+01  -4.8363176177e+00     0.245297    0.1649064  14.39 0.0009111209    1.287    0.223
       152 -11.8975    170.3544    224.5257   1.0320242356e+02   6.9953361082e+00    0.3015862    0.1847326  47.92  0.001044134    1.395    0.283
       153 -11.2256     84.9585     35.0654   8.0367838304e+01   5.8344719895e+01    0.2768004    0.2070129 -32.16 0.0003917111    1.257    0.204
       154 -13.2070     87.5505    173.7315   1.1273515560e+02   2.8775429285e+01    0.4659818    0.2792082 -56.02  0.002574962    1.834    0.455
       155 -12.1686    214.5153     31.7062   5.2172205796e+01   2.6895953698e+01    0.3262639    0.2593997  78.88 0.0003023215    1.283    0.221
       156 -11.0314    187.9724     33.2183   5.6135371720e+01   3.3599516759e+01    0.2250846    0.1910264 -72.17 0.0004511951    1.234    0.190
       157 -12.8326    111.1866    184.8172   1.0918355749e+02   2.2989784947e+01    0.6906535    0.3794009 -79.10  0.003220883    2.715    0.632
       158 -10.4540     93.5175     40.5532   7.9785945662e+01   5.5752037678e+01    0.1401251    0.1317713 -14.36 2.484333e-05    1.030    0.029
       159 -10.8287    118.1220     30.8084   6.8890601188e+01   5.1896968143e+01     0.219209    0.2046023 -75.63 0.0008739248    1.236    0.191
       160 -10.2089     90.9920     30.9652   7.6695607009e+01   5.7827572340e+01     0.170895    0.1519534 -15.72 0.0004183131    1.050    0.048
       161 -12.7283    118.1707    191.4651   1.0864068010e+02   2.0657985617e+01    0.4579058    0.4037372 -78.75  0.002150593    1.244    0.196
       162  -9.9368     16.8396    176.6430   1.2776707495e+02   3.6645609782e+01    0.1404173   0.07751521  50.68 0.0001631034    1.540    0.351
       163 -12.2344    201.4129     22.1927   5.0997835689e+01   3.1377839165e+01    0.3772103    0.2274681 -18.36   0.00159009    1.813    0.448
       164 -11.8099    163.0073    224.0053   1.0443176945e+02   8.2460412661e+00    0.2910477    0.1864284  50.30  0.001333521    1.380    0.275
       165 -12.1599    216.5534     25.2004   5.0111797938e+01   2.7143395142e+01    0.3464087    0.1997076 -53.33  0.001273402    1.799    0.444
       166 -11.8886    210.1641     25.3010   5.0865561700e+01   2.8758911243e+01    0.3315879    0.2199973  77.57  0.001279041    1.552    0.356
       167 -11.7073    101.3986    194.6145   1.1239271721e+02   2.2732189436e+01    0.2860632    0.1220149  45.60 0.0005875924    1.949    0.487
       168 -10.5462    175.0222     22.5370   5.4646608201e+01   3.8330385545e+01    0.2061351    0.2020273 -42.80 0.0003837236    1.050    0.047
       169  -9.9366     84.3426    192.7295   1.1559145932e+02   2.5585185999e+01    0.1776429    0.1060535 -81.33 0.0005386792    1.842    0.457
       170 -11.7333    229.3613     19.1433   4.7144257932e+01   2.4633912852e+01    0.3511741    0.2048441 -42.32  0.001208146    1.569    0.363
       171 -12.0035    214.2337     19.6678   4.8813553800e+01   2.8352973795e+01    0.2546149    0.2420536  77.54 0.0002634104    1.076    0.070
       172 -11.1347     20.4876     18.3498   1.0043857598e+02   7.0325779603e+01    0.2023136    0.1690254 -43.42 0.0006096655    1.149    0.130
       173 -10.0159     48.1688    180.8714   1.2177364768e+02   3.2549391496e+01    0.1388317    0.1250296 -87.75 0.0003669198    1.291    0.225
       174 -10.4544     18.8807     39.1074   1.0846967800e+02   6.6366383953e+01    0.1686283    0.1424009 -62.96 0.0002755581    1.171    0.146
       175 -11.5608    238.4250     16.7126   4.5685004486e+01   2.2711209450e+01    0.2592094    0.1132966 -30.82 0.0008697553    2.035    0.509
       176 -11.0186     49.6101     16.3810   8.5551946046e+01   6.7299699740e+01     0.241264    0.1855309 -13.78 0.0008949364    1.186    0.157
       177 -10.5751    182.4489     16.0019   5.1490393661e+01   3.7071423704e+01    0.2892992    0.1980916 -84.55  0.001228443    1.624    0.384
       178 -10.4172     12.3076     15.1147   1.0343397164e+02   7.1586267053e+01    0.2147902    0.1078272 -49.24  0.001242122    1.535    0.348
       179 -10.2021      1.7262     15.0193   1.0920079286e+02   7.2282457182e+01    0.1566751    0.1107795 -48.87 0.0002766754    1.070    0.065
       180 -10.2299     51.5017    245.3707   1.2559935562e+02   2.0870233606e+01    0.1560609   0.07142805  43.98 0.0002663656    1.671    0.402
       181 -10.3343    222.2804     13.3281   4.6254259966e+01   2.7004904870e+01    0.1347009    0.1027491  30.78 0.0002372776    1.600    0.375
       182 -10.1980    166.6801    223.6738   1.0373813728e+02   7.6993792413e+00    0.1509607    0.1228028 -33.53  0.000811735    1.565    0.361
       183  -9.7560     76.6912     11.6630   7.2652586154e+01   6.3412809947e+01    0.1399932   0.09319168  11.97 0.0007043202    1.681    0.405
       184 -10.0152     64.5147     11.4975   7.6987770685e+01   6.5663438081e+01    0.1299603    0.1115696  -5.04 0.0001579431    1.009    0.009
       185 -10.7641    121.4120    243.0081   1.1382034957e+02   1.2015425172e+01    0.2238868    0.1109194  51.84  0.001345531    1.620    0.383
       186 -10.4945     32.5064    242.9077   1.2848168501e+02   2.3367765609e+01    0.1321837   0.07897899 -89.59  0.001022079    1.558    0.358
       187 -10.1963      2.4154    242.6757   1.3306902969e+02   2.6393485858e+01     0.110226   0.07007409 -85.49 0.0008639891    1.539    0.350
       188 -10.1284     56.5279    170.4983   1.1906175882e+02   3.3630893628e+01    0.1201513   0.09710828  75.28  1.85336e-05    1.005    0.005
       189 -11.5826    208.4557    241.0108   9.8969135044e+01  -8.6111949017e-01    0.2179394    0.1170352  29.82   0.00107823    1.541    0.351
       190 -12.9433    127.3602    238.0754   1.1231528282e+02   1.1831964188e+01    0.2684034    0.1961056  59.38 0.0005619978    1.232    0.188
       191  -9.6611     61.5280    240.5567   1.2368929045e+02   2.0421175641e+01    0.1062983   0.07203512  60.40 2.890831e-05    1.047    0.045
       192 -10.1536     80.6219    238.7388   1.2038043612e+02   1.8293139587e+01    0.1320692   0.08729693  85.92 0.0009234686    1.568    0.362
       193 -12.1421    182.8753    237.3595   1.0271984638e+02   3.4300373072e+00    0.4370838    0.1556317  35.50   0.00205798    2.500    0.600
