#   1 NUMBER                 Running object number                                     
#   2 MAG_AUTO               Kron-like elliptical aperture magnitude                    [mag]
#   3 X_IMAGE                Object position along x                                    [pixel]
#   4 Y_IMAGE                Object position along y                                    [pixel]
#   5 X_WORLD                Barycenter position along world x axis                     [deg]
#   6 Y_WORLD                Barycenter position along world y axis                     [deg]
#   7 A_WORLD                Profile RMS along major axis (world units)                 [deg]
#   8 B_WORLD                Profile RMS along minor axis (world units)                 [deg]
#   9 THETA_WORLD            Position angle (CCW/world-x)                               [deg]
#  10 FWHM_WORLD             FWHM assuming a gaussian core                              [deg]
#  11 ELONGATION             A_IMAGE/B_IMAGE                                           
#  12 ELLIPTICITY            1 - B_IMAGE/A_IMAGE                                       
         1 -13.7018    244.9698    158.2638   9.0128316717e+01   2.0555034281e-01     2.495531    0.8816963 -47.08  0.008777375    3.148    0.682
         2 -12.5011    189.8363     15.6647   6.4722743444e+01   3.5973750519e+01    0.9111589     0.297015 -40.10  0.003499179    2.973    0.664
         3 -14.1338    203.7040     17.0359   6.3414812401e+01   3.2482256254e+01     2.395885     1.521382  25.33   0.01083893    2.825    0.646
         4 -13.4401    208.9386     10.8939   6.1412923528e+01   3.1918689835e+01    0.9892173     0.645234  40.83  0.001396312    2.082    0.520
         5 -12.4615      2.0837      4.2129   1.1228556551e+02   7.1976604774e+01    0.5558831    0.3277192 -30.91  0.004102617    1.305    0.234
         6 -10.7970    104.4383    237.8433   1.3253076176e+02   1.1425750935e+01    0.2439588    0.1657261  43.07 0.0006734966    1.383    0.277
         7 -10.1861    204.9873    250.4828   1.1498190667e+02  -7.7070388180e+00    0.1924542     0.103329  38.34 0.0006468296    1.570    0.363
         8 -11.0935    185.7594    250.5059   1.1858655541e+02  -4.5479764261e+00    0.5691996    0.1049915  41.61  0.001352114    4.527    0.779
         9 -10.8536    169.6852    248.5858   1.2135524780e+02  -1.5345556887e+00    0.3175128    0.2226325  12.36 0.0007779513    1.913    0.477
        10 -12.1847    128.6695    234.3936   1.2735756987e+02   8.0183125900e+00    0.9119044    0.2710616  50.02  0.003203115    3.337    0.700
        11 -11.9555    133.8038    248.9221   1.2825661179e+02   4.5311595580e+00    0.6753936    0.5318879  55.22  0.004299518    1.067    0.063
        12 -10.7247    124.9939    249.4619   1.2999436449e+02   5.9126330951e+00     0.523389    0.2408071  39.26  0.002506042    1.995    0.499
        13 -11.8818    149.9362    248.3815   1.2510528065e+02   1.8799815395e+00    0.5672541    0.4670621 -45.62  0.003645307    1.478    0.323
        14 -11.2910    142.9937    248.7049   1.2647634417e+02   3.0108032119e+00    0.5074247    0.2830079 -68.03  0.001364093    2.582    0.613
        15 -12.1138    126.4859    240.6608   1.2860912508e+02   7.2357160767e+00    0.6941199    0.3813974  48.02   0.00328173    1.534    0.348
        16 -10.7763    135.5227    241.0578   1.2690349789e+02   5.6199876033e+00    0.2758687    0.2468517 -53.56 0.0008256484    1.340    0.254
        17 -11.6245    135.3782    236.5312   1.2632114071e+02   6.4622664803e+00    0.4981071    0.3820744  10.17  0.001486697    1.963    0.491
        18 -11.5965    134.0083    232.5693   1.2604741238e+02   7.4314245424e+00    0.4825159     0.301039 -37.49 0.0003717864    2.286    0.563
        19 -11.5898     99.6888    247.4470   1.3450910434e+02   1.0381775854e+01    0.6549093     0.309082  49.10  0.003145796    1.742    0.426
        20 -11.3273    114.6473    250.1946   1.3202653074e+02   7.4859961043e+00    0.4995319    0.3146324  36.05  0.002804198    1.660    0.398
        21 -11.9752    109.6789    247.0906   1.3260251101e+02   8.8514701689e+00    0.6438087    0.4320142 -65.10  0.003316141    1.663    0.399
        22 -10.8912     81.1452    246.1695   1.3778814813e+02   1.3459772118e+01    0.5825083    0.2884788  84.22  0.002690465    2.798    0.643
        23 -10.2110     89.2241    250.5220   1.3674920668e+02   1.1434901095e+01    0.3971367    0.1056768  40.42  0.001520385    3.443    0.710
        24 -10.6590     88.9758    247.1740   1.3645789222e+02   1.2093045580e+01    0.4216591     0.224693  47.52  0.002195317    1.566    0.362
        25  -8.7198     74.7571    250.5857   1.3935044553e+02   1.3567804196e+01    0.2247363    0.1024325  40.28  0.001149707    2.116    0.527
        26  -9.4144     63.2726    250.0156   1.4131849343e+02   1.5296597500e+01    0.1863076    0.1495571 -69.19  0.001308871    1.498    0.332
        27 -11.2000     59.6647    245.7580   1.4159078622e+02   1.6596408374e+01    0.4178875     0.266788 -73.02  0.001768323    1.552    0.356
        28 -10.9874     67.1043    244.1643   1.4013420089e+02   1.5871814168e+01     0.451661     0.239091  33.21  0.002334868    2.475    0.596
        29 -11.4751     32.7879    201.8485   1.4273686974e+02   2.9005541356e+01    0.2861996    0.1935015  44.52  0.000275804    1.566    0.361
        30 -11.1957     22.9497    202.0630   1.4465516553e+02   3.0036045146e+01    0.3243791    0.2181806  74.93  0.001092552    1.219    0.180
        31 -14.9116      3.5942    195.4292   1.4779171221e+02   3.3344099752e+01     6.208142    0.4800444 -68.75   0.02048844    5.379    0.814
        32 -13.7341     10.8048    207.7566   1.4734610946e+02   3.0065260337e+01     1.932853    0.8407768 -75.31  0.009766864    1.843    0.457
        33 -12.9197     55.2067    208.4818   1.3894971354e+02   2.4811309194e+01     1.052988    0.7060292  64.54  0.006315859    1.311    0.237
        34 -14.3265     30.5716    246.1715   1.4657128551e+02   2.0218693780e+01     1.983849     1.070421  37.94   0.01215887    2.119    0.528
        35 -12.7721     39.7812    228.6590   1.4371031129e+02   2.2541982404e+01    0.3938411    0.2932431 -72.01 0.0008352484    1.409    0.291
        36 -14.1126     46.0908    218.7785   1.4171134218e+02   2.3792104051e+01     1.285726    0.8233712  82.67  0.007886044    1.338    0.253
        37 -11.9248    249.3517    241.3492   1.0543699444e+02  -1.3283351215e+01    0.5813681    0.2217358 -35.06  0.002799114    2.686    0.628
        38 -11.6206     89.5359    238.3522   1.3543295434e+02   1.3684967664e+01    0.5406424    0.3088793  74.52  0.001905442    1.941    0.485
        39  -9.1636     83.8267    242.1825   1.3690047273e+02   1.3816939548e+01    0.1504595    0.1383821  69.57 0.0007124201    1.294    0.227
        40 -11.4818    172.8142    239.7391   1.1943542097e+02  -6.5299442768e-01    0.3472308    0.2545832 -60.12  0.002002109    1.743    0.426
        41 -10.7672    121.5108    244.9757   1.3010905180e+02   7.2903759880e+00    0.4472007    0.1839178  52.43  0.001975248    2.259    0.557
        42 -10.6066    116.3093    239.2556   1.3040656407e+02   9.2072981022e+00    0.3490339    0.2689493 -26.02  0.001682442    2.148    0.534
        43 -14.0989      5.8902    245.4838   1.5047453815e+02   2.3081662699e+01     1.431289    0.6658359 -85.54  0.005367202    1.732    0.423
        44 -10.7935    165.9551    235.1998   1.2008488211e+02   1.3116854925e+00    0.2183238    0.1930196 -48.64  0.001351889    1.312    0.238
        45 -10.9736    122.2910    232.8078   1.2841093936e+02   9.4128745883e+00    0.3864299    0.3111653 -64.83  0.001880914    1.374    0.272
        46 -11.1442     99.4400    223.5161   1.3178597747e+02   1.5066262632e+01    0.4304427    0.2858886  56.82  0.001039257    1.321    0.243
        47 -11.2530     98.4303    231.7340   1.3297934862e+02   1.3580888622e+01    0.3837319    0.2756487 -80.55 0.0005799812    1.420    0.296
        48 -10.9408    112.8459    230.0262   1.2992628133e+02   1.1549915138e+01    0.4025408    0.3318728 -21.99  0.001740823    1.906    0.475
        49 -11.7153    105.7238    229.1151   1.3122660300e+02   1.2913515737e+01    0.6542457    0.2982948  47.30  0.002893098    1.893    0.472
        50  -9.6281     77.9556    233.1511   1.3707660045e+02   1.6459090419e+01    0.2270738    0.1565498 -83.65  0.001045164    1.384    0.278
        51 -11.1044    156.5154    231.8529   1.2144854326e+02   3.5749100682e+00    0.2629032    0.2381966  20.03 0.0006661849    1.213    0.176
        52  -9.2799     62.8558    232.9814   1.3988482355e+02   1.8656989977e+01    0.1618559    0.1423668  80.86  0.000321605    1.242    0.195
        53 -10.7881    142.0981    230.4795   1.2413202272e+02   6.3942074472e+00    0.3137348     0.253819 -14.69  0.001029224    1.781    0.439
        54  -8.8225     92.4657    232.5282   1.3423076154e+02   1.4369659344e+01    0.1290681     0.104574  68.29 3.345252e-05    1.002    0.002
        55 -12.9144     13.7441    238.8091   1.4885608218e+02   2.3521263339e+01    0.6609573    0.3585709  67.40  0.001496472    1.424    0.298
        56 -10.4878     84.6832    229.5821   1.3540843373e+02   1.6162468640e+01    0.2486746     0.217566  31.66 0.0007099066    1.524    0.344
        57 -10.8558     77.5628    220.8844   1.3583972350e+02   1.9019944945e+01    0.3039229    0.2003841  70.94  0.001212399    1.399    0.285
        58 -10.7546     80.3970    227.4429   1.3600501557e+02   1.7244616327e+01    0.3144707    0.2654826 -30.49 0.0008757187    1.932    0.482
        59 -10.0993     78.6966    224.6976   1.3603697399e+02   1.8060931883e+01    0.2113114    0.2029008 -84.43 0.0005293746    1.368    0.269
        60  -8.8069    190.6294    228.1922   1.1409875091e+02  -1.8936869761e+00      0.16383    0.1221878 -26.51 0.0002239578    1.527    0.345
        61  -9.1006    179.7185    228.1504   1.1624223776e+02   5.5732865472e-02    0.2113549    0.1418438  76.94 0.0009451414    2.731    0.634
        62 -10.4766    165.9075    226.6928   1.1876409441e+02   2.7995588360e+00    0.3179093    0.2337972 -81.26  0.001564438    1.964    0.491
        63 -11.1167    160.6405    223.0425   1.1924539333e+02   4.4160891715e+00     0.650337    0.3312623  28.46  0.002545524    2.610    0.617
        64 -10.4527     92.2928    225.9235   1.3350264124e+02   1.5721168968e+01      0.34342    0.1766411  55.98 0.0009690606    1.791    0.442
        65 -10.3534    132.2034    224.7859   1.2531146671e+02   9.2265645870e+00    0.2581238    0.2448381 -46.29  0.001349097    1.271    0.213
        66 -10.0837    129.2309    221.0370   1.2537862756e+02   1.0486170946e+01    0.2863042    0.2036467  77.43  0.000840611    1.623    0.384
        67  -9.8111    147.1035    225.1671   1.2233215446e+02   6.4860520965e+00    0.1917132    0.1718737  25.02  0.000317863    1.236    0.191
        68 -10.7805    117.3533    224.3017   1.2826651028e+02   1.1912837356e+01    0.2380312    0.2123257  62.09 0.0002729134    1.077    0.071
        69 -11.6617    141.8819    221.7973   1.2288843905e+02   8.0691014795e+00     0.447655    0.4007518 -42.22  0.000399073    1.316    0.240
        70 -11.0213    137.3481    214.5596   1.2271836817e+02   1.0310562313e+01    0.5047394    0.4275658  19.00  0.002131849    1.447    0.309
        71 -10.3972    110.7770    221.4299   1.2921998837e+02   1.3609959896e+01    0.3279374    0.2043802 -59.72  0.001265445    1.715    0.417
        72 -10.9185     70.8835    220.0695   1.3706625382e+02   2.0169111372e+01     0.434146    0.2675766 -78.70   0.00196745    1.551    0.355
        73 -10.9544     68.0353    214.6066   1.3704075413e+02   2.1732399257e+01     0.292557    0.1844559 -71.05  0.001660632    1.498    0.333
        74 -11.0809    246.1196    219.8902   1.0219377316e+02  -9.9014049753e+00    0.3644572     0.125478 -28.99   0.00136769    3.650    0.726
        75  -9.7305    104.9172    218.8772   1.3008083794e+02   1.5115955906e+01    0.2001841    0.1681095  69.03 0.0003279746    1.019    0.019
        76  -8.8299     99.3272    218.2606   1.3114549351e+02   1.6166097565e+01    0.1163587    0.1059172  10.47 0.0004108324    1.562    0.360
        77  -8.7934    119.2791    217.3216   1.2690295369e+02   1.2983829880e+01    0.1224963    0.1089698  -9.98 0.0002171864    1.584    0.369
        78  -9.1621     93.9851    217.0119   1.3207922200e+02   1.7291486603e+01    0.2183408     0.137251  73.37 0.0008930868    1.694    0.410
        79  -9.9528    197.7029    226.7071   1.1246573361e+02  -2.8973591762e+00    0.2552156     0.212007  70.89  0.001244261    1.625    0.385
        80  -9.7225     88.2046    212.9846   1.3276157442e+02   1.9060608589e+01    0.2305713    0.1574827  88.04 0.0005935688    1.480    0.325
        81 -10.0668    101.9693    212.0347   1.2977942471e+02   1.7037379868e+01    0.3524178    0.1852648  60.10  0.001592919    2.022    0.505
        82 -10.7397     73.0433    209.8045   1.3549101929e+02   2.2043244505e+01    0.3552128    0.2978435  38.89  0.002223962    1.436    0.304
        83  -8.9273     33.6859    211.4120   1.4340415143e+02   2.6847423257e+01    0.1330544    0.1113884  43.17 0.0005324135    1.502    0.334
        84 -10.4301    108.3011    208.3025   1.2792560841e+02   1.6763426038e+01    0.4120545    0.2632608 -37.37  0.001928145    2.362    0.577
        85  -9.3202    134.8255    208.2110   1.2225305942e+02   1.2058341302e+01     0.249336     0.184998 -22.68  0.001219164    2.052    0.513
        86  -8.7145    112.6368    209.2825   1.2714505072e+02   1.5808825785e+01    0.1463663   0.09486419  68.60 0.0007016985    1.681    0.405
        87  -8.8205    119.6662    208.7079   1.2556469302e+02   1.4697608162e+01    0.1291432    0.1116376   2.23 0.0001893974    1.636    0.389
        88 -12.0401     93.5110    203.0395   1.3034817559e+02   2.0368443188e+01    0.5742881    0.4748285 -88.04  0.003414328    1.116    0.104
        89 -10.2135    174.8039    205.8193   1.1339703647e+02   4.9681195102e+00    0.3160621    0.2366062  -9.60  0.001443144    1.803    0.445
        90  -8.7237    178.2916    204.6888   1.1246917064e+02   4.5139450658e+00    0.1437208    0.1322783  28.08  0.000253531    1.044    0.042
        91 -11.3486     96.7376    239.6948   1.3421502019e+02   1.2302882352e+01    0.3809178    0.2725401 -80.71  0.001848728    1.432    0.302
        92 -10.7268    246.4305    206.2123   9.9577763074e+01  -7.9365161873e+00    0.3215094    0.1604896  23.17  0.001405316    2.597    0.615
        93  -9.1876    125.7899    205.7819   1.2380565520e+02   1.4214791039e+01    0.1944165    0.1504021  70.70 0.0004097065    1.308    0.235
        94  -8.4609     23.2898    206.2988   1.4493634871e+02   2.9093085960e+01    0.1045198   0.08080503 -60.77 0.0003762311    1.559    0.359
        95  -9.1908    149.6226    204.1777   1.1842252872e+02   1.0107640711e+01    0.1924907    0.1323887 -38.89 0.0006417425    1.716    0.417
        96  -9.2735    166.9374    203.2499   1.1458051260e+02   6.9710129693e+00    0.1933917    0.1686899  44.43  0.001083515    1.061    0.058
        97  -9.2108    133.0755    202.8551   1.2176540997e+02   1.3493465534e+01    0.2159858    0.1788531  76.30 0.0004502367    1.231    0.188
        98 -10.7862    102.6253    202.6669   1.2833518853e+02   1.8943882687e+01    0.5370613    0.2618203  41.18  0.002393694    1.983    0.496
        99 -10.2512     98.9311    197.0808   1.2833052799e+02   2.0795574218e+01    0.5240107    0.2748135  59.98  0.001601413    2.116    0.527
       100  -9.8123    102.7066    195.6942   1.2729395404e+02   2.0469055426e+01    0.2021306    0.1849931 -61.45 0.0003949315    1.229    0.186
       101  -9.6480     64.0578    202.1399   1.3645720104e+02   2.5002766965e+01    0.2452225     0.173838  34.89 0.0005255734    1.687    0.407
       102  -9.7816    196.9100    200.6647   1.0791398891e+02   1.7065626899e+00    0.2313623    0.1664013  25.45 0.0007759873    1.449    0.310
       103 -10.1359    115.1728    200.2086   1.2524191261e+02   1.7310449761e+01    0.2320719    0.2086129 -78.58 0.0002421785    1.122    0.108
       104 -10.1835    120.2525    199.4982   1.2401915285e+02   1.6556543649e+01    0.3696823    0.2267554  61.85  0.001279729    1.764    0.433
       105  -9.2184    183.0518    200.3535   1.1068321127e+02   4.4143803911e+00    0.1970582    0.1651801  43.07 0.0004128773    1.129    0.114
       106  -8.7099    169.5055    200.4474   1.1353132873e+02   7.0205024108e+00    0.1428826    0.1320976  47.57 9.074057e-05    1.028    0.027
       107 -10.0543     43.9261    199.3182   1.4027998469e+02   2.8251141069e+01    0.2755454    0.2191225  49.79  0.001148069    1.355    0.262
       108  -9.7678     86.1022    196.9780   1.3111976981e+02   2.2895703272e+01    0.4163601    0.1748912 -63.51  0.001475338    2.341    0.573
       109 -10.4924     54.2103    198.1959   1.3805592496e+02   2.7204044285e+01    0.6003993    0.1838533  44.36  0.002478546    2.940    0.660
       110 -10.6747     57.6520    193.3677   1.3678714219e+02   2.7834713921e+01    0.3439745    0.3033222  57.24 0.0009268596    1.254    0.203
       111  -9.4665    134.0044    197.7155   1.2071052820e+02   1.4406522732e+01    0.2626054    0.1933165 -75.82 0.0003002413    1.549    0.354
       112  -9.1657    133.5142    194.4541   1.2026444083e+02   1.5197051862e+01    0.2469083    0.1732915  35.03 0.0007539564    1.514    0.339
       113 -11.6338     65.3128    194.9934   1.3534862850e+02   2.6425247235e+01    0.4063323    0.2621426 -51.69  0.001335986    1.795    0.443
       114 -11.2305     76.4847    186.7527   1.3183696724e+02   2.6693139722e+01    0.4088888     0.236496 -79.21  0.001148302    1.813    0.448
       115 -11.8036     70.8605    187.4622   1.3318467898e+02   2.7353984106e+01    0.3230255     0.283666 -41.82  0.000717444    1.492    0.330
       116 -10.1155    113.0850    193.5063   1.2465111166e+02   1.9153170415e+01    0.5075191    0.2368835 -63.60   0.00114237    2.386    0.581
       117  -8.8243    107.6437    196.2946   1.2629437177e+02   1.9488768711e+01    0.1498266   0.09880333  71.07 0.0007032086    1.693    0.409
       118 -10.7119     38.4794    193.5093   1.4080332470e+02   3.0188394495e+01    0.4136402    0.1707596 -62.57  0.002005379    2.149    0.535
       119  -9.7192     40.8995    187.8614   1.3971610468e+02   3.1173283462e+01    0.2658466    0.1839451 -83.67  0.001611753    1.201    0.168
       120 -10.9235    249.1508    194.4662   9.6821053039e+01  -6.5657505897e+00    0.2850942    0.2247125  42.44   0.00170709    1.427    0.299
       121  -8.9993     31.6092    195.2733   1.4236513094e+02   3.0577631856e+01    0.3253786   0.07047997  48.91  0.001179681    4.262    0.765
       122  -9.7538     20.5697    192.6452   1.4432087731e+02   3.2327192381e+01    0.4124125    0.1462377 -82.86  0.001759875    2.873    0.652
       123  -9.6311    159.4161    194.0268   1.1450880200e+02   1.0276998832e+01    0.3302552    0.1957423  56.65  0.001297374    1.870    0.465
       124  -9.2052    118.0050    190.0164   1.2298021490e+02   1.9046147973e+01    0.1979776    0.1795207  79.77            0    1.020    0.020
       125  -9.6968     72.9790    193.0233   1.3344858047e+02   2.5776856282e+01    0.1965356    0.1671008  84.25            0    1.020    0.020
       126 -10.0316    191.4723    191.4537   1.0723881546e+02   4.4576883582e+00    0.2459839       0.2332  17.03 0.0006956666    1.015    0.015
       127 -10.2047    120.1387    192.7239   1.2294946459e+02   1.8057524103e+01    0.3753765    0.3070662 -35.16  0.001221064    1.541    0.351
       128  -8.9888     84.5547    192.4823   1.3083910988e+02   2.4152023606e+01    0.1382519    0.1175658  82.13 4.581703e-05    1.018    0.018
       129 -10.4515     14.9704    190.4247   1.4523270004e+02   3.3366517383e+01    0.2557829    0.1430146 -62.80  0.001525291    1.687    0.407
       130  -9.4156    135.0908    190.0639   1.1915028979e+02   1.5847220883e+01    0.2186156    0.1956928  72.23 0.0004344226    1.071    0.067
       131  -9.7747     32.2171    189.7623   1.4171432558e+02   3.1733153347e+01    0.3290852    0.1956421  37.11  0.001909717    1.908    0.476
       132 -10.6921    250.0357    187.4127   9.5268419142e+01  -5.5925930357e+00     0.358252    0.2009646 -31.24  0.001789286    1.679    0.405
       133  -9.7818     29.6615    183.4659   1.4161991298e+02   3.3421939640e+01    0.3438833    0.2205906 -71.36  0.001843614    1.316    0.240
       134  -9.3627     24.8423    184.2145   1.4269402272e+02   3.3757577626e+01    0.2176803    0.1366543  61.32 0.0005798175    1.506    0.336
       135 -11.0014    141.8873    182.8852   1.1631626929e+02   1.6094278011e+01    0.4754543    0.4109526  34.23  0.001244165    1.224    0.183
       136  -9.0858     36.5001    184.2957   1.4026623364e+02   3.2485526046e+01    0.1877729    0.1085884  37.34 0.0006044541    1.934    0.483
       137  -8.8741     86.0217    183.3397   1.2919187755e+02   2.6018994444e+01    0.2112145    0.1234362  13.46 0.0006944637    4.612    0.783
       138 -12.3007    248.3095    172.1463   9.2465256750e+01  -2.7843331466e+00    0.7149084    0.4872096 -23.99  0.003792043    1.441    0.306
       139 -12.4091    248.2954    134.6719   8.4481502084e+01   3.7427746293e+00     1.049858    0.5616771 -36.37   0.00478292    1.715    0.417
       140  -9.6529    126.0892    180.2080   1.1943307488e+02   1.9746683035e+01    0.2788159    0.2135076 -78.84  0.001388988    1.426    0.299
       141  -9.9777    115.3033    177.6121   1.2147304120e+02   2.2348621276e+01    0.4124851    0.2104071 -59.61  0.001712113    2.013    0.503
       142 -11.2167    200.6918    246.1483   1.1510004881e+02  -6.3879692960e+00    0.3163432    0.1828308  51.88 0.0008891606    1.985    0.496
       143  -9.4028    109.1999    178.3532   1.2302842712e+02   2.3279727001e+01    0.2442412    0.1805431 -53.72 0.0005575078    1.385    0.278
       144  -9.1538     47.8682    179.7054   1.3729260322e+02   3.2202792372e+01    0.1721134    0.1007641  48.90 0.0005388075    1.705    0.413
       145  -9.6224     20.0708    179.1887   1.4320440038e+02   3.5359539267e+01    0.1772275    0.1405288 -67.98 0.0006411133    1.280    0.219
       146 -11.5593     79.7474    175.5745   1.2947228289e+02   2.8804012507e+01    0.5123529    0.2841244  48.90   0.00122397    1.796    0.443
       147 -11.6120     67.3584    173.4971   1.3205608802e+02   3.1102108606e+01    0.5018937    0.3148659 -55.66  0.001327572    1.570    0.363
       148  -9.8798    121.9613    175.5399   1.1954151701e+02   2.1588098592e+01     0.241785    0.1927394 -79.60 0.0002389131    1.315    0.240
       149  -9.2635     85.0870    173.9180   1.2796188333e+02   2.8368109375e+01    0.2162633    0.1726626  76.48 0.0003671088    1.209    0.173
       150  -9.8159    107.8351    173.1608   1.2244451884e+02   2.4727938035e+01    0.2182818    0.1819365  78.94 0.0003162307    1.186    0.157
       151  -9.4675     95.4408    172.5240   1.2528089957e+02   2.7017005156e+01    0.3010063    0.1772769 -74.02 0.0001992076    1.896    0.473
       152  -8.9933     90.9922    172.6687   1.2636249545e+02   2.7717124218e+01    0.2492739    0.1813819 -53.57 0.0004958572    1.402    0.287
       153 -11.0627     89.8751    160.3535   1.2453058905e+02   3.0824324338e+01    0.4336293    0.2574054 -70.86  0.001949893    1.775    0.437
       154 -10.1508     93.5853    169.2121   1.2516458839e+02   2.8107371904e+01    0.2578101    0.1824766 -53.58  0.000146702    1.417    0.294
       155 -12.4607     86.8777    166.6866   1.2635680538e+02   2.9796785719e+01    0.7232777    0.5599598 -57.87  0.003063494    1.262    0.208
       156 -10.4753     28.9778    171.4430   1.4051070886e+02   3.6226023221e+01    0.3633065    0.2715727 -65.40  0.001674213    1.263    0.208
       157  -8.7001    100.5347    170.5001   1.2371836996e+02   2.6629601879e+01    0.1464321    0.1313824  87.59 -5.989637e-06    1.020    0.020
       158 -10.7230     44.2060    168.5711   1.3675020417e+02   3.5225120283e+01      0.46534     0.342464  35.09  0.002791706    1.616    0.381
       159  -9.0732     36.7757    170.6265   1.3868645983e+02   3.5586418420e+01    0.1662521    0.1036185  51.85 0.0003769377    1.637    0.389
       160  -9.5094    126.2002    167.3217   1.1698437096e+02   2.2667803680e+01    0.2792275    0.1906963 -87.47  0.001062291    1.971    0.493
       161 -10.3163     68.7681    166.8306   1.3074267134e+02   3.2480994079e+01    0.2389885    0.2005686 -78.23  0.000408854    1.047    0.045
       162  -9.2565     58.5094    167.4904   1.3327623025e+02   3.3715705253e+01    0.2028663    0.1124988  50.08 0.0006335719    1.857    0.462
       163  -9.0689     77.0000    165.9085   1.2861958441e+02   3.1506303707e+01    0.2230602   0.07305143 -61.06  0.000470391    2.818    0.645
       164  -9.1829     53.9226    164.7276   1.3397326910e+02   3.4955149427e+01    0.1789882    0.1518647 -88.70  0.000292001    1.033    0.032
       165 -12.7260    248.3525    101.6183   7.7177586630e+01   9.5534061491e+00    0.9242933    0.4856546 -37.85  0.004197174    1.753    0.430
       166  -9.6584     40.3508    161.9798   1.3680528241e+02   3.7205821678e+01    0.1899803    0.1794869 -22.89  0.001277392    1.425    0.298
       167  -9.4337     36.7229    162.6850   1.3774083357e+02   3.7437704739e+01    0.1659166    0.1074799  51.35 0.0005782039    1.613    0.380
       168  -8.5964    154.3619    161.6809   1.0921215743e+02   1.8229789428e+01    0.1627696    0.1207979  82.37 0.0007042076    1.770    0.435
       169 -10.9489     95.9370    157.9660   1.2259075191e+02   3.0389002198e+01    0.4455664    0.2052362 -58.82  0.001781324    2.088    0.521
       170 -10.2260     73.5485    159.5040   1.2842610489e+02   3.3544311758e+01     0.224601    0.1980833  76.32 0.0004804072    1.099    0.090
       171 -10.7570     72.9994    156.5676   1.2807670874e+02   3.4327389227e+01    0.4202339    0.2574403  41.52  0.002080047    1.727    0.421
       172 -10.2690     78.8599    158.8844   1.2700754746e+02   3.2905049511e+01    0.2051211    0.1811559 -54.02 0.0005354023    1.204    0.169
       173 -12.8280     29.4363    227.6196   1.4546487047e+02   2.3982815330e+01     1.110796    0.4877227  50.33  0.003055744    1.936    0.484
       174  -8.9085     52.1764    158.3878   1.3349288808e+02   3.6673060089e+01    0.1728865     0.115243  51.21 0.0009374904    1.574    0.365
       175 -11.7553     31.2435    155.8136   1.3816802670e+02   3.9610734139e+01    0.4500735     0.341938 -46.47   0.00280548    1.513    0.339
       176 -11.9983     23.8785    154.5794   1.3975170917e+02   4.0610101964e+01    0.4708697     0.338169  69.41  0.002775641    1.398    0.285
       177  -9.3252    228.4400    155.1444   9.2377302888e+01   3.9430364918e+00    0.2199738      0.13324 -39.15 0.0005892476    1.553    0.356
       178  -8.5690    175.7518    155.0399   1.0294290531e+02   1.5080719364e+01    0.1842912    0.1308841 -46.53 0.0008323348    1.412    0.292
       179 -10.2653    113.8636    150.7965   1.1668560864e+02   2.8892744867e+01     0.377632    0.2511772 -57.57 0.0005298015    1.469    0.319
       180 -11.1663     99.5434    151.4335   1.2043713191e+02   3.1331963614e+01    0.5005126    0.4694256  33.41  0.002752297    1.208    0.172
       181  -9.6917    102.4809    146.0558   1.1860653150e+02   3.2100001209e+01    0.3008723    0.2269541 -29.70  0.001438497    1.683    0.406
       182 -10.3278     60.2254    151.0804   1.3038473289e+02   3.7398275603e+01    0.3894138    0.2289619  71.51  0.001307041    2.225    0.551
       183 -11.2419     55.9619    150.3728   1.3134789249e+02   3.8111933259e+01    0.6222399     0.354995  83.80  0.002751146    2.376    0.579
       184 -11.5117     33.9930    149.5376   1.3669114028e+02   4.0799580244e+01    0.3968498    0.2667635   5.89  0.002153722    2.396    0.583
       185 -10.9328     31.6872    145.9440   1.3677266214e+02   4.1871437990e+01    0.2612496    0.1950449 -79.12  0.001131007    1.124    0.110
       186 -12.8509     32.4788    140.7093   1.3584466136e+02   4.3018295694e+01    0.7009638    0.3862879 -77.37  0.003619448    1.681    0.405
       187 -10.9102    133.3961    141.9786   1.0987935929e+02   2.7092900923e+01    0.8393793     0.271077 -51.74   0.00254897    3.214    0.689
       188  -9.5418    138.3011    138.7252   1.0791936970e+02   2.6812759206e+01    0.2852823    0.1906427  35.13  0.001229552    1.665    0.399
       189 -12.8607     67.5891    144.2616   1.2734225983e+02   3.8044968507e+01    0.7779904    0.5579822 -89.64  0.003509637    1.520    0.342
       190 -10.3177    236.2066    146.0642   8.9002930542e+01   4.0674906804e+00     0.258031    0.2151273  54.90 0.0007411389    1.342    0.255
       191 -12.2957     72.5719    139.3797   1.2513692152e+02   3.8513594766e+01    0.7332002    0.5081491 -72.37  0.003752049    1.417    0.294
       192 -12.4112     17.1737    139.5462   1.3952762344e+02   4.4663726338e+01    0.3745439    0.2530408  58.50  0.002311181    1.640    0.390
       193 -11.8974     13.0300    137.4982   1.4029714395e+02   4.5463399133e+01    0.2908315    0.1882695 -87.92  0.001475754    1.414    0.293
       194 -11.9518     45.3672    131.5616   1.3103843436e+02   4.3827627909e+01    0.6164322    0.3445286 -81.75  0.002881202    2.094    0.522
       195 -11.0919     60.1153    136.7500   1.2797868400e+02   4.0836946270e+01    0.4190764     0.264192 -86.31    0.0014733    1.912    0.477
       196  -9.7062    136.8281    134.1543   1.0720897763e+02   2.8166620279e+01    0.2049926    0.1864441  -3.60  0.001031914    1.284    0.221
       197 -12.5740      3.0224    131.9601   1.4210838685e+02   4.7438020523e+01     0.578731     0.273856 -65.17  0.003246902    1.567    0.362
       198 -13.4529     20.9290    121.7910   1.3609442691e+02   4.8428506879e+01    0.8388648    0.5182324 -13.77  0.004523297    2.514    0.602
       199 -11.6853     67.0377    128.2325   1.2448240395e+02   4.1944058244e+01    0.4765838    0.3802379  83.09  0.002005315    1.401    0.286
       200 -10.3363    110.6196    136.2544   1.1439142922e+02   3.2937147782e+01    0.3878506    0.3051066  14.47   0.00124315    1.675    0.403
       201  -9.6663    116.3656    128.9496   1.1120580623e+02   3.3542369208e+01    0.3161507    0.2056709  12.45  0.001185618    2.772    0.639
       202  -9.2801    109.7628    128.9645   1.1295562807e+02   3.4806154057e+01    0.2067535    0.1884746 -57.23            0    1.049    0.047
       203  -8.8890    122.6668    128.2583   1.0939622338e+02   3.2450170989e+01    0.1535116    0.1194867  78.93 0.0002032838    1.569    0.363
       204  -9.0925     74.3106    128.6166   1.2254510180e+02   4.0827109491e+01    0.1486461    0.1053276  84.34 0.0007021454    1.807    0.446
       205 -10.4932    209.8564    125.8179   8.9145662140e+01   1.3472772553e+01    0.3143051    0.2427213 -35.10 0.0004964072    1.287    0.223
       206 -12.2903     38.0245    123.9267   1.3174418215e+02   4.6387878010e+01    0.5821622    0.2766816 -66.35  0.002773323    1.827    0.453
       207  -8.5724     85.3039    126.6890   1.1909198461e+02   3.9604541828e+01    0.1449992     0.110276  83.78 0.0004872133    1.612    0.379
       208 -10.5276     59.1961    125.1427   1.2606004071e+02   4.3704122489e+01     0.416499    0.1847471  34.58 0.0008242367    2.514    0.602
       209  -8.9434     65.8183    181.8687   1.3356553114e+02   2.9359563653e+01    0.1832713    0.1346337  75.54 0.0002770924    1.289    0.224
       210 -12.0183     33.3972    128.1772   1.3371199772e+02   4.5854310541e+01    0.5685293    0.1909155 -67.31  0.002271734    2.645    0.622
       211 -10.4940     54.7156    120.8165   1.2647877719e+02   4.5270904787e+01     0.263934    0.2062155  29.10 0.0009259872    1.498    0.333
       212 -11.1201      7.2789    120.4380   1.3956946121e+02   4.9741476398e+01    0.2393457    0.1130734  26.08  0.001305798    2.630    0.620
       213  -9.0757     86.4688    117.3969   1.1666428478e+02   4.1586202891e+01    0.3308638    0.1327447 -66.90   0.00080778    6.073    0.835
       214 -12.0468     15.4049    115.0298   1.3658147251e+02   5.0387291159e+01    0.3440192    0.1907031 -73.79  0.001029702    1.577    0.366
       215 -13.3616    248.2339    115.3242   8.0233621433e+01   7.1833226623e+00     1.761088    0.9601007 -28.35  0.007606352    2.121    0.528
       216 -10.8825    168.0417    113.2445   9.4588582608e+01   2.5706629534e+01    0.3687909    0.3030918 -86.23  0.000910224    1.416    0.294
       217 -11.6005    248.1227    142.3514   8.6180200156e+01   2.4152204426e+00    0.5978914    0.4791346 -13.51  0.002903492    1.364    0.267
       218  -9.3963    203.7887    111.4247   8.6815939400e+01   1.7650516493e+01    0.2147491    0.1425944  41.87 0.0009468299    1.676    0.403
       219 -10.8559     57.0584    110.8821   1.2375256643e+02   4.7281441603e+01    0.4299058    0.1815716  25.32  0.001725453    3.160    0.684
       220 -11.0779     31.4897    110.8921   1.3129788699e+02   5.0005269337e+01    0.2246405    0.2026073  60.01 0.0005237659    1.304    0.233
       221 -10.0804     62.2450    107.3931   1.2143251013e+02   4.7418721157e+01    0.1800789    0.1251244  46.30 0.0009454658    1.666    0.400
       222 -11.8245     60.4816    223.3438   1.3941216025e+02   2.0947972594e+01    0.8138478    0.6502095  52.02  0.003300653    1.295    0.228
       223  -9.6759     24.0104     87.7758   1.2904847794e+02   5.5729045434e+01    0.1661371    0.1415113 -47.23 0.0004713318    1.068    0.064
       224 -11.1294    249.5928    150.9556   8.7789622695e+01   6.2572422913e-01    0.5859777    0.3070814 -42.09   0.00269346    1.740    0.425
       225 -10.7559    193.7526    245.1926   1.1625851799e+02  -5.0936768802e+00    0.2173926    0.1967536  42.92 0.0002887194    1.186    0.157
       226 -10.4145    222.3223    245.1185   1.1091855975e+02  -9.7221338429e+00    0.1902014    0.1376424  -5.32  0.001169438    1.448    0.309
       227 -11.6878    164.5802    241.4508   1.2129468887e+02   5.0184804676e-01    0.4286449    0.2712766  58.90  0.001751174    1.778    0.438
