#   1 NUMBER                 Running object number                                     
#   2 MAG_AUTO               Kron-like elliptical aperture magnitude                    [mag]
#   3 X_IMAGE                Object position along x                                    [pixel]
#   4 Y_IMAGE                Object position along y                                    [pixel]
#   5 X_WORLD                Barycenter position along world x axis                     [deg]
#   6 Y_WORLD                Barycenter position along world y axis                     [deg]
#   7 A_WORLD                Profile RMS along major axis (world units)                 [deg]
#   8 B_WORLD                Profile RMS along minor axis (world units)                 [deg]
#   9 THETA_WORLD            Position angle (CCW/world-x)                               [deg]
#  10 FWHM_WORLD             FWHM assuming a gaussian core                              [deg]
#  11 ELONGATION             A_IMAGE/B_IMAGE                                           
#  12 ELLIPTICITY            1 - B_IMAGE/A_IMAGE                                       
         1 -11.8455    225.2874     19.1237   3.6294189998e+01   2.6873129410e+01    0.7163273     0.597083 -66.62  0.002777408    1.052    0.049
         2 -12.2328    208.7172     35.0621   4.1794983198e+01   2.8788952142e+01    0.9586726    0.8641993 -69.41  0.005970764    1.048    0.046
         3 -11.1102      2.1723     29.4650   1.0265274097e+02   6.9622988535e+01      1.22056          nan -57.32  0.003217055    8.126    0.877
         4 -10.5899      2.1539      4.1551   9.2618283717e+01   7.3962501043e+01    0.6160988    0.1760076 -51.57  0.002593639    4.023    0.751
         5  -9.4911    247.7348      1.6710   3.0872909074e+01   2.3927119862e+01    0.4579383    0.1434844  77.90  0.001998417    3.116    0.679
         6 -11.2648    141.7192    230.2509   9.9241557038e+01   7.0061650934e+00    0.5788559    0.3101901  45.94  0.002863803    1.694    0.410
         7 -11.9921     86.0475    228.5168   1.1080672417e+02   1.5938731375e+01     0.992315    0.8719166  86.12  0.006698921    1.172    0.147
         8 -12.4118     21.1934    222.5324   1.2335799933e+02   2.5096337066e+01     1.693717    0.5625951  69.35  0.006833207    3.813    0.738
         9 -14.0202      5.8971    139.5023   1.2064621117e+02   4.4874258090e+01     8.143023     1.462274 -78.91   0.02065233    7.315    0.863
        10 -10.2116    101.5600    235.8253   1.0836699816e+02   1.2280493224e+01    0.3062075     0.162981  48.08  0.001443212    1.600    0.375
        11  -9.9116    154.2597    228.3730   9.6324830795e+01   5.2823477616e+00     0.247633    0.1520522  43.10  0.001300278    1.449    0.310
        12  -9.1475     33.2750    226.7942   1.2131055246e+02   2.2970096963e+01    0.2663664    0.1261505 -73.85  0.000959738    2.017    0.504
        13 -10.5695     30.4612    218.6286   1.2131374493e+02   2.4923671565e+01    0.4751839    0.3057463 -84.52   0.00242114    1.402    0.287
        14 -12.0641     36.4077    248.7373   1.2209936005e+02   1.8431175109e+01     2.109655    0.2181892  37.10  0.007561961    4.951    0.798
        15  -9.3512     60.6234    233.2180   1.1643342638e+02   1.8456507401e+01    0.2465992     0.176731  71.19 0.0003817436    1.230    0.187
        16  -8.4013     48.3039    225.3418   1.1825502380e+02   2.1538074107e+01    0.1061957   0.09069675 -42.20 0.0007040207    1.680    0.405
        17  -8.5770    120.6840    221.4266   1.0254447075e+02   1.2039512151e+01    0.2118572    0.1612576 -28.89  0.001176731    1.743    0.426
        18 -11.4729     33.3643    206.0603   1.1981958111e+02   2.7244240416e+01    0.5054921    0.3855304 -46.10 0.0009056376    1.779    0.438
        19  -8.9978    177.1998    218.3864   8.9928424291e+01   3.1648706916e+00    0.1941157    0.1116797  43.54  0.000947935    1.671    0.402
        20 -13.6274      6.9457    240.3619   1.2684133207e+02   2.3047809851e+01     1.870211     1.007911 -84.39   0.01257758    1.640    0.390
        21 -10.4396     49.4287    217.0206   1.1735547026e+02   2.3103332562e+01    0.3555294    0.2912263 -80.12   0.00241658    1.241    0.194
        22  -8.1456    209.6918    199.3649   7.9881300364e+01   8.5231912639e-01     0.122927    0.1113412  89.69 0.0007038195    1.749    0.428
        23 -12.9346      8.8541    207.6128   1.2487994059e+02   2.9327019311e+01     1.011206    0.8691393  10.37  0.007077864    1.733    0.423
        24  -7.4518     99.3220    181.3155   1.0171047589e+02   2.3978378394e+01    0.1394071     0.112467 -16.99 0.0007041454    1.661    0.398
        25 -10.3495     60.9715    178.8030   1.1086985533e+02   3.0139615856e+01    0.4381524    0.2919623 -33.50  0.001746124    2.189    0.543
        26 -10.1639     66.4845    173.3664   1.0880126268e+02   3.0701777554e+01    0.3279901    0.2516191 -40.36 0.0009493841    1.577    0.366
        27 -11.7189    112.1528    229.1820   1.0537449363e+02   1.1913606494e+01    0.7526471    0.3437971  30.57  0.003309582    2.316    0.568
        28 -11.6335    125.4239    230.2048   1.0268661073e+02   9.6376137929e+00    0.4950335    0.2951895  39.51  0.002631714    1.411    0.291
        29  -8.8176     93.6693    167.4879   1.0091981802e+02   2.8111559223e+01    0.2571578     0.131418 -59.17  0.001080931    1.961    0.490
        30 -11.7717     68.4972    144.5029   1.0390629411e+02   3.7449267010e+01    0.8721486    0.5939423  76.48  0.004164785    1.798    0.444
        31 -11.1235     83.4252    156.9647   1.0187418361e+02   3.2239752382e+01     0.848351    0.4808042 -51.35  0.002431014    1.758    0.431
        32 -11.1795     75.7775    156.2359   1.0383171355e+02   3.3546991468e+01    0.8599503    0.4516128  63.96   0.00329143    2.801    0.643
        33 -11.7648     63.4910    159.5144   1.0765054949e+02   3.4428043814e+01    0.5172443    0.3143699 -43.33  0.001559766    1.917    0.478
        34 -11.8886      2.4729    183.1598   1.2475284590e+02   3.5103215726e+01     1.919016    0.2923996 -78.17 0.0006715991    5.727    0.825
        35 -13.0948     66.0680    246.9858   1.1649011187e+02   1.5157752252e+01     2.662861    0.6786867  32.62   0.00946019    4.548    0.780
        36  -8.8166     22.0851    146.3061   1.1704436326e+02   4.2054386328e+01    0.1706388    0.1519286  83.77 0.0006729419    1.099    0.090
        37  -8.6059     32.8338    144.3733   1.1391359066e+02   4.1571201867e+01    0.3103882    0.1410313 -87.70  0.001249716    2.734    0.634
        38  -9.2832     98.7303    141.5926   9.4739361705e+01   3.3507603097e+01     0.607693    0.3725945 -14.23  0.002110381    3.369    0.703
        39 -10.6311     85.9701    141.3245   9.8322812087e+01   3.5672046327e+01    0.3266165    0.2684277 -43.49 0.0004424951    1.251    0.201
        40 -10.2453     58.0170    129.0040   1.0427857049e+02   4.2646436519e+01    0.3760268    0.2419479 -78.94   0.00179451    1.707    0.414
        41 -10.2221     76.2828    163.3904   1.0483101078e+02   3.1736784674e+01    0.3794981    0.3291121  -6.94 0.0006122458    1.459    0.315
        42  -7.8181     25.7606    134.5984   1.1466412676e+02   4.4581917060e+01    0.1719242    0.1099979  43.61 0.0008116741    1.698    0.411
        43  -8.0443    170.3164    233.3421   9.3734975476e+01   1.8439940000e+00    0.1328436    0.0920991   4.95 0.0007048491    1.711    0.416
        44  -9.3183    107.9699    131.3596   8.9889967066e+01   3.4324673799e+01     0.516877    0.3032834  34.37  0.002115223    1.781    0.439
        45  -9.3691     96.4390    127.5982   9.2391579771e+01   3.7293166066e+01    0.3004255    0.2470582 -21.51 0.0007406012    1.394    0.283
        46  -7.7391    106.4168    119.7946   8.7606086931e+01   3.7357703841e+01     0.202348    0.1425243 -38.87   0.00028957    1.459    0.315
        47  -8.0866    205.7375    110.5518   6.1197225289e+01   1.7573829509e+01    0.1952415     0.146909  65.86 0.0007417303    1.558    0.358
        48  -8.4950     53.7668    109.9897   1.0196150546e+02   4.7830461485e+01    0.1946147    0.1061066 -59.52 0.0008829708    1.645    0.392
        49  -8.1554     41.3182     91.9831   1.0239601507e+02   5.3486729802e+01    0.1723138     0.110468 -58.34 0.0008891903    1.375    0.272
        50  -8.5542     53.5427    231.2218   1.1767444427e+02   1.9733425862e+01    0.2019794    0.1352783  78.02 0.0005459068    1.377    0.274
        51  -7.8020     46.1468     61.4096   9.2362696840e+01   5.9735932736e+01    0.1637158     0.121064  36.27 0.0003261826    1.578    0.366
        52  -9.6921     12.9971     59.8646   1.0604403591e+02   6.2936049791e+01    0.2043893    0.1646181 -65.33 0.0006838317    1.284    0.221
        53  -8.7775     44.7906    230.3139   1.1932298825e+02   2.0964450937e+01    0.1986374    0.1292591  79.78 0.0007504552    1.392    0.282
        54 -13.6271     40.6479    193.9944   1.1724303857e+02   2.9086256503e+01     3.401801     1.301772  64.47    0.0128992    3.590    0.721
        55 -10.8400    216.6511     27.6305   3.9106246090e+01   2.7847729111e+01    0.5007946    0.3375251  43.50  0.001141944    1.886    0.470
        56 -12.1358    200.5102     40.8551   4.4290813606e+01   3.0004377593e+01     0.988666    0.7435855  32.85  0.004754925    1.716    0.417
        57  -9.8423     28.2823    240.3778   1.2307707100e+02   2.0880372617e+01    0.2327794    0.1429175  70.80  0.001555478    1.326    0.246
        58 -11.2273    113.4450    238.6117   1.0622940511e+02   9.9802645534e+00    0.4745719     0.248825  33.04  0.001935213    1.774    0.436
        59  -7.5905    138.3612     36.6995   5.3618171919e+01   4.6026776509e+01    0.1464645    0.1100869 -77.85 0.0007035945    1.720    0.418
        60 -11.5554    129.0224    233.4210   1.0234570802e+02   8.4848754871e+00    0.5448919    0.4008995 -10.92   0.00298705    2.012    0.503
        61  -8.4658     32.5193     14.4987   8.0312841435e+01   6.9556442699e+01    0.1232644     0.092709  -5.84 -3.614106e-05    1.040    0.039
        62  -8.8924     32.6725     30.1943   8.7222057417e+01   6.7089763424e+01    0.3230901   0.07153946 -39.36  0.001104828    4.094    0.756
