#   1 NUMBER                 Running object number                                     
#   2 MAG_AUTO               Kron-like elliptical aperture magnitude                    [mag]
#   3 X_IMAGE                Object position along x                                    [pixel]
#   4 Y_IMAGE                Object position along y                                    [pixel]
#   5 X_WORLD                Barycenter position along world x axis                     [deg]
#   6 Y_WORLD                Barycenter position along world y axis                     [deg]
#   7 A_WORLD                Profile RMS along major axis (world units)                 [deg]
#   8 B_WORLD                Profile RMS along minor axis (world units)                 [deg]
#   9 THETA_WORLD            Position angle (CCW/world-x)                               [deg]
#  10 FWHM_WORLD             FWHM assuming a gaussian core                              [deg]
#  11 ELONGATION             A_IMAGE/B_IMAGE                                           
#  12 ELLIPTICITY            1 - B_IMAGE/A_IMAGE                                       
         1 -14.7826    158.2287     42.4874   8.4356429879e+01   4.0099044825e+01     1.381379     1.045162 -15.63  0.003959073    1.407    0.289
         2 -13.4048    168.4056     13.7176   7.2760529941e+01   4.0927245219e+01    0.8340977    0.4723535 -89.05  0.002972838    2.195    0.544
         3 -14.2949    170.3348      7.6728   7.0431095949e+01   4.1007964236e+01       1.0295    0.7988624  80.14  0.003792204    1.286    0.222
         4 -11.4922    189.9582     14.5079   7.0335543120e+01   3.5169472026e+01    0.2253035    0.1908184 -24.74 0.0007450979    1.181    0.154
         5 -11.2538    150.9836    243.0605   1.2781624886e+02   9.3212850836e+00    0.1770961    0.1466219 -13.96 0.0007179112    1.570    0.363
         6 -12.3036    189.9012    250.0233   1.2209027446e+02   3.3383797812e+00    0.3660019    0.1011904  34.85  0.001313037    2.791    0.642
         7 -11.8028    176.1721    249.9200   1.2432018475e+02   5.1665398448e+00    0.1736082    0.1321775  22.65  0.000555159    1.152    0.132
         8 -10.2122    153.4520    250.4444   1.2815988089e+02   8.1327218541e+00    0.1061153   0.07500342  35.03 0.0001174197    1.014    0.014
         9 -20.0440     81.3913    195.2637   1.3611953036e+02   2.5892886944e+01     11.67367     5.813925 -69.35   0.06518228    2.312    0.567
        10 -12.7607    126.0143    187.0856   1.2588922402e+02   2.0910555533e+01    0.5136303    0.2581001  54.01  0.001880999    2.178    0.541
        11 -11.8305    168.6299    176.1435   1.1558104891e+02   1.5671176473e+01     0.217356    0.1561013  44.28 0.0005927447    1.291    0.225
        12 -12.6420    196.3639    236.0687   1.1933140851e+02   3.8802587348e+00    0.2257306    0.1293515 -28.70  0.001518445    2.159    0.537
        13 -13.8391    177.4900    169.9903   1.1279288437e+02   1.5065211335e+01    0.4604437     0.412737  41.66  0.003014411    1.200    0.167
        14 -12.1337    202.0196    165.7502   1.0742557962e+02   1.1406496563e+01     0.304105    0.2855892  88.50  0.001360635    1.589    0.371
        15 -11.4863    223.6461    163.6743   1.0327426924e+02   8.0043046442e+00    0.2138874    0.1928935   0.45 0.0005687486    1.226    0.185
        16 -13.8524    183.1034    233.7689   1.2125688853e+02   5.9568394905e+00    0.3843043    0.2731224  -4.30  0.002774948    1.649    0.394
        17 -11.1914     29.1418    156.7571   1.4443504793e+02   3.9334935830e+01    0.2052042    0.1574803  70.89 0.0006492009    1.062    0.058
        18  -9.9642     26.2329    227.3930   1.4878196649e+02   2.6648908577e+01   0.08080029   0.07001141 -66.27 0.0006904764    1.648    0.393
        19 -10.6104     16.8630    225.3732   1.5034443645e+02   2.7845927055e+01    0.1049145    0.0850848  85.87 0.0005962849    1.358    0.264
        20 -14.0527    134.1864    146.4221   1.1765837944e+02   2.6768232292e+01     1.220306    0.3446067 -54.86  0.003484913    5.661    0.823
        21 -11.4613     16.8124    154.0162   1.4716753156e+02   4.0997084165e+01     0.311891    0.2176296 -19.56  0.001919848    2.444    0.591
        22 -13.9307    155.5079    147.9954   1.1321710616e+02   2.2566568424e+01    0.6794935    0.3445398 -33.05  0.002946846    2.453    0.592
        23 -10.4489    184.3862    151.1448   1.0792498204e+02   1.6661874186e+01    0.1744806    0.1240111 -47.51 0.0007987838    1.722    0.419
        24 -13.3393    148.9986    148.5720   1.1474061184e+02   2.3672961088e+01    0.4555292    0.3806992 -23.18 0.0006281037    1.339    0.253
        25 -12.5371    174.4209    148.3534   1.0934443162e+02   1.8959469282e+01    0.3591412    0.2918681 -64.85   0.00169603    1.706    0.414
        26 -12.3296    198.6178    222.7709   1.1719266188e+02   4.9736367429e+00     0.208824    0.1425324  37.80   0.00056548    1.281    0.220
        27 -12.6986     12.0889    206.3517   1.5055298357e+02   3.1438964546e+01    0.5069167    0.2068292  36.45  0.003185386    1.988    0.497
        28 -11.7828     27.3797    145.7508   1.4403805979e+02   4.1821722921e+01     0.276914    0.2282329  53.81  0.001008475    1.166    0.142
        29 -11.6178     21.9240    240.6550   1.4999211106e+02   2.5004122850e+01    0.1376515    0.1001716  67.47 0.0004789754    1.167    0.143
        30 -14.3066    143.5499    144.5404   1.1517696922e+02   2.5404491650e+01    0.8607509    0.4710495 -58.16  0.003774551    2.451    0.592
        31 -11.8840    177.1492    143.7998   1.0787560029e+02   1.9171621310e+01    0.2015724    0.1859205  49.83 0.0006811293    1.211    0.174
        32 -13.8912    118.8348    135.9177   1.1932963801e+02   3.1555875874e+01    0.6438944    0.5086939 -55.77  0.002030148    1.350    0.259
        33 -14.5752    122.0118    128.1780   1.1701840667e+02   3.2541232674e+01     1.037702    0.5796111  35.01    0.0036023    1.856    0.461
        34 -14.6190    136.6707    126.9385   1.1318843577e+02   3.0016529988e+01     1.328798    0.4872271 -48.56   0.00482491    2.964    0.663
        35 -11.0847     30.7148    206.6027   1.4705606410e+02   2.9670149974e+01    0.2199098    0.1779498  33.00  0.001694682    1.447    0.309
        36 -10.7636      7.8201    238.2094   1.5224520773e+02   2.6646173634e+01    0.1033705   0.07669558  69.61 0.0004284603    1.196    0.164
        37 -12.9535    160.7233    127.9942   1.0794190600e+02   2.5057639890e+01    0.3918899    0.3413185 -53.96  0.001860099    1.311    0.237
        38 -13.2072    138.1002    198.2882   1.2493241011e+02   1.7252107327e+01    0.5981717    0.2749606  51.10  0.002550075    2.279    0.561
        39 -12.4754    142.2520    194.1228   1.2355088219e+02   1.7247649798e+01    0.3776019    0.1870824  44.84  0.001525926    1.724    0.420
        40 -13.7191    174.6764    193.1585   1.1714410226e+02   1.2227614509e+01    0.4609275    0.3459586 -54.81  0.001942684    1.888    0.470
        41 -13.1467    180.1737    192.6868   1.1604722102e+02   1.1410436123e+01    0.3406469    0.3215538 -67.88  0.001359062    1.504    0.335
        42 -13.9446    176.5091    188.2706   1.1603811438e+02   1.2605827227e+01    0.6637866    0.3833444 -58.74  0.003184367    3.259    0.693
        43 -13.5675    167.1083    191.0732   1.1825813784e+02   1.3736971023e+01    0.5175116    0.3936311  51.48   0.00328581    1.415    0.293
        44 -10.7141    205.6205    110.1072   9.4928588225e+01   1.8671776827e+01    0.2656845    0.1928393  36.66 0.0006881051    1.351    0.260
        45 -11.8665     25.2679    106.5506   1.4092499945e+02   5.0801045725e+01    0.3654587    0.2290102   2.68  0.001976808    2.355    0.575
        46 -12.4755     40.5897     94.2245   1.3427366150e+02   5.2284385164e+01    0.4825566    0.3341637 -38.80  0.002268342    1.687    0.407
        47 -12.2764    147.4763    189.4897   1.2185867643e+02   1.7134068431e+01    0.3958666    0.1919168  26.91   0.00178855    2.518    0.603
        48 -11.3909    125.3510     91.0228   1.0733593077e+02   3.9441836401e+01    0.2855956    0.2132562  54.86 0.0005961858    1.399    0.285
        49 -11.8035      5.5450     89.2471   1.4545122256e+02   5.6202396694e+01    0.3625185    0.1739483  -8.91  0.001701873    3.503    0.715
        50 -10.2742    105.9856     82.2907   1.1031000311e+02   4.5187851645e+01    0.1993644    0.1860984  45.64 0.0003322639    1.085    0.079
        51 -14.3519    207.2964    179.2428   1.0891842122e+02   8.7628490743e+00    0.7494156    0.6291322  -4.14   0.00470306    1.171    0.146
        52 -14.3667    147.8949     57.0772   9.1403485027e+01   4.0494431643e+01     1.083041     0.835367  -4.95  0.001039097    1.510    0.338
        53 -13.0155    197.4969    246.2724   1.2041690404e+02   2.7045041017e+00    0.3216507    0.1615007  32.05   0.00211801    1.442    0.307
        54 -13.0166    161.8707     33.8415   8.0730846829e+01   4.0323277174e+01    0.4622008    0.4034105   0.71 0.0008651345    1.214    0.176
        55 -11.1663     13.3867     59.8692   1.3864468338e+02   6.2637420127e+01    0.1831112    0.1614616  60.90 0.0004910268    1.269    0.212
        56 -13.6588    196.8227    172.5350   1.0960657810e+02   1.1379853730e+01    0.6174021     0.369955 -41.40  0.002598776    1.995    0.499
        57 -11.9697    167.9744    242.2980   1.2483339453e+02   7.0963539648e+00    0.2012499    0.1565694 -43.21 0.0008024588    1.792    0.442
