#   1 NUMBER                 Running object number                                     
#   2 MAG_AUTO               Kron-like elliptical aperture magnitude                    [mag]
#   3 X_IMAGE                Object position along x                                    [pixel]
#   4 Y_IMAGE                Object position along y                                    [pixel]
#   5 X_WORLD                Barycenter position along world x axis                     [deg]
#   6 Y_WORLD                Barycenter position along world y axis                     [deg]
#   7 A_WORLD                Profile RMS along major axis (world units)                 [deg]
#   8 B_WORLD                Profile RMS along minor axis (world units)                 [deg]
#   9 THETA_WORLD            Position angle (CCW/world-x)                               [deg]
#  10 FWHM_WORLD             FWHM assuming a gaussian core                              [deg]
#  11 ELONGATION             A_IMAGE/B_IMAGE                                           
#  12 ELLIPTICITY            1 - B_IMAGE/A_IMAGE                                       
         1 -15.1648     11.9973    155.1728   1.4320919421e+02   4.1429000126e+01     10.75001      4.54119  76.53   0.04510125    3.415    0.707
         2 -13.3581    195.2724     29.8823   6.8360241813e+01   3.2962778989e+01     1.276822     1.144744  66.98  0.006615192    1.131    0.116
         3 -13.5255    211.2227     10.5551   6.1769809321e+01   3.1350662749e+01     1.220351    0.9312693  39.93  0.007208047    1.716    0.417
         4 -12.5722      2.5675     11.0181   1.1626495330e+02   7.0890810834e+01     1.341123    0.1944045 -44.35  0.005408273    4.385    0.772
         5 -10.8485     97.2494    245.7855   1.3545973944e+02   1.1264968786e+01    0.4119748    0.2072007 -67.03  0.002169668    2.200    0.545
         6 -10.7187    139.1537    250.0755   1.2813099017e+02   3.6329998693e+00    0.3036838    0.1504131  46.83  0.001538955    1.651    0.394
         7 -10.7266    125.3012    250.3929   1.3076957242e+02   5.9047318489e+00    0.3167608    0.1529985  40.72  0.001581166    1.824    0.452
         8  -9.3532     66.7337    250.1140   1.4132746170e+02   1.4987585420e+01    0.1980698    0.1205521  57.72 0.0002256346    1.292    0.226
         9 -11.9108     34.8977    244.9472   1.4631556014e+02   2.0096351245e+01    0.5324087    0.4341021 -81.00  0.004090981    1.408    0.290
        10 -10.4885     29.1371    249.8507   1.4757097316e+02   1.9866717365e+01    0.2142074    0.1543835  57.57  0.001151004    1.281    0.219
        11 -11.7658     14.8126    248.1931   1.4972816432e+02   2.1789464850e+01    0.4972881    0.2866864  63.21  0.003533351    1.291    0.225
        12 -12.0836     11.1757    239.0613   1.4978658852e+02   2.3881371802e+01    0.5768364    0.2054297  54.75  0.003246653    2.200    0.545
        13  -9.8515      7.4853    250.1448   1.5095367758e+02   2.2213296786e+01    0.2462002    0.1160909  46.87  0.001031108    1.857    0.461
        14 -11.2571      2.8209    248.1705   1.5155758480e+02   2.3053429974e+01     0.716582    0.2028069 -83.06  0.003481815    3.224    0.690
        15  -8.7573     88.6422    249.2958   1.3738452481e+02   1.1947134797e+01    0.1306754   0.07291379  66.04 0.0006724646    1.699    0.412
        16 -10.1549     46.4962    248.5405   1.4464512079e+02   1.7984588053e+01    0.3072824    0.1365131  77.46  0.001406778    2.452    0.592
        17 -10.0105    198.4965    246.4906   1.1638700564e+02  -5.9283161406e+00    0.1261006    0.1042838  30.53 -2.109084e-05    1.012    0.012
        18  -9.7188    139.3034    245.6462   1.2753310108e+02   4.3577135620e+00    0.1306188   0.08824483  70.28 0.0005133412    1.708    0.415
        19 -10.8009     19.7126    242.7333   1.4864058741e+02   2.2267957273e+01    0.2574889    0.1516353 -79.84   0.00094071    1.471    0.320
        20 -10.5358     21.9042    237.2800   1.4794824385e+02   2.3060477049e+01    0.2756726     0.163899 -47.51   0.00155585    3.238    0.691
        21 -10.5417    234.6038    238.6267   1.0843319090e+02  -1.0666272256e+01     0.300151    0.1839976 -59.16  0.001341052    3.921    0.745
        22 -10.0147    185.8082    239.5607   1.1771090699e+02  -2.7310487128e+00    0.1842959    0.1067606  48.99 0.0009428456    1.651    0.394
        23 -10.7039    120.1089    238.2370   1.3027515799e+02   8.9395284845e+00    0.3057871    0.1663727 -79.67  0.001382841    2.796    0.642
        24 -10.7896     50.8209    234.1729   1.4278017464e+02   2.0178879147e+01    0.2614784    0.1899611 -78.68  0.001592858    1.320    0.243
        25 -13.4789      9.4014    206.9886   1.4808726120e+02   3.0411456205e+01     1.256591    0.7040333  86.87  0.005328531    1.404    0.288
        26 -12.1044    238.2628    248.4347   1.0942576420e+02  -1.2488311837e+01    0.7814666    0.2283084  34.78  0.003167945    3.190    0.687
        27 -12.6492     34.1540    231.6930   1.4550388791e+02   2.2738919563e+01    0.2825634    0.2319859 -79.01  0.000767051    1.380    0.275
        28  -9.8513    173.4815    222.5047   1.1739473083e+02   2.2872102271e+00     0.306716    0.1099011  30.65 0.0008105717    5.775    0.827
        29 -13.7818     39.9668    224.0231   1.4388739312e+02   2.3573352641e+01    0.7601714    0.5655452  73.49  0.002367662    1.046    0.044
        30  -8.8603    152.6463    213.0078   1.2009885936e+02   7.9036109586e+00    0.1778329    0.1704406  88.87 0.0003716603    1.118    0.105
        31  -9.5077     34.7510    202.4553   1.4302230365e+02   2.8696113618e+01    0.1954986    0.1476307 -87.03 0.0001866719    1.093    0.085
        32  -9.8826    194.4991    197.5013   1.0868117061e+02   2.7925717059e+00    0.5092915    0.2506891 -63.31  0.001431607    5.967    0.832
        33 -11.5633     60.9781    197.9070   1.3730344895e+02   2.6416686760e+01    0.2897345    0.2323952 -57.96 0.0005224346    1.448    0.309
        34 -10.4143    230.6185    231.8278   1.0798528083e+02  -9.1112487502e+00    0.3012182    0.1935363 -51.28  0.001219046    2.300    0.565
        35 -11.8184     67.1558    189.7644   1.3502545291e+02   2.7385042505e+01     0.286675    0.2277466 -64.00 0.0004225161    1.298    0.229
        36 -10.8619     77.3563    177.0953   1.3104073818e+02   2.8813668264e+01    0.2506751     0.213883 -74.17 0.0004137275    1.113    0.101
        37 -13.1689     64.0966    175.0285   1.3378265842e+02   3.1184146987e+01    0.5113267    0.2788885 -46.28   0.00181996    2.281    0.562
        38  -8.9030     97.4963    173.0217   1.2571580160e+02   2.6566305373e+01    0.2246026    0.1333258 -59.62 0.0001814532    1.627    0.385
        39 -11.7439     84.8068    167.8642   1.2787901231e+02   2.9834720986e+01     0.627519    0.5637684 -72.64  0.003722603    1.102    0.092
        40 -10.2381    228.4944    228.0090   1.0770628298e+02  -8.2279724993e+00    0.2753869    0.2071981 -55.75  0.001588942    1.993    0.498
        41  -9.9763     97.6316    152.0651   1.2194347537e+02   3.1481008049e+01    0.2982134    0.2849637 -51.07 0.0007911641    1.154    0.133
        42  -8.7508    100.5993    148.1064   1.2042051625e+02   3.1908912848e+01    0.2194233    0.1384642 -54.38 0.0005279563    1.511    0.338
        43 -12.0374     86.1965    151.1821   1.2466948974e+02   3.3572507514e+01    0.3055461    0.2501498 -47.89  0.000640435    1.286    0.222
        44 -12.3217     67.5532    143.7585   1.2811871716e+02   3.8096635528e+01    0.6871493    0.4624878  69.83  0.003417956    1.755    0.430
        45  -8.3840    192.2209    143.9697   9.7832167698e+01   1.3737052313e+01    0.1924827    0.1244841 -43.09 0.0003521388    1.531    0.347
        46  -9.6964    109.6200    136.9769   1.1577001530e+02   3.2914306009e+01    0.3795804    0.2398826 -29.07  0.001542442    2.290    0.563
        47 -10.3956     96.6054    134.3712   1.1863388713e+02   3.5853409109e+01    0.2621148    0.2305159 -31.91 0.0003841784    1.274    0.215
        48 -10.5678     56.1160    129.5064   1.2861689778e+02   4.2951595237e+01    0.2531132    0.1787103 -89.73  0.001341086    1.602    0.376
        49  -9.5770    146.3217    230.3320   1.2405510499e+02   5.8276118377e+00    0.1280174     0.103034   8.94 0.0007049634    1.699    0.412
        50 -11.1785     23.9033    126.8562   1.3683137210e+02   4.6881486916e+01    0.2490527    0.1854677  26.96  0.001329454    1.682    0.405
        51  -8.8699    106.6488    123.8924   1.1358597353e+02   3.6513393746e+01    0.1985742    0.1749334 -58.47  0.000364759    1.086    0.079
        52  -9.6198     79.7842    131.8491   1.2262989181e+02   3.9166043451e+01    0.2330734    0.1905392  69.99 0.0006309033    1.339    0.253
        53 -10.1742    168.0212    113.0631   9.5516457065e+01   2.5714024677e+01    0.3649468    0.2887631 -81.79 0.0009431209    1.537    0.349
        54  -9.2893    203.4770    111.5159   8.7798884109e+01   1.7629713584e+01    0.1511428    0.1478138 -45.49 0.0001000847    1.052    0.050
        55  -8.8496    184.5232     77.5051   8.2664558377e+01   2.8514472162e+01    0.1499808    0.1449864  78.16 0.0001203054    1.044    0.042
        56  -9.2719    157.6970     76.6973   8.7930772122e+01   3.5247673674e+01    0.1516155    0.1193866  18.45 0.0007007135    1.592    0.372
        57 -11.7065      7.0464    227.5648   1.4979072711e+02   2.6512606653e+01    0.4424353    0.2211757  41.20  0.002828523    2.061    0.515
        58  -9.7409     43.2410     67.6650   1.1857744151e+02   5.7914638108e+01    0.2528397    0.1922187  53.09  0.001099315    1.875    0.467
        59  -9.1987     32.0787     62.3030   1.2105672976e+02   6.0044019506e+01    0.1579074    0.1414894 -14.34 0.0009962361    1.170    0.145
        60 -10.8760     15.0108     55.2622   1.2544426000e+02   6.2732082142e+01    0.2070906    0.1904244  30.79 0.0007480116    1.452    0.311
        61 -10.1775    163.0177    249.5015   1.2353914943e+02  -3.5153680221e-01    0.2080894    0.1052091  42.18  0.001045847    1.629    0.386
        62 -10.7694    101.3232    245.6872   1.3469684083e+02   1.0641658300e+01    0.2543142    0.1586582  79.57  0.001414012    1.774    0.436
