#   1 NUMBER                 Running object number                                     
#   2 MAG_AUTO               Kron-like elliptical aperture magnitude                    [mag]
#   3 X_IMAGE                Object position along x                                    [pixel]
#   4 Y_IMAGE                Object position along y                                    [pixel]
#   5 X_WORLD                Barycenter position along world x axis                     [deg]
#   6 Y_WORLD                Barycenter position along world y axis                     [deg]
#   7 A_WORLD                Profile RMS along major axis (world units)                 [deg]
#   8 B_WORLD                Profile RMS along minor axis (world units)                 [deg]
#   9 THETA_WORLD            Position angle (CCW/world-x)                               [deg]
#  10 FWHM_WORLD             FWHM assuming a gaussian core                              [deg]
#  11 ELONGATION             A_IMAGE/B_IMAGE                                           
#  12 ELLIPTICITY            1 - B_IMAGE/A_IMAGE                                       
         1 -14.9233    192.2052    155.2101   5.6020574399e+01   1.5006090109e+01     9.763013     8.435572  60.11   0.06052857    1.698    0.411
         2 -14.4315    173.0033     90.7538   4.5135094826e+01   2.8952357059e+01     2.921932     1.943545 -15.29   0.00803332    1.819    0.450
         3 -14.4310    249.4149     75.0109   3.0792331768e+01   1.6476957115e+01     5.936509     1.542196 -22.58   0.01300336   11.272    0.911
         4 -12.3480    139.0669     41.6535   3.7060340657e+01   4.4663727754e+01    0.7153731     0.578406  75.44  0.003721246    1.255    0.203
         5 -11.0035    151.2269     20.8708   2.7904084834e+01   4.4164440871e+01    0.4760788    0.2784989  10.72  0.001931982    2.808    0.644
         6  -8.5487    140.3121      9.3302   2.5371386835e+01   4.8205359073e+01    0.1454272   0.09947943  38.73 0.0005651219    1.672    0.402
         7  -9.0808    179.2658      7.4932   2.0612728350e+01   3.8499883005e+01    0.1775201    0.1144186 -80.98 0.0004284132    1.537    0.349
         8 -16.3288    243.5369     84.4832   3.3431141708e+01   1.6315559335e+01     4.819465     1.740368  47.60   0.02229485    3.256    0.693
         9 -15.8858    245.9383     37.9126   2.3040630289e+01   2.1255556855e+01     6.301836     2.923828 -31.05   0.03439536    1.725    0.420
        10 -10.3562    182.1541      3.0963   1.9109393173e+01   3.8206040329e+01    0.3786746    0.1953298 -69.79  0.001791341    2.011    0.503
        11  -9.5112    151.9868    172.0516   6.7392818561e+01   1.8674047438e+01    0.1946909     0.168961  13.97 0.0003169169    1.020    0.020
        12  -8.9616    149.0817    249.8147   7.8810924770e+01   7.3862632970e+00    0.1580247    0.1153051  28.01 0.0004072919    1.176    0.150
        13 -10.4012    246.2247    185.4093   5.2530512268e+01   3.6616779437e+00    0.2043284    0.1708756  23.05  0.001150472    1.533    0.348
        14 -11.0243    233.7830    179.2053   5.3353442656e+01   5.8804557493e+00    0.3278129    0.2137082  -8.18 0.0004845085    1.301    0.231
        15  -8.6123    150.1637    245.1977   7.8087997763e+01   7.8516156163e+00    0.1428507    0.1032732  31.87 0.0002377405    1.267    0.211
        16  -8.1914     95.4164    163.5416   8.0015630434e+01   2.9125963439e+01    0.1376119    0.1249669  27.81 0.0001050182    1.036    0.035
        17 -10.6577    158.4424    142.8095   6.0395184518e+01   2.2748955568e+01    0.2616132    0.2498291   2.68  0.001593206    1.118    0.106
        18 -10.8005    133.8470    145.0576   6.6645291161e+01   2.6692558098e+01     1.064861    0.3541187 -55.54  0.003075158    5.064    0.803
        19 -12.5176     54.4116    132.6903   8.7884401630e+01   4.1923580063e+01    0.8199992    0.5547112 -45.30   0.00151753    1.647    0.393
        20 -10.1765    209.9503    164.1272   5.4540150603e+01   1.1028966263e+01    0.2711794    0.2406066 -81.67  0.001722813    2.114    0.527
        21 -10.8001    144.5521    146.6050   6.4352598549e+01   2.4510331050e+01    0.5369041    0.3257723 -62.45  0.002301777    2.592    0.614
        22 -10.9219    211.4987    134.5152   4.8485693249e+01   1.4952427191e+01    0.3213151    0.2311539   5.87  0.001480861    1.439    0.305
        23 -10.3320    211.3125    130.6662   4.7717571480e+01   1.5533036546e+01    0.2561013    0.2348211  75.27   0.00135668    1.576    0.366
        24 -11.5166     66.5937    142.8165   8.5381357201e+01   3.7906340553e+01       1.8005     1.274489 -88.03  0.008684968    1.629    0.386
        25 -13.9473     46.4052    132.8946   9.0600217579e+01   4.2800461399e+01     2.854824      1.46098   5.46   0.00895624    2.927    0.658
        26  -8.4800    178.3019    244.3195   7.2686078196e+01   4.7190857296e+00    0.1114768   0.06610449   3.39  0.000278991    1.625    0.385
        27  -9.3643    208.4415    126.8660   4.7384998804e+01   1.6559610111e+01    0.2446988    0.1692382  29.91 0.0009866245    1.500    0.333
        28 -10.1575    117.0089    236.4074   8.3830927103e+01   1.3011720423e+01     0.175139    0.1603333   1.74 0.0002428776    1.262    0.208
        29  -8.9615    214.3020    120.8182   4.5158640784e+01   1.6438045489e+01    0.2146418    0.1330029 -32.89  0.000444278    1.442    0.307
        30 -13.6054      7.5641    143.1810   1.0417059893e+02   4.3608972865e+01     1.088161    0.8504062  89.63  0.004087141    1.201    0.167
        31  -8.5233     93.2044    121.2094   7.3118379040e+01   3.9010012761e+01    0.2014682    0.1720111  67.42 0.0004669906    1.292    0.226
        32 -10.1091     68.0554    110.1902   7.9302820465e+01   4.5716630142e+01    0.2324063    0.2204829 -41.09  0.000279919    1.100    0.091
        33 -12.2747     38.1010    135.1321   9.3650701130e+01   4.3114992324e+01    0.5502775    0.3459583  23.47  0.001014764    1.594    0.373
        34  -9.1714    148.9473    101.2723   5.2909045152e+01   3.2254938199e+01    0.2112763    0.1956483  30.10  0.001027172    1.063    0.059
        35 -10.4640    142.0527     98.9189   5.3918246552e+01   3.4168905974e+01    0.3306025    0.2964521 -81.43  0.001132553    1.320    0.243
        36 -10.1307    158.6312     88.6831   4.7436186610e+01   3.2417995155e+01     0.404802    0.3420194  23.54  0.002159738    1.270    0.212
        37 -11.1254    127.2529     78.3373   5.1809107654e+01   4.1389147294e+01    0.4702992    0.3177306 -48.27  0.001076104    1.556    0.357
        38  -9.3034    170.2398     75.6216   4.1597308949e+01   3.1990156756e+01     0.279392    0.2123433 -61.89 0.0008522769    1.524    0.344
        39  -8.1035    137.2838     76.6676   4.8787571479e+01   3.9386731286e+01    0.1516346     0.118372 -72.93 0.0003841185    1.615    0.381
        40  -8.7410    158.6548     74.9370   4.3603897017e+01   3.4734974556e+01    0.2080187    0.1758562 -38.07 0.0004116569    1.159    0.137
        41  -9.0864    151.2032     71.5696   4.4143239686e+01   3.7023526468e+01    0.2598361    0.1976628 -35.17  0.000478357    1.306    0.234
        42  -9.5302    111.0422     71.5361   5.4202928525e+01   4.6407683774e+01    0.2836765    0.2197474 -39.10 0.0005328612    1.326    0.246
        43 -10.2084    236.7688    171.3601   5.1530203179e+01   6.4471232954e+00    0.2395801    0.1670603 -16.75 0.0007545574    1.168    0.144
        44 -11.5017    193.1201     66.7110   3.5513446639e+01   2.8266124644e+01     1.402075    0.7217253  -4.07  0.004311323    5.202    0.808
        45 -10.4030    196.0000     66.0366   3.4933158556e+01   2.7742630672e+01     0.554696    0.2489455 -20.53  0.002138533    2.876    0.652
        46  -8.8023    136.9967     68.7591   4.6433974229e+01   4.0861170694e+01     0.200443    0.1919843  46.79            0    1.036    0.035
        47  -8.9668    186.0995     64.8597   3.6047608725e+01   3.0057050645e+01    0.2067941    0.1719022 -56.16 0.0004575577    1.224    0.183
        48 -10.6768     36.6952    145.6982   9.5184163418e+01   4.0649123130e+01    0.2578331     0.206632  60.56 0.0004620269    1.161    0.139
        49  -8.6222    106.9862     58.2253   5.0887390395e+01   4.9896114554e+01     0.206361    0.1927436  45.13            0    1.039    0.038
        50  -8.6702    207.0030     57.5167   3.1340054207e+01   2.6551789294e+01    0.1836083    0.1288814  64.54  0.001026483    1.573    0.364
        51 -10.0097    177.1487     53.8324   3.4337018391e+01   3.3628607235e+01      0.27746    0.2037589 -23.85  0.001336761    1.402    0.286
        52 -10.9026    185.0671     48.5994   3.1746677553e+01   3.2501753728e+01    0.3623167     0.292256 -65.54 0.0003923743    1.274    0.215
        53 -10.8946    177.3572     48.5909   3.2809401419e+01   3.4289759834e+01    0.6200034    0.3881984  86.88  0.002885722    2.011    0.503
        54 -10.1465    206.5005     47.3915   2.8830797019e+01   2.7921174992e+01    0.2588457    0.2324408  73.11 0.0005211697    1.212    0.175
        55 -10.8566    199.9105     49.1273   3.0028126056e+01   2.9121695986e+01    0.3248835    0.2347089 -16.13 0.0005280884    1.505    0.336
        56 -11.4988    147.1726     41.3740   3.5434081120e+01   4.2647983664e+01    0.4183406    0.3369448  -8.01  0.002164777    1.454    0.312
        57  -8.5340     68.4455    226.9893   9.3560399416e+01   2.0167025302e+01    0.1371841    0.1157547 -74.90  0.000308191    1.480    0.324
        58  -9.0014     40.0820     42.1873   7.3128573171e+01   6.6311370761e+01    0.5300971    0.1191341 -53.66  0.001577434    4.074    0.755
        59  -9.0253    205.0405     41.8088   2.7556403213e+01   2.8904217115e+01    0.2360602    0.1678899  46.91 0.0009872627    1.633    0.387
        60 -10.7233    191.7159     38.5002   2.8139169470e+01   3.2246516302e+01    0.7063164    0.4641003  70.63  0.003359477    1.597    0.374
        61 -10.6201    199.1915     33.3437   2.5946075605e+01   3.1168606776e+01    0.2410337    0.2190232 -29.78 0.0003403026    1.128    0.114
        62 -10.8844    123.8273     40.1203   3.9765695710e+01   4.8771223782e+01    0.3524271    0.3189402  82.19  0.001317882    1.117    0.104
        63  -9.8908    170.7374     35.7319   2.9952371266e+01   3.7523604031e+01    0.5201091     0.219006  53.62  0.002113393    2.401    0.584
        64  -9.1200    181.5658     34.4003   2.8180687309e+01   3.5088376675e+01     0.255283    0.1929155  -6.92  0.001371509    1.586    0.370
        65 -10.4792    144.1252     33.5243   3.3326425200e+01   4.4474464504e+01    0.3032193    0.2010659  -3.99  0.001356912    2.048    0.512
        66 -10.6030    131.6633     40.1313   3.8039041879e+01   4.6769081617e+01    0.3518769    0.2358313  48.17  0.001648414    1.491    0.329
        67  -8.9182    154.3377     31.9891   3.1141154383e+01   4.2063267165e+01    0.1920658    0.1776177 -44.19 0.0003897953    1.085    0.079
        68  -9.6155    123.1065     30.8447   3.6428950943e+01   5.0265045481e+01    0.2282586     0.199701 -77.00 0.0007149174    1.196    0.164
        69 -10.0224    185.5424     27.2685   2.5698015610e+01   3.4974497767e+01    0.4247598    0.2397881  -8.31  0.001305635    2.457    0.593
        70  -9.2593    194.9360     25.9431   2.4380458038e+01   3.2950229209e+01    0.1905814    0.1721391 -58.27 0.0004514524    1.019    0.019
        71 -10.3174    179.4489     24.0967   2.5442411148e+01   3.6771521048e+01     0.483389    0.3564036 -76.63   0.00267509    1.371    0.271
        72  -8.8814    140.9992    224.0585   7.7430432918e+01   1.1880569200e+01    0.1744497    0.1352935  21.40 0.0003013639    1.020    0.019
        73 -14.7692    248.5132     63.9491   2.8505590275e+01   1.7917101286e+01     1.065679    0.7045165  -5.83  0.002347733    1.842    0.457
        74  -8.8465    189.7776     14.9066   2.1822674389e+01   3.5290431394e+01    0.2546483      0.13734 -66.13  0.001214963    1.969    0.492
        75  -8.3378    232.9168    215.4514   5.9335409757e+01   1.8576860955e+00    0.1220733   0.08526317  42.81 0.0008058498    2.412    0.585
        76  -9.5310     37.5950    214.2823   9.9801387145e+01   2.5656158247e+01    0.2014276    0.1080307 -89.84  0.001139508    2.154    0.536
        77  -9.0535      1.3705    205.6107   1.0785954389e+02   3.0378455171e+01    0.1685109   0.09324342  81.30 0.0002790458    1.750    0.428
        78 -11.1813    192.8528    194.5992   6.2902257671e+01   9.2404357679e+00    0.7603006    0.4448781 -58.00  0.003195019    4.882    0.795
        79  -8.9818      4.9261    190.0879   1.0663381046e+02   3.3241099440e+01    0.1693045    0.1371772  49.90 0.0003014056    1.033    0.032
