#   1 NUMBER                 Running object number                                     
#   2 MAG_AUTO               Kron-like elliptical aperture magnitude                    [mag]
#   3 X_IMAGE                Object position along x                                    [pixel]
#   4 Y_IMAGE                Object position along y                                    [pixel]
#   5 X_WORLD                Barycenter position along world x axis                     [deg]
#   6 Y_WORLD                Barycenter position along world y axis                     [deg]
#   7 A_WORLD                Profile RMS along major axis (world units)                 [deg]
#   8 B_WORLD                Profile RMS along minor axis (world units)                 [deg]
#   9 THETA_WORLD            Position angle (CCW/world-x)                               [deg]
#  10 FWHM_WORLD             FWHM assuming a gaussian core                              [deg]
#  11 ELONGATION             A_IMAGE/B_IMAGE                                           
#  12 ELLIPTICITY            1 - B_IMAGE/A_IMAGE                                       
         1 -13.0732    162.2605     57.4356   6.2532553115e+01   3.7264905864e+01     1.443787     1.101827  14.21  0.003161558    1.658    0.397
         2 -13.0734    176.0323     42.6768   5.5359683200e+01   3.5950538624e+01     1.126618    0.9499246  -6.39  0.003738336    1.370    0.270
         3 -13.4476    127.0010     39.5848   6.4379732672e+01   4.8735472171e+01     2.004915     1.084143  58.66  0.008547876    1.904    0.475
         4 -14.1579    120.0903     10.2456   5.4874273011e+01   5.3931342143e+01     3.257128     2.352661  69.11   0.01753053    1.443    0.307
         5 -12.7060    225.2873      4.6477   3.8822375656e+01   2.8141755114e+01    0.8536891    0.4948219  81.11  0.004466682    1.621    0.383
         6 -13.2853    194.9968     11.5660   4.3557971534e+01   3.4874446336e+01     1.007334    0.9647067   0.27  0.004168598    1.236    0.191
         7 -10.5729     38.4402    210.0327   1.2364503443e+02   2.6436700250e+01    0.1680517    0.1268797  58.59 0.0003615876    1.185    0.156
         8 -12.8442    249.0697    246.0166   8.8714944896e+01  -1.1082842702e+01       1.0366    0.4310109 -36.79  0.005592783    2.914    0.657
         9  -9.8508    217.9533    192.0664   8.4836241444e+01   5.9332134149e-01    0.2013751    0.1741786   9.56 0.0003817231    1.014    0.014
        10 -10.2877    228.7639    202.4388   8.4799370280e+01  -2.7550191867e+00    0.2317858    0.2127587  86.81 0.0008668671    1.759    0.432
        11  -9.6821    218.1995    187.7645   8.3964266102e+01   1.2080888086e+00    0.1862253     0.142115   4.38 0.0005512477    1.309    0.236
        12 -10.9853    193.4063    197.2015   9.0488866126e+01   4.1691307817e+00     1.036614    0.5539791 -62.00   0.00362267    4.699    0.787
        13 -12.3342    153.6168    186.4364   9.6734749586e+01   1.3473177421e+01    0.5669559    0.5093727 -77.06  0.002522426    1.254    0.202
        14  -9.3971    185.5027    170.0936   8.6873673703e+01   1.0369991662e+01    0.2610504    0.1841676 -54.50  0.000874823    1.698    0.411
        15 -10.3046    186.0412    183.6170   8.9433263537e+01   7.8329222949e+00    0.2271627    0.2131244 -32.48 0.0003837333    1.162    0.139
        16 -10.8269    188.7273    177.6276   8.7723706636e+01   8.3758485136e+00     0.618938    0.3354139 -51.58   0.00262234    2.301    0.565
        17 -10.7467    138.2088    184.1922   9.9690177791e+01   1.6781091736e+01    0.2031457    0.1846862  28.09 0.0004517858    1.175    0.149
        18  -9.4831     42.8460    187.1249   1.2092251047e+02   3.0693962028e+01    0.1363504   0.07011016  40.61 0.0005142584    1.897    0.473
        19 -10.0872    244.4019    182.7872   7.8280359290e+01  -2.5664311560e+00    0.1773995     0.110129 -19.52 0.0003914376    1.577    0.366
        20  -9.5066     47.3571    198.1351   1.2097230444e+02   2.7826409435e+01    0.1603899    0.1316201  61.16  0.001106638    1.178    0.151
        21  -8.7017     71.4837    180.5338   1.1405291558e+02   2.8508622519e+01    0.1296171    0.1115897  80.78 6.336318e-05    1.041    0.040
        22 -12.2608    150.0778    195.7059   9.9060296929e+01   1.2367608167e+01    0.5432425    0.4135082  85.91  0.002878422    1.743    0.426
        23  -9.5193    195.7649    174.6219   8.5702864316e+01   7.5436543560e+00    0.2641304    0.2371633 -31.65  0.001528091    1.170    0.145
        24  -9.4476     53.9572    171.3251   1.1691217078e+02   3.2869697513e+01    0.4676738    0.1208772  46.69  0.001727257    3.569    0.720
        25  -9.1329     10.1733    170.2503   1.2638008556e+02   3.7638603406e+01    0.2694118    0.1760617 -27.29  0.001534356    2.949    0.661
        26 -10.2452     35.4336    168.5507   1.2078517194e+02   3.5613858107e+01    0.2595639    0.2114607 -29.19  0.001298946    1.874    0.467
        27  -9.8029    216.8190    197.1320   8.6000970068e+01   2.8337273454e-02    0.1826587    0.1676517  27.74 0.0005801509    1.205    0.170
        28  -8.4955     44.6891    168.3118   1.1868218398e+02   3.4651287503e+01    0.1325062   0.07941739  70.96  0.000702854    1.628    0.386
        29  -8.6733    206.5639    167.4979   8.2102748545e+01   6.6838584140e+00    0.1421089    0.1283114   5.54 6.519164e-05    1.024    0.023
        30  -9.0916    192.5710    166.3145   8.4643016395e+01   9.6530040713e+00     0.277998    0.1262445 -53.60 0.0009588858    3.331    0.700
        31  -9.2292      2.4026    167.4418   1.2780525631e+02   3.8883092442e+01    0.1684708    0.1155197  14.52   0.00110123    2.261    0.558
        32  -8.9095     24.6684    166.7032   1.2299579652e+02   3.7113522548e+01    0.1744591     0.102395  37.43 0.0007406577    1.849    0.459
        33  -8.8377     28.0483    166.0000   1.2218694888e+02   3.6942679611e+01     0.236613    0.1242277  31.11  0.001052284    2.236    0.553
        34 -14.1205     75.4666    248.0875   1.1984184604e+02   1.4719754744e+01    0.3499991    0.2105604 -70.02   0.00217268    1.839    0.456
        35  -8.3629    123.6759    162.3001   9.9132824597e+01   2.4104318647e+01    0.1498785    0.1093587  75.14 0.0002494373    1.632    0.387
        36 -10.7671     99.5757    157.3045   1.0406076892e+02   2.9496405557e+01    0.2546602    0.2403205 -84.74 0.0002844453    1.075    0.070
        37 -11.6680    103.7964    151.1760   1.0192201978e+02   3.0198522562e+01    0.6642029    0.5236117 -25.45  0.002023439    1.715    0.417
        38  -9.4758    120.0860    157.0323   9.9007315967e+01   2.5942976275e+01    0.2403154    0.1726969  80.04  0.001120811    1.732    0.423
        39  -9.5115    188.3881    155.7495   8.3246930586e+01   1.2459666043e+01    0.5394858    0.1526864  40.96  0.001601824    3.727    0.732
        40 -12.6466     89.2131    151.0554   1.0556682225e+02   3.2640874458e+01    0.3907584    0.3004436 -46.18 0.0009143854    1.439    0.305
        41 -10.7587    133.6239    145.7556   9.3450480581e+01   2.5870943344e+01     1.213435    0.3203585 -55.72  0.002872719    5.929    0.831
        42  -9.2033    129.0797    141.0255   9.3553994887e+01   2.7836325598e+01    0.2416071    0.2038981  81.81  0.001219384    1.307    0.235
        43 -10.1810    112.3125    151.6095   9.9881438551e+01   2.8595036990e+01    0.2845093     0.205839  76.47  0.000827544    1.647    0.393
        44  -9.6607    143.8492    147.3632   9.1335016239e+01   2.3450830048e+01    0.4008075    0.2097623 -66.98  0.001321523    3.344    0.701
        45 -10.6278    112.5740    137.7734   9.7045437730e+01   3.1750892257e+01    0.5108964    0.3056988 -37.27  0.002141985    2.055    0.513
        46 -11.5812    102.1039    136.9494   9.9604968317e+01   3.3828283114e+01    0.2673212    0.2618732 -87.73 0.0003138368    1.084    0.078
        47 -10.5671    135.3017    125.4788   8.8430379857e+01   3.0070579727e+01     0.809932    0.1231406 -48.50  0.001656482    7.019    0.858
        48  -9.4833    160.1526    128.6145   8.3175297836e+01   2.4002244896e+01    0.2787088     0.215182 -56.78 0.0008252351    1.390    0.280
        49  -9.5529     84.7555    127.5988   1.0239099799e+02   3.8937471530e+01     0.249614    0.1744098  51.52  0.001239394    1.518    0.341
        50 -10.0846    106.3913    124.7451   9.5842535320e+01   3.5941576625e+01    0.2555321    0.2352256 -28.18 0.0005396205    1.204    0.170
        51  -8.9361    112.6215    118.8694   9.2780071650e+01   3.6148508143e+01    0.2087954    0.1836366 -60.40 0.0004712075    1.102    0.093
        52  -8.4466    152.2271    116.6492   8.2041644752e+01   2.8317085916e+01    0.1558945    0.1205992 -69.78 0.0003320752    1.557    0.358
        53  -9.9517    167.9884    113.9521   7.7673200583e+01   2.5273264248e+01    0.4243081    0.3140334 -82.61  0.001666112    1.931    0.482
        54  -9.5267    208.3294    113.0698   6.9178189323e+01   1.6104816099e+01    0.2256024     0.213693  47.95 0.0003447275    1.112    0.101
        55 -18.4775     45.7841    235.8568   1.2410021745e+02   2.0654197245e+01     5.259689      2.93829  36.90   0.02295415    1.909    0.476
        56 -11.0405    248.1971    194.8784   7.9976572249e+01  -4.8561366089e+00    0.2616484    0.2110611  -4.06 0.0002808804    1.059    0.055
        57 -10.0109    159.1936    195.8813   9.7182557542e+01   1.0667748627e+01    0.2028626    0.1771226  64.03  0.000560912    1.221    0.181
        58  -9.7128     85.0834    108.6578   9.8167844292e+01   4.3413070427e+01    0.3370975    0.2177303  62.52 0.0008804951    2.034    0.508
        59  -9.4436    118.0030    129.2097   9.3759697981e+01   3.2713661018e+01    0.2550507    0.2174487 -47.70 0.0006910547    1.170    0.145
        60  -9.9583     36.4577    196.2420   1.2298568446e+02   2.9479422764e+01    0.1490428   0.09092351  40.04 0.0005225543    1.686    0.407
        61  -8.6352    149.4544     82.4981   7.3150707875e+01   3.5982054241e+01    0.1558602    0.1531161 -14.92 0.0002509142    1.020    0.019
        62 -10.3512    112.5318     72.0679   7.9609491297e+01   4.6400449294e+01    0.2584184    0.2280402  35.75 0.0001197585    1.159    0.137
        63  -9.1802    101.6384     72.9476   8.3139036610e+01   4.8430296858e+01     0.301223    0.2020232  61.99  0.001327872    2.013    0.503
        64  -8.9702    167.7411    246.9173   1.0309991748e+02   9.9731337066e-01    0.1474849     0.136039  35.96 0.0005864353    1.179    0.152
        65  -9.8815     12.5719    243.9293   1.2999563949e+02   2.2884522126e+01    0.1501432    0.1300981 -77.74  0.001290703    1.636    0.389
        66 -11.6712    180.5734     35.9791   5.2583370393e+01   3.5689186027e+01     0.420238    0.3523192  18.62 0.0008904799    1.421    0.296
        67  -8.7286    230.3998    220.1674   8.7655781760e+01  -5.3860255051e+00    0.1415803    0.1113336 -35.11 0.0002586004    1.549    0.354
        68 -15.3749     11.9485     79.8322   1.1568880949e+02   5.8215239490e+01     8.898667     4.283803 -81.45   0.04305302    2.305    0.566
        69 -10.4049    175.0103    210.6051   9.6417440221e+01   5.2738129379e+00    0.4156076    0.2048189  34.78  0.001922629    1.910    0.477
