#   1 NUMBER                 Running object number                                     
#   2 MAG_AUTO               Kron-like elliptical aperture magnitude                    [mag]
#   3 X_IMAGE                Object position along x                                    [pixel]
#   4 Y_IMAGE                Object position along y                                    [pixel]
#   5 X_WORLD                Barycenter position along world x axis                     [deg]
#   6 Y_WORLD                Barycenter position along world y axis                     [deg]
#   7 A_WORLD                Profile RMS along major axis (world units)                 [deg]
#   8 B_WORLD                Profile RMS along minor axis (world units)                 [deg]
#   9 THETA_WORLD            Position angle (CCW/world-x)                               [deg]
#  10 FWHM_WORLD             FWHM assuming a gaussian core                              [deg]
#  11 ELONGATION             A_IMAGE/B_IMAGE                                           
#  12 ELLIPTICITY            1 - B_IMAGE/A_IMAGE                                       
         1 -16.0399    224.5937    110.8352   8.3538117836e+01   1.3057262707e+01     4.828209     3.075126 -29.79    0.0218641    1.721    0.419
         2 -16.8364    225.4315     59.1424   7.1188448601e+01   2.1704702016e+01     3.807566     2.381586  73.40   0.01653374    1.621    0.383
         3 -17.9324    232.8382     18.6681   6.1227477085e+01   2.5536585790e+01      5.16219       2.6781  70.03   0.02002233    1.750    0.429
         4 -11.7451    143.3345     14.4102   7.1794149882e+01   4.7439286059e+01    0.3508248    0.2868139  54.99  0.002140763    1.068    0.063
         5 -13.0868    133.1032      3.8829   7.0320006727e+01   5.0764688920e+01    0.5586801     0.216017  52.38  0.002528483    2.066    0.516
         6 -12.4440    157.6063      2.5091   6.6006102553e+01   4.5144814061e+01    0.8343534    0.1354915  65.18  0.002553248    4.379    0.772
         7 -11.8948     69.5067      3.4817   8.5259975658e+01   6.3733451544e+01    0.1181389    0.0934304  20.47 0.0005400588    1.006    0.006
         8 -12.7955    223.7600    223.5348   1.0743421776e+02  -6.7496276441e+00    0.5971529    0.3424949 -21.06  0.002961609    2.120    0.528
         9 -12.3336    199.8502    249.9272   1.1630388873e+02  -6.6508437867e+00    0.2901451    0.1535253  42.68  0.001536098    1.635    0.389
        10 -11.7993    141.8835    203.4040   1.2041082685e+02   1.1850393085e+01     0.278155    0.1894843 -34.61  0.001332731    1.933    0.483
        11 -13.0148    102.4046    201.7904   1.2866935790e+02   1.9285065440e+01    0.2837387    0.2362482 -33.92  0.001590308    1.664    0.399
        12 -12.6654     31.1187    201.3640   1.4333991139e+02   2.9396712795e+01    0.3135318    0.1005054  36.88  0.001409202    3.187    0.686
        13 -12.3130    139.3525    192.7757   1.1915044588e+02   1.4554544309e+01    0.3662296    0.2642085 -56.14   0.00184188    1.456    0.313
        14 -13.1615    107.7400    193.7751   1.2631618765e+02   2.0137051317e+01    0.3717317    0.1795134 -52.95  0.001601012    2.154    0.536
        15 -14.0496     62.8251    188.9570   1.3552123022e+02   2.8227967604e+01    0.9132735    0.3783511 -69.84  0.003978379    2.301    0.565
        16 -12.7506     99.7729    188.0128   1.2720800535e+02   2.2794272156e+01    0.3626793    0.1834465  41.65  0.001604022    1.947    0.486
        17 -12.1762    118.7712    182.8862   1.2205698889e+02   2.0604452650e+01    0.2867076    0.2013656 -80.67  0.001373409    1.628    0.386
        18 -13.1107    247.4099    180.2862   9.4830480151e+01  -3.9404134944e+00    0.4039543    0.2593562 -15.08  0.002012447    1.803    0.445
        19 -14.1140     93.7322    175.9222   1.2668973376e+02   2.6584985350e+01    0.6084338    0.4121499  43.57   0.00309392    1.495    0.331
        20 -14.4224    100.5053    162.4713   1.2276479054e+02   2.8604946036e+01    0.7446725    0.6610671 -56.37   0.00416629    1.169    0.144
        21 -14.8977     94.8231    156.2908   1.2303647278e+02   3.1040816841e+01     1.301376    0.6392598 -46.85  0.005322733    2.174    0.540
        22 -13.7228    130.0720    154.8477   1.1403874995e+02   2.4867002234e+01    0.5325003    0.4361826  81.68  0.002647876    1.339    0.253
        23 -12.4628    248.9869    150.7319   8.8391016378e+01   7.9984915423e-01    0.4322123    0.2826024 -39.93  0.002212459    1.390    0.281
        24 -15.0534    243.8853    121.5723   8.2841782121e+01   6.9728080609e+00     2.099303       1.3085 -40.98   0.01021457    1.446    0.309
        25 -12.0732    219.7203    249.0686   1.1251020502e+02  -9.7203732180e+00    0.3760324    0.1593017  37.70  0.001837602    2.013    0.503
        26 -11.5119    137.6462    124.3271   1.0518678807e+02   3.0274351119e+01    0.1651406    0.1235884  88.21 0.0007046663    1.770    0.435
        27 -14.3679    184.5296    119.0929   9.3098072791e+01   2.0694200568e+01    0.9020149    0.5878746 -77.78  0.003434079    2.459    0.593
        28 -13.6671     93.3158    106.6650   1.1264692156e+02   4.2918278379e+01    0.6277867     0.508945 -85.08  0.003244844    1.509    0.337
        29 -12.3822    130.5530    113.0116   1.0411856210e+02   3.4300869331e+01    0.2944766     0.283576  22.31  0.001573092    1.101    0.092
        30 -13.3537    195.3103    245.2875   1.1643235262e+02  -5.2263270921e+00     0.400827    0.2682575 -29.87  0.002039177    1.763    0.433
        31 -12.8736    161.7276    116.1009   9.7330394605e+01   2.6652240158e+01    0.4036903    0.2812956 -54.02   0.00178443    1.490    0.329
        32 -13.6158     63.9301    102.4057   1.2030913996e+02   4.8337447093e+01    0.3880499    0.3616939 -12.01  0.002426514    1.160    0.138
        33 -13.4063     56.3839     97.4945   1.2146767997e+02   5.0381601465e+01    0.3343344    0.2640043  37.37  0.001979337    1.447    0.309
        34 -12.1095    131.4852    105.5072   1.0189945835e+02   3.5722944422e+01    0.3327596    0.1522782  46.39  0.001225311    2.215    0.549
        35 -12.0865     40.9977    100.4638   1.2689322461e+02   5.1439346185e+01    0.2666517    0.1461328 -46.53  0.001380822    1.590    0.371
        36 -13.9569     77.2094     97.8896   1.1516161808e+02   4.7454180783e+01     0.782222    0.3357483  45.03  0.003123567    2.719    0.632
        37 -12.0446    139.4238     96.7249   9.7493122244e+01   3.5800058967e+01    0.3073066    0.1462294 -46.41  0.001146215    2.126    0.530
        38 -13.2972    124.3227     91.5456   9.9913608643e+01   4.0158126629e+01     0.372297    0.2968466  38.65  0.001865212    1.285    0.222
        39 -13.7349    194.5907    238.9290   1.1556222220e+02  -4.1491534897e+00     0.466761    0.3019882 -38.14  0.002631602    1.768    0.434
        40 -11.9968     90.5022    128.8392   1.1865765464e+02   3.8294598243e+01    0.2602247    0.1825317   6.13  0.001148394    2.273    0.560
        41 -13.3674    115.4287     80.5406   9.9105324225e+01   4.4182137090e+01    0.5359744    0.4154833 -49.04  0.002734308    1.336    0.251
        42 -13.5927     30.6503     84.3867   1.2666188352e+02   5.5888986631e+01    0.4735576    0.2815859  42.94  0.002640107    2.166    0.538
        43 -14.0629     23.5962    122.9860   1.3598454997e+02   4.7946927584e+01    0.6920555    0.4574265 -67.15  0.004194962    1.210    0.173
        44 -12.3727    146.0702     83.2717   9.2079261687e+01   3.6905410689e+01    0.3085861    0.2222213 -49.26  0.001065685    1.441    0.306
        45 -14.1061     79.5973     77.0045   1.0864180153e+02   5.1417894494e+01     0.825886    0.5068673  21.12  0.003912739    2.026    0.506
        46 -13.7153     87.4588     65.6632   1.0267188467e+02   5.2244431424e+01    0.8073328    0.7622252 -36.57  0.004461172    1.151    0.131
        47 -12.4597     64.6599     71.3406   1.1180583267e+02   5.4732108899e+01     0.553583    0.2362815  48.55  0.002125188    3.651    0.726
        48 -12.0220    191.6577     65.7913   7.7952413526e+01   2.8833855332e+01    0.4730545    0.2875144 -35.01  0.001966105    1.727    0.421
        49 -10.5560    141.4643     66.4601   8.8221494274e+01   4.0973049889e+01    0.1465964    0.1401196  37.54 0.0006956819    1.032    0.031
        50 -14.5777    166.5596     53.1046   7.8992103788e+01   3.7031811149e+01      1.22615     0.779811 -24.84  0.005664492    1.867    0.465
        51 -13.7214    157.2929     50.2733   7.9967266825e+01   3.9721932051e+01    0.9726127    0.7975569  75.61  0.004009869    1.239    0.193
        52 -12.8114    187.9237    133.4941   9.5898392035e+01   1.6956087761e+01    0.6150312    0.4165945  82.27  0.002453534    2.279    0.561
        53 -12.5525    195.6134    131.9220   9.3942786881e+01   1.5528416437e+01    0.3557214    0.2748892 -49.20  0.001291877    1.278    0.218
        54 -10.4021    122.6747     32.2878   8.1769580108e+01   5.0231393198e+01    0.1289688    0.1051588 -80.87 0.0002455563    1.609    0.378
        55 -12.1059    140.6087     23.1636   7.5010221211e+01   4.7176326203e+01    0.2892793    0.2089765 -43.21  0.001597769    1.561    0.360
        56 -11.8999     32.4979     21.0135   1.0631726354e+02   6.6984079730e+01    0.1705266   0.09342138 -34.79  0.001038244    1.606    0.377
        57 -12.1207     80.6626     17.3948   8.7494185960e+01   6.0407905990e+01    0.2431809    0.1487963 -20.18  0.001386683    1.663    0.399
        58 -12.7022    187.8074    246.1022   1.1797439798e+02  -4.0842937044e+00    0.3064911    0.2414915  16.98  0.001589885    1.303    0.233
        59 -14.0428    136.4216    219.6840   1.2412253651e+02   9.6003402800e+00    0.8316797     0.492103  32.71  0.003953402    1.895    0.472
        60 -12.6351    160.7081    123.3738   9.9404496475e+01   2.5338809756e+01    0.3984598     0.212733 -53.38  0.001505568    2.044    0.511
        61 -13.8431    206.5562    225.4374   1.1101995809e+02  -4.1170000786e+00    0.6571693    0.4327058   7.95  0.003335099    1.973    0.493
