#   1 NUMBER                 Running object number                                     
#   2 MAG_AUTO               Kron-like elliptical aperture magnitude                    [mag]
#   3 X_IMAGE                Object position along x                                    [pixel]
#   4 Y_IMAGE                Object position along y                                    [pixel]
#   5 X_WORLD                Barycenter position along world x axis                     [deg]
#   6 Y_WORLD                Barycenter position along world y axis                     [deg]
#   7 A_WORLD                Profile RMS along major axis (world units)                 [deg]
#   8 B_WORLD                Profile RMS along minor axis (world units)                 [deg]
#   9 THETA_WORLD            Position angle (CCW/world-x)                               [deg]
#  10 FWHM_WORLD             FWHM assuming a gaussian core                              [deg]
#  11 ELONGATION             A_IMAGE/B_IMAGE                                           
#  12 ELLIPTICITY            1 - B_IMAGE/A_IMAGE                                       
         1 -15.1255      9.4615    136.5836   1.1340782864e+02   4.5663410488e+01     4.796361     1.413974 -72.57   0.01790538    2.813    0.645
         2 -13.3463      6.8921     55.4604   9.9749800909e+01   6.5057347494e+01     1.203681     0.903738 -16.78  0.007887503    1.244    0.196
         3 -13.6772     16.5689     43.1899   9.1175053369e+01   6.6777626247e+01     1.601723    0.8416361  33.73  0.008562736    2.263    0.558
         4 -13.4577    218.7704     41.1369   3.6734194828e+01   2.6613445241e+01     1.314824     1.084731 -83.00  0.008611277    1.089    0.082
         5 -13.3939    234.2161     31.0842   3.3183576819e+01   2.4729371675e+01    0.7684796    0.6579368  88.96  0.005467671    1.218    0.179
         6 -12.0431     33.3198     32.9257   7.8900228663e+01   6.6810612582e+01    0.6546803     0.441002 -38.49  0.003684109    1.472    0.320
         7 -12.4993     54.9799     31.9136   6.8846247473e+01   6.3839313459e+01     1.065287    0.7501657  25.90  0.006286265    1.288    0.224
         8 -11.4278    155.6087     15.4260   3.7846878101e+01   4.4004988844e+01    0.5747149    0.3547768 -54.89  0.003107184    1.731    0.422
         9 -10.8460    230.8030     14.7144   3.0170825976e+01   2.7370879928e+01     0.328622    0.2295746 -53.11  0.002206837    1.230    0.187
        10 -12.3633    135.4021      7.4386   3.8412988348e+01   4.9507473390e+01    0.6811444    0.3559787 -42.72  0.003498812    2.118    0.528
        11 -10.6132      2.3545      2.6205   8.1783652333e+01   7.4539794309e+01     0.222507    0.1479037  -9.87   0.00157914    1.161    0.139
        12 -11.2002     88.8567    234.9603   1.0455191031e+02   1.2604318269e+01    0.2660483    0.1899708 -17.54  0.001355724    2.241    0.554
        13 -11.4005     41.1910    249.4785   1.1589265326e+02   1.5820862965e+01    0.6318625     0.193652  33.79  0.002743734    2.889    0.654
        14  -9.1408      3.2505    250.4306   1.2313148797e+02   1.9673262177e+01    0.1551208   0.07645302  48.22 0.0007978439    1.593    0.372
        15 -12.4326     32.9683    230.9728   1.1623402151e+02   2.0614253787e+01    0.6234264    0.4035041  68.95  0.002288902    1.355    0.262
        16 -12.0537     84.6953    230.3135   1.0494956555e+02   1.4170919256e+01    0.5128224    0.4529063  19.28  0.002962042    1.298    0.229
        17 -11.9235     84.4850    223.4911   1.0420654871e+02   1.5671552035e+01    0.5967687    0.4818113  48.29   0.00154359    1.113    0.102
        18 -10.6705     67.4586    225.6460   1.0830121768e+02   1.7552861526e+01    0.4181376    0.2313007  59.65  0.002041552    1.856    0.461
        19 -12.1444     63.3670    218.6027   1.0849270076e+02   1.9663708683e+01    0.8370476    0.4901052  81.98  0.003810795    1.998    0.500
        20 -10.5612     59.5035    213.4813   1.0884332165e+02   2.1335779748e+01    0.2536979    0.2148007 -89.58 0.0009412774    1.112    0.101
        21 -11.9055     43.9757    214.1146   1.1246480446e+02   2.3108810994e+01     0.883534    0.3746657  63.52  0.003559803    2.885    0.653
        22  -9.7315     50.8681    246.2776   1.1371455195e+02   1.5309254309e+01    0.3115215    0.1436692  64.28  0.001473971    2.352    0.575
        23 -12.1425     51.0117    201.5264   1.0957872843e+02   2.5217255713e+01    0.6692997    0.4809857  62.01   0.00246724    1.308    0.236
        24 -11.4120     41.2920    179.8673   1.0960234463e+02   3.1694541578e+01      0.28392    0.2477858 -46.98 0.0004606093    1.308    0.236
        25 -11.6139     49.2999    173.2487   1.0668173573e+02   3.2443937569e+01    0.2711253    0.2576059 -67.28 0.0004924262    1.134    0.118
        26 -12.1532     29.1486    204.1454   1.1496178389e+02   2.7090688236e+01     0.915952    0.5626986  68.68  0.004236144    1.531    0.347
        27 -10.5398     62.5946    163.2264   1.0158906802e+02   3.3342815480e+01     0.247063    0.2341387 -77.26 0.0003167255    1.050    0.048
        28 -13.2663     48.0719    158.6131   1.0501571840e+02   3.6364675486e+01    0.8687631    0.4343328 -47.22  0.003686656    2.109    0.526
        29  -9.9142     79.5596    160.9977   9.6420959254e+01   3.1499413048e+01     0.298282    0.2010476  52.78  0.001369372    1.595    0.373
        30 -10.7098    246.2543    158.9972   5.8137994005e+01   2.1314056553e+00     0.193985    0.1494403 -32.94  0.001080084    1.059    0.056
        31 -11.7808     71.4828    156.4763   9.7939117592e+01   3.3861914800e+01    0.5589131    0.4614714   5.94  0.002021283    1.473    0.321
        32 -13.1834     14.0168    186.6761   1.1704907083e+02   3.2751244413e+01    0.8926779    0.5090476  57.77  0.003415669    1.676    0.403
        33 -12.7503     30.4402    192.9944   1.1366989447e+02   2.9622956845e+01     1.156692    0.6060432  47.73   0.00570281    1.811    0.448
        34 -12.0759     67.8679    143.4819   9.6661855623e+01   3.7756344843e+01    0.7656446    0.4494371  61.98  0.002622273    2.324    0.570
        35 -10.8820     99.5440    143.5918   8.7266260683e+01   3.2678918534e+01    0.4815856    0.3270471  18.17  0.001869084    1.866    0.464
        36 -10.9308    100.4915    138.4717   8.5865627801e+01   3.3798298230e+01    0.3368322    0.2880041  81.91  0.001558159    1.338    0.253
        37 -10.4757     88.3193    143.6285   9.0554944507e+01   3.4584113138e+01    0.2957684    0.2655491 -37.78   0.00085335    1.141    0.124
        38 -11.3628     35.5955    141.3302   1.0615023100e+02   4.2227444431e+01    0.3773422     0.292225 -75.70   0.00156624    1.168    0.144
        39 -11.2223     75.8187    141.4530   9.3856540204e+01   3.7120182244e+01    0.3110151    0.2493926 -53.87 0.0004873239    1.175    0.149
        40 -11.2315    104.5884    131.2697   8.3013297052e+01   3.4842313547e+01     0.521533    0.3385994  26.12  0.001531831    1.799    0.444
        41 -10.3320     92.6126    139.9355   8.8502339736e+01   3.4805681688e+01    0.2526773    0.2198606  10.31 0.0006609313    1.297    0.229
        42 -10.5026     89.6605    127.7022   8.6649477600e+01   3.8395744288e+01    0.2871444    0.2634128 -37.12 0.0002960243    1.080    0.074
        43  -9.8317    113.7802    124.2395   7.8649131765e+01   3.4790619431e+01    0.4522114    0.2597717  10.67  0.001309198    4.286    0.767
        44 -11.4817     39.4185    118.2365   1.0101432136e+02   4.7789250366e+01    0.7087415    0.3534638 -48.61  0.003131072    1.798    0.444
        45  -9.8666    102.4952    119.7274   8.0814431532e+01   3.8046775478e+01    0.2621877    0.2110654  37.82 0.0003286574    1.283    0.221
        46 -11.3337     29.6574    111.7287   1.0315334529e+02   5.0383240498e+01    0.5333162    0.2720816 -74.95  0.002189363    2.120    0.528
        47  -9.8973     80.8869    108.0804   8.4626467406e+01   4.4693309086e+01    0.3299378     0.231043  77.29  0.001375057    2.281    0.562
        48 -14.3937     11.2099    202.7654   1.1889169611e+02   2.9180254956e+01     1.223416     0.903256 -60.44  0.007709318    1.474    0.322
        49 -13.5564    243.1325     98.1437   4.6115346723e+01   1.3094641557e+01     1.099444    0.8270572 -63.11  0.006580979    1.298    0.229
        50 -10.6900     39.5452     98.9806   9.6951496545e+01   5.2561282815e+01    0.5005205     0.281139   8.07  0.002233004    2.312    0.567
        51 -10.1193     41.0745     94.8248   9.5406259043e+01   5.3394013779e+01     0.296441    0.2577822 -88.69  0.001243608    1.373    0.272
        52  -9.5923     60.4845     96.9783   8.8769871439e+01   5.0464846249e+01    0.2031862    0.1296213 -81.06 0.0008104439    2.597    0.615
        53 -11.4211     39.9513    104.3101   9.7990537341e+01   5.1218563931e+01    0.4797516    0.3604341   2.43  0.002505115    1.532    0.347
        54 -12.7855     39.0816     81.8458   9.2887393880e+01   5.6622859718e+01     1.116926    0.7765054 -50.44  0.004905609    1.283    0.221
        55 -10.8994     33.0404     69.6549   9.1977049438e+01   5.9939873200e+01    0.5175893    0.4165568 -48.56  0.002915334    1.186    0.157
        56 -10.3447     57.9331     80.3730   8.5076247442e+01   5.4586478003e+01    0.2875622     0.195695 -41.24  0.001096608    1.352    0.260
        57 -10.7616     14.9159     81.3878   1.0258594557e+02   5.8869308507e+01    0.3757713     0.253983 -32.26  0.001682399    1.376    0.273
        58  -8.7839     14.5677    247.4760   1.2090365827e+02   1.9139966415e+01    0.1161229   0.08653921  68.05 0.0001790593    1.016    0.016
        59 -12.3340     18.5806     52.6068   9.3321086967e+01   6.4794579407e+01      0.54513    0.4999895  86.44  0.002594595    1.573    0.364
        60  -9.7897     29.0043    242.0613   1.1780133125e+02   1.8713247234e+01    0.2505422    0.1452987  80.80  0.001059015    1.606    0.378
        61 -11.6452     59.6017     51.9059   7.4915942918e+01   5.9934062331e+01    0.7968064    0.3896004  41.49  0.003625912    2.138    0.532
        62 -12.1655     50.5966     47.8475   7.7075218574e+01   6.2006627121e+01    0.9607561    0.3878324  35.88  0.003929396    2.463    0.594
        63 -14.0902    112.9131    231.3787   9.8754080580e+01   9.7961477900e+00      1.53159     1.002828  49.41  0.005910516    1.473    0.321
        64 -13.6442    130.5468    231.0383   9.4769668035e+01   7.1579683972e+00     0.941945    0.7902039  38.71  0.005636467    1.087    0.080
        65  -9.4464     71.3298     46.6491   6.8477519301e+01   5.8823234289e+01    0.1278445    0.1106432 -85.57 0.0007047834    1.770    0.435
        66 -11.7076     88.5831     37.1346   5.9093431970e+01   5.6876788687e+01    0.6902571    0.4779726 -48.81  0.003631753    1.817    0.450
        67  -9.4093     18.4610    241.4935   1.1983099148e+02   1.9955780843e+01    0.1890052    0.1412405  74.48 0.0006047702    1.073    0.068
        68  -9.1486     18.3282    238.6698   1.1969266679e+02   2.0553923724e+01    0.1759021   0.09624413  77.58 0.0007385879    1.645    0.392
        69 -10.3032     51.5020     22.9797   6.6379567776e+01   6.5611430752e+01    0.3162249    0.1997382  27.10   0.00150369    1.437    0.304
        70 -12.1384    100.6547    240.2890   1.0257861701e+02   9.8229496046e+00    0.3847711    0.3407878 -40.97  0.002449278    1.338    0.253
        71 -10.3865     80.9063    237.0362   1.0652350124e+02   1.3290442480e+01    0.3072832    0.2303155 -38.16  0.001547473    1.768    0.434
        72  -9.8994     49.6842    236.2281   1.1314716648e+02   1.7536658924e+01    0.3173087    0.1599088  80.19  0.001499795    2.363    0.577
