#   1 NUMBER                 Running object number                                     
#   2 MAG_AUTO               Kron-like elliptical aperture magnitude                    [mag]
#   3 X_IMAGE                Object position along x                                    [pixel]
#   4 Y_IMAGE                Object position along y                                    [pixel]
#   5 X_WORLD                Barycenter position along world x axis                     [deg]
#   6 Y_WORLD                Barycenter position along world y axis                     [deg]
#   7 A_WORLD                Profile RMS along major axis (world units)                 [deg]
#   8 B_WORLD                Profile RMS along minor axis (world units)                 [deg]
#   9 THETA_WORLD            Position angle (CCW/world-x)                               [deg]
#  10 FWHM_WORLD             FWHM assuming a gaussian core                              [deg]
#  11 ELONGATION             A_IMAGE/B_IMAGE                                           
#  12 ELLIPTICITY            1 - B_IMAGE/A_IMAGE                                       
         1 -12.0849    127.5665     36.6905   3.9144317203e+01   4.8076191512e+01     1.578485    0.6017709 -42.75  0.005636448    3.068    0.674
         2 -12.4086    140.2821     37.9119   3.6629229862e+01   4.4942319657e+01    0.6881906     0.490355  69.74  0.000282627    1.620    0.383
         3 -12.2357    163.5121     42.6048   3.3352168384e+01   3.8594732581e+01    0.7681283    0.4867273 -68.55  0.003160051    2.375    0.579
         4 -10.7808    157.4368     39.0602   3.3415302355e+01   4.0600903185e+01     0.549761    0.4517863  22.99   0.00235926    1.299    0.230
         5 -10.6499     45.9657     29.3493   6.1861491163e+01   6.3676532720e+01    0.6087904    0.3549534 -22.53  0.003126467    1.720    0.419
         6 -10.3497      1.8911     21.1798   7.7375606744e+01   6.8926543185e+01    0.4292449   0.09481364 -50.13  0.001981588    2.766    0.638
         7 -10.2703     23.9016      7.4156   6.2042703289e+01   6.9466809581e+01    0.4612848    0.1986048  15.64 0.0007725529    3.256    0.693
         8 -11.1363     19.9849     26.5143   7.1346551891e+01   6.6758134919e+01    0.9082214    0.4190534 -25.38  0.004652841    2.465    0.594
         9  -9.6578     39.3017      9.1351   5.6126895003e+01   6.7533426758e+01    0.2103409    0.1463402 -12.83 0.0006829571    1.207    0.172
        10 -11.2677     36.2092      2.4621   5.4321898556e+01   6.8796703042e+01    0.6063667    0.2650663  30.60  0.003261828    2.371    0.578
        11 -10.8815      9.3609     15.4610   7.2001989438e+01   6.9429540001e+01    0.3105211    0.2196969 -11.66 0.0005718663    1.333    0.250
        12 -11.3968     30.5829     29.9309   6.8174466592e+01   6.5233538851e+01    0.9078165    0.2612388 -50.18  0.002919263    3.197    0.687
        13 -10.7497     34.7934     26.5048   6.5205677551e+01   6.5394156226e+01    0.6207805    0.3142627 -50.86  0.003160461    2.090    0.522
        14 -10.6554     24.6272     13.3201   6.4268575981e+01   6.8512669188e+01    0.2952986     0.186346 -25.58 0.0005346053    1.283    0.221
        15 -11.9926     16.8036     13.6588   6.7911877834e+01   6.9154755827e+01    0.3388107    0.2452871  19.62  0.000572792    1.572    0.364
        16 -10.6739     27.6741     18.8535   6.5203231204e+01   6.7353147370e+01    0.5122679     0.244938 -18.15    0.0024479    2.849    0.649
        17 -11.3119     32.0655     10.2306   5.9684327263e+01   6.8213535305e+01    0.5454117    0.3975167 -17.70   0.00343846    1.072    0.067
        18 -10.4653    180.3979     30.0789   2.6532541272e+01   3.5951938264e+01    0.6728933    0.3720555 -12.75  0.002783332    2.383    0.580
        19 -11.0085    178.8891     21.0829   2.4075909440e+01   3.7399706769e+01    0.4803617    0.3079096 -53.89  0.002282114    1.774    0.436
        20 -11.7815      9.0988     22.0744   7.4491881467e+01   6.8328243694e+01    0.5636426    0.4151559  12.46  0.004210539    1.560    0.359
        21  -9.5248    246.8695     13.8847   1.4220522338e+01   2.1454139359e+01    0.2542301     0.203807  70.19 0.0007359601    1.261    0.207
        22 -10.1812    223.6586     22.2294   1.8560035506e+01   2.5992978390e+01    0.4508936    0.2686227 -49.71  0.001871897    1.656    0.396
        23 -11.6904    132.0193     29.4800   3.5570670541e+01   4.8012240163e+01    0.3422384    0.2856597 -24.61            0    1.234    0.189
        24 -11.9807    238.7258     19.0022   1.6184911910e+01   2.2760062096e+01    0.8274293    0.6632805 -77.86  0.001997161    1.177    0.150
        25 -10.7601     81.0400     19.4338   4.5406524779e+01   5.9891297480e+01    0.4963574     0.222961 -39.22  0.002247233    2.406    0.584
        26  -9.2044     71.4611      7.1263   4.3211502644e+01   6.3060346431e+01    0.2742344    0.2254152 -62.48  0.001655172    2.063    0.515
        27 -10.3196     75.2433     20.5119   4.7728365074e+01   6.0756295614e+01    0.3811782    0.2444572 -32.38  0.001206729    1.509    0.337
        28  -9.8110     76.1451     13.1769   4.4334626022e+01   6.1540029910e+01    0.3572287    0.2028578 -14.99  0.001844977    1.815    0.449
        29  -9.3959     98.0157      7.4812   3.5508543363e+01   5.8013807213e+01    0.2579563    0.1711357  -4.03  0.001206367    1.551    0.355
        30 -11.3036    100.5860     15.7126   3.8162419750e+01   5.6593499585e+01    0.9697816    0.7755716  57.92  0.005694679    1.417    0.294
        31 -11.8324    111.4585     19.0054   3.6622700311e+01   5.3921600482e+01    0.3974504    0.2884409  30.81   0.00141112    1.302    0.232
        32 -11.2318    112.0260     15.0419   3.4957326436e+01   5.4248458384e+01    0.2313251    0.1948547  46.24   0.00137133    1.154    0.134
        33 -10.7430     66.0825     22.0650   5.1495269190e+01   6.2027738497e+01    0.3829049     0.254939 -28.27 0.0003086069    1.357    0.263
        34 -11.8812     55.6673     19.3494   5.4137432472e+01   6.3954801117e+01    0.3174354    0.2194509  -2.71 0.0008114807    1.418    0.295
        35 -11.3638     58.1551     12.8105   5.0390450186e+01   6.4494130582e+01    0.5351294    0.3381851  39.09   0.00236087    1.680    0.405
        36  -9.4254     63.1276     10.1022   4.7391063158e+01   6.4078307253e+01    0.1740315    0.1478559 -21.39 0.0004867965    1.260    0.207
        37 -11.3914    193.0231     17.6374   2.1063726971e+01   3.4176420928e+01    0.3895837    0.3112855  42.26  0.001609251    1.321    0.243
        38  -9.8857    144.2014     12.8592   2.7267063119e+01   4.7000828245e+01    0.7127706    0.3523102  -2.80   0.00275612    3.044    0.672
        39 -11.8229    151.7548     18.1142   2.7648573701e+01   4.4585813385e+01     0.880913    0.5213615  27.72   0.00394396    2.041    0.510
        40 -10.1668    153.0399      3.8550   2.2709453102e+01   4.5684689739e+01    0.7994153    0.2512057  47.58  0.002901049    2.884    0.653
        41 -10.8679    149.1992     11.9930   2.6064550217e+01   4.5860694685e+01    0.2887709    0.2190129  42.78 0.0002146058    1.233    0.189
        42 -10.5932    153.2011      9.7781   2.4633901529e+01   4.5088383066e+01    0.4315673    0.2454769  61.36  0.001038736    1.581    0.368
        43  -9.6225     88.0206     18.0433   4.2682493633e+01   5.8788319429e+01    0.4420003    0.2258998 -47.49  0.001891531    2.985    0.665
        44  -9.4527     83.9508     12.9795   4.1802595664e+01   6.0159258235e+01    0.2168074     0.168442 -44.92 0.0008984742    1.667    0.400
        45 -10.2696     49.0248      3.1606   4.9428449285e+01   6.7028572663e+01    0.2676681    0.2455418 -52.40  0.001504404    1.787    0.441
        46 -10.4537     39.7927     16.7927   5.9275010058e+01   6.6375992133e+01    0.4557352    0.2955482  36.24  0.002215379    1.830    0.454
        47 -11.9893     45.8451      9.3907   5.3577487254e+01   6.6670603190e+01    0.3621877    0.2202981 -16.88 0.0002258892    1.503    0.335
        48 -10.4541    131.2829     13.3906   2.9993251912e+01   5.0049193295e+01    0.3343613    0.2702059 -79.45 0.0006283335    1.596    0.373
        49 -10.4152    135.8413      1.8241   2.4967977100e+01   5.0066250109e+01     0.655044    0.2142196  61.02  0.002508123    2.601    0.615
        50 -11.7802    128.2752      5.0405   2.7574412899e+01   5.1572896107e+01     0.533182    0.3897772  65.56  0.001488612    1.377    0.274
        51 -11.6365    122.9150     11.1905   3.0970503757e+01   5.2220528166e+01    0.5284083     0.287874  40.51  0.002510307    1.719    0.418
        52 -10.2717    136.6853     15.2162   2.9540393517e+01   4.8574281237e+01    0.4155899     0.252642  21.46  0.000665484    1.983    0.496
        53  -9.3353    185.2657      4.5911   1.8347563519e+01   3.7487290168e+01    0.3129247    0.1690497  78.95 0.0007196307    1.888    0.470
        54  -9.7043    176.2246     12.3011   2.1833397059e+01   3.9025460371e+01    0.3776723    0.3058875 -53.91 0.0009784431    1.324    0.245
        55 -10.1695    189.0296      8.2261   1.8911874949e+01   3.6178304295e+01      0.54159    0.3374561 -64.05  0.002603847    1.860    0.462
        56 -12.5234    187.1099     13.6930   2.0727787703e+01   3.6106792846e+01    0.3138449    0.2759138 -66.13 0.0003791013    1.166    0.142
        57 -11.8778    182.6118     12.0762   2.0868474975e+01   3.7421225478e+01    0.4253839    0.3242258 -17.40  0.001362683    1.475    0.322
        58 -11.4591    208.6013     10.2593   1.7144576261e+01   3.1038064404e+01    0.7438056    0.4478671  28.29 0.0009847945    2.395    0.583
        59 -11.2466    216.4350      7.4783   1.5583491464e+01   2.9387154437e+01    0.3338176     0.316142 -14.00 0.0005326665    1.228    0.185
        60 -10.6181    218.3041      2.9230   1.4244754002e+01   2.9391536556e+01     0.288681    0.2538404 -77.32 0.0007427821    1.036    0.035
        61 -10.2694     90.9635      9.8232   3.8412658858e+01   5.9179833588e+01    0.4369364     0.323024  25.11  0.002590732    1.222    0.181
        62 -11.1655     89.2799      3.1477   3.6055365024e+01   6.0199440097e+01    0.4283206    0.3118086  58.93  0.002510633    1.585    0.369
        63 -10.1506    237.7150      7.3905   1.3524718699e+01   2.4283169601e+01    0.4099797    0.3257311  47.65  0.001031858    1.464    0.317
        64 -10.2590    116.6602      8.6255   3.1395611737e+01   5.3895121403e+01    0.2583306    0.2237594 -78.07 0.0006771804    1.508    0.337
        65 -10.6434      8.5778      8.7144   6.9729252483e+01   7.0574962868e+01    0.4798778    0.1856889 -46.29  0.002414167    2.033    0.508
        66 -10.3408      6.7587      3.0338   6.8219228517e+01   7.1584416580e+01    0.2114099    0.1420003 -10.61 0.0001948239    1.327    0.247
        67 -10.9342      4.5182      6.5557   7.0800286663e+01   7.1198805844e+01    0.2438011    0.1743783 -28.21 0.0008750983    1.018    0.018
        68 -10.9442      1.3709      2.1738   7.0532100041e+01   7.2088578855e+01    0.2911142    0.2180195 -53.00  0.001705245    1.646    0.392
        69  -9.0893    111.0103      7.7883   3.2380863858e+01   5.5228594163e+01    0.2861864    0.2188305 -86.14  0.001536428    1.936    0.484
        70 -11.1039    104.7441      7.4994   3.3788985361e+01   5.6608048736e+01    0.3434458     0.217448  36.64 0.0003990398    1.435    0.303
        71 -10.3335    105.3224      2.1475   3.1492530247e+01   5.6995743207e+01     0.605669    0.2820069  69.49  0.002427291    3.165    0.684
        72 -10.9397    167.8834      6.5154   2.1279752777e+01   4.1714108779e+01    0.4027243    0.3377129 -41.57 0.0007684895    1.291    0.225
        73  -9.2084    170.6587      2.6706   1.9704605693e+01   4.1368256049e+01    0.2458635    0.2161551  56.77 0.0008053305    1.055    0.052
        74  -8.7349    137.6034      8.1690   2.6879038560e+01   4.9064580771e+01    0.1913722    0.1295334 -24.58 0.0008610527    1.577    0.366
        75 -10.1532     78.0764      6.2678   4.0712601561e+01   6.1991281014e+01    0.2817625    0.2589628  -9.37  0.001606446    1.250    0.200
        76  -8.8700    225.1221      6.8282   1.4555539529e+01   2.7338012399e+01    0.2119657    0.1562293 -66.21  0.001113895    1.304    0.233
        77  -9.1373    248.3140      5.9884   1.2296460340e+01   2.1988539888e+01     0.237489    0.1472433 -68.41 0.0007436678    1.578    0.366
        78  -9.8630    194.2944      1.9548   1.6522832186e+01   3.5453333136e+01    0.5234017     0.169563  63.49  0.002017138    2.549    0.608
        79 -10.2194    200.3062      5.2195   1.6730137016e+01   3.3626647751e+01    0.6036817    0.2969995 -73.84  0.001835271    2.876    0.652
        80  -9.8175    204.1600      3.8507   1.5936568178e+01   3.2795520622e+01    0.3739445    0.2060781  50.65   0.00127659    1.843    0.457
        81  -8.5500    178.7161      6.3152   1.9700827193e+01   3.8985498078e+01    0.2309138    0.1825633 -85.42  0.000514493    1.307    0.235
        82  -9.6713    176.0347      2.9826   1.9070034951e+01   3.9978707924e+01    0.2791259    0.2598515 -55.49  0.001060978    1.147    0.129
        83  -9.5980    120.0223      3.2497   2.8608401689e+01   5.3642883161e+01    0.4003671    0.1970051 -26.26  0.001881251    2.115    0.527
        84  -9.3492     17.8605      4.6108   6.3571475877e+01   7.0443296564e+01    0.4445295    0.1538055  25.09  0.002214845    3.302    0.697
        85  -8.1171     83.2406      3.3293   3.7860051781e+01   6.1344301713e+01    0.1271067   0.08235759  13.73 0.0001899955    1.535    0.348
        86  -9.2476    246.4979      1.4799   1.1426855628e+01   2.2874848484e+01    0.2482732    0.1409876  71.22 0.0009510846    1.673    0.402
        87  -9.5805    240.3874      1.2286   1.1862853890e+01   2.4303498493e+01     0.557861    0.1247633  72.90   0.00183074    4.322    0.769
        88  -9.0877    229.9536      2.0448   1.2946555508e+01   2.6670530408e+01    0.1922401    0.1664665 -76.92 0.0003714086    1.019    0.018
        89  -9.3572     63.2367      1.6774   4.3499541793e+01   6.5038168374e+01     0.294088    0.1617566  50.88  0.001580812    2.161    0.537
        90  -8.7808    114.7596      1.1591   2.8939948039e+01   5.5016343049e+01     0.206101   0.06780031  51.79 0.0004367104    2.438    0.590
        91  -9.3884     13.8432      1.4175   6.4033123095e+01   7.1259041246e+01    0.1694079    0.1455907  16.25  0.001351439    1.521    0.343
        92 -10.6800     26.4265     96.9667   8.6372311016e+01   5.2111437466e+01    0.3615313    0.2203225  42.00 0.0005222929    1.948    0.487
        93  -9.9298     16.8566     96.8520   8.9055540930e+01   5.2874066335e+01    0.3962484    0.1624153 -69.01 0.0006201314    1.990    0.498
        94  -9.2216     51.1613     97.2024   7.9300525903e+01   4.9670582710e+01    0.1829276    0.1511966 -46.37 0.0003506166    1.145    0.127
        95  -8.7729    144.5450     95.9612   5.3517763368e+01   3.4011310912e+01    0.2097092    0.1347438 -14.65 0.0005742618    2.373    0.579
        96 -12.5733     34.7416     89.3708   8.2566890060e+01   5.3043837865e+01    0.4065048    0.2506763 -68.05  0.002338985    1.458    0.314
        97  -9.0659     28.9967     84.9967   8.3446554808e+01   5.4490777668e+01    0.1747662    0.1409092 -61.40            0    1.033    0.032
        98  -9.5937     82.8780    120.3305   7.5266790875e+01   4.0382569209e+01    0.2747742    0.2284817 -38.67  0.001584409    1.304    0.233
        99  -9.6155    137.8887     93.2930   5.4403310780e+01   3.6001851584e+01    0.3008788     0.227511 -35.40  0.001453299    1.331    0.249
       100  -9.9149     86.3682     88.5310   6.6987272260e+01   4.6798720628e+01    0.4196253    0.2783981 -84.76   0.00155497    2.677    0.627
       101  -9.2993     90.8488     92.3754   6.6698907436e+01   4.5258598271e+01    0.2362753     0.178618  25.30 0.0004492254    1.525    0.344
       102  -9.4962     41.4281     91.0423   8.0905361762e+01   5.2044246697e+01    0.2164492    0.1840536  16.99 0.0004120913    1.430    0.301
       103 -10.3473     54.9945     89.4670   7.6512142127e+01   5.0922565032e+01    0.4212366     0.334466   6.41  0.001549646    1.565    0.361
       104  -9.6325     49.2278     89.7536   7.8305288951e+01   5.1511567796e+01    0.2924268    0.2197231  46.75  0.001775564    1.570    0.363
       105  -8.8135    112.8190     92.1510   6.0554769702e+01   4.1385674631e+01    0.1967871    0.1706274  -6.91  0.000343868    1.291    0.225
       106  -9.8265      9.4912     90.0047   9.0094177322e+01   5.4844363470e+01    0.2958018    0.1120927 -62.61  0.001232623    1.898    0.473
       107 -10.2432     12.9898     88.1059   8.8781911508e+01   5.5023676227e+01    0.2103353    0.1730623 -31.23  0.000286047    1.390    0.280
       108 -11.9814    104.7622     80.8798   5.9614651401e+01   4.5202673201e+01     1.160739     0.565703 -34.74  0.004617483    2.269    0.559
       109 -10.7476    112.1225     82.8212   5.8135346221e+01   4.3414712059e+01    0.4848935    0.3069286  18.93 0.0003586476    2.338    0.572
       110 -10.0029    109.4767     80.4653   5.8180984947e+01   4.4394836131e+01    0.2807909    0.2485759 -22.53 0.0005649637    1.123    0.110
       111 -10.4491    138.9106     87.4454   5.2512012323e+01   3.6921519656e+01    0.4241697    0.2724536 -49.41  0.001001439    1.644    0.392
       112 -10.1962    120.2634     87.8186   5.7371712116e+01   4.0799756740e+01    0.3619789    0.2608822 -47.00  0.001143577    1.372    0.271
       113 -10.4876    124.5681     84.7781   5.5378053207e+01   4.0521254694e+01    0.4409429    0.2717626 -49.91   0.00194997    1.699    0.411
       114 -10.4359    120.9504     82.4706   5.5660930604e+01   4.1721380634e+01    0.2843456    0.2657345 -53.31 0.0003653644    1.111    0.100
       115  -9.6118    110.1016     87.9747   6.0143916876e+01   4.2762343446e+01     0.221937    0.2054258 -21.80 0.0005132722    1.077    0.072
       116  -9.5395     76.8458     87.1531   6.9423106691e+01   4.8546809175e+01    0.2398793    0.2084481 -65.84 0.0002842608    1.191    0.160
       117 -10.7290     78.9403     81.4955   6.7312689696e+01   4.9426984862e+01    0.5276041    0.3274455  11.02  0.002341172    2.566    0.610
       118  -9.7176    131.3078     86.1869   5.4050357631e+01   3.8821450941e+01    0.2510274    0.2336652  42.49 0.0002800767    1.091    0.084
       119 -10.0235    156.8986     85.8469   4.7806856383e+01   3.3118931491e+01    0.2348512    0.2084965  12.39 0.0003951501    1.213    0.175
       120  -9.5449     45.8579     92.8797   7.9966688422e+01   5.1191446132e+01    0.3278044    0.2381861  16.78   0.00196816    1.739    0.425
       121  -9.9478    188.6575     82.4033   4.0191448222e+01   2.6069112295e+01    0.4345532    0.2778108  24.59  0.000874683    2.175    0.540
       122  -8.7205      1.7860     83.0228   9.1273351395e+01   5.6777644335e+01    0.1532511    0.1167081 -64.67 0.0006738874    1.018    0.017
       123  -9.8961    146.9139     81.4025   4.8840189301e+01   3.6262106826e+01      0.24028    0.2072247 -49.69 0.0003423453    1.207    0.172
       124 -10.9029     54.1330     80.8841   7.4773065831e+01   5.2865099054e+01    0.2432255    0.2070678 -33.74 0.0002783747    1.150    0.130
       125  -7.9929     14.3142     82.3238   8.7415656526e+01   5.6168571597e+01    0.1211571   0.06781786 -43.80 0.0007041536    1.662    0.398
       126 -11.2907    164.8049     78.4729   4.3942353967e+01   3.2568663437e+01     1.826073    0.9981354 -68.77  0.005025837    5.089    0.804
       127 -10.9315    161.2544     64.4734   4.0563878229e+01   3.5821522479e+01    0.5602043    0.4077482  -1.91  0.002177832    1.758    0.431
       128 -11.2171    151.9809     73.5601   4.5346313082e+01   3.6501638214e+01    0.4881461    0.2843583 -37.36 0.0009122891    1.714    0.417
       129 -11.3887    153.4065     66.2942   4.2829528068e+01   3.7418546685e+01    0.6709066    0.3756843 -45.86  0.001507931    1.925    0.480
       130 -11.4890    161.0909     56.4224   3.8139297626e+01   3.7153420666e+01     0.523267    0.4154783  77.81  0.001766955    1.459    0.314
       131  -9.8899    162.0307     52.2992   3.6670942338e+01   3.7554536037e+01    0.2729468     0.248751 -31.81 0.0003754651    1.122    0.109
       132 -11.2797    147.0155     61.9817   4.2944848378e+01   3.9664758062e+01    0.5552453    0.3974055  30.28 0.0005148857    1.546    0.353
       133 -12.6464    150.7073     57.4874   4.0701532900e+01   3.9517382603e+01    0.3869465    0.3273578 -52.69 0.0004792448    1.295    0.228
       134  -9.1231    142.8629     80.8164   4.9636074040e+01   3.7296090911e+01     0.227458    0.2030008   0.42 0.0006722609    1.194    0.163
       135  -8.9340     45.4548     80.6144   7.7423036259e+01   5.3880947496e+01    0.2193258    0.1529628  36.06  0.001305505    1.684    0.406
       136  -9.6290     87.5828     80.0881   6.4346864782e+01   4.8362409261e+01     0.314946    0.1996303  41.90 0.0005495658    1.713    0.416
       137 -10.7166    128.4857     72.3399   5.0671083404e+01   4.2060281221e+01    0.4847446    0.2869224 -14.71  0.001404732    2.679    0.627
       138  -9.9240    124.9469     76.2767   5.2780613873e+01   4.2083290843e+01     0.251103    0.2133322  83.92 0.0003253506    1.482    0.325
       139 -10.6089    121.6855     76.2932   5.3641853488e+01   4.2764166437e+01     0.276728    0.2098924 -35.62  0.001381553    1.290    0.225
       140  -9.0428     58.8033     76.3884   7.2179371757e+01   5.3252689622e+01    0.1993398    0.1597154 -48.31 0.0005716149    1.081    0.075
       141 -10.1553     56.8578     72.4706   7.1773307999e+01   5.4304078032e+01    0.4418911    0.2112373 -40.85  0.001267136    1.969    0.492
       142  -8.4790     36.4244     77.5390   7.9577779534e+01   5.5426527758e+01    0.1229567    0.1004173 -54.23 0.0003501817    1.019    0.019
       143  -8.7636    187.5103     76.4597   3.8764649188e+01   2.7351993005e+01    0.1493082    0.1489083  79.38 1.579959e-05    1.013    0.013
       144  -9.4084     77.5466     71.5061   6.4942212328e+01   5.1681603411e+01    0.2399931    0.1839759 -35.98 0.0006027166    1.197    0.165
       145 -10.8650     76.9996     75.4188   6.6229901193e+01   5.0971883851e+01    0.5088592    0.2695956  37.91  0.001941892    2.072    0.517
       146  -9.5627     83.2980     73.3994   6.3724333302e+01   5.0409558837e+01    0.2842416    0.2373168  10.93 0.0008115486    1.321    0.243
       147 -11.2037     46.4765     73.3078   7.5347557594e+01   5.5313492254e+01    0.4569708    0.3496089  80.41  0.001395666    1.847    0.459
       148 -10.7853     51.2322     70.1330   7.2982763204e+01   5.5446921031e+01    0.3018923    0.2171577 -61.04  0.000501168    1.380    0.275
       149 -11.4789      7.9455     74.0811   8.7927096267e+01   5.8307162951e+01    0.3019146    0.2817912 -88.66 0.0007177864    1.265    0.210
       150  -9.9537    143.0324     71.3116   4.6757325791e+01   3.8989510991e+01     0.290558    0.2758719 -23.39 0.0007662099    1.046    0.044
       151 -10.2123    139.8108     69.1895   4.6881396462e+01   4.0105090051e+01    0.2764472    0.2502205  33.06 0.0006691168    1.096    0.088
       152 -10.7296    136.8381     73.6967   4.8984165964e+01   3.9969203724e+01    0.4498271    0.3231853  13.82  0.001460275    1.825    0.452
       153 -10.4745    136.4967     69.4867   4.7781178615e+01   4.0804897542e+01    0.2999062    0.2357552 -20.42 0.0007778954    1.350    0.259
       154  -8.8368     65.9874     90.9118   7.3566665043e+01   4.9247294423e+01     0.249086    0.1662695 -81.74  0.001216914    2.092    0.522
       155 -10.7793     88.7190     74.7044   6.2469941028e+01   4.9266614449e+01    0.2550283    0.2361727  23.27 0.0003334053    1.145    0.126
       156  -9.0645     93.4962     72.9993   6.0547315617e+01   4.8794244268e+01     0.294572    0.2090027  -5.44  0.001071949    1.890    0.471
       157  -9.6546     97.6078     69.4422   5.8260309000e+01   4.8759815206e+01    0.4411657    0.2218874 -39.36  0.001902953    1.899    0.473
       158  -9.4913    100.6847     67.3206   5.6705818162e+01   4.8601959026e+01    0.2522481    0.2212236  30.92 0.0007685655    1.177    0.150
       159 -10.7625     17.4871     70.6257   8.4204194421e+01   5.8416143934e+01     0.244782    0.2111668 -61.76 0.0002939202    1.122    0.109
       160  -8.5855    182.8642     72.3572   3.8498913108e+01   2.9182351543e+01    0.2116523    0.1340606  45.19 0.0001225265    1.599    0.375
       161 -10.5546    119.0795     70.3760   5.2530231446e+01   4.4417265231e+01    0.5420678    0.2072845 -37.36  0.001811356    2.630    0.620
       162  -9.8496     63.5115     70.6448   6.9134415931e+01   5.3838285836e+01    0.3541032    0.2386605  38.99  0.001810878    1.695    0.410
       163 -10.9816     30.4407     70.8543   8.0005430101e+01   5.7365256929e+01    0.3053476    0.2360462 -85.49  0.001958522    1.560    0.359
       164  -8.6702     26.5090     65.4915   8.0076443599e+01   5.8801909629e+01    0.1869398     0.143391 -50.89 0.0006999312    1.034    0.033
       165 -11.2946     34.5389     67.4709   7.7844859148e+01   5.7704435655e+01    0.2753462    0.2409231  86.08 0.0005895406    1.422    0.297
       166  -9.9853     34.0324     62.9680   7.6893198443e+01   5.8671640150e+01    0.4087085    0.1774252 -37.76  0.001930992    2.341    0.573
       167  -9.6172     13.0818     67.5620   8.5026210994e+01   5.9346518863e+01    0.2723091    0.2002753  -8.77  0.001140881    1.667    0.400
       168 -10.6879    165.2763     69.5985   4.1245300067e+01   3.3983995754e+01    0.4272693    0.3443909  -2.16  0.001531636    1.443    0.307
       169 -10.3117     72.2867     68.1618   6.5617659679e+01   5.3128161120e+01    0.3914841    0.2852758 -30.13  0.002180459    1.337    0.252
       170 -10.7779    181.0204     64.1761   3.6503722415e+01   3.0966469175e+01    0.5512691    0.3207462 -27.55  0.001542599    1.835    0.455
       171 -10.2731    176.9995     63.9805   3.7217237941e+01   3.2003322067e+01    0.2880832    0.2362542  52.66 0.0003187085    1.197    0.165
       172  -9.9510    105.9810     57.5000   5.2014848782e+01   4.9383574240e+01    0.5299734     0.272333  39.61  0.002288997    2.025    0.506
       173 -12.0162    111.0189     65.8621   5.3312507798e+01   4.6887545449e+01    0.3580451    0.2856194  21.47 0.0003192282    1.349    0.258
       174  -9.8577    108.9483     61.0501   5.2344074889e+01   4.8170395394e+01    0.3307934    0.2383444 -29.48 0.0007801149    1.366    0.268
       175  -9.6993     87.8401     65.9245   6.0091215087e+01   5.1135579521e+01    0.4613016    0.3203882 -11.20  0.002268824    1.830    0.453
       176  -9.1827     41.8959     66.8671   7.5225821350e+01   5.7120812823e+01    0.2587599    0.1504258 -46.00  0.000930941    1.423    0.297
       177 -10.9273     43.2995     60.9940   7.3180775516e+01   5.8165276899e+01    0.4018977    0.2792451 -40.14  0.001901735    1.220    0.180
       178  -8.4608    231.5256     66.4899   2.8823842753e+01   1.8203096076e+01    0.1409532    0.1348736 -44.54 2.254893e-05    1.016    0.015
       179  -9.2706    194.6672     65.5400   3.4402205157e+01   2.7335249162e+01    0.4062958     0.146507 -34.10  0.001006517    2.694    0.629
       180  -9.6984    191.0881     61.4137   3.3870551033e+01   2.8871007222e+01     0.541213    0.2042712  50.27   0.00189765    2.568    0.611
       181  -9.4655     79.2969     66.1213   6.2793507093e+01   5.2478528696e+01    0.4280996    0.1655483  29.99 0.0006941621    3.675    0.728
       182  -9.9280     58.7031     66.1019   6.9421142656e+01   5.5373600239e+01    0.5415881    0.3189675  10.14  0.001874516    2.536    0.606
       183 -10.2939     61.0288     60.7407   6.7080406780e+01   5.6138431077e+01    0.2514146    0.2006056  32.34 0.0004776204    1.415    0.293
       184 -10.9489     61.7156     57.2343   6.5776238161e+01   5.6726301025e+01    0.4667242    0.2533341  25.33  0.001502012    2.211    0.548
       185  -9.2503      2.1819     50.8359   8.5252531992e+01   6.3358647601e+01     0.262988    0.1398525 -31.40  0.001176167    1.897    0.473
       186 -10.6346      2.4250     64.1561   8.7889571383e+01   6.0665585884e+01     0.212044    0.1557336 -60.95 0.0003269173    1.052    0.049
       187 -10.3261      7.5607     58.0896   8.4922468334e+01   6.1617269032e+01    0.7983084    0.2954013 -32.19  0.003597712    3.483    0.713
       188  -9.7686     18.7157     42.5443   7.6946908074e+01   6.3942468329e+01    0.2884235    0.2162756 -89.53  0.001825465    2.102    0.524
       189 -10.1483     10.3219     51.8541   8.2531528348e+01   6.2699961530e+01    0.3329504    0.2322304  53.51  0.001248702    2.102    0.524
       190  -9.7165     26.3068     48.0115   7.5628413930e+01   6.2303370625e+01    0.3267228     0.197639 -24.27  0.001934314    1.756    0.431
       191 -10.2022     19.8624     55.4724   7.9970713233e+01   6.1341479182e+01    0.3924541    0.1499084 -43.01  0.001525025    2.185    0.542
       192 -11.1142     18.6592     48.2472   7.8547434292e+01   6.2851743443e+01    0.3863539    0.3055348   6.72  0.001399042    1.477    0.323
       193  -9.0627    203.9592     63.5504   3.2270740944e+01   2.5325970657e+01    0.2091146    0.1901742 -41.10 8.245707e-05    1.089    0.082
       194  -8.8913    172.4795     62.9808   3.7809335484e+01   3.3290741625e+01     0.224911    0.1502556 -30.48 0.0006680617    1.535    0.349
       195  -8.6412    208.5174     62.0824   3.1133162538e+01   2.4417790551e+01    0.2139318     0.141204 -35.04 0.0003791075    1.484    0.326
       196 -10.0381    167.7388     61.3634   3.8278064853e+01   3.4727877038e+01    0.3342863    0.2444178 -10.53  0.001543559    1.635    0.388
       197  -9.3692    100.1015     61.3008   5.4957683222e+01   4.9827733479e+01    0.2887275    0.1953308 -42.86  0.001444397    1.445    0.308
       198  -9.7866     80.0809     60.6609   6.0846961914e+01   5.3403703998e+01    0.4507662    0.3618187 -13.26  0.001599519    1.279    0.218
       199 -10.8580     84.7021     38.9052   5.1878282465e+01   5.6432728396e+01    0.5034961     0.275508 -37.91 0.0001776112    1.746    0.427
       200  -9.3545     89.9862     33.7130   4.8283481515e+01   5.6284612257e+01     0.495274    0.4335631  73.33  0.002930267    1.607    0.378
       201 -10.3019     78.8468     44.3029   5.5724345443e+01   5.6535115253e+01      0.52151    0.2595218  47.82  0.001971672    2.420    0.587
       202  -9.7431     78.0580     55.5696   5.9845479350e+01   5.4671899671e+01    0.3009199    0.2024278 -23.79  0.001568439    1.547    0.354
       203 -10.5747     81.9552     52.5828   5.7601231295e+01   5.4586611970e+01    0.7799198    0.2983989 -35.21  0.003001734    2.696    0.629
       204 -10.0535     85.4060     49.2536   5.5368310360e+01   5.4594100593e+01    0.4576591    0.2052038 -45.07  0.001632165    2.269    0.559
       205 -11.8129     90.7861     43.8533   5.1788220511e+01   5.4557140315e+01    0.3559713    0.2931308  14.06  0.000254328    1.198    0.165
       206 -10.9754     89.2936     38.3183   5.0226080639e+01   5.5710054735e+01    0.2743054    0.2417244  77.44 0.0008825404    1.617    0.381
       207 -11.0829     22.0304     60.9362   8.0535018024e+01   6.0081472192e+01    0.2075077    0.1551684 -39.96  0.001414037    1.164    0.141
       208 -10.4366    219.0009     59.7656   2.8906652566e+01   2.2186980935e+01    0.3653272    0.2886583 -55.24  0.001216984    1.292    0.226
       209  -9.9681    222.3279     55.3935   2.7282476986e+01   2.2009039609e+01    0.2656334    0.2429059 -43.34  0.000544192    1.063    0.059
       210  -8.6504    200.6824     61.3020   3.2195395614e+01   2.6483351327e+01    0.1529873    0.1127844 -68.61 0.0002930005    1.621    0.383
       211  -9.8588    131.8085     60.5668   4.6133671122e+01   4.3412582957e+01    0.3080156    0.2362801 -53.23  0.001223847    1.491    0.329
       212  -9.1470    115.3425     60.9773   5.0555159166e+01   4.6890179467e+01    0.2095916    0.1720743 -30.43 0.0004997207    1.182    0.154
       213  -8.3487    224.6684     60.6875   2.8321001615e+01   2.0681859751e+01    0.1465421     0.109943  24.52 0.0003614551    1.676    0.403
       214 -11.0572    199.5527     55.5398   3.0782805751e+01   2.7624899618e+01    0.6103783     0.399909  34.93  0.002477885    1.816    0.449
       215  -9.7602    205.8407     52.8763   2.9049118551e+01   2.6434649799e+01    0.2677362    0.2369511 -42.96 0.0005170811    1.120    0.107
       216  -9.8353    201.5871     49.7744   2.8854883326e+01   2.7943632131e+01    0.3672108     0.258242  67.35  0.001782354    1.438    0.305
       217 -10.2698    174.4531     53.6419   3.4643527536e+01   3.4243326471e+01    0.4264813     0.309188 -34.73  0.001298073    1.398    0.285
       218 -10.3197    179.0754     52.2744   3.3377320065e+01   3.3279816293e+01      0.58008    0.3373192 -48.65   0.00245898    1.913    0.477
       219 -10.5412    185.1384     55.8508   3.3331088333e+01   3.1214783388e+01    0.7683225    0.2803139 -29.08  0.001962006    2.958    0.662
       220  -9.3253    183.4761     51.5606   3.2376280431e+01   3.2270243739e+01    0.2875752    0.2093544  29.28 0.0007351158    1.602    0.376
       221 -10.7728     93.3069     57.0584   5.5582600484e+01   5.1837046008e+01    0.5989005    0.3713636  32.42  0.002641171    1.742    0.426
       222  -9.4178    213.6743     57.0986   2.8995298697e+01   2.3880132107e+01    0.2762777    0.2367926 -75.80 0.0008871577    1.233    0.189
       223  -9.3464     35.0126     51.2523   7.3353536510e+01   6.0905073279e+01    0.2208603    0.1489475 -28.90 0.0002334413    1.404    0.287
       224  -9.2858     27.2760     56.3838   7.7556544696e+01   6.0582665843e+01    0.1918382    0.1504844   8.04  0.000626096    1.491    0.329
       225 -11.2322     30.7750     53.5742   7.5547814185e+01   6.0839545896e+01    0.4337751    0.2551444 -64.26  0.001552179    1.835    0.455
       226  -8.6006    239.3572     56.1801   2.5187486404e+01   1.7854197687e+01    0.2053223    0.1138194 -41.62 0.0009383691    1.674    0.402
       227  -9.0950    106.9781    246.6696   8.7748331555e+01   1.1891656877e+01    0.1620242    0.1462429  89.35 0.0008456967    1.306    0.234
       228 -10.5367     69.3256    216.7425   9.1454877654e+01   2.2230770087e+01     0.423037    0.2460646  81.69  0.002549485    1.749    0.428
       229 -10.9046    127.9545     53.1687   4.4680878542e+01   4.5502281694e+01    0.5192967    0.4173634 -32.29  0.001088614    1.241    0.194
       230 -10.2537    117.6684     51.6139   4.6818433886e+01   4.7994804343e+01    0.3973989    0.3127821  16.07  0.001030465    1.366    0.268
       231 -11.8137    122.3569     49.9071   4.5011213544e+01   4.7261306696e+01    0.4172954     0.299065 -42.10  0.001812304    1.464    0.317
       232  -9.1498     65.0265     51.7649   6.2901992454e+01   5.7304646722e+01    0.4780934    0.2810113  58.33  0.002084484    3.281    0.695
       233  -9.6221     62.8090     49.1174   6.2781152681e+01   5.8095515328e+01    0.2443092    0.1607682 -39.90 0.0006433193    1.335    0.251
       234  -8.7009     51.4495     53.9692   6.8294889278e+01   5.8636065212e+01    0.1941365    0.1072666 -47.57  0.001017676    1.561    0.359
       235  -8.7050    218.2260     52.9519   2.7226950675e+01   2.3355717044e+01     0.186909    0.1149808 -33.15 0.0003997189    1.590    0.371
       236  -8.9853     44.7945     51.2437   6.9814730397e+01   5.9911625920e+01    0.5100322    0.0900901 -45.74  0.001649184    4.293    0.767
       237  -9.5129     40.6368     52.5363   7.1697204517e+01   6.0102932099e+01    0.1970743    0.1689657 -36.83 0.0002260233    1.065    0.061
       238 -10.5365    147.7179     50.1096   3.9012632425e+01   4.1389708008e+01    0.4500307    0.2710061  35.87   0.00114545    1.828    0.453
       239 -10.9344    211.4094     49.3103   2.7243401853e+01   2.5550370137e+01    0.3373869    0.2676719  87.84  0.000259544    1.357    0.263
       240 -11.6449    233.2577     48.3111   2.4005578542e+01   2.0370994236e+01    0.3095483    0.2514305  82.88 0.0002706356    1.274    0.215
       241  -9.2459    191.6257     44.5924   2.8975576191e+01   3.1189000799e+01     0.368392    0.2321355 -59.74  0.001186736    1.933    0.483
       242 -10.2931     73.7616    213.6082   9.0368117867e+01   2.2207986400e+01    0.3514599    0.2851315  81.80  0.002040386    1.101    0.092
       243  -9.4338     76.6875    222.6972   9.0697079195e+01   2.0176120048e+01    0.1630882    0.1297185  59.34 0.0002697678    1.130    0.115
       244 -10.0027    149.4534     33.5107   3.3207779363e+01   4.3312820481e+01     0.560989    0.3170834  25.45 0.0009647309    2.440    0.590
       245  -9.3559    110.2151     49.4747   4.8108402231e+01   4.9896781047e+01    0.3284164     0.139937  50.58  0.001063864    2.486    0.598
       246  -9.1855    104.4609     48.5624   4.9408941342e+01   5.1201232765e+01    0.2857297    0.1320314 -36.08  0.001179147    2.098    0.523
       247  -9.5895    246.1083     47.8683   2.2331397305e+01   1.7437995636e+01    0.2253113        0.186 -34.33  0.000808066    1.174    0.148
       248  -9.6681      7.2797     46.1568   8.2274349326e+01   6.3998408835e+01    0.2153807    0.1219413 -34.96 0.0008130348    1.593    0.372
       249 -10.0333     33.4764     44.5515   7.1911209192e+01   6.2326095144e+01     0.441982    0.1721393 -40.41  0.002102431    2.196    0.545
       250 -10.1208     33.0150     37.3763   6.9780332468e+01   6.3688521798e+01    0.2249406     0.144089 -47.49 8.085209e-05    1.355    0.262
       251  -9.3393    194.0853     48.9861   2.9830626824e+01   2.9950390805e+01    0.2534364    0.2430003 -80.16 0.0007927346    1.040    0.039
       252 -10.7622    153.7634     35.5993   3.3025925605e+01   4.1976752457e+01     0.600985    0.4358887   1.73  0.002916153    1.658    0.397
       253 -10.4462    108.7402     43.9939   4.6600660145e+01   5.1073914919e+01    0.5031658    0.3329357  63.57   0.00236812    2.022    0.505
       254  -9.3179     73.4940     44.9792   5.7728492089e+01   5.7270574865e+01    0.1960575     0.117501 -38.21 0.0004940729    1.518    0.341
       255 -10.1599     67.9172     44.3872   5.9401934706e+01   5.8213532543e+01    0.4272624    0.2332088  34.69  0.001779034    1.972    0.493
       256  -9.5488    218.4251     41.7386   2.4247247059e+01   2.4844221547e+01    0.3252448    0.2372505 -25.38 0.0008526528    1.447    0.309
       257  -9.6121    179.3420     44.0759   3.0891560764e+01   3.4386607323e+01    0.3865948    0.1837745  62.30  0.001520488    2.090    0.522
       258  -9.0321     55.7054     43.9401   6.3519856088e+01   5.9969766031e+01    0.2071396    0.1276822 -39.26 0.0001513657    1.397    0.284
       259 -10.7743     61.9427     37.9169   5.9156022007e+01   6.0176824246e+01    0.5870234    0.4253771   6.74  0.002826381    1.473    0.321
       260 -11.6369     54.2472     34.8079   6.0790564186e+01   6.1738187319e+01    0.5454804    0.2164069 -45.55  0.001994085    2.403    0.584
       261 -10.8161    201.8177     38.3920   2.5658992254e+01   2.9435907309e+01    0.4931429    0.2957495 -36.11  0.002290581    1.651    0.394
       262  -8.2424    184.2946     42.3005   2.9517275117e+01   3.3369812463e+01    0.1483884    0.1098779  28.56 0.0001793478    1.572    0.364
       263  -9.3686     28.0363     41.9332   7.3172367273e+01   6.3308788125e+01    0.1778099    0.1428152 -37.88 0.0006271573    1.040    0.038
       264  -9.7751    240.4322     39.4851   2.0955676584e+01   1.9853336200e+01    0.4084403    0.2962485  12.00   0.00149307    1.982    0.495
       265 -10.4980    230.5972     39.3233   2.2074850564e+01   2.2201391682e+01    0.2749276    0.2232514 -54.88 0.0005640977    1.180    0.152
       266  -9.1848    226.7149     37.9981   2.2214314046e+01   2.3308766307e+01    0.2496673    0.2211819 -79.82  0.001117534    1.093    0.085
       267 -10.0595    113.0645     39.7479   4.3910843380e+01   5.0822089746e+01     0.309148    0.2445203   0.17  0.001254661    1.315    0.239
       268  -9.7351    115.1824     35.6060   4.1859951700e+01   5.0971385067e+01    0.3221915    0.2365026 -33.29 0.0003939087    1.385    0.278
       269  -9.9784    114.1460     31.4220   4.0602410887e+01   5.1774128908e+01    0.6474572    0.4100122  76.14  0.002754841    2.719    0.632
       270  -8.7491     75.0421     40.2743   5.5519747910e+01   5.7821402699e+01    0.1792226    0.1546863  11.19 0.0004767885    1.130    0.115
       271  -9.3983    250.4764     37.2526   1.9316236130e+01   1.7831856486e+01    0.3009093    0.1274262 -42.58 0.0008143754    2.103    0.525
       272 -11.1147    246.0561     32.1424   1.8573017445e+01   1.9482455421e+01    0.3896159    0.2839658 -48.29  0.000763833    1.260    0.206
       273 -10.2040    194.7145     37.2258   2.6386851251e+01   3.1390548639e+01    0.2666755    0.2382438 -65.68 0.0003701989    1.141    0.123
       274 -11.3416     77.3371    219.2413   9.0260833923e+01   2.0701289850e+01    0.5280866    0.3587509  22.72  0.002633354    2.498    0.600
       275  -8.8454     38.4643     37.5888   6.7741368834e+01   6.3104763945e+01    0.1899215    0.1241229 -36.65 0.0005228193    1.247    0.198
       276  -8.1911     39.6228     34.6870   6.6283358759e+01   6.3493241151e+01    0.1971174    0.1275398 -12.95 0.0005748408    1.669    0.401
       277  -9.1362      2.4117     38.0069   8.2078369605e+01   6.5830409214e+01    0.1804853    0.1190581 -27.74 8.399584e-05    1.436    0.303
       278  -9.9151    184.8944     35.6068   2.7450533494e+01   3.4105336854e+01    0.3873198    0.1772289  66.73  0.001501932    2.248    0.555
       279  -8.8524    106.2665     35.4316   4.4190484392e+01   5.2867572229e+01    0.2641245    0.1600507   9.01 0.0006938879    2.365    0.577
       280 -10.0033     74.0028     35.5225   5.4098702160e+01   5.8756738798e+01    0.2396492    0.1716214 -29.38 -1.493132e-05    1.264    0.209
       281  -9.0040     73.4798     31.4906   5.2729256462e+01   5.9469011182e+01    0.2303236    0.1158407 -35.98 0.0007329056    1.845    0.458
       282  -8.9120     28.3185     36.5460   7.1348363109e+01   6.4273643547e+01    0.1439146    0.1011171  -5.76 0.0009273359    1.522    0.343
       283  -9.6116     79.3809     33.9918   5.1738578915e+01   5.8112488207e+01    0.2561685    0.2014643   2.08 0.0009634504    1.229    0.186
       284  -9.2667     91.2548    214.5519   8.7270448993e+01   1.9572286211e+01    0.2626712    0.1025657  40.83  0.001249318    2.350    0.575
       285  -9.2461    123.9581    205.9953   8.0058158762e+01   1.5993551422e+01    0.1751952    0.1488198  60.24  0.001137145    1.013    0.013
       286  -9.4123     24.7102     30.9838   7.0933427145e+01   6.5583082418e+01    0.2018158    0.1285799 -39.71  0.000568545    1.223    0.182
       287  -8.9883     90.4990    206.0585   8.6484316700e+01   2.1240173847e+01    0.1687257     0.110794 -73.80 0.0006053368    1.566    0.362
       288 -11.1167      5.0053    203.2375   1.0153889209e+02   3.1874996077e+01    0.2240423    0.1397364  64.81  0.001701143    1.260    0.206
       289 -10.2592      2.8618    193.2940   1.0134023302e+02   3.3920772733e+01    0.1707655   0.09578012  62.66  0.001170689    1.461    0.315
       290  -9.7258      1.3540    184.9769   1.0111358794e+02   3.5636196787e+01     0.310672   0.07561731 -76.76  0.001372474    3.266    0.694
       291  -9.1926     25.0306    174.0060   9.5940383321e+01   3.5676988830e+01    0.1668211    0.1278265  83.83 -0.003769674    1.017    0.017
       292  -9.0784      6.4607    168.4596   9.9090487743e+01   3.8468132115e+01    0.1710528   0.09959302  36.32 0.0005937021    1.974    0.493
       293 -10.7669      8.4956    163.5336   9.8329413602e+01   3.9298411402e+01    0.2781841    0.2137558  -3.26   0.00182196    2.295    0.564
       294 -10.1486      4.7705    163.0321   9.9020264464e+01   3.9702432746e+01    0.1773853    0.1372087  63.01   0.00056169    1.272    0.214
       295 -10.3600      5.6723    159.7185   9.8593528831e+01   4.0305934587e+01    0.1589558    0.1382771 -80.41 0.0002624135    1.276    0.216
       296 -12.3685     18.7747    158.7226   9.5864302294e+01   3.9409355004e+01    0.6115676    0.3304184  83.34  0.003630309    1.729    0.422
       297  -8.6689    189.3083     26.0609   2.3991079046e+01   3.4160368636e+01     0.541969    0.1878794  68.72  0.001836126    3.075    0.675
       298 -11.3407     13.7834    151.6909   9.6271126705e+01   4.1309383873e+01     0.290745    0.1781805 -49.64   0.00184393    1.947    0.487
       299  -9.9905    182.7618     25.0036   2.4655715404e+01   3.5958328992e+01    0.3175676    0.2777334 -18.97 0.0008555936    1.240    0.194
       300 -11.0034      2.7084    153.7334   9.8724954944e+01   4.1763081703e+01    0.3832066    0.1697796 -62.97  0.001783255    1.940    0.485
       301 -10.6660    170.4074     31.8157   2.8724300998e+01   3.8283158389e+01    0.5040335     0.426682 -29.53  0.002200564    1.237    0.192
       302  -9.0428     97.0195     33.3032   4.6025056151e+01   5.5016928077e+01    0.1867511     0.154257  28.58 0.0003486964    1.157    0.136
       303 -10.6656      6.4254    148.0897   9.7499950741e+01   4.2650112851e+01    0.2687238    0.1845335  53.33  0.001089637    1.502    0.334
       304 -11.5110    236.4897     29.5356   1.8965320906e+01   2.2034441013e+01    0.4645097    0.3842622 -10.01  0.002680738    1.446    0.308
       305 -11.5279     11.0209    144.7156   9.6223398941e+01   4.3000606660e+01    0.4224342    0.2433142 -87.75 0.0006603764    1.452    0.311
       306  -9.6287      8.2187    137.0313   9.6114247526e+01   4.4841596263e+01    0.2325966    0.1375415  82.31 0.0007537779    1.558    0.358
       307 -10.6006    226.9720     18.1993   1.7186686658e+01   2.5652549565e+01    0.3500993    0.3073947  61.84  0.001129859    1.185    0.156
       308 -11.5714     29.5904    150.1181   9.2726185391e+01   4.0227636797e+01    0.6018774    0.2167246 -63.92  0.002029917    2.241    0.554
       309  -9.4397    207.9056     30.7491   2.2715646801e+01   2.8873713997e+01    0.2965573    0.2038163 -72.32  0.001443153    1.657    0.396
       310  -9.4220    206.9804     25.8475   2.1509386137e+01   2.9701196077e+01    0.2584584    0.1898217 -28.41    0.0006314    1.430    0.301
       311  -9.5858    216.3690     29.3437   2.1255178416e+01   2.6934782037e+01    0.2731658    0.2314238 -73.03 0.0008016107    1.159    0.137
       312  -8.7048    201.5238     29.8185   2.3323122082e+01   3.0598074374e+01    0.1993457    0.1214816 -44.97 0.0004288396    1.666    0.400
       313  -8.6915     77.1590     30.3634   5.1064267937e+01   5.9035513311e+01    0.1698569     0.120707  48.38 0.0009429625    1.669    0.401
       314  -9.7784     60.7991    148.2192   8.5450607992e+01   3.7201078453e+01    0.2061796    0.1696186 -73.83 0.0003032644    1.087    0.080
       315  -9.1040    147.0565     29.1883   3.2252996412e+01   4.4450637904e+01    0.2083673    0.1771617  32.68 0.0002314954    1.145    0.127
       316  -9.0645     50.9923    149.4999   8.7873114454e+01   3.8100507619e+01    0.1635548    0.1178617  41.43 -0.001522461    1.519    0.342
       317 -10.7295     17.5171    133.9756   9.3696487559e+01   4.4769516290e+01    0.3610392    0.1882044 -84.79  0.001160296    1.741    0.426
       318 -10.6528     81.9034     26.9354   4.8173585131e+01   5.8720927865e+01    0.4715978    0.4486853 -83.45  0.003041631    1.491    0.329
       319 -10.3251     71.6220     26.2609   5.1291658099e+01   6.0549132492e+01    0.4809951    0.2444101  28.28  0.002278479    2.236    0.553
       320 -10.8460     21.5554    141.9415   9.3634299449e+01   4.2716196831e+01    0.3510869    0.1851313  68.65 0.0004994936    2.085    0.520
       321 -10.8581     16.5835    140.8745   9.4633062282e+01   4.3366420762e+01    0.2846559    0.2189075 -80.44 0.0005128478    1.037    0.036
       322  -9.8121      2.5432     28.8458   7.9476083530e+01   6.7523095820e+01    0.1886973    0.1805169  36.37  0.001247582    1.486    0.327
       323 -12.6959    137.9429     47.1798   4.0269568907e+01   4.4155492777e+01    0.6003995    0.5237784  32.10 0.0007844697    1.112    0.101
       324 -11.7257     13.0816    134.4242   9.4760698690e+01   4.5026607342e+01    0.5820034    0.1920235 -59.17  0.000456238    2.445    0.591
       325 -10.7299     12.0194    128.9885   9.4433145757e+01   4.6273564638e+01    0.3619204    0.1799121  49.92 0.0003290483    2.196    0.545
       326 -10.7919    110.4686     22.5645   3.8234996365e+01   5.3708073319e+01     0.272334    0.2220206  11.67 7.557407e-05    1.178    0.151
       327 -10.4841      3.0333    142.2914   9.7721816014e+01   4.4113659263e+01    0.2965535    0.2300507  79.46  0.002268525    1.152    0.132
       328  -9.5770      1.6813    137.4224   9.7589582698e+01   4.5229957034e+01    0.2973907    0.1194485  85.68  0.001397303    2.793    0.642
       329  -9.6844     44.4990    141.6873   8.8352800514e+01   4.0535092045e+01    0.2006862    0.1791185 -83.23 0.0007313425    1.113    0.102
       330  -9.4946     69.3766     21.2850   5.0027096277e+01   6.1617892256e+01    0.3049311    0.1817869 -14.66  0.001250094    1.770    0.435
       331 -10.0748    212.0781     22.4022   1.9950820439e+01   2.8829859954e+01      0.28688    0.2618308  61.91 0.0006820345    1.115    0.103
       332  -9.2424    223.7946     30.8749   2.0748437073e+01   2.4920182469e+01     0.231007    0.1884807  76.03 0.0005884363    1.194    0.163
       333  -9.0663    103.9963     23.9774   4.0488082128e+01   5.4891144785e+01    0.1971701    0.1709301  16.72            0    1.034    0.033
       334 -10.1148     98.2750     23.5059   4.1889554936e+01   5.6111003403e+01    0.5452863    0.2392641  57.35  0.002198438    2.846    0.649
       335 -10.3148     51.2376     23.2595   5.7433084280e+01   6.3978580485e+01    0.2831522    0.2057675 -32.52  0.000403857    1.241    0.194
       336  -9.6031     36.3071    142.0045   9.0292032541e+01   4.1320385842e+01    0.1967535    0.1535704 -40.03  0.001088954    1.639    0.390
       337 -11.1724     29.0914    137.7270   9.1445596506e+01   4.2948719290e+01    0.5217707    0.2382944 -66.98  0.001063671    1.765    0.434
       338  -9.4598     30.7653    133.7865   9.0575560016e+01   4.3651638836e+01    0.2237604    0.1724772  85.14 0.0005912773    1.180    0.152
       339  -9.8022    248.5653     22.3518   1.6022827494e+01   2.0093541275e+01    0.2203291    0.2013735  86.57   0.00039456    1.113    0.101
       340 -10.2115    164.4822     22.0992   2.6701885155e+01   4.0950618289e+01    0.3575618    0.2514846  42.10  0.001120965    1.408    0.290
       341  -9.0354    143.3801     22.1998   3.0623893575e+01   4.6185802715e+01     0.227278    0.1715208 -35.98 0.0005565327    1.420    0.296
       342 -10.3321    188.3967     20.7958   2.2600945642e+01   3.5003387398e+01    0.2570994    0.2219046  60.76 0.0002644565    1.096    0.088
       343 -10.8284     26.5712    130.4011   9.1155396867e+01   4.4773712619e+01    0.3472878    0.2760673   8.66  0.001096777    1.803    0.445
       344 -11.0239     30.9727    125.5071   8.9456808184e+01   4.5447787253e+01    0.3923764    0.2886342  65.18  0.001375254    1.431    0.301
       345 -10.2098      3.9017    131.3635   9.6539666091e+01   4.6354012035e+01    0.2818427    0.1715441  45.70  0.001471102    1.812    0.448
       346  -9.2644     39.9509    129.6885   8.7818789254e+01   4.3655494705e+01    0.1613115     0.143141  89.26 0.0004067722    1.106    0.096
       347 -11.0097     48.9992    126.4995   8.5099223405e+01   4.3401025559e+01    0.3525812    0.3279596  37.89 0.0003121882    1.293    0.227
       348  -9.5583     63.2522    127.3526   8.1631522019e+01   4.1519080515e+01    0.2164768    0.1673695 -70.62 0.0007210288    1.149    0.130
       349 -10.2256     98.5633    125.9653   7.2378705381e+01   3.6651258190e+01    0.2459116    0.2131064  53.43 0.0005134462    1.187    0.157
       350  -9.8108     23.8326    124.9983   9.1145102247e+01   4.6191492584e+01    0.2458512    0.1359394 -75.65 0.0008420261    1.516    0.340
       351  -9.2290    129.5375     19.2839   3.2489168125e+01   4.9819381547e+01    0.2473586     0.165194  68.81 0.0008940087    1.691    0.409
       352  -9.0512    117.8144     19.1857   3.5132931322e+01   5.2505681765e+01    0.1917113    0.1852113  60.32 0.0006208573    1.191    0.160
       353  -9.7743    230.1831    124.0998   4.3197704539e+01   9.4399309955e+00    0.4144204      0.27215 -55.09  0.001897881    1.972    0.493
       354  -9.6697     37.4762    124.1830   8.7653124837e+01   4.5120566393e+01    0.3066113   0.09548628 -63.86  0.001298869    2.553    0.608
       355 -10.2362     40.3493    119.9946   8.6302042007e+01   4.5762460822e+01    0.2512891     0.199693 -56.56  0.000790911    1.192    0.161
       356  -9.6682     67.2050    123.4875   7.9944444805e+01   4.1874401339e+01    0.2475806    0.1852252 -33.27 0.0004538365    1.649    0.394
       357 -11.0060      8.5885    122.1309   9.4500290184e+01   4.7996586925e+01    0.4692847    0.3021908  35.57  0.003167958    1.862    0.463
       358 -10.6166      1.8106    112.0749   9.5041447961e+01   5.0597773253e+01    0.6339407    0.2121388 -80.83   0.00277361    3.034    0.670
       359  -9.8313    126.1446     15.1308   3.1720505616e+01   5.1065158377e+01     0.236534    0.1955287 -26.79 0.0005689574    1.289    0.224
       360 -10.1384     20.9263    118.5768   9.1044740937e+01   4.7834587024e+01    0.2589879    0.2013805  39.87  0.001254773    1.531    0.347
       361  -9.9597     24.8464    116.0966   8.9718304658e+01   4.8054133166e+01    0.2332825    0.1696432 -72.01 0.0003787505    1.101    0.092
       362 -10.6278    221.2677     15.5500   1.7127510217e+01   2.7337238837e+01     0.248902    0.2189248 -69.67 0.0002075349    1.061    0.058
       363 -10.8259     15.3632    115.7204   9.2079316400e+01   4.8889046408e+01    0.3270999    0.2690794 -26.24 0.0003947864    1.595    0.373
       364 -10.0602      9.2601    104.6922   9.2236967909e+01   5.1705271167e+01    0.4410671    0.2747069  86.35  0.002750534    1.639    0.390
       365 -11.0879     10.1551    112.2723   9.2967438682e+01   5.0010028492e+01    0.2482971    0.2241999  43.92  0.001692888    1.384    0.278
       366 -10.7856      6.1255    108.3799   9.3519269096e+01   5.1116895783e+01    0.3050956    0.1833208 -77.93  0.000966772    1.341    0.254
       367 -11.6580     57.0926    117.8905   8.1588253866e+01   4.4391834239e+01    0.7924839     0.387388  42.76  0.003876162    2.235    0.553
       368 -11.7363     46.0564    103.4081   8.1966479300e+01   4.8855425229e+01    0.3534619    0.2188964 -66.00 0.0005218712    1.416    0.294
       369  -9.7306     50.1210    112.1704   8.2437408427e+01   4.6470258411e+01    0.1936188    0.1509168 -85.60  0.000283284    1.286    0.222
       370 -10.3244     46.7101    109.0406   8.2808851975e+01   4.7537379632e+01    0.2827709    0.2101437 -73.00 0.0007222482    1.216    0.178
       371 -10.4930     46.6308    116.6439   8.4133313424e+01   4.5854321341e+01    0.3014927    0.1898902 -48.77  0.001703774    1.542    0.352
       372  -9.2945     98.7238    117.6973   7.0578235900e+01   3.8446778826e+01    0.2195675    0.2007307 -35.67 0.0004999614    1.163    0.140
       373  -9.5127     31.1700    117.0492   8.8227671936e+01   4.7292414614e+01    0.2805215    0.1387691 -74.42  0.001310397    1.844    0.458
       374  -8.4483    102.4366    117.5172   6.9574956555e+01   3.7852911841e+01    0.1410496    0.1320329 -69.82 4.814964e-05    1.024    0.023
       375  -8.8200     79.5449    115.0699   7.5076851603e+01   4.2046917915e+01    0.2010877    0.1231778 -58.35 0.0003932208    1.502    0.334
       376  -8.3704    103.2864    113.7085   6.8493155389e+01   3.8538397900e+01    0.1390419    0.1098581  87.11 0.0002003573    1.539    0.350
       377  -9.9764     67.7251    117.6701   7.8736090618e+01   4.3107468506e+01    0.3063394    0.1690537  31.76  0.001146069    2.129    0.530
       378  -9.3744     84.0800    113.0523   7.3439626196e+01   4.1819872149e+01    0.1978124    0.1823823 -71.00 0.0003266731    1.032    0.031
       379  -9.0233     72.9803    112.2773   7.6269175495e+01   4.3602171632e+01    0.2914714    0.1667477  17.22 0.0008944624    2.895    0.655
       380 -10.5760     62.4703    111.9049   7.9045012303e+01   4.5071004567e+01    0.2374565    0.2205909  33.08  0.001546217    1.248    0.199
       381 -11.0055     21.9852    110.2682   8.9645564721e+01   4.9564895072e+01    0.4708501    0.2709365  30.28  0.001150242    2.108    0.526
       382 -10.5065     28.5791    109.5798   8.7798098283e+01   4.9166888558e+01    0.2945075    0.2264676 -67.87 0.0006245571    1.049    0.047
       383 -10.9578     21.4501    105.0029   8.9024051445e+01   5.0757381446e+01    0.2884188    0.2276034  85.13 0.0004615487    1.281    0.219
       384  -9.5228     16.5769    104.7479   9.0298244506e+01   5.1182488784e+01    0.2760507    0.1526672 -79.96  0.001576648    1.669    0.401
       385 -10.8965     35.0173    106.4188   8.5556328596e+01   4.9285058047e+01    0.6369824    0.2318711 -69.47  0.001856913    2.672    0.626
       386 -10.6865    120.1366    107.8604   6.2721979480e+01   3.6680683437e+01    0.2907305    0.2478232  44.53  0.001546688    1.203    0.169
       387  -8.4593    152.4139    106.4503   5.4457053556e+01   3.0185484355e+01    0.1491582    0.1477734 -34.05 8.156156e-05    1.015    0.015
       388 -10.3881    131.7932    104.3925   5.8890588527e+01   3.5055899886e+01    0.3393227    0.2267691  43.68  0.001075641    1.520    0.342
       389 -12.1068     80.7119    103.3259   7.2213538170e+01   4.4474348055e+01    0.3539926    0.2951379  30.48 0.0004331652    1.348    0.258
       390 -10.7901    107.8587    103.2037   6.4767375725e+01   3.9992232825e+01    0.3098318    0.2420064  36.79 0.0003679507    1.361    0.265
       391  -9.7285     57.3479    101.7687   7.8458799402e+01   4.7949958843e+01    0.4267709    0.2257259 -38.73  0.002006055    2.191    0.543
       392  -9.1775     61.9744    102.4898   7.7296842727e+01   4.7225351859e+01    0.2104649    0.1526847 -56.49 0.0008825227    1.202    0.168
       393  -8.8200     94.3171    102.3221   6.8213455623e+01   4.2547750479e+01    0.1422285    0.1084726 -18.54 0.0003818113    1.665    0.399
       394  -8.2300    148.3391    100.7105   5.3897640004e+01   3.2230579670e+01    0.1535001    0.1223186 -88.23 0.0007022577    1.642    0.391
       395 -11.0490    118.3316     97.4634   6.0516531811e+01   3.9214921327e+01     0.491674     0.384531  -6.72  0.001616007    1.641    0.391
       396 -10.7222    108.4163     96.2739   6.2842632700e+01   4.1358408021e+01    0.4768953     0.260619  53.81  0.001990337    2.205    0.547
       397 -11.7102    101.6614     97.8943   6.5099206284e+01   4.2239190680e+01    0.2606322    0.2514506  51.50 0.0002686677    1.097    0.089
       398  -9.5535     96.9570     95.8617   6.5877166489e+01   4.3491059125e+01    0.2661744     0.224594  13.41 0.0003800507    1.377    0.274
       399  -9.4976     64.4526     98.4964   7.5737545283e+01   4.7791733576e+01    0.2062958    0.1322305  33.58  0.001009766    1.778    0.437
       400  -8.6862     61.5200     95.5631   7.5941254873e+01   4.8806475558e+01    0.2192199    0.1140991 -55.91 0.0005042933    1.670    0.401
