#   1 NUMBER                 Running object number                                     
#   2 MAG_AUTO               Kron-like elliptical aperture magnitude                    [mag]
#   3 X_IMAGE                Object position along x                                    [pixel]
#   4 Y_IMAGE                Object position along y                                    [pixel]
#   5 X_WORLD                Barycenter position along world x axis                     [deg]
#   6 Y_WORLD                Barycenter position along world y axis                     [deg]
#   7 A_WORLD                Profile RMS along major axis (world units)                 [deg]
#   8 B_WORLD                Profile RMS along minor axis (world units)                 [deg]
#   9 THETA_WORLD            Position angle (CCW/world-x)                               [deg]
#  10 FWHM_WORLD             FWHM assuming a gaussian core                              [deg]
#  11 ELONGATION             A_IMAGE/B_IMAGE                                           
#  12 ELLIPTICITY            1 - B_IMAGE/A_IMAGE                                       
         1 -10.7989    208.7899     21.9708   4.8114108286e+01   2.9872332278e+01    0.5327851    0.3530108  33.25  0.001167077    1.951    0.487
         2 -11.8101    215.4608     14.0830   4.5229693241e+01   2.9078371516e+01     0.744764    0.6738255 -75.39  0.002766924    1.006    0.006
         3 -11.7509    201.6120     30.5179   5.1425303966e+01   3.0680894692e+01    0.9822471     0.892849   4.87   0.00553718    1.261    0.207
         4  -9.7135     32.5602      3.0003   8.4277312515e+01   7.0693858355e+01    0.3900012    0.0957353 -36.66   0.00155512    3.504    0.715
         5  -9.3219     21.0177      2.4799   8.9724172742e+01   7.2030996939e+01    0.1544092    0.1005883  19.39  0.001033818    1.595    0.373
         6 -11.8173     97.4559    247.8770   1.1868070928e+02   1.2598678351e+01    0.8958022     0.337198  43.95  0.004719941    2.069    0.517
         7 -10.3532    120.0190    248.5325   1.1491113882e+02   9.1698946093e+00     0.285518    0.2496223 -47.57  0.001590714    1.599    0.374
         8 -10.1529    114.3762    250.0770   1.1602409536e+02   9.7853243813e+00    0.3114504    0.1563846  50.20  0.001149263    1.525    0.344
         9 -11.0228    126.7818    248.0174   1.1369781358e+02   8.2158918189e+00    0.4462453    0.2182336  39.67   0.00250748    1.758    0.431
        10 -11.6393    133.5209    246.3010   1.1234998883e+02   7.4265974744e+00     0.817442    0.3507363 -47.33  0.004252036    3.166    0.684
        11 -12.0733     42.4858    211.5864   1.2527028080e+02   2.6190226182e+01    0.7264301     0.618117 -15.96  0.005080039    2.322    0.569
        12 -15.0520     49.9528    200.7757   1.2306122714e+02   2.7397762947e+01     18.92259     6.498547 -87.71   0.06422456    5.467    0.817
        13  -9.7912     81.2763    166.7115   1.1286193264e+02   3.0353545050e+01    0.2575013     0.225694 -83.62 0.0005038566    1.092    0.085
        14 -10.8548     86.0251    160.7730   1.1092405275e+02   3.0955541931e+01    0.6265451    0.4858617   1.15  0.002241405    2.174    0.540
        15  -8.9709    163.5017    239.9801   1.0632995095e+02   3.5403558418e+00    0.1485776     0.100088 -12.12 0.0008103873    2.593    0.614
        16 -11.5163     68.8147    162.9422   1.1515885378e+02   3.2945170206e+01     0.421092    0.2963602 -46.73  0.001123071    1.755    0.430
        17 -10.7357    109.3969    229.2658   1.1479209578e+02   1.3852684478e+01    0.3008935     0.161428  48.36  0.001393006    1.495    0.331
        18 -11.4288     98.0117    227.2555   1.1664440464e+02   1.5914552900e+01    0.6146314    0.2236462  49.07    0.0029466    2.225    0.551
        19 -11.1745     68.0507    143.6691   1.1260529328e+02   3.7413560764e+01     0.694829    0.3882541  61.76  0.003314557    2.059    0.514
        20  -8.7813    101.8912    143.2045   1.0418458770e+02   3.2356099768e+01    0.4282004    0.2272297 -34.94  0.001599293    3.151    0.683
        21 -10.5443     89.2693    143.3192   1.0731581512e+02   3.4397963080e+01     0.265085    0.2523063 -51.50 0.0005531555    1.208    0.172
        22 -11.0071    114.9021    230.0336   1.1387728462e+02   1.2874324594e+01    0.3474137    0.2116624  49.16  0.001816665    1.314    0.239
        23 -11.5128     82.1055    222.4094   1.1905184139e+02   1.9072266124e+01    0.7784158    0.2041614  52.88  0.002980745    3.727    0.732
        24  -8.5318    110.8350    132.8766   9.9906274007e+01   3.3125344457e+01    0.2225678    0.2000326 -20.81 0.0007938878    1.337    0.252
        25 -10.0077     58.7968    131.8811   1.1309567318e+02   4.1344631497e+01    0.3739043    0.1761212 -67.51  0.001716432    1.916    0.478
        26  -9.0150     98.5627    128.7766   1.0219058653e+02   3.6225988358e+01    0.2680034    0.2176088 -22.40 0.0007195151    1.614    0.380
        27 -14.0320      6.4868    204.9958   1.3110900420e+02   3.1187605849e+01     2.182384     1.059978  89.30   0.01073042    1.621    0.383
        28  -8.0709    107.9381    120.5069   9.7946945442e+01   3.6470334259e+01    0.2064981    0.1465063  40.60 0.0005650198    1.489    0.328
        29  -7.8374    168.6450    113.3210   8.1281833043e+01   2.5163232130e+01    0.1626921    0.1255314 -83.28 0.0007046313    1.757    0.431
        30 -14.9669     10.7387    243.3453   1.3218887783e+02   2.3957414409e+01      8.46065     2.469901 -79.92   0.04702415    3.047    0.672
        31 -10.3407    126.9002    230.1056   1.1170407239e+02   1.0969742072e+01    0.2935254    0.2386351 -35.26  0.001955827    1.753    0.429
        32  -9.3881     73.8002    206.2954   1.1904994820e+02   2.3233027215e+01    0.2272866    0.1453045 -62.34 0.0009868906    1.697    0.411
        33  -9.6288    196.0649    195.6416   9.3486575332e+01   4.4025989926e+00    0.3739802    0.3286557   0.10  0.002341614    1.159    0.137
        34 -10.0367     67.5374    182.6011   1.1781563491e+02   2.8866038596e+01    0.3532933    0.2491913 -43.39  0.001231694    2.039    0.510
        35 -10.0606     72.3788    176.6846   1.1610747392e+02   2.9460776383e+01    0.2830066    0.2269727 -52.78 0.0008571355    1.507    0.336
        36 -12.9996     50.5195    231.4733   1.2528360611e+02   2.1600054960e+01     1.300883     0.831559 -80.38  0.009279784    1.494    0.331
        37 -10.2865    114.8969    243.9733   1.1533605881e+02   1.0639449941e+01    0.2380273      0.16644 -67.95  0.001623884    1.704    0.413
        38 -11.0035    192.1469     36.7950   5.4600867164e+01   3.2332038857e+01      0.57832    0.4271345  52.67  0.002070368    1.353    0.261
        39  -8.7167     98.3243    240.2817   1.1784711947e+02   1.3685869558e+01   0.09912127   0.08473093  29.27 0.0002259805    1.594    0.373
        40  -9.5598     32.8732     29.2591   9.6194954058e+01   6.6518736291e+01    0.3867924   0.07415915 -50.23  0.001190792    5.187    0.807
        41  -9.4966     95.7277    169.1405   1.0997376642e+02   2.7611385883e+01    0.2813894    0.1338908  52.55  0.001240178    2.110    0.526
