#   1 NUMBER                 Running object number                                     
#   2 MAG_AUTO               Kron-like elliptical aperture magnitude                    [mag]
#   3 X_IMAGE                Object position along x                                    [pixel]
#   4 Y_IMAGE                Object position along y                                    [pixel]
#   5 X_WORLD                Barycenter position along world x axis                     [deg]
#   6 Y_WORLD                Barycenter position along world y axis                     [deg]
#   7 A_WORLD                Profile RMS along major axis (world units)                 [deg]
#   8 B_WORLD                Profile RMS along minor axis (world units)                 [deg]
#   9 THETA_WORLD            Position angle (CCW/world-x)                               [deg]
#  10 FWHM_WORLD             FWHM assuming a gaussian core                              [deg]
#  11 ELONGATION             A_IMAGE/B_IMAGE                                           
#  12 ELLIPTICITY            1 - B_IMAGE/A_IMAGE                                       
         1 -14.5489    226.9174    170.0809   3.2353268650e+01   4.2254198135e+00      4.96251     4.107595 -79.88   0.02873916    2.284    0.562
         2 -14.1554    244.9183     78.8350   1.0663194951e+01   1.5240986013e+01     3.259386     2.221842  -6.40   0.01429374    2.220    0.549
         3 -14.2589    247.8169    106.5699   1.6277704591e+01   1.0669417269e+01     4.076656     1.856569 -61.45  0.006185762    7.558    0.868
         4 -13.0481     32.0043    103.7736   7.1034272659e+01   5.2634667287e+01     12.77743          nan -55.08    0.0121293   37.364    0.973
         5 -16.1479    245.8764    127.1291   2.0824974660e+01   7.8973215862e+00     3.322628     3.100129  59.66  0.009979573    1.395    0.283
         6 -10.0689    204.4774     18.2515   3.6879091270e-01   3.1567539054e+01     0.263505     0.127737  60.72  0.001277887    2.194    0.544
         7  -9.7304    120.4454      8.4922   6.9012636699e+00   5.3556311098e+01     0.260812     0.214897  71.12  0.001447752    1.074    0.069
         8 -13.0920     67.7890     34.2667   3.2716909719e+01   6.3150072437e+01     6.934919     3.252103 -12.40  0.008626326   29.302    0.966
         9  -9.9128    248.8404      2.9870   3.5429139685e+02   2.3920496446e+01    0.2005996    0.1436449 -77.41  0.001416622    1.245    0.197
        10 -10.6809    178.7755    168.2390   4.0976531328e+01   1.2344896791e+01     0.407168    0.3250721  31.76   0.00175935    1.238    0.192
        11 -15.0343    204.5220    241.1454   4.8532384428e+01  -2.8990885936e+00     8.728078     1.478443  31.82   0.02807817    5.601    0.821
        12 -13.7901     38.4745    245.9013   8.3139781664e+01   1.7809089213e+01     5.266805    0.6071444  29.49   0.01460019    7.171    0.861
        13 -10.4559    224.2231    189.2293   3.6413550254e+01   1.7307522252e+00    0.5749981    0.4794051 -87.55  0.003286711    2.661    0.624
        14 -11.8737    157.0960    161.8257   4.4411972410e+01   1.7502230674e+01    0.8499125    0.5713964   2.43  0.003695551    2.115    0.527
        15 -10.8962    172.6318    156.8136   3.9921349052e+01   1.5617323481e+01    0.5281104    0.2975836  44.04  0.001488514    1.842    0.457
        16 -10.0946    149.4430    157.2195   4.5245305940e+01   1.9890503196e+01    0.2932172    0.2051543  37.39  0.001397006    1.401    0.286
        17 -10.8136    193.2157    154.2431   3.5186198153e+01   1.2353483496e+01    0.5921939    0.2826326 -55.09  0.002106781    3.506    0.715
        18 -10.5014    153.9318    155.3734   4.3799915882e+01   1.9424987785e+01    0.2959093    0.2174407 -35.38 0.0008592255    1.382    0.276
        19 -11.0208    133.9243    147.5647   4.7023025947e+01   2.4982670128e+01     0.828247    0.2868733 -53.98 0.0008350797    3.456    0.711
        20  -8.9630     39.4057    192.0814   7.9346298673e+01   2.9042649572e+01    0.1948497    0.1673583  36.35 0.0003472931    1.216    0.178
        21 -10.7298    159.5926    149.8638   4.1309617609e+01   1.9477189726e+01    0.3368943    0.2619262  88.23  0.001564583    1.954    0.488
        22  -9.0920     69.4796    145.5124   6.5144563536e+01   3.6849523309e+01    0.1488908    0.1420897  83.78 0.0008100998    1.023    0.022
        23  -7.7625      1.2650    142.2848   8.6220390507e+01   4.4827484436e+01    0.1243649   0.08742417 -55.15 0.0001851203    1.491    0.329
        24 -10.1040    137.1771    138.2740   4.4118440528e+01   2.6422782516e+01    0.4926004    0.1678804 -49.94  0.001536717    3.083    0.676
        25  -7.9257    185.6987    208.3403   4.6933680970e+01   4.3148844183e+00    0.1134494    0.1033386  65.10 0.0007037435    1.671    0.402
        26 -10.4628    174.9895    130.5016   3.3540394118e+01   2.0304036926e+01    0.4331286     0.205507 -44.72  0.001708878    2.053    0.513
        27 -10.6343    160.6503    129.4122   3.6383471032e+01   2.3483636996e+01    0.5908816    0.2532097 -46.05  0.002147238    2.322    0.569
        28  -9.8683    168.8476    128.6449   3.4396544703e+01   2.1933278344e+01    0.2674363    0.1977755 -30.62 0.0006165881    1.366    0.268
        29 -10.1401    136.8958    128.3430   4.1845037309e+01   2.8704643417e+01     0.312228    0.2340705 -34.77  0.001438928    1.400    0.286
        30  -9.9212    192.2242    193.7346   4.3107680390e+01   5.6963472653e+00    0.6229005    0.3274899 -58.96  0.002211809    4.832    0.793
        31 -10.2015    176.0132    116.4444   2.9933858324e+01   2.2822840763e+01    0.3489639    0.2956325  85.87  0.001289176    1.447    0.309
        32  -9.6668    172.4508    119.5092   3.1418138601e+01   2.2985822714e+01    0.2991863    0.2338846  21.08 0.0008082659    1.513    0.339
        33 -11.7100    170.8910    116.1644   3.0911478125e+01   2.3975130922e+01    0.7314717    0.3978886  49.34  0.003053847    1.939    0.484
        34  -9.7430    131.8573    119.8546   4.1047548042e+01   3.1680754938e+01    0.2458755    0.2221431  -4.73  0.001226636    1.225    0.184
        35 -10.2365    154.4234    114.9600   3.4209180430e+01   2.7813186892e+01     0.304997    0.2241337  66.22  0.001376958    1.643    0.391
        36  -8.7616    146.3246    114.3059   3.5951868073e+01   2.9739965009e+01    0.1585574     0.125171   2.89 0.0007034399    1.645    0.392
        37 -10.5435     47.2744    105.6504   6.5402306867e+01   5.0445962007e+01    0.4775675    0.3258004  31.10 0.0009329692    1.542    0.352
        38 -11.3273     63.1547    110.0565   6.0373246065e+01   4.7114782876e+01    0.6057971    0.4488328 -68.26  0.001757772    1.350    0.259
        39 -11.7039     56.9324    106.8092   6.1958693354e+01   4.8865910553e+01    0.7900781    0.7113093 -52.74  0.004267116    1.073    0.068
        40  -9.8715    152.6964    109.2505   3.3117909754e+01   2.9378219772e+01    0.2678387    0.2535579 -25.84 0.0002840858    1.070    0.065
        41  -8.1163     99.9461    107.9942   4.7201113711e+01   4.1143806038e+01    0.1845141    0.1808718  52.75 0.0002886786    1.026    0.025
        42 -11.3453     18.0770    105.6902   7.6831358811e+01   5.3319190766e+01    0.6058735    0.4699562  76.84  0.003367773    1.310    0.237
        43  -8.2420    138.7205    106.0297   3.5623012598e+01   3.3210496412e+01      0.19502    0.1384062 -44.90 0.0004309436    1.390    0.281
        44 -10.5901    166.4080    108.5705   2.9916283788e+01   2.6447279147e+01    0.3530708    0.3471668 -72.87 0.0007410808    1.047    0.045
        45 -11.4740     21.9674    132.9141   7.8813373240e+01   4.5758044884e+01      1.20943    0.3769309 -53.58  0.004331939    3.063    0.674
        46  -8.3193     73.9103     90.4782   5.1333507947e+01   5.0341887374e+01    0.2143417    0.1522173  36.92 0.0003596391    1.440    0.306
        47 -10.4593    210.8727     87.6404   1.6856387971e+01   2.0529038859e+01    0.4923151    0.2837009 -55.05  0.002291117    1.854    0.461
        48  -9.3439    183.9204     78.4984   1.8648772636e+01   2.7950845860e+01    0.2736466    0.2692778  18.12 0.0008419882    1.147    0.128
        49  -8.0605    125.3763     75.8434   3.0111332669e+01   4.2562819622e+01    0.1992769    0.1497233 -28.13 0.0001880378    1.473    0.321
        50  -9.8316    113.5054    169.5053   5.6691764156e+01   2.3737473828e+01     0.312954    0.2613468  -8.18  0.001217937    1.422    0.297
        51  -9.4874     95.3346    212.6424   6.7607144424e+01   1.7180642334e+01    0.2182059    0.2025791  17.69 0.0004956831    1.171    0.146
        52  -9.9825    232.6161     67.2501   9.3925487186e+00   1.9222476642e+01    0.2764961    0.1910269  36.49  0.001505318    2.093    0.522
        53  -8.3305    199.4501     64.4669   1.2656682440e+01   2.6636563967e+01     0.137833    0.1254732 -52.12 0.0008069298    1.059    0.056
        54 -10.5926    244.5493     60.0597   6.6191541888e+00   1.7927534116e+01    0.3582642    0.2463364  59.69  0.001967712    1.754    0.430
        55  -8.8903    164.8749     60.8648   1.6918502886e+01   3.5414267594e+01    0.2049492    0.1992231  26.11 0.0002995786    1.174    0.148
        56  -8.9986    217.9099     56.0912   8.3596389038e+00   2.3808866079e+01    0.2792063    0.1735933 -32.43  0.001238147    1.525    0.344
        57 -10.4647    231.3371     54.5418   6.6306289113e+00   2.1245582425e+01    0.3638836    0.2273798  86.27  0.001503659    1.855    0.461
        58 -10.5462    195.5092     52.3510   1.0019856454e+01   2.9317511954e+01    0.4533915    0.2053871 -54.65  0.001835468    2.366    0.577
        59 -10.7064    227.6248     48.9758   5.7069992106e+00   2.2749048353e+01    0.3248529    0.2616664 -58.13  0.002059578    1.048    0.046
        60  -8.2685    205.1853     33.7716   4.1802453304e+00   2.9575160287e+01    0.1548162    0.1526129  26.05 0.0003709348    1.303    0.233
        61 -10.5332    217.4709     29.9648   2.1547670774e+00   2.7317469257e+01    0.2537692    0.1937802  51.65 0.0006229686    1.657    0.397
        62  -8.5750    230.6639     24.3136   3.5984815218e+02   2.5198963096e+01    0.1351378    0.0703805 -59.61 0.0007046352    1.690    0.408
        63 -11.6058    187.0192    166.2856   3.8898545515e+01   1.1269799475e+01    0.7163476    0.5304691  -9.73  0.003234971    1.438    0.305
        64  -8.7399     92.9853     13.0200   1.4375037547e+01   6.0113608919e+01    0.2032733    0.1880075  56.98 0.0003232869    1.041    0.039
        65  -7.9456    109.2510     12.3355   1.0450431208e+01   5.6085362931e+01    0.1380006   0.09732419  33.19 0.0003637644    1.562    0.360
        66 -11.5035    195.1284    170.0278   3.8052100722e+01   9.2344032894e+00    0.5987247    0.4436255 -40.35  0.002867615    1.368    0.269
        67 -11.4822    203.1849    165.9915   3.5718250934e+01   8.5935627720e+00    0.7562954    0.3972275 -31.01  0.003265355    1.845    0.458
