#   1 NUMBER                 Running object number                                     
#   2 MAG_AUTO               Kron-like elliptical aperture magnitude                    [mag]
#   3 X_IMAGE                Object position along x                                    [pixel]
#   4 Y_IMAGE                Object position along y                                    [pixel]
#   5 X_WORLD                Barycenter position along world x axis                     [deg]
#   6 Y_WORLD                Barycenter position along world y axis                     [deg]
#   7 A_WORLD                Profile RMS along major axis (world units)                 [deg]
#   8 B_WORLD                Profile RMS along minor axis (world units)                 [deg]
#   9 THETA_WORLD            Position angle (CCW/world-x)                               [deg]
#  10 FWHM_WORLD             FWHM assuming a gaussian core                              [deg]
#  11 ELONGATION             A_IMAGE/B_IMAGE                                           
#  12 ELLIPTICITY            1 - B_IMAGE/A_IMAGE                                       
         1 -13.7464    234.9772     17.1956   3.2974558977e+01   2.5667184105e+01    0.9270158    0.8169329  56.31  0.002543407    1.474    0.322
         2 -13.7666    206.7815     40.9682   4.1003537508e+01   2.8882095171e+01     1.473457      1.21325  19.67  0.005122814    1.728    0.421
         3 -13.6918    214.7840     36.4500   3.9038683596e+01   2.7674608347e+01     1.161438    0.9177167 -52.85  0.004627157    1.151    0.131
         4 -12.8060    221.6483     29.3925   3.6740684164e+01   2.7052351048e+01    0.6430447     0.456108  56.02  0.001475475    1.612    0.380
         5  -9.5422    250.2873      1.7302   2.8889237701e+01   2.4284872748e+01     0.134605    0.1226211 -87.72  0.001046979    1.341    0.254
         6 -14.3538      7.8503    245.5535   1.2448813812e+02   2.1099908806e+01      1.46715     1.029893  76.20   0.01085333    1.103    0.093
         7 -13.1843     44.8302    217.4976   1.1549278453e+02   2.2877026804e+01    0.8300124    0.6124635  47.19   0.00115594    1.256    0.204
         8 -15.1192      5.0465    178.1205   1.2108275991e+02   3.5792206284e+01      10.0945    0.8433768 -76.37   0.01995589   12.279    0.919
         9 -12.7582     86.1940    222.9302   1.0710572878e+02   1.6288202217e+01     1.131985    0.6163877  61.47  0.001349692    2.096    0.523
        10 -15.5206     54.5119    246.3286   1.1589066545e+02   1.5798129826e+01     9.038249     2.675492  26.38   0.01070564    9.491    0.895
        11 -13.3995     11.3401    232.5667   1.2320371151e+02   2.3313584288e+01    0.9090415    0.5222401  84.03   0.00159051    1.475    0.322
        12 -15.7987     34.7420    190.5777   1.1529215330e+02   3.0097141702e+01     6.264579     2.503868  73.39   0.02155167    4.180    0.761
        13  -9.8628    209.4310    198.7177   7.6546970103e+01   9.9807905122e-01     0.248449    0.1232605 -43.94  0.001125871    2.107    0.525
        14  -9.6956     57.2076    194.6352   1.1045245266e+02   2.6518727567e+01    0.2188274    0.1619372  89.29  0.001068398    1.286    0.223
        15 -13.1318     26.5242    205.2425   1.1838974736e+02   2.7602822037e+01    0.4700913    0.3859388 -55.25 0.0008561797    1.473    0.321
        16  -9.6821     80.9978    182.7707   1.0309995331e+02   2.6078768992e+01    0.2390238    0.2322079  47.23  0.001242917    1.122    0.109
        17  -8.8883     99.4782    181.0067   9.8169182394e+01   2.3639619395e+01    0.2073546    0.1404749 -59.41 0.0005090345    1.483    0.326
        18 -12.0137     56.2487    178.1330   1.0870396085e+02   3.0579537004e+01    0.4406408    0.3015476 -33.89  0.002203995    1.993    0.498
        19 -11.9617     61.9944    172.6382   1.0650407659e+02   3.1189796156e+01    0.3445418     0.275428 -42.04 0.0006230472    1.434    0.303
        20  -9.2637    146.4955    171.9934   8.4867053062e+01   1.7387652873e+01    0.1983665    0.1356772 -77.59 0.0006080933    2.306    0.566
        21 -13.3220     57.7706    130.9643   1.0094814298e+02   4.2221925418e+01     3.501551     1.057282 -70.84  0.006998408    9.121    0.890
        22 -12.8061     79.8406    157.0263   9.9269287794e+01   3.2571683189e+01    0.9865052    0.7744313 -77.38  0.001193653    1.292    0.226
        23 -13.8925     68.3162    144.3816   1.0027614008e+02   3.7423990465e+01     3.448839     1.652847  67.68   0.00277269    5.747    0.826
        24 -11.7282     72.5025    163.0325   1.0228360567e+02   3.2141444494e+01    0.3643402    0.3049147  86.04 0.0003878186    1.198    0.166
        25 -13.4672     59.2536    159.1648   1.0528177221e+02   3.4898230644e+01    0.5753075    0.3317681 -42.89  0.001785629    1.995    0.499
        26  -8.7109    151.3123    150.7280   7.9168454424e+01   2.1166217364e+01    0.1497964    0.1237403  80.93 0.0001992378    1.552    0.356
        27  -8.9756    174.6976    149.3075   7.3456463235e+01   1.6746602068e+01    0.1477174    0.1226917 -83.94  0.000350961    1.601    0.375
        28 -12.2008     32.7474    157.6286   1.1225058206e+02   3.8294449098e+01    0.5252201    0.3370718  41.34  0.002383353    1.639    0.390
        29 -10.1872    133.7363    144.8227   8.2202143357e+01   2.6027156084e+01    0.8233457    0.1846786 -53.63  0.001675748    7.172    0.861
        30  -9.2119    178.1531    144.2397   7.1541044918e+01   1.7097472492e+01    0.2985391    0.1975499 -65.66  0.001226852    2.179    0.541
        31 -10.3485     95.2989    142.9474   9.2222253159e+01   3.3616072852e+01    0.3195849    0.2970287 -50.57 0.0008311082    1.050    0.048
        32  -9.7204     99.1342    139.2502   9.0342830830e+01   3.3869562850e+01    0.3935706    0.2723005  -9.57  0.001621103    2.233    0.552
        33 -10.8985     28.2885    143.1572   1.1165158596e+02   4.2338270853e+01    0.2810847    0.2067787 -48.36  0.001251593    1.376    0.273
        34 -12.4177     83.3694    141.0433   9.5259068658e+01   3.6038647696e+01    0.3258063    0.2831087 -50.00 0.0005742567    1.113    0.102
        35  -9.6616    198.0744    139.7395   6.6398138741e+01   1.3971515070e+01    0.3375782    0.1946518 -54.71  0.001396026    2.086    0.521
        36 -10.5037     48.2272    145.8940   1.0634226994e+02   3.9589952447e+01    0.2616253    0.1764383 -21.33  0.001245513    2.099    0.524
        37 -12.1877     68.9729    130.3822   9.7396041269e+01   4.0867847427e+01    0.8745394    0.5509819  85.17   0.00356565    2.450    0.592
        38 -10.7588    106.8975    131.1257   8.6293758216e+01   3.4455165114e+01    0.4292953    0.3390896  38.67  0.001190291    1.307    0.235
        39 -10.5169     48.0904    169.4507   1.0968416003e+02   3.3698546902e+01    0.2989094    0.1802353 -77.75 0.0009261697    1.584    0.369
        40  -8.9679     82.4100    129.2436   9.3064412711e+01   3.9137759913e+01    0.2064984    0.1407894 -67.50 0.0004588136    1.562    0.360
        41 -14.8530      9.7488    207.7021   1.2207338661e+02   2.8689885682e+01     1.751067     1.247053  84.12  0.005453141    1.125    0.111
        42 -11.0558     94.6475    127.6273   8.9035599393e+01   3.7503906761e+01    0.2784585    0.2534686 -31.17 0.0004217155    1.119    0.107
        43  -9.8628    115.2117    124.9110   8.2444944626e+01   3.4355355750e+01    0.3014295    0.2113876   4.81  0.001226356    2.126    0.530
        44  -9.5983    105.4488    119.8841   8.3985086360e+01   3.7415835956e+01    0.2105343    0.2047617   0.30 0.0003531362    1.052    0.050
        45  -9.1983     91.5631    215.9791   1.0508156938e+02   1.6973106676e+01    0.1854381    0.1284907 -67.32 0.0004590333    1.528    0.346
        46  -9.3193    168.0096    112.9746   6.6115291184e+01   2.5716046673e+01    0.2492783    0.1913405 -77.91  0.001125553    1.714    0.417
        47 -10.0546    205.1635    110.6700   5.8234191715e+01   1.8040486792e+01    0.3266299    0.2471878  34.06  0.001228161    1.548    0.354
        48  -8.7335     75.4763    111.4144   9.1115779973e+01   4.4599480262e+01    0.1460144    0.1388247 -50.92 0.0001362762    1.041    0.039
        49 -10.6446    192.6699    194.1613   7.9020121158e+01   4.5610622376e+00    0.6392038    0.3525039 -63.95  0.002080998    4.893    0.796
        50  -8.9567    130.7726     96.5532   7.0584575069e+01   3.7428485221e+01     0.215745    0.1505482  58.55 0.0009441924    1.623    0.384
        51 -10.7167     54.7547     95.4482   9.4188424731e+01   5.1321751591e+01    0.3127264    0.2348531 -69.96 0.0009875509    1.487    0.327
        52 -10.6321     52.2708     90.3621   9.3779607815e+01   5.2816785650e+01    0.2954496    0.2789638  83.77 0.0009866829    1.262    0.208
        53 -10.5206     45.9711     91.6130   9.6400912359e+01   5.3276677236e+01     0.254525    0.2137311  81.33   0.00142923    1.524    0.344
        54  -9.9147     41.7815     92.1590   9.8070578683e+01   5.3612095751e+01    0.2379993    0.1818494  25.82  0.000504587    1.461    0.315
        55  -9.9014    161.8750     83.1365   5.9408832327e+01   3.2890554334e+01    0.2359271    0.2061699 -76.42 0.0005782736    1.240    0.193
        56 -10.9211     13.4376     60.3084   1.0138151990e+02   6.3194767215e+01    0.2510861    0.1841954 -46.40 0.0009433536    1.102    0.092
        57 -11.2106     34.8424    234.5930   1.1884943632e+02   2.0440973275e+01    0.4252268    0.1305719  36.06  0.001927514    2.788    0.641
        58 -10.3115     30.2873    232.0039   1.1955988581e+02   2.1471593743e+01    0.1923516    0.1468422  66.34 0.0009685836    1.039    0.037
        59  -9.4933    170.8361    233.8096   9.0451013731e+01   1.1549512847e+00    0.1618685    0.1506122  48.17 0.0007354292    1.299    0.230
        60 -11.1238     59.3490    230.4024   1.1359068412e+02   1.8368291286e+01    0.3007556    0.2146515 -70.34 0.0008148205    1.449    0.310
        61 -10.5368     11.8277     53.6305   1.0025646626e+02   6.4691749504e+01    0.1820208    0.1260584 -40.44 0.0006890026    1.134    0.119
        62  -9.7395     29.7212     53.1642   9.1969496544e+01   6.3300047668e+01    0.1848714    0.1626568  15.34 0.0004778726    1.287    0.223
        63  -9.1229     22.2752     42.6817   9.1818723136e+01   6.6014342438e+01    0.1040591   0.09769107 -79.12 0.0001882044    1.570    0.363
        64 -10.7390    130.2498     37.6807   5.2306800926e+01   4.7560914086e+01    0.3235037    0.2511792 -77.20 0.0008365986    1.602    0.376
        65 -10.2811    189.7152     15.2744   3.6632423902e+01   3.5871907022e+01    0.2246894    0.1695486 -73.48 0.0006870283    1.225    0.184
