#   1 NUMBER                 Running object number                                     
#   2 MAG_AUTO               Kron-like elliptical aperture magnitude                    [mag]
#   3 X_IMAGE                Object position along x                                    [pixel]
#   4 Y_IMAGE                Object position along y                                    [pixel]
#   5 X_WORLD                Barycenter position along world x axis                     [deg]
#   6 Y_WORLD                Barycenter position along world y axis                     [deg]
#   7 A_WORLD                Profile RMS along major axis (world units)                 [deg]
#   8 B_WORLD                Profile RMS along minor axis (world units)                 [deg]
#   9 THETA_WORLD            Position angle (CCW/world-x)                               [deg]
#  10 FWHM_WORLD             FWHM assuming a gaussian core                              [deg]
#  11 ELONGATION             A_IMAGE/B_IMAGE                                           
#  12 ELLIPTICITY            1 - B_IMAGE/A_IMAGE                                       
         1 -14.4749     68.3721    144.2554   9.8974642132e+01   3.7554918688e+01     5.099401     2.714089  71.30  0.004242279    3.336    0.700
         2 -14.3326    219.9424     27.5361   3.6601712251e+01   2.7858585593e+01     1.536387     1.132648  34.56  0.008781243    2.184    0.542
         3 -14.3632    205.9657     40.5797   4.1019099925e+01   2.9263029665e+01     1.890131     1.350017  36.30  0.007812587    2.077    0.519
         4 -13.1463    245.4899      4.3639   2.9916096292e+01   2.5262183565e+01    0.7010956    0.4212653  88.42  0.004520582    1.462    0.316
         5 -10.5756     49.6578      3.1230   6.1603210132e+01   6.8191864782e+01    0.2507951    0.1662148  59.71  0.001224308    2.059    0.514
         6  -9.9410     45.1818      1.3938   6.2539755168e+01   6.9102574863e+01    0.2254413    0.1024762  49.02  0.001168472    2.195    0.544
         7 -11.6484    194.1972    196.9643   7.7987136572e+01   3.5670762139e+00     1.181098    0.6467531 -65.29   0.00394338    4.819    0.792
         8 -15.6014      3.6926    184.4477   1.2072583522e+02   3.4711563993e+01     7.459644     1.018074 -73.15  0.001106819    4.867    0.795
         9 -13.9263     81.6366    218.8109   1.0621676932e+02   1.7706705930e+01     2.136843    0.8611829  42.03  0.009140412    2.135    0.532
        10 -17.0971     19.7023    243.1558   1.2103823388e+02   2.0395314659e+01     8.712136     5.111081  33.59   0.05400552    1.802    0.445
        11  -9.7680     99.4731    180.8046   9.6758206470e+01   2.3629004741e+01     0.247914    0.1984787  40.89 0.0005399221    1.230    0.187
        12 -10.3677    189.2797    177.6236   7.5280150845e+01   8.0575218960e+00    0.4238165    0.3156938 -79.53  0.001999239    2.165    0.538
        13  -8.9562     87.4985    177.4877   9.9279299664e+01   2.6361985999e+01    0.1462896    0.1329053  76.55 4.512179e-05    1.026    0.026
        14 -12.1368     62.6837    174.5091   1.0526179784e+02   3.0733349127e+01    0.4426295    0.3182048 -33.68  0.001348047    1.874    0.466
        15 -11.9753     67.6099    169.6657   1.0328710513e+02   3.1256571319e+01    0.3761655    0.2776487 -44.26  0.001245851    1.549    0.354
        16  -9.7008     90.2109    175.2220   9.8222054218e+01   2.6482913908e+01    0.2081125    0.1621553  73.86 0.0006223983    1.350    0.259
        17  -9.4496    148.1088    174.2099   8.3645959339e+01   1.6427206932e+01     0.201378    0.1753225  79.07 0.0004197589    1.319    0.242
        18 -12.5550     84.5544    153.9507   9.6111789769e+01   3.2656599548e+01    0.9264974    0.5550996 -45.28  0.004069045    1.800    0.444
        19 -13.2199     77.1578    159.6389   9.9143875454e+01   3.2376223815e+01     1.577149    0.7117317  54.57  0.005709344    2.818    0.645
        20 -13.4899     64.4666    156.2331   1.0209887901e+02   3.5067672946e+01    0.5629792     0.438164 -50.98  0.001498078    1.320    0.243
        21 -13.6591     35.2550    200.5480   1.1483231348e+02   2.7866319644e+01    0.7669219    0.5834634 -51.57  0.001422568    1.598    0.374
        22 -10.8939    133.7528    144.2471   8.0913275490e+01   2.6050645803e+01     1.112292    0.2850032 -55.06  0.002567139    5.716    0.825
        23  -8.9665    112.1788    150.3600   8.7856737075e+01   2.8769371925e+01    0.2141645    0.1374579  49.64 0.0005551704    1.610    0.379
        24 -10.2028    174.7966    148.7733   7.2293095361e+01   1.6684722658e+01    0.3089237    0.2057752 -55.03 0.0008244165    1.604    0.376
        25 -15.3227     45.6444    190.1405   1.1140291775e+02   2.9103023176e+01     3.468354     1.819727  65.54   0.01606322    2.064    0.515
        26 -11.4593     22.9207    146.9865   1.1247296618e+02   4.2137726330e+01     0.407416    0.2488708  72.13  0.001697041    1.759    0.432
        27  -9.5744     34.7775    144.9610   1.0885124666e+02   4.1503518553e+01     0.233337    0.1808979 -39.16  0.000827657    1.475    0.322
        28 -10.3332     31.8054    143.1934   1.0946803088e+02   4.2249062577e+01    0.3712741    0.2558882 -45.36  0.001999784    1.551    0.355
        29  -8.9981    200.3503    143.2214   6.5885273790e+01   1.2711640149e+01    0.2014976    0.1257835 -49.96 0.0002902751    1.597    0.374
        30 -10.2271     98.6554    140.6910   8.9561594246e+01   3.3591288304e+01    0.2996626    0.2647175 -60.64 0.0008422021    1.097    0.089
        31 -10.0108    101.3469    137.9552   8.8220102545e+01   3.3783927217e+01    0.4398247    0.2451214 -35.39  0.001286752    2.370    0.578
        32 -12.4465     86.6848    139.2042   9.2679765746e+01   3.6008412713e+01    0.3163542    0.2672353 -48.45 0.0004555658    1.186    0.157
        33 -11.0096     75.7780    136.4029   9.5322988658e+01   3.8444755765e+01    0.2758834    0.2438167  83.32  0.000454101    1.157    0.136
        34  -9.9096     26.5861    135.0257   1.0989067652e+02   4.4797741253e+01    0.2259955    0.1666041  52.81 0.0001109319    1.456    0.313
        35 -11.2936     16.5633    132.0382   1.1248319677e+02   4.6396251498e+01    0.2867047    0.1898358  77.94  0.001558198    1.585    0.369
        36 -10.9628    107.3792    130.6474   8.4893406544e+01   3.4450014149e+01    0.6087806    0.3533002  30.97  0.002465105    1.994    0.499
        37 -10.4521    135.0445    128.3298   7.6907606352e+01   2.9461917886e+01    0.4153229    0.3061013 -48.36  0.001825539    1.337    0.252
        38  -9.5070     46.7544    167.1562   1.0846792821e+02   3.4590803307e+01    0.2086121    0.1620552  75.72 0.0004770894    1.225    0.184
        39 -15.0538     10.3146    206.6769   1.2074078708e+02   2.9054997992e+01     1.155299     0.969439 -12.24  0.003744563    1.877    0.467
        40 -10.3382     97.2401    125.6537   8.6658393979e+01   3.7531703424e+01    0.2891666    0.2503537  -3.51 0.0008504312    1.380    0.275
        41  -9.4644    116.0228    124.4890   8.1033101039e+01   3.4242992637e+01     0.209504    0.1407717  12.81 0.0006948422    2.361    0.576
        42  -9.5090    135.0000    119.9415   7.4866016703e+01   3.1370932778e+01    0.2583821    0.0879776 -46.73 0.0006569199    2.895    0.655
        43  -9.9070    106.7474    118.9498   8.2298538121e+01   3.7364172372e+01    0.2295466    0.2132352  36.64 0.0003447294    1.115    0.103
        44  -9.3923    185.4952    169.5033   7.4426477205e+01   1.0349858702e+01    0.1432371    0.1359802 -14.94 0.0001538487    1.002    0.002
        45 -10.7983    249.3112    113.9849   5.1677645586e+01   8.8158680506e+00    0.1945554    0.1499909 -42.78 0.0007425795    1.086    0.079
        46 -10.0684    205.5198    110.1589   5.7489060325e+01   1.7991885124e+01    0.2889144    0.2108899  44.05 0.0009141949    1.545    0.353
        47  -9.3596     29.9866    107.9808   1.0451822598e+02   5.1191227348e+01    0.1786108    0.1512354  72.33 0.0005611497    1.323    0.244
        48  -9.3310    134.7611    105.9750   7.1336179627e+01   3.4494396966e+01    0.2119836    0.1293346 -44.76 0.0007928867    1.624    0.384
        49 -11.4962    241.5287    101.5113   5.0121638464e+01   1.2324517589e+01    0.2082303    0.1780937 -87.74 0.0008523492    1.280    0.219
        50 -12.2856    245.0392     91.7574   4.7619955926e+01   1.3271349198e+01    0.3500488    0.3017205  49.70  0.002177618    1.427    0.299
        51  -9.6208    107.5035    203.5222   9.8292737131e+01   1.7076833804e+01    0.1414145    0.1273536  59.80 0.0001862097    1.024    0.024
        52 -10.9906     53.1565     91.1936   9.2660124697e+01   5.2636458738e+01    0.3768039    0.1978955 -58.88  0.001199179    1.855    0.461
        53  -9.0276    131.1878    157.7515   8.4450532213e+01   2.3403247140e+01     0.265354    0.1693151  80.47 0.0009596965    2.807    0.644
        54  -9.3895    160.4122     82.7964   5.9128184495e+01   3.3253851112e+01    0.2034916    0.1448033 -28.57 0.0004230161    1.616    0.381
        55  -9.3538     71.8990     82.9702   8.3731564488e+01   5.1755013534e+01    0.2094162    0.1719751  76.97  0.000574056    1.627    0.386
        56  -9.9632     47.4296     62.0573   8.6561682921e+01   5.9626865056e+01    0.2083269    0.1803382  27.33 0.0003275422    1.245    0.197
        57 -11.0560     13.3996     59.9223   1.0048857985e+02   6.3449683578e+01    0.2459308     0.193496 -54.11  0.000421644    1.172    0.147
        58 -11.1186     81.5670    182.5493   1.0155426520e+02   2.6050818481e+01    0.5205128    0.3522058  73.46  0.002160002    1.666    0.400
        59 -12.2793    197.4484     46.2678   4.3424890978e+01   3.0423364307e+01    0.5666368    0.4607717 -84.92  0.001217252    1.119    0.106
        60 -13.9689     15.7231    215.8734   1.2020106222e+02   2.6501039146e+01     0.990437    0.4249249  33.67  0.004113134    2.300    0.565
        61 -10.7068    135.6692     42.0468   5.2421244558e+01   4.5755599719e+01      0.27395    0.2250756 -79.57 0.0004049635    1.344    0.256
        62 -10.6238    198.0213     24.0022   3.8002758283e+01   3.3190199696e+01    0.2670456    0.1909811 -23.78  0.001019982    1.781    0.438
        63  -9.7173    189.5073     14.9941   3.6748611715e+01   3.6186456997e+01    0.1773723    0.1193426 -38.44  0.000648062    1.554    0.356
        64  -9.9356    134.0642     33.1090   4.9942978122e+01   4.7311411367e+01    0.2007063    0.1804757  76.62 0.0004229312    1.065    0.061
        65  -9.6062     89.8438    212.1925   1.0356702698e+02   1.7934819214e+01    0.2268218    0.1713857  89.22 0.0005554628    1.395    0.283
        66 -10.6437    111.6911    204.5844   9.7468920003e+01   1.6158330477e+01    0.3523457    0.2286803 -81.22 0.0008988041    2.005    0.501
