#   1 NUMBER                 Running object number                                     
#   2 MAG_AUTO               Kron-like elliptical aperture magnitude                    [mag]
#   3 X_IMAGE                Object position along x                                    [pixel]
#   4 Y_IMAGE                Object position along y                                    [pixel]
#   5 X_WORLD                Barycenter position along world x axis                     [deg]
#   6 Y_WORLD                Barycenter position along world y axis                     [deg]
#   7 A_WORLD                Profile RMS along major axis (world units)                 [deg]
#   8 B_WORLD                Profile RMS along minor axis (world units)                 [deg]
#   9 THETA_WORLD            Position angle (CCW/world-x)                               [deg]
#  10 FWHM_WORLD             FWHM assuming a gaussian core                              [deg]
#  11 ELONGATION             A_IMAGE/B_IMAGE                                           
#  12 ELLIPTICITY            1 - B_IMAGE/A_IMAGE                                       
         1 -13.2664    212.6442      2.0611   6.0213608201e+01   3.1182928725e+01     1.702764    0.8183547  73.33  0.008203455    2.107    0.525
         2 -14.1700    188.6535     24.7747   6.9030209012e+01   3.4729546242e+01     2.038884     1.310799 -15.56  0.006492231    1.632    0.387
         3 -13.7623    195.7699     19.0801   6.6517090289e+01   3.3587767402e+01     1.112022    0.8361289 -51.19  0.004107981    1.306    0.234
         4 -13.2974    202.1387     10.7653   6.3479709244e+01   3.2865649183e+01    0.7510258    0.7257129 -83.35  0.001256405    1.065    0.061
         5 -11.3360     13.5400     24.0801   1.2681612577e+02   7.1294348661e+01    0.2368314     0.189118   3.48  0.001193286    1.361    0.265
         6 -11.3786    248.8158    248.7361   1.0875763842e+02  -4.0731402441e+00    0.3493997    0.1838659  -8.67  0.002455482    1.726    0.421
         7 -12.7112    139.3577    247.6024   1.2722993310e+02   9.2268992378e+00    0.4867601    0.4330498 -66.49  0.003994394    1.634    0.388
         8 -14.7043    101.8308    245.2652   1.3396772975e+02   1.4134152755e+01      5.11946     2.448667  18.49   0.01386674    3.065    0.674
         9 -13.5982     73.4996    227.1195   1.3796296187e+02   2.0208615937e+01    0.6453001    0.2433847  56.14  0.002983216    3.128    0.680
        10 -16.0949     49.1889    204.2932   1.4128961556e+02   2.6831832703e+01     8.344486     2.860883  61.91   0.03356232    4.039    0.752
        11 -13.0267     13.3454    152.5797   1.4624081591e+02   4.0638635159e+01     1.071616    0.3003276  40.98  0.004813924    2.829    0.646
        12 -10.9808    162.9026    249.7296   1.2320239932e+02   6.0210892946e+00    0.2973033    0.1217402  42.93  0.001596127    2.356    0.576
        13 -15.1146      7.9292    240.4892   1.5082239540e+02   2.4402505560e+01     1.904466    0.8190851 -70.88   0.01226689    2.660    0.624
        14 -13.3399     50.4073    232.5623   1.4278898754e+02   2.1797699001e+01    0.8100202     0.316379  41.74  0.004755817    1.831    0.454
        15 -10.0907    228.7297    205.5931   1.0543990986e+02   2.5549811536e+00    0.1932409    0.1669756 -12.82 0.0005375785    1.492    0.330
        16 -14.6595      4.0170     18.1500   1.3106760735e+02   7.3154085460e+01     15.31638    0.8687738 -65.78   0.02611877   16.260    0.938
        17 -10.7560    192.8543    194.6685   1.0998583066e+02   8.9291897694e+00    0.6545516    0.3576973 -57.37  0.002357635    6.188    0.838
        18 -11.8742     72.0475    192.9767   1.3538426817e+02   2.6423090790e+01    0.3625761     0.239511 -38.26  0.001359675    2.097    0.523
        19 -11.8464     76.5579    186.1893   1.3367929231e+02   2.7188242460e+01    0.2636066    0.2256815 -40.23 0.0008306923    1.422    0.297
        20  -8.8343    181.5073    192.4535   1.1178663338e+02   1.0933589369e+01    0.1272713    0.1008708  14.58  3.88043e-05    1.030    0.029
        21 -11.5316     84.8296    174.2670   1.3036704905e+02   2.8506826214e+01    0.2403115    0.2351148 -85.77 0.0004309724    1.123    0.109
        22 -13.4411     72.6962    171.6060   1.3300350648e+02   3.0606646163e+01    0.4490117    0.2702345 -41.11   0.00164504    2.164    0.538
        23 -10.5935    126.8503    174.1012   1.2038720501e+02   2.2449801236e+01     0.311278    0.1758498  31.40   0.00141142    1.640    0.390
        24 -12.9838     58.6663    133.2272   1.3188067163e+02   4.0842945971e+01     2.844035    0.9322283 -78.78  0.006539111    8.528    0.883
        25 -12.8189     90.6873    166.1930   1.2787797404e+02   2.9366724897e+01     1.773898    0.5266562  46.33  0.001561891    3.648    0.726
        26 -13.5324     67.6674    144.4626   1.3089888257e+02   3.7149911974e+01     1.306113    0.6988684  77.38  0.003164234    2.961    0.662
        27 -12.4654     46.0223    147.2818   1.3719003003e+02   3.8972474104e+01    0.6368134    0.2998174 -81.76  0.002908638    2.318    0.569
        28 -10.1463    102.9678    149.5103   1.2218868738e+02   3.1068752078e+01    0.2750433    0.2532713  -5.28 0.0008820752    1.174    0.148
        29  -9.5546    105.4039    145.3837   1.2083323209e+02   3.1566025740e+01    0.3078232    0.1892868 -29.36   0.00136782    2.235    0.553
        30 -12.2399     91.7389    148.9804   1.2505039194e+02   3.2871906816e+01    0.2674299    0.2439057 -11.76 0.0005043149    1.232    0.188
        31 -11.5206     55.3284    145.7761   1.3447254617e+02   3.8314611788e+01    0.3398771    0.3042092  37.48  0.002177956    1.155    0.134
        32  -9.1685    134.0000    144.9750   1.1350026710e+02   2.6848943524e+01    0.2277878   0.08058475 -47.55 0.0008077669    2.980    0.664
        33  -9.9755    112.6395    135.5646   1.1706662140e+02   3.2480165662e+01    0.3011394    0.2196696 -12.79  0.001038627    1.815    0.449
        34 -14.3913     12.0185    206.9714   1.4904709934e+02   2.9761792778e+01     1.118126    0.8348255  50.12  0.003282675    1.103    0.093
        35 -10.8816    100.2592    132.5043   1.1982922711e+02   3.5191873377e+01    0.2869332    0.2149863 -30.34 0.0006121804    1.543    0.352
        36 -11.2789     35.9431    132.8293   1.3847101035e+02   4.3314992122e+01    0.1952634    0.1645922 -49.56  0.001225966    1.298    0.230
        37 -13.1454     48.5834    226.2042   1.4277876472e+02   2.3032708350e+01    0.4317579    0.3377786 -14.25  0.002553788    2.007    0.502
        38 -12.5996     41.0958    126.0059   1.3614915588e+02   4.4451743898e+01    0.4508142    0.2698314 -68.40  0.002366037    1.529    0.346
        39  -9.3856    108.8701    122.8863   1.1545428561e+02   3.5876868611e+01    0.2035254    0.1848973  -6.03 0.0002906863    1.161    0.138
        40 -11.0846    168.2574    113.1706   9.8258598554e+01   2.6284084825e+01    0.3348839     0.299073 -81.42 0.0008639862    1.504    0.335
        41 -10.6930     19.9620    111.2750   1.4106590764e+02   4.9804868281e+01    0.1694409    0.1590927  77.70 0.0006340585    1.111    0.100
        42  -9.4049    205.2228    110.5614   9.0353171317e+01   1.9216481989e+01     0.201164    0.1231894  33.64 0.0009577853    1.714    0.417
        43  -9.7544     16.7328     92.1078   1.3997093602e+02   5.4736402888e+01    0.2063131    0.1596647  39.94 0.0006124665    1.424    0.298
        44  -8.9925    184.6895     77.6480   8.5382955541e+01   2.8651548154e+01    0.1557605    0.1100416  11.81 0.0007044566    1.721    0.419
        45 -14.2675     34.5772    246.8075   1.4637265013e+02   2.1086828471e+01     1.841941    0.9757573  38.63   0.01327544    1.401    0.286
        46 -10.4591    126.2604     53.3151   9.0284785443e+01   4.6448647621e+01    0.4231483    0.3033936  85.64  0.001626217    2.149    0.535
        47  -9.6321    230.6645    249.3145   1.1166431793e+02  -2.1109074712e+00    0.0894405    0.0709733  29.21  0.000491897    1.691    0.408
        48 -11.7439    201.1883    249.3615   1.1650303716e+02   1.3423878059e+00    0.4625289   0.09416719  33.91  0.001899626    3.762    0.734
        49 -12.5274     85.2294    239.5648   1.3663645537e+02   1.6912768000e+01    0.5686314    0.2570537  62.84  0.001547128    3.265    0.694
        50  -9.4096    185.7027    238.3285   1.1775342697e+02   4.4608834363e+00   0.09815832   0.07772592  42.88 0.0004316905    1.635    0.388
