#   1 NUMBER                 Running object number                                     
#   2 MAG_AUTO               Kron-like elliptical aperture magnitude                    [mag]
#   3 X_IMAGE                Object position along x                                    [pixel]
#   4 Y_IMAGE                Object position along y                                    [pixel]
#   5 X_WORLD                Barycenter position along world x axis                     [deg]
#   6 Y_WORLD                Barycenter position along world y axis                     [deg]
#   7 A_WORLD                Profile RMS along major axis (world units)                 [deg]
#   8 B_WORLD                Profile RMS along minor axis (world units)                 [deg]
#   9 THETA_WORLD            Position angle (CCW/world-x)                               [deg]
#  10 FWHM_WORLD             FWHM assuming a gaussian core                              [deg]
#  11 ELONGATION             A_IMAGE/B_IMAGE                                           
#  12 ELLIPTICITY            1 - B_IMAGE/A_IMAGE                                       
         1 -13.6251    218.4928      7.1849   3.8130937838e+01   2.9473109952e+01     1.452083     1.197086  31.00  0.005486473    1.523    0.343
         2 -14.3196    192.9565     38.0660   4.9374705667e+01   3.2110388918e+01     2.436409     1.551699  15.35   0.01060499    2.329    0.571
         3 -10.5471    189.5145     14.7771   4.2605919626e+01   3.5641066354e+01    0.2754075    0.2428559 -57.72 0.0009606893    1.043    0.041
         4  -9.6522    168.0790    232.8472   9.6585175565e+01   6.7805886451e+00    0.2034497    0.1362029  36.71 0.0007236521    1.246    0.198
         5 -12.4418    248.4274    247.3414   8.5733866266e+01  -4.4900892681e+00    0.7888693    0.3243079 -35.27  0.004936427    3.078    0.675
         6 -19.5227     16.9776    144.9493   1.2013172133e+02   4.2789354431e+01     18.79499     4.615448 -81.51   0.06567304    3.953    0.747
         7  -9.8051     56.0673    217.3291   1.1626731372e+02   2.3672856024e+01    0.2368876    0.1049825  69.83  0.001184995    2.691    0.628
         8 -10.2173    184.0031    212.2369   9.1006546952e+01   7.2242229171e+00    0.1717335    0.1294217  25.55  0.001185247    1.088    0.081
         9 -10.8695    173.3553    212.0701   9.2879320835e+01   8.7556322045e+00    0.5636307    0.1381142  31.38  0.001607903    6.692    0.851
        10  -9.7413     56.7723    210.2186   1.1562862583e+02   2.4877279524e+01    0.2486248    0.1519223 -59.65   0.00128099    1.958    0.489
        11  -9.3344     43.9740    210.2105   1.1822989031e+02   2.6308112120e+01    0.1630162    0.1069565  57.89            0    1.204    0.170
        12  -8.5139     42.3218    205.8332   1.1829522619e+02   2.7305697138e+01    0.2500288    0.1990897 -12.56  0.001666623    2.093    0.522
        13  -9.5598     72.1058    250.0144   1.1540393689e+02   1.6512819225e+01    0.1215504   0.08790978  76.54 0.0004609426    1.454    0.312
        14 -11.8603     32.8084    206.7433   1.2029565610e+02   2.8129940113e+01     0.351551    0.1315371  53.58   0.00173198    2.120    0.528
        15 -10.9502    193.9092    197.0232   8.6928957483e+01   7.7970939445e+00     1.025357    0.4988438 -54.07  0.004167296    4.750    0.789
        16 -10.5205     66.4516    204.5521   1.1318955300e+02   2.4781335291e+01    0.2616307    0.1832377 -42.77 0.0009734689    2.057    0.514
        17  -8.8168     70.8872    200.2461   1.1188153294e+02   2.5044225116e+01    0.1614088     0.128644  53.84 0.0008366348    1.031    0.030
        18 -10.0867     96.6048    201.4768   1.0657090606e+02   2.1442146225e+01     0.429218     0.313409 -34.40  0.002618348    1.919    0.479
        19  -9.8306    204.4672    199.5041   8.5508793884e+01   5.9477881895e+00    0.2113771   0.09106354  28.74  0.001027349    2.326    0.570
        20 -10.1100     34.9622    197.2798   1.1930702042e+02   2.9732399076e+01    0.1582195     0.108578  52.31 0.0003181533    1.165    0.141
        21  -9.7977    150.3060    195.6298   9.4837130903e+01   1.4577201165e+01    0.1859977    0.1410953  63.60 0.0009292022    1.707    0.414
        22  -9.5886     82.0428    194.8402   1.0896573391e+02   2.4637100123e+01    0.1992777    0.1656436  53.39 0.0004759776    1.017    0.017
        23  -9.9762    207.8391    192.3387   8.3759302313e+01   6.3713459639e+00    0.2567092    0.1228218 -14.21  0.001096874    3.427    0.708
        24 -10.5290     95.4426    188.6567   1.0535551864e+02   2.3985095669e+01    0.4252965    0.3266434 -85.32  0.002001778    1.440    0.306
        25 -10.8955     99.4221    180.7447   1.0348426199e+02   2.4944730849e+01    0.4207436    0.2817801 -41.49   0.00157897    1.885    0.469
        26  -8.8537    156.5149    189.9529   9.2756012787e+01   1.4520691133e+01    0.1642849    0.1223384 -42.20 0.0004447499    1.502    0.334
        27 -10.7880    149.8786    187.9881   9.3768154153e+01   1.5877248810e+01     0.262209    0.2294204  37.74  0.001734277    1.078    0.073
        28 -12.1252    123.1462    186.6408   9.9095953063e+01   2.0269050021e+01    0.4065338    0.3397204  25.53  0.002590426    1.205    0.170
        29 -10.9800    144.5227    180.2697   9.3644492256e+01   1.8029363637e+01    0.3059816     0.277406  28.14  0.001082574    1.016    0.016
        30 -10.1333    142.9211    176.4953   9.3367646462e+01   1.8947406479e+01    0.2449104    0.1985122  -2.80 0.0008226783    1.444    0.307
        31  -9.9297    141.0368    187.4912   9.5484128581e+01   1.7346581635e+01    0.1991649    0.1109718  37.75   0.00103351    1.592    0.372
        32 -10.6891    150.8171    179.4628   9.2221215001e+01   1.7149542346e+01    0.3609645    0.2577274 -74.62  0.001904748    2.220    0.550
        33 -10.5164    188.8170    177.0111   8.4447513558e+01   1.1378997315e+01    0.5553548    0.3284929 -52.71  0.002286455    2.490    0.598
        34 -10.5358    139.9496    172.0399   9.3260478356e+01   2.0231333781e+01    0.3567189      0.26272  62.65  0.001269183    1.643    0.392
        35 -10.0137     58.7887    176.3716   1.1235116444e+02   3.1329882987e+01     0.201988    0.1736175  68.08 0.0004865172    1.038    0.037
        36 -10.5111     50.2721    224.6085   1.1786338805e+02   2.3043840403e+01    0.1824081    0.1151574  72.35 0.0007257058    1.472    0.321
        37 -10.5236     43.5965    172.3586   1.1557961062e+02   3.3957271200e+01    0.6074584    0.1829788  45.94  0.001654103    2.700    0.630
        38  -7.9596     76.6165    224.5576   1.1276490879e+02   2.0003458423e+01     0.109066   0.08746677  51.60 0.0004034252    1.034    0.033
        39  -9.8097    240.3865    169.2112   7.4424538873e+01   4.5219539433e+00     0.154159   0.09646903 -32.87 0.0004630218    1.583    0.368
        40 -10.6155    230.3344    167.1397   7.5576847970e+01   6.2567409085e+00     0.346845    0.1520782 -43.48  0.001570925    3.032    0.670
        41  -9.0564     65.0000    223.8970   1.1497034607e+02   2.1498701797e+01    0.1400705    0.0604923 -71.65 0.0007581033    2.644    0.622
        42  -9.7419     36.8736    224.1857   1.2040556919e+02   2.4543351854e+01    0.1279819    0.1110372  26.95 0.0003804603    1.478    0.323
        43 -11.6640     95.0308    151.6581   1.0031487225e+02   3.1659280149e+01    0.6230247    0.4945359 -40.05   0.00339016    1.482    0.325
        44  -9.3589    188.0214    152.5225   7.9934339627e+01   1.5265652437e+01    0.2522615    0.1693648 -72.09   0.00104242    3.499    0.714
        45 -10.9308    133.9092    145.8099   8.9844505819e+01   2.6283708852e+01      1.10035    0.2960874 -54.21  0.003002635    5.419    0.815
        46  -9.4869    174.4503    149.0216   8.1820740192e+01   1.8271865213e+01    0.2573138    0.2274166  57.80  0.001077806    1.332    0.249
        47  -9.2779    108.9761    147.0422   9.6046883155e+01   3.0395791709e+01    0.2066746    0.1893377  68.05  0.001215421    1.060    0.057
        48  -9.8715    143.7083    145.2583   8.7510542956e+01   2.4603874223e+01    0.2503773    0.1769819 -50.68   0.00128032    1.491    0.329
        49  -9.6535     87.4919    144.1721   1.0103218935e+02   3.4500369011e+01    0.3410449    0.1717721  64.46  0.001270434    3.065    0.674
        50 -10.8195    107.1340    138.1588   9.4863575571e+01   3.2643335455e+01    0.4488245    0.3927934 -39.26  0.001866829    1.253    0.202
        51 -11.6665     94.9480    137.7197   9.7952023499e+01   3.4784670619e+01    0.2688181    0.2536375 -46.61 0.0004229989    1.165    0.142
        52 -10.5194    105.8523    130.6947   9.3724567987e+01   3.4525674265e+01    0.3658078     0.304091 -71.76  0.001235701    1.234    0.190
        53  -8.2866    100.7069    132.2550   9.5394441109e+01   3.5064026029e+01     0.139541    0.1058346  71.85 0.0002231673    1.490    0.329
        54  -9.7696    135.7872    129.4738   8.5983603151e+01   2.9244670195e+01    0.4026879    0.1154003 -46.52  0.001260771    3.495    0.714
        55 -10.3342    114.4094    128.9975   9.1150166749e+01   3.3370551127e+01    0.3179433    0.2647186 -35.27 0.0007282457    1.318    0.241
        56  -8.9952    160.3096    127.6579   8.0068485618e+01   2.4782261367e+01    0.1429292    0.1151208 -80.27 0.0004630658    1.695    0.410
        57 -11.1345    120.2688    123.8661   8.8533425994e+01   3.3400880612e+01    0.7407766     0.321772 -38.15  0.002600805    2.943    0.660
        58 -10.4502    102.0753    124.8741   9.3530079312e+01   3.6505544984e+01    0.2972621    0.2514563 -19.26 0.0006805098    1.474    0.322
        59  -9.5180    135.0000    120.8767   8.4202248183e+01   3.1170152630e+01    0.4050903   0.08248162 -45.82  0.001043377    4.862    0.794
        60  -9.1245     55.6186    223.1566   1.1674061387e+02   2.2701038539e+01    0.1268706   0.09839738  68.94 0.0002616871    1.153    0.133
        61  -9.4249    109.8452    118.2922   8.9992700185e+01   3.6591494101e+01    0.2280468    0.1935389 -69.67 0.0003116418    1.204    0.169
        62 -10.0473    231.2287    113.6851   6.4237692563e+01   1.3306807752e+01    0.2494189    0.2256958  -8.02  0.000798944    1.099    0.090
        63  -9.3305    167.5475    112.3909   7.4879226498e+01   2.6130567921e+01    0.3195205     0.228788 -69.52  0.001191465    2.014    0.503
        64  -9.7719    134.8568    111.8185   8.2031003097e+01   3.3077814042e+01    0.4479879    0.1216292 -45.09  0.001318469    3.607    0.723
        65 -11.2468    118.6330    110.4468   8.5786806104e+01   3.6648075109e+01    0.6713336     0.450473  71.02  0.002870539    2.088    0.521
        66  -9.5043    205.3503    110.1245   6.7369553732e+01   1.8744254394e+01    0.2820998    0.2069872  40.43 0.0009268216    1.458    0.314
        67  -9.2745     65.6390    100.0756   9.9093935649e+01   4.8386576485e+01    0.3252428     0.201603  40.81  0.001540802    1.697    0.411
        68 -10.4810     59.0570    230.2659   1.1653773876e+02   2.1105597930e+01    0.1537899    0.1280877  73.67 0.0003044708    1.202    0.168
        69  -8.6060     67.7724     71.2327   9.0741507001e+01   5.5074307802e+01    0.1915318    0.1615228 -32.41 0.0003606736    1.258    0.205
        70 -10.2332     72.3472    245.3166   1.1505783080e+02   1.7191708519e+01    0.2494429    0.1230983  57.85  0.001316095    1.870    0.465
        71 -12.9760    177.8530     51.9299   5.5712725736e+01   3.3931588253e+01    0.8236414    0.6787443  -2.73 0.0009139415    1.370    0.270
        72  -8.0573     84.2087    245.6726   1.1294389026e+02   1.5755534017e+01   0.09793032   0.06321985  62.14 0.0006762216    1.496    0.331
        73  -8.9993     61.5049    220.0637   1.1538226017e+02   2.2566951646e+01      0.12804   0.09627523 -52.41 0.0006463397    1.787    0.440
        74  -9.3774     49.1375    218.6287   1.1771991713e+02   2.4216490705e+01    0.2884566    0.1420893  64.06  0.001679915    1.902    0.474
