#   1 NUMBER                 Running object number                                     
#   2 MAG_AUTO               Kron-like elliptical aperture magnitude                    [mag]
#   3 X_IMAGE                Object position along x                                    [pixel]
#   4 Y_IMAGE                Object position along y                                    [pixel]
#   5 X_WORLD                Barycenter position along world x axis                     [deg]
#   6 Y_WORLD                Barycenter position along world y axis                     [deg]
#   7 A_WORLD                Profile RMS along major axis (world units)                 [deg]
#   8 B_WORLD                Profile RMS along minor axis (world units)                 [deg]
#   9 THETA_WORLD            Position angle (CCW/world-x)                               [deg]
#  10 FWHM_WORLD             FWHM assuming a gaussian core                              [deg]
#  11 ELONGATION             A_IMAGE/B_IMAGE                                           
#  12 ELLIPTICITY            1 - B_IMAGE/A_IMAGE                                       
         1 -14.3044    203.6566     35.5256   5.6898363628e+01   2.9835452404e+01     2.980571     1.382988 -21.25   0.01182605    2.526    0.604
         2 -15.6267    215.6486     75.1291   6.5945715417e+01   2.1343863717e+01     3.336506     1.992496 -86.15   0.01254909    3.005    0.667
         3 -13.8347    233.5382      3.0444   4.5490456043e+01   2.6292158951e+01     1.016676     0.249443  58.59  0.003700833    3.860    0.741
         4 -18.3689    241.4407     43.5103   5.4531505930e+01   1.9871911572e+01     7.418267     6.879937   2.71   0.02522137    1.263    0.208
         5 -15.1610    220.9941     32.6644   5.4036498321e+01   2.5963935724e+01     2.802625    0.7382726 -22.00  0.007073203    6.635    0.849
         6 -10.6188    179.4224     25.1269   5.7182846303e+01   3.7207040227e+01    0.8393356    0.5256172  87.25  0.002392972    1.854    0.461
         7  -9.9422    155.4710     12.8766   5.6860629950e+01   4.4640244384e+01    0.5064971    0.2365685 -12.05  0.001775018    2.747    0.636
         8  -9.3152     92.6832      8.6584   6.8331171002e+01   6.0007038346e+01    0.2371528    0.1521362 -22.95 0.0005140722    1.570    0.363
         9  -9.4812    205.8665      6.6692   4.8767549492e+01   3.2504297018e+01    0.4373447    0.1799587  47.93  0.001333574    2.833    0.647
        10  -8.5074    180.5812      5.5225   5.1130936330e+01   3.8936534310e+01    0.1336297     0.123302  67.00 0.0001981439    1.061    0.057
        11 -13.8879     62.2466    146.3160   1.1875844683e+02   3.7816527807e+01     1.644746     1.314837  -2.55  0.005411497    1.822    0.451
        12 -12.9144      7.9049    168.3036   1.3368575450e+02   3.8453546960e+01     1.880221    0.7466199 -87.71   0.00956137    2.257    0.557
        13 -13.2000     23.2625    165.2879   1.3016409147e+02   3.7774571128e+01    0.8541612    0.6644352  88.56    0.0036755    1.026    0.025
        14  -8.5451    246.0118    243.1870   9.6286798429e+01  -8.3600003132e+00    0.1518162    0.1091566  17.85            0    1.035    0.034
        15 -10.4976    214.3302    241.8368   1.0138415476e+02  -3.7343045504e+00    0.3441157    0.1784064  -5.96  0.001595808    3.423    0.708
        16 -10.0343    140.1017    229.7268   1.1316060787e+02   9.4525948663e+00    0.1879005    0.1752816  53.92 0.0003651163    1.147    0.128
        17  -9.2992    123.9951    205.9949   1.1320857317e+02   1.6049875510e+01     0.178216    0.1532995  51.36  0.001142572    1.005    0.005
        18 -10.3369    191.2321    150.7539   8.9170953208e+01   1.3786223304e+01    0.5812212    0.2889787 -58.13  0.001864317    4.179    0.761
        19 -11.5026    134.7654    109.6854   9.2071321732e+01   3.3859758190e+01     1.309764    0.2519168 -45.11  0.003174942    5.151    0.806
        20 -10.6389    133.6427    142.8246   1.0019850861e+02   2.6997951006e+01     1.521858     0.404336 -52.03  0.004285356    4.370    0.771
        21 -11.3303    135.8283    126.3182   9.5952171714e+01   3.0096684935e+01     1.259899    0.2798924 -49.80  0.003106825    5.266    0.810
        22  -8.6801    249.0167    200.3129   8.8540274658e+01  -3.9642768776e+00    0.1660837    0.1301751  12.27 0.0004250869    1.053    0.050
        23  -9.3409    155.3618    168.2668   1.0037171884e+02   1.7628721888e+01    0.4096603    0.2062102  44.33  0.001762789    1.876    0.467
        24 -10.0634    175.4877    148.8292   9.2009544271e+01   1.7351043635e+01    0.4224494     0.279293  45.84  0.001676165    1.493    0.330
        25  -8.8253     90.6846    169.1122   1.1522058040e+02   2.8717169045e+01    0.1742095    0.1546019 -75.13  0.000348601    1.114    0.103
        26  -9.4777    140.7059    147.3510   9.9479037935e+01   2.4665424658e+01    0.2867236    0.2224139 -72.78  0.001356882    1.568    0.362
        27 -10.5709    144.0184    146.1734   9.8454739192e+01   2.4257696866e+01     0.484886    0.2996375 -71.09  0.001908703    2.618    0.618
        28  -9.4368    191.9343    144.1397   8.7554459345e+01   1.4825032498e+01    0.2708927    0.2161836  55.30 0.0004587302    1.399    0.285
        29 -12.3803    188.9254    138.8080   8.6944567272e+01   1.6416875211e+01    0.9710596     0.534659  54.55  0.001446357    2.099    0.524
        30  -9.3464     89.5978    153.9780   1.1312282067e+02   3.2228805996e+01    0.2228398    0.1822201  55.81 0.0003210459    1.194    0.162
        31 -10.3633    198.8543    163.8267   9.0453475878e+01   1.0012235194e+01    0.3144326     0.224681  50.54 0.0009610983    1.524    0.344
        32 -10.6728    204.2006    165.1831   8.9698540762e+01   8.7612771543e+00     0.346175    0.2801517   0.77 0.0003184324    1.239    0.193
        33 -10.2885    198.2990    131.0576   8.3253364313e+01   1.5826847346e+01    0.2958694    0.2293522 -44.18 0.0008920696    1.343    0.255
        34 -10.8244    190.6663    131.5648   8.4891102119e+01   1.7367826574e+01    0.4633985    0.2573089  57.64   0.00114477    2.226    0.551
        35 -11.2732    160.3219    128.9767   9.0779838723e+01   2.4406574184e+01    0.5079607    0.4322717 -10.36  0.002592121    1.301    0.232
        36 -12.8873    184.7868    121.9220   8.3746784522e+01   2.0423917187e+01     1.124609    0.8388062  50.88  0.005469058    1.393    0.282
        37 -11.4957    162.5270    120.1022   8.8098741922e+01   2.5700096285e+01    0.8852438    0.5665976 -71.25  0.003312631    2.756    0.637
        38 -11.3799    168.6272    114.2307   8.5241914645e+01   2.5495472876e+01    0.6499646    0.6217818 -14.42   0.00259053    1.026    0.026
        39  -8.5076    127.7153    129.3961   9.8691236211e+01   3.1053714085e+01    0.1552079    0.1173347 -86.44 0.0006998428    1.769    0.435
        40  -8.3929     97.4628    128.5368   1.0636991544e+02   3.6769025753e+01    0.1425138    0.1345828 -76.31 0.0001626544    1.009    0.009
        41  -9.9233    210.2421    125.4041   7.9633133156e+01   1.4270464448e+01    0.4004837     0.187731 -22.47  0.001393981    2.968    0.663
        42  -9.6890    153.0397    125.3165   9.1571915637e+01   2.6707857308e+01    0.2884134    0.2287885 -55.18 0.0007884493    1.352    0.260
        43  -8.3952     93.5869    122.8444   1.0621470993e+02   3.8721980516e+01     0.201072    0.1321562 -68.87  0.000697039    1.678    0.404
        44  -9.9376    204.1948    151.9894   8.6886110836e+01   1.0969723072e+01    0.2541036    0.1840586  57.18   0.00126415    1.671    0.402
        45  -9.0793    203.5054    160.5377   8.8859258460e+01   9.6652477238e+00    0.2555201    0.2300001  75.22 0.0008315319    1.471    0.320
        46 -11.9235     32.9431    154.0988   1.2690636601e+02   3.9325954789e+01    0.5541511    0.3721221 -79.68  0.003416967    1.256    0.204
        47  -9.8856    175.6866    115.4106   8.4014614101e+01   2.3679802982e+01    0.4433723    0.3203994 -74.99  0.001269299    2.094    0.522
        48  -8.4207     38.3537    109.4885   1.1953799051e+02   4.9121367734e+01    0.1292788    0.1044522 -74.95 0.0001375362    1.088    0.081
        49  -9.7324    140.9541    106.7030   8.9731127491e+01   3.3156980544e+01    0.2801163    0.2195398 -41.43 0.0007688139    1.259    0.205
        50 -10.5491    113.0981    104.7613   9.6508045255e+01   3.9314975786e+01    0.3378174    0.3034431  52.57  0.001810842    1.169    0.145
        51  -9.7299    145.6995    104.1770   8.7885891093e+01   3.2633491177e+01    0.2767343    0.2458957  31.46 0.0004555365    1.155    0.134
        52  -9.2079     83.4594    103.4963   1.0471102651e+02   4.4809126841e+01    0.1434495    0.1307302 -45.44 0.0003574937    1.052    0.050
        53 -10.6564    154.5946     99.6898   8.4536788952e+01   3.1526513203e+01    0.5233868    0.3122795  40.90  0.001678193    1.747    0.428
        54 -11.0146    132.5389     98.5169   8.9624202067e+01   3.6671194776e+01    0.5270731    0.4339261 -62.07  0.002599146    1.349    0.259
        55  -9.5197    157.1830    160.7652   9.8497584526e+01   1.8728940219e+01    0.3289408    0.2535975 -65.00 0.0007822218    1.582    0.368
        56 -10.8663    138.6840     94.7965   8.7012439605e+01   3.6088873705e+01     0.399352    0.3614561 -31.51  0.000709492    1.090    0.082
        57 -10.7976    151.9805     90.9827   8.2689695642e+01   3.3820638899e+01    0.3505732    0.2961435 -48.35 0.0006073922    1.211    0.174
        58  -8.1993     33.5001     93.5145   1.1819011750e+02   5.3299747855e+01    0.1280975    0.1074899 -67.23 0.0003360909    1.048    0.046
        59  -9.6827     79.7639     76.5338   9.8617305496e+01   5.1380492587e+01    0.2588593    0.1774313 -47.72 0.0004603724    1.348    0.258
        60 -11.0940    123.7271     58.3600   7.9457777476e+01   4.6312496925e+01    0.3664944    0.3580616  85.88 0.0004594332    1.143    0.125
        61  -9.2634    154.4067    157.1761   9.8384521611e+01   1.9976756566e+01    0.2342932    0.1802096  77.11  0.000517116    1.742    0.426
        62  -9.1508    191.4304    181.7952   9.5494981928e+01   8.4204361587e+00    0.2305064    0.2113657  80.95 0.0009608923    1.447    0.309
        63 -10.4215    110.8517     37.8645   7.5466933078e+01   5.2447414991e+01    0.4247635    0.2264282 -26.80  0.001845852    1.927    0.481
        64 -10.2634    197.7327    179.6251   9.3847413064e+01   7.6151375854e+00    0.4845976     0.331618  25.02   0.00254977    1.453    0.312
        65  -8.5767     78.2080     35.7779   8.4720280423e+01   5.9318769139e+01    0.3142391    0.0923652 -42.09  0.001054461    3.578    0.720
        66  -8.5113     91.7345     33.4554   7.9301512579e+01   5.7115996657e+01    0.2438759    0.1149995 -31.41  0.001040759    2.070    0.517
        67  -8.6414    146.4773    157.0314   1.0013895564e+02   2.1551888474e+01    0.2223467    0.1846089  42.63 0.0004535057    1.156    0.135
        68 -10.5698    192.4887    193.8953   9.7528223225e+01   6.2924316313e+00    0.8394466    0.4433604 -61.38  0.002787401    5.514    0.819
        69  -8.7920    194.3795     19.7235   5.3617346102e+01   3.4013261725e+01    0.1715282    0.1334968  -9.55 0.0004934699    1.499    0.333
        70  -8.1108     78.5973     19.5197   7.7555755155e+01   6.1592909531e+01    0.1316625    0.1141593   1.52 6.435415e-05    1.034    0.033
        71 -11.8700    199.6076    174.9568   9.2568830427e+01   8.0253098988e+00    0.8227993      0.43554  59.82  0.003108543    3.411    0.707
        72 -10.5264    224.0260    192.3965   9.1383138939e+01   1.0657874445e+00    0.2654791    0.2256767 -53.24  0.001251193    1.711    0.416
        73  -8.6768    177.1915     12.6917   5.3703472384e+01   3.9111345172e+01    0.1779266    0.1506475  36.48 0.0005171362    1.270    0.213
        74  -9.3968    169.6984    155.2672   9.4637311083e+01   1.7307962653e+01    0.2875354    0.2166731  68.01  0.001119618    1.728    0.421
        75 -12.0033    211.1515    186.7130   9.2659388094e+01   4.0990089555e+00      0.74833    0.5074294  51.46  0.004000182    1.750    0.428
        76  -8.6036    200.0573    188.0469   9.5002393273e+01   5.8600524928e+00    0.1899408    0.1625241  67.89 0.0005684244    1.620    0.383
        77 -10.1192    245.9553    181.9822   8.5583970473e+01  -1.1278643693e+00     0.447991    0.3092169  59.51  0.001933318    2.451    0.592
        78 -11.7038     49.9811    152.5799   1.2265005523e+02   3.7858576960e+01    0.3348851    0.3052152   6.97 0.0009405299    1.463    0.316
