#   1 NUMBER                 Running object number                                     
#   2 MAG_AUTO               Kron-like elliptical aperture magnitude                    [mag]
#   3 X_IMAGE                Object position along x                                    [pixel]
#   4 Y_IMAGE                Object position along y                                    [pixel]
#   5 X_WORLD                Barycenter position along world x axis                     [deg]
#   6 Y_WORLD                Barycenter position along world y axis                     [deg]
#   7 A_WORLD                Profile RMS along major axis (world units)                 [deg]
#   8 B_WORLD                Profile RMS along minor axis (world units)                 [deg]
#   9 THETA_WORLD            Position angle (CCW/world-x)                               [deg]
#  10 FWHM_WORLD             FWHM assuming a gaussian core                              [deg]
#  11 ELONGATION             A_IMAGE/B_IMAGE                                           
#  12 ELLIPTICITY            1 - B_IMAGE/A_IMAGE                                       
         1 -12.5144    164.8987     57.7491   6.6482208029e+01   3.6072930325e+01     1.552431     1.008275  12.56  0.004680881    2.288    0.563
         2 -12.8481    179.1574     42.5818   5.9061616779e+01   3.4574366902e+01     1.195951    0.9740158   1.84  0.003979539    1.378    0.274
         3 -12.2770    195.4182     13.3387   4.7615122375e+01   3.3731618320e+01    0.9526907    0.4723332 -37.77  0.003322034    1.842    0.457
         4 -12.8635    200.6445      9.8600   4.6034142122e+01   3.2716713271e+01     1.116641    0.8414358 -36.69  0.005970918    1.241    0.194
         5  -9.3726     73.2155    218.5631   1.1835407862e+02   2.2859309863e+01    0.1644764    0.1417592 -82.60 0.0005068706    1.412    0.292
         6 -11.6265    248.9886    246.7753   9.0818518515e+01  -3.7241503627e+00    0.4366775    0.2274229 -24.11  0.003252255    2.152    0.535
         7 -11.8377    244.7065    246.5230   9.1410262943e+01  -3.2048876320e+00    0.3743129    0.2295956  -0.10  0.002970776    1.464    0.317
         8 -19.4740     42.1270    152.9157   1.2018401538e+02   3.8898879680e+01     17.58759     3.595425 -75.60   0.05657328    5.330    0.812
         9 -10.4677    150.3520    188.1832   9.9535184001e+01   1.6672538714e+01    0.2591686    0.1583262 -56.29   0.00142906    2.222    0.550
        10  -8.6078    186.7572    186.5751   9.2247759221e+01   1.0982353071e+01    0.1686628    0.1005014  45.46  0.000798991    1.619    0.382
        11 -11.6901     72.4569    210.5568   1.1792294096e+02   2.4267105878e+01    0.3684266    0.2826851  26.35 0.0009373829    1.501    0.334
        12  -9.4424     76.3370    205.6876   1.1676202770e+02   2.4606084031e+01    0.2282904    0.1450778  59.53 0.0006308568    1.369    0.270
        13 -10.0533    188.8466    176.5321   9.0192302664e+01   1.1983044353e+01    0.4628512    0.3217476 -53.47  0.002312763    2.173    0.540
        14 -10.8374    142.7613    173.5301   9.8905487762e+01   2.0263151252e+01    0.4105852    0.2264406 -47.00  0.002109714    2.134    0.531
        15 -10.1229      9.5942    210.9200   1.3022742940e+02   3.0812838335e+01    0.1360196   0.06212365  67.42 0.0008811596    1.709    0.415
        16 -11.9096    103.0083    172.2162   1.0751554309e+02   2.6925254671e+01     0.563628    0.3471147  38.76  0.003052725    1.410    0.291
        17 -10.4243     11.7472    205.9454   1.2968174717e+02   3.1483739757e+01     0.171423    0.1214655  44.30  0.001343602    1.241    0.194
        18  -9.4585     87.0847    203.1494   1.1434124334e+02   2.3647113900e+01      0.26322    0.2303944 -83.60  0.001970985    1.336    0.252
        19 -10.5731     97.9891    155.9946   1.0649901970e+02   3.0863396177e+01    0.2639344    0.2422462 -87.37 0.0003666322    1.152    0.132
        20 -11.4369    102.0585    150.4638   1.0467689706e+02   3.1342065924e+01    0.5795224    0.3782326 -36.11  0.001553154    2.138    0.532
        21 -10.4841    139.8809    198.7667   1.0308628444e+02   1.6718608508e+01    0.2171019    0.1547049  77.06   0.00125882    2.145    0.534
        22 -10.1387    133.9215    145.9200   9.6204010422e+01   2.6731939240e+01    0.7746917    0.2078885 -53.85  0.002260893    5.305    0.812
        23 -10.5793    111.6978    136.5769   9.9923107918e+01   3.2581539758e+01    0.4773271    0.3152001 -27.51    0.0021832    2.309    0.567
        24 -10.6281    101.0448    135.8313   1.0254887290e+02   3.4563371316e+01     0.263942    0.2458896  51.55 0.0004392809    1.066    0.062
        25 -10.3463    105.9763    130.9287   1.0037126346e+02   3.4768823713e+01    0.3602218    0.3024157  81.22  0.001106654    1.264    0.209
        26  -9.7962    192.8706    194.5360   9.2396226263e+01   8.9928111516e+00    0.4685338    0.2792612 -62.99  0.001770178    6.365    0.843
        27  -8.9629    117.3710    128.1140   9.6853592272e+01   3.3319188029e+01    0.2142618    0.1752063 -33.85  0.001144574    1.426    0.299
        28  -9.3515    105.7209    123.9562   9.9106471823e+01   3.6311930444e+01    0.2433305    0.2022068  30.20 0.0006101286    1.284    0.221
        29  -9.9517     82.0142    195.2379   1.1468243173e+02   2.5689570365e+01    0.2971434    0.2702699   9.78  0.002157025    1.469    0.319
        30  -8.7815    231.0640    113.6991   7.0138919912e+01   1.2822110014e+01    0.1836791    0.1579616  19.13 0.0009055528    1.109    0.099
        31  -9.1135    168.1481    113.2048   8.1435873827e+01   2.5880529797e+01    0.2742314    0.1949125 -67.22  0.001233023    2.093    0.522
        32  -8.5610    205.4277    110.2154   7.3503199530e+01   1.8414574977e+01    0.1958482    0.1240631 -40.60 0.0009446964    1.666    0.400
        33  -9.3739     65.7380    193.0295   1.1796643162e+02   2.8159258676e+01    0.2472858    0.1792076  60.34 0.0008288862    1.137    0.121
        34  -9.6969     68.0966    196.6540   1.1775234362e+02   2.7213860253e+01    0.1770702     0.127836  64.19 0.0005299438    1.199    0.166
        35 -11.3472     72.6590    192.2095   1.1641333051e+02   2.7445378890e+01    0.3793701    0.3004752 -28.81  0.001471131    2.002    0.501
        36  -9.3335     12.6022    241.3336   1.3043311788e+02   2.5662840432e+01    0.2197069    0.1642648  72.34   0.00198432    1.286    0.222
        37  -9.8590    153.8636    238.9999   1.0519935964e+02   9.2950358890e+00    0.2025563    0.1293585 -69.69  0.001256655    3.127    0.680
        38 -11.4516    183.6870     35.9773   5.6250438330e+01   3.4248110958e+01    0.4647457     0.387428  13.57  0.001128462    1.350    0.259
        39  -8.6510     78.9604    214.0040   1.1688996783e+02   2.2888676209e+01    0.1264688    0.1015148  60.36 0.0004027899    1.126    0.112
        40  -9.0935    167.1066    226.3739   1.0142344625e+02   8.9509921621e+00    0.1628157    0.1315407  14.82 0.0003981854    1.234    0.190
