#   1 NUMBER                 Running object number                                     
#   2 MAG_AUTO               Kron-like elliptical aperture magnitude                    [mag]
#   3 X_IMAGE                Object position along x                                    [pixel]
#   4 Y_IMAGE                Object position along y                                    [pixel]
#   5 X_WORLD                Barycenter position along world x axis                     [deg]
#   6 Y_WORLD                Barycenter position along world y axis                     [deg]
#   7 A_WORLD                Profile RMS along major axis (world units)                 [deg]
#   8 B_WORLD                Profile RMS along minor axis (world units)                 [deg]
#   9 THETA_WORLD            Position angle (CCW/world-x)                               [deg]
#  10 FWHM_WORLD             FWHM assuming a gaussian core                              [deg]
#  11 ELONGATION             A_IMAGE/B_IMAGE                                           
#  12 ELLIPTICITY            1 - B_IMAGE/A_IMAGE                                       
         1 -14.8852    165.8217     39.7126   7.7761870291e+01   3.8865553024e+01     1.495933     1.085401  -1.47   0.00426474    1.469    0.319
         2 -14.6073    181.5247      7.0581   6.3693367648e+01   3.8346144663e+01     1.573232    0.9323604  56.24  0.005708883    1.564    0.361
         3 -10.0377    150.5914    247.9202   1.2471114358e+02   9.4451626065e+00    0.1097692    0.1033733 -51.35 0.0008751025    1.502    0.334
         4 -19.8446     70.0882    168.5560   1.3136574831e+02   3.2273137606e+01     14.88226     5.878439 -69.86   0.07330204    2.682    0.627
         5 -11.6936    169.8664    195.3517   1.1492026872e+02   1.3089680201e+01    0.1737747    0.1711005 -80.07  0.000783079    1.339    0.253
         6 -13.6474    167.4411    189.4798   1.1449060945e+02   1.4301082153e+01    0.5188179    0.3712427  42.88   0.00222824    1.204    0.170
         7  -9.2195     24.1546    229.9445   1.4364213886e+02   2.6765366241e+01    0.2557492    0.1021936  63.02  0.001756389    1.970    0.492
         8 -11.9042    155.2931    190.2356   1.1691731074e+02   1.6190300980e+01    0.2236879    0.1524948  40.75    0.0013702    1.206    0.171
         9 -13.5007    210.1708    187.3408   1.0627903692e+02   7.3829660495e+00    0.6925352    0.3493819 -50.77  0.002835148    4.616    0.783
        10 -12.8069    206.1692    179.1733   1.0556593733e+02   9.0615498901e+00    0.4123546    0.2689459  27.77  0.001925352    1.289    0.224
        11 -11.8869    209.7715    176.0065   1.0434170849e+02   8.8296382526e+00    0.3017761    0.2381812 -50.57  0.001752415    1.957    0.489
        12 -12.9008    121.8721    223.0370   1.2704381782e+02   1.6525354807e+01    0.4131871    0.2349475  26.24  0.002442839    2.183    0.542
        13 -10.7462    219.1295    223.9372   1.1052479265e+02   2.0400119811e+00    0.1553761    0.1245827  29.22 0.0003915586    1.248    0.199
        14 -12.0770     28.7465    183.7874   1.4070315803e+02   3.3822880079e+01    0.2245712    0.1549359  49.55 0.0009637421    1.280    0.218
        15 -11.7394    118.8787    181.8705   1.2290997328e+02   2.3239726245e+01    0.5247799    0.2528869  62.01  0.002230047    3.316    0.698
        16 -11.5193    113.9767    177.9767   1.2339376871e+02   2.4634287341e+01    0.3294549    0.1836741  70.19  0.001300642    2.899    0.655
        17 -10.7780    110.2059    222.8995   1.2905642737e+02   1.8126782890e+01    0.1443965    0.1109034  57.67 0.0003802615    1.135    0.119
        18 -11.4793     15.6958    219.7978   1.4456579218e+02   2.9042976541e+01    0.1701219   0.09757441  88.82  0.000973328    1.538    0.350
        19 -10.8812     14.6358    215.8001   1.4458634651e+02   2.9751441140e+01    0.1049436   0.08789171 -61.43 0.0009600655    1.764    0.433
        20 -12.0520    195.6916    174.3242   1.0662714346e+02   1.1524384710e+01    0.3404656    0.2541919  66.04 0.0007790003    2.133    0.531
        21 -13.3298    195.7724    170.8580   1.0598194401e+02   1.1975712360e+01    0.6308833    0.4135048 -47.61  0.003128962    2.127    0.530
        22 -11.5652      8.6688    175.4297   1.4396523405e+02   3.7005082599e+01    0.1601861    0.1249391  53.72 0.0007699481    1.253    0.202
        23 -12.7534    177.5355    171.2589   1.0955132706e+02   1.5178122208e+01    0.4280832    0.2828347 -59.24  0.002183461    2.469    0.595
        24 -12.1180    149.0266    174.0022   1.1568335498e+02   1.9712338441e+01    0.2950429    0.2036695  69.68   0.00127219    2.093    0.522
        25 -12.9881    143.6038    168.1384   1.1585366188e+02   2.1583445488e+01    0.4751636    0.3352208 -89.04  0.002129515    2.374    0.579
        26 -11.7597    140.6930    174.3069   1.1742116057e+02   2.1052517815e+01    0.2052405    0.1787187  42.89 0.0006636314    1.024    0.024
        27 -13.2242    137.9059    171.1370   1.1750458239e+02   2.2035980363e+01    0.4926164    0.4863952 -32.12  0.003013379    1.163    0.140
        28 -12.2162    133.6299    249.7436   1.2760981965e+02   1.1527276421e+01    0.1468324    0.1465843  23.97  0.001394513    1.414    0.293
        29 -11.4950    202.9260    172.2937   1.0491198033e+02   1.0508863170e+01    0.1982994     0.178243 -25.38 0.0008186304    1.369    0.270
        30 -12.1304    125.6989    171.9811   1.2015596240e+02   2.3865578286e+01    0.2962008    0.2459629  46.29 0.0009714364    1.050    0.048
        31 -12.1270    116.0845    211.8982   1.2693715330e+02   1.8916263972e+01    0.2378724     0.154414  65.50  0.001089689    1.689    0.408
        32 -11.7323    110.5340    212.0470   1.2795285996e+02   1.9659027936e+01     0.222447    0.1505527  70.19  0.001501048    1.638    0.390
        33 -11.0574    200.9624    164.9500   1.0389910428e+02   1.1836208728e+01    0.2517512    0.1801051 -58.50  0.001143963    2.467    0.595
        34 -11.9785    108.8647    207.8995   1.2783676255e+02   2.0512067165e+01    0.2219625    0.1928374  31.21 0.0007442297    1.292    0.226
        35  -9.9859    118.3560    207.7449   1.2608426385e+02   1.9214410485e+01    0.2961149    0.1581981  75.01  0.001323584    4.007    0.750
        36 -10.0689      1.2329    165.7337   1.4492210593e+02   3.9316859470e+01   0.09571472   0.05309957  68.11 -0.0001541599    1.416    0.294
        37 -10.5966    222.7623    162.0612   9.9351951257e+01   8.2527623972e+00    0.2679576    0.1414431 -42.41  0.001037725    2.645    0.622
        38 -12.5985    129.8719    160.6385   1.1753907331e+02   2.5170320426e+01    0.3774009    0.2736528 -34.64  0.001222677    1.673    0.402
        39 -12.8032    163.5174    203.4521   1.1725258294e+02   1.3018103158e+01    0.3577409    0.2613394   9.61  0.001757737    1.643    0.392
        40 -12.7709    163.4767    155.5469   1.0952414616e+02   2.0145081599e+01    0.3606289    0.3273135 -72.87   0.00160748    1.417    0.294
        41 -12.3725    134.7156    109.3023   1.0623554965e+02   3.3984686211e+01      1.10413    0.1723681 -45.90  0.002520769    6.857    0.854
        42 -14.4962    135.3027    127.9852   1.1029276786e+02   3.0256943259e+01     1.561876    0.4398154 -48.65  0.005037904    3.899    0.744
        43 -12.8656    161.3451    197.8979   1.1687617734e+02   1.4121098503e+01    0.3109994    0.2695972 -67.87  0.001718566    1.577    0.366
        44 -11.3317    174.3579    148.5896   1.0591955600e+02   1.9223939267e+01    0.2979729     0.243786 -80.45  0.001286562    1.906    0.475
        45 -13.9483    143.5764    143.4429   1.1150113314e+02   2.5868315896e+01    0.8025251    0.4515451 -59.89  0.003555201    2.497    0.600
        46 -10.1487    119.2333    244.1166   1.2943396625e+02   1.4106702855e+01    0.1165106   0.07951154  53.94 0.0008970186    1.219    0.180
        47  -9.9901    172.6670    139.2865   1.0434995304e+02   2.1055611432e+01    0.1323808    0.1115284  74.54 0.0006477304    1.622    0.384
        48 -12.1874      6.1998    137.1277   1.4246773473e+02   4.4474756622e+01    0.2568834     0.169199 -68.85  0.001391367    1.417    0.294
        49 -11.6867     18.2516    128.9134   1.3916540313e+02   4.5303510830e+01    0.2646334    0.1551767 -59.45  0.001646435    1.674    0.402
        50 -12.2172    160.6983    127.9175   1.0445952076e+02   2.5363438096e+01    0.3655962     0.323512 -64.29  0.001965952    1.400    0.285
        51 -11.6463    168.9896    202.6551   1.1614103922e+02   1.2253852920e+01    0.1852809     0.155774  63.68  0.000664578    1.500    0.333
        52 -14.2890    133.7915    145.6509   1.1410330234e+02   2.7212734502e+01     1.289286    0.4426668 -56.18  0.004282128    4.387    0.772
        53 -10.5876    157.0378    202.2142   1.1827389377e+02   1.4209484512e+01    0.2263814    0.1374131  52.30  0.001158267    1.651    0.394
        54 -13.1873    128.2885    142.9832   1.1486165536e+02   2.8664436197e+01    0.4920751    0.2536814  44.07  0.001607675    1.811    0.448
        55 -10.7469    167.6146    112.6153   9.9321254265e+01   2.6614198600e+01    0.2880232    0.2236939 -81.79  0.001327496    2.080    0.519
        56  99.0000     13.5287    243.5406   1.4566784185e+02   2.5762280035e+01    0.2247405   0.07063932 -71.14  0.001480871    3.363    0.703
        57  -9.7974    131.8513    236.7207   1.2668671074e+02   1.3349803265e+01    0.1326685    0.0971112  45.14 0.0005301894    1.021    0.020
        58 -10.8783    205.4499    110.1697   9.0922258968e+01   1.8799847492e+01    0.3238192    0.1947085  37.79  0.000930512    1.583    0.368
        59 -11.3313     19.0578    108.5346   1.3713336935e+02   4.9578730682e+01    0.2027653    0.1585413 -45.12 0.0008457035    1.489    0.328
        60 -12.5243    171.8156    177.5533   1.1174500361e+02   1.5265666020e+01    0.5490406    0.2506253 -54.93  0.002176549    4.151    0.759
        61 -13.4657    175.1188    193.5718   1.1367606302e+02   1.2466805847e+01    0.4667522    0.3153279 -41.73  0.002169685    1.835    0.455
        62 -12.9206    180.1148    192.8241   1.1263523209e+02   1.1738640628e+01    0.3143501    0.2904463 -75.57  0.001485542    1.565    0.361
        63 -13.5629    176.3890    187.7710   1.1253505245e+02   1.3041496582e+01    0.4754692    0.3684831 -63.41  0.002734422    1.995    0.499
        64 -11.3485    154.6066    196.2512   1.1790579592e+02   1.5431424692e+01    0.2632333     0.203504 -82.52  0.001649621    1.986    0.496
        65 -14.4042    154.0711     54.9960   8.5571599225e+01   3.9591682675e+01     1.218166     1.098626  26.66  0.001000494    1.064    0.060
        66 -11.6694    125.0146    247.4661   1.2878991519e+02   1.2937017756e+01    0.1799178    0.1291139 -60.17  0.001453429    1.906    0.475
        67 -12.9092    169.7418     32.1045   7.4339700630e+01   3.8826691572e+01    0.4521244    0.3793955   7.26 0.0008655263    1.176    0.150
        68 -10.7105     13.6396     60.0052   1.3246258072e+02   6.0696675690e+01    0.1712031    0.1491466  84.19  0.000492473    1.252    0.202
        69 -10.9611    139.7437     32.1812   8.0647121311e+01   4.6530550218e+01     0.455841     0.253631  73.26  0.001646599    2.849    0.649
        70 -10.3573    135.1124    235.0859   1.2598148337e+02   1.3107238451e+01    0.1245223    0.1009828  62.75 0.0005920103    1.319    0.242
