#   1 NUMBER                 Running object number                                     
#   2 MAG_AUTO               Kron-like elliptical aperture magnitude                    [mag]
#   3 X_IMAGE                Object position along x                                    [pixel]
#   4 Y_IMAGE                Object position along y                                    [pixel]
#   5 X_WORLD                Barycenter position along world x axis                     [deg]
#   6 Y_WORLD                Barycenter position along world y axis                     [deg]
#   7 A_WORLD                Profile RMS along major axis (world units)                 [deg]
#   8 B_WORLD                Profile RMS along minor axis (world units)                 [deg]
#   9 THETA_WORLD            Position angle (CCW/world-x)                               [deg]
#  10 FWHM_WORLD             FWHM assuming a gaussian core                              [deg]
#  11 ELONGATION             A_IMAGE/B_IMAGE                                           
#  12 ELLIPTICITY            1 - B_IMAGE/A_IMAGE                                       
         1 -13.3535    166.5018     56.6591   6.6336326188e+01   3.5786262828e+01     2.387122     1.439904  21.03  0.007285152    2.536    0.606
         2 -13.0847    180.4681     41.5294   5.9016196458e+01   3.4305296199e+01    0.9037638    0.8142751 -47.72  0.002669678    1.103    0.093
         3 -13.8867    201.4871     10.3058   4.6551120637e+01   3.2345479672e+01     1.367723     1.055911  -7.36  0.004744037    1.414    0.293
         4 -11.3679    189.8003     14.6243   4.9081586205e+01   3.4986477220e+01    0.3682048      0.29557  74.56  0.001124328    1.245    0.197
         5 -12.5542    231.2764      3.2078   4.2200536065e+01   2.5639743511e+01    0.9697961    0.4137512  74.92  0.004279856    2.438    0.590
         6  -9.4208     73.5156    218.4996   1.1873060723e+02   2.2986133072e+01    0.1355304   0.09894573 -57.96 0.0009008017    1.844    0.458
         7 -13.0799    246.4651    245.0074   9.1487383683e+01  -3.2160031186e+00    0.8035515    0.5300742   9.78  0.006680524    1.170    0.145
         8 -10.1274     76.3401    205.6932   1.1720662698e+02   2.4743813671e+01    0.2189538    0.1424629  64.56 0.0006408551    1.420    0.296
         9 -12.0677    151.5654    195.8816   1.0088912918e+02   1.5428392419e+01    0.4247163    0.2976097  28.98  0.002660539    1.264    0.209
        10 -12.0359     70.2075    194.6073   1.1758172892e+02   2.7448178305e+01    0.3657986    0.2763781 -49.39  0.001702428    1.827    0.453
        11 -10.4162     82.1253    195.1682   1.1510511669e+02   2.5813366675e+01    0.3046711    0.2485031  29.26  0.002117108    1.365    0.267
        12 -11.2098    153.2769    184.3142   9.8885167310e+01   1.6874615553e+01    0.2512527    0.2152662 -45.11  0.001159421    1.431    0.301
        13 -11.0028    141.0459    188.9809   1.0203877289e+02   1.8141862148e+01    0.2001653    0.1632918  36.97  0.001111654    1.021    0.021
        14  -8.9589     21.6163    214.0711   1.2845297366e+02   2.9349185182e+01    0.1771367    0.1471775  -3.26  0.001381764    2.054    0.513
        15 -11.7666     66.2649    195.0316   1.1845070096e+02   2.7860612954e+01    0.5335853    0.2270617  62.99  0.002173721    2.624    0.619
        16 -12.0402    146.4923    183.3507   1.0012048364e+02   1.8139573401e+01    0.4603561    0.2277743  51.13   0.00183742    2.110    0.526
        17 -12.0613    143.0028    173.0993   9.9294939403e+01   2.0373986039e+01    0.4536034    0.3558526 -28.14  0.002439356    1.560    0.359
        18 -10.2696    189.1633    178.1892   9.0944564464e+01   1.1762450031e+01    0.3258135    0.2597967  61.76  0.001604991    1.771    0.435
        19  -9.9976    188.3941    174.1709   9.0399893991e+01   1.2434565915e+01      0.27972    0.2398835 -66.34  0.001545621    1.808    0.447
        20 -10.7386      1.4133    177.2353   1.3135698183e+02   3.7736227903e+01    0.1205699   0.08198555  78.65 0.0004147966    1.208    0.172
        21  -9.0444    195.3905    172.7776   8.8862676858e+01   1.1435322269e+01    0.1674272    0.1113059 -16.75 0.0009508461    1.677    0.404
        22 -11.0413    132.9829    172.0454   1.0128460334e+02   2.2239414973e+01     0.294938    0.1942579  57.79   0.00159024    1.647    0.393
        23 -10.3509    230.7774    167.7728   8.1857363470e+01   6.2132283430e+00    0.2562482    0.1351933 -49.23  0.001078081    4.276    0.766
        24  -9.3170    186.7378    165.1589   8.9114385539e+01   1.3974595348e+01    0.2084642    0.1550521 -33.41 0.0009497221    1.502    0.334
        25 -11.1351     96.9277    157.0011   1.0737974443e+02   3.0902554938e+01    0.2615323    0.2428688  46.71 0.0003938412    1.129    0.114
        26 -12.2592    101.4106    150.7758   1.0537056494e+02   3.1451804576e+01    0.5728661    0.4530988 -26.35   0.00168869    1.748    0.428
        27  -8.7897    191.6305    151.3085   8.5563768069e+01   1.5080361410e+01    0.1250907    0.1060204  76.63 0.0007035187    1.762    0.432
        28  -9.5634    174.8848    149.1341   8.8410684254e+01   1.8536226425e+01    0.1999305    0.1811267  59.41 0.0006377426    1.303    0.233
        29 -10.5865    143.7825    147.0767   9.4668337641e+01   2.4747522302e+01    0.3773495    0.2061645 -54.41  0.001713156    2.249    0.555
        30 -11.5251     15.8188    206.3966   1.2930298395e+02   3.1195079617e+01    0.1678026    0.1355226  44.56 0.0009786892    1.303    0.232
        31 -11.0382    133.8614    145.5925   9.6669343195e+01   2.6857442966e+01     1.035994    0.2900926 -55.12  0.002921476    5.788    0.827
        32 -11.5483    111.3297    137.4053   1.0066559174e+02   3.2525364658e+01    0.5352991    0.4113429  -6.96  0.002715686    1.939    0.484
        33 -10.1019    113.4629    151.5562   1.0254939328e+02   2.9308828931e+01    0.3620805    0.2089325  74.36  0.001443461    3.130    0.681
        34  -9.3769    159.1164    146.2412   9.1129854407e+01   2.2002223257e+01    0.2365329     0.181309 -81.47 0.0009250197    2.034    0.508
        35 -11.8049    100.2866    136.4468   1.0334375937e+02   3.4611232053e+01    0.2614359     0.229204  40.78 0.0004601099    1.130    0.115
        36 -11.1941    106.0025    130.8302   1.0084308494e+02   3.4830396567e+01    0.3662616     0.310389 -82.56  0.001157635    1.258    0.205
        37  -9.9200    161.0554    128.0715   8.6937477894e+01   2.4770233924e+01     0.287333    0.2478459 -68.01  0.001514455    1.438    0.305
        38 -10.2032    117.2650    128.5333   9.7471055221e+01   3.3291121163e+01    0.2712054    0.2325771 -13.61 0.0006677625    1.457    0.314
        39 -10.4674    105.3573    124.2182   9.9755506001e+01   3.6357669160e+01    0.2654051    0.2396702 -28.70 0.0008511267    1.304    0.233
        40  -9.9509    135.0000    120.8044   9.1372419170e+01   3.1430976049e+01    0.3864859   0.08390397 -46.24  0.001047437    4.899    0.796
        41  -9.5452    112.1183    118.0231   9.6666120214e+01   3.6457331482e+01    0.2480768    0.1943132  45.47 0.0004127828    1.212    0.175
        42  -9.8934    231.2795    113.6921   7.0635384392e+01   1.2728156728e+01    0.2404299    0.1983884  12.17 0.0008184842    1.114    0.102
        43  -9.9846    168.1975    113.0077   8.1909346934e+01   2.5903577271e+01    0.3352955    0.2698785 -82.81  0.001181763    1.749    0.428
        44 -10.7100    117.7474    109.7265   9.3299390126e+01   3.7143215397e+01    0.3930199    0.2243457  58.96  0.001606322    2.129    0.530
        45  -9.7038    205.3811    110.0998   7.4016214173e+01   1.8407603396e+01    0.2511774     0.203139  48.93 0.0006694288    1.301    0.232
        46 -10.0843    134.5721    105.3291   8.7832457598e+01   3.4599998470e+01    0.4502123    0.1463584 -45.78  0.001451246    3.215    0.689
        47  -8.7188    127.3273     95.2929   8.7123422770e+01   3.8181395986e+01    0.1514361    0.1203502   8.62 0.0003603672    1.623    0.384
        48  -9.4013    151.3932     81.7585   7.7316685408e+01   3.5321777920e+01    0.2105099    0.1478273 -23.95 0.0003845989    1.597    0.374
        49 -11.0922     11.3689    205.2107   1.3012234567e+02   3.1796785026e+01    0.2671248    0.1721858  52.98  0.001144943    1.106    0.095
        50 -12.3515     72.5008    210.6485   1.1836126076e+02   2.4391597481e+01    0.3660856    0.2504082  22.57 0.0007087106    1.807    0.447
        51  -8.8521    162.8080    236.0182   1.0380743123e+02   8.5517573295e+00    0.1121981   0.08618595 -39.04  0.000853921    1.779    0.438
        52  -9.4929    167.5027    228.8080   1.0215096796e+02   8.7305076848e+00    0.1443028     0.112074 -45.65 0.0005635045    1.811    0.448
        53 -12.6542    185.4479     34.5481   5.6032059965e+01   3.3888524197e+01     0.663102    0.5314964  32.78  0.001751296    1.371    0.271
        54 -11.0357    192.9709    195.1792   9.3004802078e+01   8.9701157608e+00    0.6703698    0.3951467 -60.36  0.002853231    5.014    0.801
        55 -10.3358      6.5224    224.9094   1.3150433451e+02   2.8929586823e+01    0.1773811    0.1087897  13.75  0.001191665    2.694    0.629
        56 -19.4432     42.4195    155.0132   1.2070830746e+02   3.8505060210e+01     17.18278     4.916257 -78.36   0.06581558    3.845    0.740
