#   1 NUMBER                 Running object number                                     
#   2 MAG_AUTO               Kron-like elliptical aperture magnitude                    [mag]
#   3 X_IMAGE                Object position along x                                    [pixel]
#   4 Y_IMAGE                Object position along y                                    [pixel]
#   5 X_WORLD                Barycenter position along world x axis                     [deg]
#   6 Y_WORLD                Barycenter position along world y axis                     [deg]
#   7 A_WORLD                Profile RMS along major axis (world units)                 [deg]
#   8 B_WORLD                Profile RMS along minor axis (world units)                 [deg]
#   9 THETA_WORLD            Position angle (CCW/world-x)                               [deg]
#  10 FWHM_WORLD             FWHM assuming a gaussian core                              [deg]
#  11 ELONGATION             A_IMAGE/B_IMAGE                                           
#  12 ELLIPTICITY            1 - B_IMAGE/A_IMAGE                                       
         1 -10.6987     14.8612     18.2521   7.4755412562e+01   6.9316267515e+01    0.2106124    0.1472314 -44.43  0.000285759    1.180    0.152
         2  -9.3527     29.6479      7.4847   6.3388188528e+01   6.9777477210e+01    0.2033764   0.08743576 -40.06  0.001092524    1.942    0.485
         3 -10.2303     21.2585      6.9131   6.7088151061e+01   7.0660811347e+01    0.2876576    0.1574554 -11.47  0.001679798    2.050    0.512
         4  -9.5192    157.2242    247.0177   8.1900671895e+01   4.4475562385e+00    0.1221779   0.09826775 -53.19 0.0005954193    1.653    0.395
         5  -9.9128    169.4643    248.8784   8.0044967621e+01   2.1876782763e+00    0.2295894    0.1656816  -7.73  0.001434404    2.300    0.565
         6 -11.5808    122.1682    246.9586   8.7820735137e+01   1.0091956659e+01    0.5638556    0.2847778  68.47  0.002928555    2.568    0.611
         7 -11.9695    113.7139    245.6251   8.9104235368e+01   1.1594772191e+01    0.5091337    0.3412016  62.19  0.002479738    1.214    0.176
         8 -11.6041     92.7467    224.7416   9.0697415317e+01   1.8105127523e+01     0.540387    0.3150981 -87.47  0.002965131    1.939    0.484
         9 -11.7330     90.8122    237.9925   9.2236011663e+01   1.6191887879e+01    0.5124171    0.3359252  71.23  0.002572012    1.317    0.241
        10  -9.6789    101.9174    226.7301   8.9279875466e+01   1.6393705451e+01    0.1811548    0.1349339  66.06 0.0003988489    1.081    0.075
        11 -11.2032     82.1182    248.2307   9.4491086966e+01   1.5798023501e+01    0.8027373    0.3804502  83.97  0.004344113    2.824    0.646
        12  -9.4450     86.7417    242.0108   9.3249467954e+01   1.6129894809e+01    0.1722226    0.1435133  85.70 0.0007425979    1.292    0.226
        13 -11.5981    104.1369    233.6454   8.9575069544e+01   1.4920892226e+01     0.417638    0.2286156 -73.72 0.0006005437    2.181    0.542
        14  -9.6945     95.0607    249.6924   9.2530556342e+01   1.3749344212e+01    0.1920909    0.1527434  67.88 0.0007262182    1.150    0.130
        15 -10.8991     90.1121    248.3322   9.3217314389e+01   1.4664120314e+01    0.3503464     0.262768 -78.02  0.002691502    1.501    0.334
        16 -10.6143     99.1459    234.6129   9.0523239803e+01   1.5515597668e+01    0.2530848    0.1874187  43.20 0.0009925455    1.404    0.288
        17 -11.1695     95.0455    232.3132   9.1010780305e+01   1.6498772370e+01    0.3326329    0.1936727  66.33 0.0009572077    1.539    0.350
        18  -9.3182     76.2325    250.1886   9.5568673663e+01   1.6296580571e+01    0.1689051    0.1110394  49.32 0.0004305993    1.320    0.243
        19 -14.0500     13.1664    177.7209   1.0120134639e+02   3.6591374548e+01     1.379225    0.9426224 -52.73  0.006030902    2.006    0.501
        20 -12.7959     47.9688    247.9003   9.9775328846e+01   2.0258731161e+01    0.8623545    0.5105425  42.73  0.006227433    1.731    0.422
        21 -13.7045     38.9884    244.4767   1.0093384926e+02   2.1862861389e+01     1.113862    0.6370413  43.82  0.008093512    1.714    0.417
        22 -15.8990     34.7964    213.1291   9.9731350307e+01   2.7697373815e+01     3.593975     1.994713  65.21   0.02458163    1.395    0.283
        23  -9.7715    153.1642    243.3346   8.2161829113e+01   5.6167568251e+00    0.2524482   0.08560691  39.51   0.00107678    2.661    0.624
        24  -9.2375    145.0888    239.8421   8.3147144666e+01   7.4431828324e+00    0.1662832    0.1147953  38.05  0.001066345    1.360    0.265
        25  -9.5353    217.1926    238.7052   7.0545036634e+01  -4.5149661592e+00    0.1783021    0.1236923  48.84 0.0007697843    1.452    0.311
        26  -9.3585    160.6540    239.3083   8.0379120938e+01   4.9200823630e+00    0.1204395   0.07835534  63.81    0.0007044    1.701    0.412
        27  -9.8417    231.3507    237.7025   6.8013232538e+01  -6.7025161704e+00    0.2363376    0.1510679  42.49 0.0009952709    1.364    0.267
        28 -10.7369    227.6805    234.5047   6.8136672901e+01  -5.7676095145e+00    0.3632057    0.2025874 -19.20  0.001813001    2.270    0.559
        29 -10.1504    245.2892    236.3273   6.5492390628e+01  -8.7580892097e+00    0.1999371    0.1345013  19.79   0.00053937    1.229    0.186
        30  -9.8549    188.8903    235.4247   7.4939140237e+01   6.2985745635e-01    0.2216325    0.1764627  73.31 0.0009680073    1.716    0.417
        31  -9.6373    166.7202    234.6643   7.8724994734e+01   4.5291391802e+00     0.172336   0.08455872  45.28 0.0006411716    1.571    0.364
        32 -10.4892    125.1351    235.7935   8.6159195419e+01   1.1299096388e+01     0.268927    0.1373024  53.69   0.00151803    1.583    0.368
        33 -11.2830    123.4603    231.5148   8.5986820485e+01   1.2233996396e+01    0.2946227    0.1998424  77.74   0.00110552    1.622    0.383
        34 -11.4362    112.1890    234.8400   8.8304270281e+01   1.3493012084e+01    0.4305735    0.2065674  69.44  0.002031641    2.924    0.658
        35  -9.5349     80.1599    234.4540   9.3716212925e+01   1.8277932295e+01    0.2554602     0.217106  -5.18  0.001729605    2.537    0.606
        36  -9.2769     81.4200    229.2892   9.3069117312e+01   1.8964946002e+01     0.201342    0.1276006  78.08 0.0009062635    1.451    0.311
        37 -10.1157     84.5305    227.9642   9.2421386570e+01   1.8749226649e+01    0.1951548    0.1398821 -56.88  0.001330095    1.862    0.463
        38  -9.9790     56.9843    235.0462   9.7557959101e+01   2.1245576842e+01    0.2907511    0.1656515  77.88  0.001948421    1.518    0.341
        39 -10.9166     52.2588    230.3642   9.8001102453e+01   2.2622164329e+01    0.3037699     0.214014 -86.18  0.001229862    1.330    0.248
        40 -10.3903    141.0261    234.9805   8.3289097344e+01   8.8258603761e+00    0.1784672    0.1371798  23.89  0.001147004    1.704    0.413
        41  -8.9842    222.4983    234.4576   6.9005835888e+01  -4.9143108382e+00    0.1211118   0.08990693  29.23 -1.642308e-05    1.036    0.034
        42  -9.7828    177.3993    233.0255   7.6622706314e+01   2.9165091561e+00    0.2955284    0.2162414  24.61  0.001881263    1.467    0.319
        43  -9.5077    207.0240    231.9455   7.1279786346e+01  -2.0341746005e+00    0.1877602    0.1477208  37.29 0.0006700974    1.072    0.067
        44 -10.2807    237.4796    231.0312   6.5945459063e+01  -6.9787321907e+00    0.3555053    0.1286968  49.95   0.00147394    3.406    0.706
        45 -10.9149    128.8748    230.1632   8.4878332972e+01   1.1566336323e+01    0.2717666    0.1707937 -60.09  0.001674687    1.939    0.484
        46  -9.1510    225.7843    227.9877   6.7438239800e+01  -4.7306579950e+00    0.1613787    0.1276075  23.28 0.0003339857    1.064    0.060
        47  -9.9449    196.8200    227.8829   7.2457769764e+01   2.2348691590e-01    0.1632184    0.1330871  57.24 0.0006921694    1.383    0.277
        48 -14.1242      9.2758    208.2679   1.0363783844e+02   3.1193641767e+01     1.106952    0.7443556  65.97  0.008928807    1.149    0.130
        49  -9.8121    247.7843    231.3992   6.4295424473e+01  -8.6488332721e+00    0.1678796   0.08335236  33.01 0.0008285998    1.597    0.374
        50 -10.3539    107.5151    223.7247   8.7978023561e+01   1.6033811643e+01    0.2577885    0.1788415 -75.38  0.001362536    1.589    0.371
        51 -10.4864     63.0085    223.2941   9.5706189556e+01   2.2484605084e+01    0.3534198    0.1670773  62.93  0.002058754    1.826    0.452
        52  -9.7161    242.9828    223.5339   6.3803669224e+01  -7.0609520528e+00    0.1871415   0.09433717  39.00  0.001033625    1.602    0.376
        53 -10.6913    122.7206    222.9398   8.5154212648e+01   1.3732197340e+01    0.2515301    0.1653817  54.70 0.0007936792    1.216    0.178
        54  -9.5319    122.9808    218.6621   8.4606411992e+01   1.4397698868e+01    0.1754106     0.152583  46.72 0.0006431703    1.240    0.193
        55 -10.2038    192.0489    229.8871   7.3594508202e+01   7.9420181138e-01    0.1799564    0.1630716  34.59 0.0003008835    1.176    0.150
        56 -10.6013    197.4698    218.5409   7.0915499629e+01   1.3305373390e+00    0.3482085    0.2271743 -16.12  0.001928401    2.132    0.531
        57  -8.8261    102.4917    220.0588   8.8494180899e+01   1.7435604920e+01    0.1571724    0.1102221 -73.71 0.0007791003    1.544    0.352
        58  -9.6267    222.5099    216.5245   6.6142627957e+01  -2.8241208569e+00    0.3686593    0.1582553  32.46  0.001689677    2.258    0.557
        59  -8.6257    116.3081    216.6737   8.5601075686e+01   1.5827114374e+01    0.1265389   0.07901074  69.48 0.0002764062    1.654    0.395
        60  -9.2302     88.0653    215.9038   9.0673213792e+01   2.0330945317e+01    0.1547902    0.1476545 -11.08  0.001127988    1.714    0.417
        61 -10.1609     79.6039    215.0364   9.2110170798e+01   2.1701589030e+01    0.3631549    0.1589304  52.48  0.001927612    1.862    0.463
        62 -10.9824    233.0559    213.0471   6.3722192829e+01  -4.2202694617e+00    0.4222191    0.2544314 -31.18  0.002357985    1.889    0.471
        63 -10.4687     69.4068    213.7634   9.3811979375e+01   2.3335203735e+01    0.2310883    0.1756836  83.00 0.0006905035    1.134    0.118
        64  -9.3267    166.4908    214.5415   7.5984366837e+01   7.4860533911e+00     0.129059    0.1044433  45.32 5.290795e-05    1.010    0.010
        65  -9.0378    128.1428    213.4434   8.3010986007e+01   1.4412213482e+01    0.1796598     0.140983 -76.89   0.00073664    1.432    0.302
        66  -9.4623     96.8260    214.4346   8.8932668174e+01   1.9284472594e+01    0.1564606    0.1025718  37.93 0.0006021122    1.670    0.401
        67  -9.5931    196.1016    213.4758   7.0361461976e+01   2.2637516662e+00    0.2025037    0.1045441  42.75  0.001027029    1.578    0.366
        68  -9.5893    186.4271    212.7610   7.2020516863e+01   4.1240992889e+00    0.1573993    0.1214479 -17.93 0.0009285702    1.638    0.389
        69  -8.7199    104.3217    213.6805   8.7473587307e+01   1.8260468287e+01    0.1275599   0.07656514  68.92 0.0007044144    1.670    0.401
        70 -10.0259     85.3362    210.6890   9.0652258577e+01   2.1665726900e+01    0.2167431    0.2048546 -67.95 0.0009795368    1.487    0.327
        71 -10.8727     90.0731    207.6878   8.9469336790e+01   2.1516555998e+01    0.3734206    0.1775077  47.80  0.002000313    1.756    0.430
        72  -9.2203    207.5539    209.7590   6.7674215830e+01   6.9313228970e-01     0.214172    0.1239014 -28.27  0.001127464    2.109    0.526
        73  -8.2652    139.5090    216.4809   8.1278303101e+01   1.1961972706e+01    0.1266629     0.101564  54.04 0.0002789243    1.001    0.001
        74  -9.2603    151.3218    209.3211   7.8081041612e+01   1.1045395203e+01    0.1230499   0.09582283  18.92 0.0006474992    1.673    0.402
        75 -13.2922     86.9525    201.8647   8.9436708955e+01   2.3059276465e+01     1.436557    0.3343393  39.26  0.005021834    4.431    0.774
        76  -9.7962    100.5514    208.1546   8.7560488916e+01   1.9835822255e+01    0.1966882    0.1248266  45.02 0.0004777962    1.428    0.300
        77 -10.4469    128.8189    206.7255   8.2018141079e+01   1.5449993078e+01    0.3546293    0.1797338  51.77  0.001659882    1.689    0.408
        78 -10.7371     75.5563    205.9872   9.1987296382e+01   2.3921681666e+01    0.2270215    0.1421816  50.29 0.0005957866    1.376    0.273
        79  -9.9167    241.1392    204.3050   6.0795822425e+01  -4.5599954089e+00    0.2561434    0.1636497   9.33  0.001064537    1.683    0.406
        80  -9.5288    190.1738    204.0374   6.9917962912e+01   4.6991045378e+00    0.2058928    0.1579372  23.40 0.0009198427    1.320    0.242
        81  -9.9916    235.0022    202.6519   6.1559827652e+01  -3.2941286418e+00    0.3098463    0.2020096   5.67  0.001047931    1.720    0.418
        82  -9.6907     71.2951    208.6481   9.3016065384e+01   2.4014722293e+01    0.1998759    0.1515862  84.88 0.0006681655    1.146    0.127
        83 -10.5072     69.5678    204.8788   9.2983343673e+01   2.4948956365e+01    0.3323398    0.1959597 -60.59  0.001081517    1.903    0.475
        84  -9.0903    183.9143    198.0963   7.0107347256e+01   6.7761369800e+00    0.1896648    0.1596203  54.35            0    1.189    0.159
        85 -11.9024     68.5140    195.5123   9.2284562027e+01   2.6873428553e+01    0.4239236    0.2563261 -67.38  0.002452439    1.648    0.393
        86  -9.3486    215.1189    196.4919   6.3994889464e+01   1.1107752559e+00    0.3408944    0.1817907 -12.11  0.001384653    3.357    0.702
        87 -10.0389    161.2616    200.2184   7.4813451397e+01   1.0716942344e+01    0.3857532    0.1783947  56.74  0.001344754    2.491    0.598
        88 -10.5165     83.4316    196.5445   8.9535017342e+01   2.4585446690e+01    0.2584936    0.1275252  64.57 0.0006782446    2.141    0.533
        89 -13.0733    109.7699    192.6955   8.3897487896e+01   2.1226177901e+01    0.5136632    0.4082486  36.75  0.002418556    1.433    0.302
        90  -9.6664    210.4964    195.0921   6.4590091236e+01   2.1724049867e+00    0.1833083    0.1297354 -29.81  0.001032187    1.593    0.372
        91  -9.5163    190.6712    194.4421   6.8192133430e+01   6.0460385139e+00    0.2839918    0.1612586 -40.90  0.001417861    2.053    0.513
        92 -12.9528      4.7765    196.7517   1.0378509188e+02   3.3708449779e+01     0.659054    0.2779442 -88.61   0.00407724    1.908    0.476
        93 -10.8145    123.5265    200.5367   8.2220293485e+01   1.7455671930e+01    0.3563757    0.1456388  52.17  0.000898015    2.237    0.553
        94 -10.1492    242.5906    190.1008   5.7921873875e+01  -3.0564462734e+00    0.3879921    0.2044948 -17.24  0.001857692    2.290    0.563
        95 -11.6129    122.7553    191.0658   8.1070081293e+01   1.9330639794e+01    0.4144202    0.2223298  70.20  0.001765875    2.729    0.634
        96 -12.4381    123.2178    185.3498   8.0149772418e+01   2.0331753909e+01    0.6640443    0.3166175  29.53  0.002439558    3.709    0.730
        97 -13.6683     26.5845    233.8164   1.0223974868e+02   2.4997962524e+01     0.932705    0.4683126 -64.66  0.004104209    2.339    0.572
        98 -11.3093    129.9000    190.2873   7.9516355561e+01   1.8216407955e+01     0.353902    0.1973238  31.30  0.001610089    2.333    0.571
        99 -12.4881     91.4454    188.4910   8.7032928964e+01   2.4954553067e+01    0.4795101    0.3180635  22.60  0.002458104    2.545    0.607
       100 -12.1024    146.6794    185.9114   7.5435812833e+01   1.5938047989e+01    0.3753817    0.3108675 -31.39  0.002187082    1.541    0.351
       101  -9.9068    247.0624    190.6261   5.7253144549e+01  -3.9122722266e+00    0.1836976    0.1405229  26.73 0.0005154946    1.107    0.097
       102 -11.4564    106.3845    187.0936   8.3837225138e+01   2.2861089364e+01    0.2955102    0.1607359  48.78  0.001442562    1.615    0.381
       103  -9.5351    212.0245    191.0044   6.3563561627e+01   2.4658123709e+00    0.1955744    0.1660855  77.66  0.001136998    1.680    0.405
       104 -11.9952    138.7844    184.6866   7.6852566886e+01   1.7640171962e+01    0.3765726    0.2544906 -43.50  0.001998791    1.789    0.441
       105 -11.8830     78.6290    183.0000   8.8961300531e+01   2.7941773777e+01    0.4106191    0.1836872 -68.91   0.00199998    2.254    0.556
       106  -9.1334    202.8791    183.4914   6.3879335694e+01   5.3491045446e+00    0.2139741    0.1203368  44.41  0.001025399    1.569    0.363
       107  -9.4970    190.8596    182.9820   6.6096198958e+01   7.8064482883e+00    0.2447731    0.1748432  40.84 0.0006596233    1.224    0.183
       108  -8.7644    207.3161    186.3538   6.3578038787e+01   4.0498953263e+00    0.1412981   0.09670817  13.78 0.0007046102    1.740    0.425
       109  -9.9534    214.7296    182.0815   6.1383015230e+01   3.2415351624e+00    0.2401707    0.2050049 -83.67 0.0004826208    1.762    0.432
       110 -11.4753    108.0000    181.0034   8.2668612653e+01   2.3790606194e+01    0.2950425    0.1604186 -76.88  0.001060418    2.407    0.584
       111 -12.6609     87.1260    180.4462   8.6918755114e+01   2.7212142429e+01    0.3753951     0.369548  13.02  0.002159313    1.433    0.302
       112 -14.3084      5.4307    227.7507   1.0513080701e+02   2.8163779743e+01    0.8117163    0.6320356  74.91  0.004913885    1.294    0.227
       113  -9.0991     24.0735    181.3449   9.9437676824e+01   3.4847066012e+01    0.1477836    0.1101693  71.85 0.0004298048    1.107    0.097
       114  -9.2865    194.0882    179.8425   6.4880939387e+01   7.6662202099e+00    0.1998103    0.1819818  72.69 0.0007763402    1.304    0.233
       115 -14.6801      5.7110    245.6691   1.0580587228e+02   2.5207040142e+01     1.230719    0.2826142  49.87  0.007245796    2.618    0.618
       116 -12.7942      3.3284    249.7834   1.0628552621e+02   2.4791382964e+01    0.2674392    0.1205648  58.58  0.001230569    1.481    0.325
       117  -9.0965    201.8343    178.8571   6.3197282983e+01   6.2734306725e+00    0.1978609    0.1669975  34.27 0.0005132082    1.038    0.036
       118  -9.6646    206.6689    176.2703   6.1771728303e+01   5.7099868087e+00    0.2807477    0.2090241  29.12 0.0009932462    1.261    0.207
       119 -10.4681     30.4723    186.9499   9.8668945381e+01   3.3094444735e+01    0.2417274    0.1573998  83.40 0.0008508199    1.199    0.166
       120 -11.7868    114.9966    176.0038   8.0469522808e+01   2.3596657229e+01    0.3474523    0.2064656  46.85 0.0009543771    1.528    0.346
       121 -12.4657    121.3968    175.0602   7.8965826751e+01   2.2659675735e+01    0.6567302    0.2393282  50.52  0.002037215    2.659    0.624
       122 -14.3350     13.2764    241.5539   1.0457092222e+02   2.5114745948e+01    0.8018452    0.3253194 -82.37  0.002751881    2.133    0.531
       123 -10.8316    155.4247    175.7338   7.1912670932e+01   1.6114380806e+01    0.2534129    0.1375645 -52.91  0.001147308    2.119    0.528
       124 -12.3584    100.5169    175.2771   8.3432760366e+01   2.6171720135e+01    0.3619597    0.2534883  44.03  0.002056679    1.401    0.286
       125  -9.4086     50.8146    176.1106   9.3825620998e+01   3.2991124197e+01    0.1823939    0.1301084  79.61  0.001204361    1.158    0.136
       126  -9.4956    193.7898    175.0092   6.4014419919e+01   8.5089071313e+00    0.1857813    0.1691394  26.78 0.0002326513    1.046    0.044
       127 -10.0217     30.6929    175.5378   9.7734950776e+01   3.5338944388e+01    0.1767226    0.1082884  33.32  0.000480532    2.025    0.506
       128 -10.4227    238.6722    173.4241   5.5336904154e+01  -1.2239926459e-01    0.3732931    0.1949657  22.66  0.001588704    2.471    0.595
       129 -11.6871    107.4570    171.8469   8.1453201603e+01   2.5724711374e+01    0.3166684    0.2168573 -77.92  0.001661939    1.569    0.363
       130  -8.8260    222.4788    172.5107   5.8064454024e+01   3.1359586832e+00    0.1370879    0.1213546  23.54 8.027335e-05    1.036    0.034
       131 -11.6645    133.9677    170.7536   7.5577423585e+01   2.1206987050e+01     0.305026    0.1990358 -58.99  0.001000774    1.673    0.402
       132 -10.7932     67.9884    168.9312   8.9505336434e+01   3.2307963489e+01    0.2855566    0.1597592 -79.62 0.0008319528    1.765    0.433
       133 -11.8121     11.2633    159.2535   1.0026401419e+02   4.0462110822e+01    0.4477637    0.3442141  66.77  0.003454647    1.223    0.182
       134  -9.0246      6.0990    170.1200   1.0201429384e+02   3.8704511782e+01     0.155179    0.1017748  78.57 0.0002900251    1.152    0.132
       135 -11.0927      4.5079    165.8106   1.0203419433e+02   3.9692160826e+01    0.2600777    0.2331953 -48.64  0.001274905    1.667    0.400
       136 -11.2268     10.8172    165.2605   1.0078971110e+02   3.9280096115e+01    0.3416231    0.2395924  47.13  0.001139552    1.527    0.345
       137 -10.7014    170.5784    169.0473   6.7538166060e+01   1.4283922896e+01    0.2821485     0.196974  44.21 0.0005028313    1.292    0.226
       138 -10.9629    145.2500    168.3386   7.2738045391e+01   1.9510590091e+01     0.245661    0.1745448 -38.52 0.0007470992    1.688    0.408
       139 -10.9884    153.8509    167.9035   7.0826209988e+01   1.7890170855e+01     0.221309     0.199295  54.41 0.0003909003    1.006    0.006
       140  -9.1862     58.3122    168.3462   9.1475711356e+01   3.3682781450e+01    0.1126442   0.08921821 -46.45 0.0007046302    1.711    0.416
       141  -9.1841    215.8352    165.7731   5.7924498800e+01   5.4883831215e+00    0.2160974    0.1745794  17.38  0.000677878    1.211    0.175
       142  -8.7490    201.2830    166.0011   6.0757550077e+01   8.4452268872e+00    0.1649866    0.1267607 -33.46 0.0008695333    1.407    0.289
       143 -11.7838    151.4619    164.3667   7.0677568211e+01   1.9045050475e+01    0.5079487    0.2503064 -32.95  0.001874486    3.273    0.694
       144 -12.4536    106.2969    163.3431   8.0396886046e+01   2.7678589760e+01      0.41205      0.33114  87.05  0.002400703    1.215    0.177
       145 -12.4455     76.7194    160.7191   8.6569361291e+01   3.2844306727e+01     0.799474    0.2945698  61.17  0.002470505    5.273    0.810
       146 -12.7439    125.2174    158.7294   7.5402516044e+01   2.5271993237e+01     0.622922    0.3379304 -50.59  0.002850374    1.951    0.487
       147  -8.9216    229.4586    161.4856   5.4515855958e+01   3.3875447728e+00    0.2390001    0.1271177  44.74  0.000105693    1.767    0.434
       148 -10.4561     38.4707    161.0213   9.4861089260e+01   3.7517310468e+01    0.1878854    0.1626303 -42.64  0.001335558    1.646    0.393
       149 -11.1793     42.0352    156.7781   9.3669541215e+01   3.8031357657e+01    0.2803518    0.1320673 -63.78  0.001511347    1.871    0.465
       150 -11.3483     48.1254    159.3542   9.2640347660e+01   3.6802865611e+01    0.3178082    0.1646533  54.63  0.001748473    1.862    0.463
       151  -9.5568    207.1299    158.3496   5.8029886815e+01   8.4771660957e+00    0.2258199    0.1883714 -14.17 0.0003463894    1.265    0.210
       152 -10.4544     58.4226    158.8102   9.0348122856e+01   3.5688617962e+01    0.1745955   0.09803449 -59.41 0.0009520411    1.731    0.422
       153 -11.0154     46.3891    165.6175   9.3672969702e+01   3.5679853859e+01    0.2884228    0.1846862  57.94  0.001063081    1.435    0.303
       154 -10.4436    247.0554    155.7856   5.0208691935e+01   7.4901615413e-01    0.3537894    0.2490344 -64.35  0.001134679    2.626    0.619
       155 -11.0051    138.5231    155.4621   7.1825146084e+01   2.3386465195e+01    0.2473253    0.2035588   2.83  0.001041037    1.695    0.410
       156 -12.1398    100.7886    155.8530   8.0433058372e+01   3.0186474107e+01    0.4349484    0.2842939  27.54  0.002129273    2.074    0.518
       157 -11.4262     36.9797    153.7649   9.4441616494e+01   3.9209654883e+01    0.3556078    0.1810673 -87.26  0.001914315    1.882    0.469
       158 -11.2181    133.5580    153.7456   7.2612298823e+01   2.4710178950e+01    0.4208996    0.2665451 -21.77  0.001642826    3.144    0.682
       159 -12.0787     26.2480    156.7467   9.7007185121e+01   3.9644481344e+01    0.4065017     0.280842 -67.43  0.002789659    1.365    0.267
       160 -11.1148     55.9615    151.0804   8.9943946122e+01   3.7657604719e+01    0.2367774    0.1951412  24.43   0.00127659    1.652    0.395
       161 -11.2669     85.3849    152.8590   8.3485171821e+01   3.3271136384e+01    0.2537547    0.1959334  40.52  0.001481929    1.411    0.292
       162 -10.9596      4.1486    136.3280   9.9929748349e+01   4.5763773881e+01    0.3453173    0.1783895 -52.72  0.002101964    2.116    0.527
       163 -12.2474      5.0802    147.1237   1.0059694293e+02   4.3447661643e+01    0.6657236    0.3640137 -76.99  0.002922492    1.394    0.283
       164 -11.8433     12.8055    144.9081   9.8792111957e+01   4.3308128621e+01    0.4325489      0.22993 -69.45  0.001716286    1.520    0.342
       165 -10.3323     74.7658    164.4372   8.7491178661e+01   3.2327817379e+01    0.1610669    0.1214313  32.26 0.0008790057    1.652    0.394
       166 -10.7738    172.9975    156.1492   6.4468519433e+01   1.6136539343e+01    0.2555721    0.2184747 -40.79 0.0006639812    1.268    0.212
       167 -10.1633    210.1974    150.8662   5.5824924973e+01   9.0574003549e+00    0.3244338    0.1846405  44.65  0.001097504    1.647    0.393
       168  -8.8624    187.3039    151.3060   6.0470621478e+01   1.3938125389e+01    0.1482606     0.112495  13.59 0.0003248931    1.601    0.375
       169 -11.8380     92.8789    153.9478   8.1934983741e+01   3.1877210216e+01    0.4050282    0.2554951 -82.34  0.001828783    1.799    0.444
       170 -10.0494    163.4999    149.4841   6.5111047677e+01   1.9425226415e+01    0.1480257    0.1381496  45.78   2.4675e-06    1.020    0.020
       171 -10.9803     94.4262    148.0057   8.0611897393e+01   3.2920733034e+01    0.2536043    0.1934209  49.22 0.0004586194    1.296    0.229
       172  -9.9332    158.5994    147.1794   6.5697434913e+01   2.0919854947e+01    0.2011275    0.1420323 -32.42 0.0005024215    1.668    0.401
       173  -9.2749     71.6740    146.3437   8.5687867772e+01   3.6669184610e+01    0.1381586   0.08786336  76.03 0.0007050807    1.740    0.425
       174 -11.6970     28.5685    145.1412   9.5387941356e+01   4.1884194561e+01    0.2730062    0.1850205  88.04  0.001519983    1.232    0.188
       175  -9.1845    176.7061    145.3515   6.1385120359e+01   1.7347358529e+01    0.1493637    0.1184864 -86.33 0.0007031494    1.680    0.405
       176 -11.5183     50.6576    144.2455   9.0288966074e+01   3.9774368077e+01    0.3104369    0.1978827 -51.76  0.001794466    1.717    0.418
       177  -9.8382     22.9661    144.7749   9.6583549001e+01   4.2475295462e+01    0.1992951   0.09843885  64.21  0.001090158    2.106    0.525
       178  -8.8517    208.9692    144.4627   5.4640628008e+01   1.0391603066e+01    0.2215169    0.1388026  48.78 0.0005842668    1.549    0.354
       179  -9.5418    226.1071    161.8187   5.5195439364e+01   4.0112823425e+00    0.2072178    0.1832639  19.55  0.000313911    1.007    0.007
       180 -10.6210     92.7177    143.4454   8.0246055097e+01   3.4193196181e+01     0.231522    0.1584244 -42.12  0.001128716    1.777    0.437
       181 -10.7593    154.8086    142.0129   6.5436767735e+01   2.2753963436e+01    0.3427354    0.2541858  23.22   0.00161436    1.677    0.404
       182 -10.3590    134.1844    142.9974   7.0354210157e+01   2.6818136791e+01    0.2404335    0.1666797 -84.24  0.001074729    1.975    0.494
       183 -10.0419     41.1419    140.1396   9.1979999528e+01   4.1718297907e+01    0.1721397    0.1210388  78.90 0.0009572102    1.320    0.243
       184  -9.4883    249.5056    139.5208   4.6231310938e+01   2.6156336218e+00    0.1395245    0.1234986   2.83 9.452047e-05    1.014    0.014
       185  -9.4799     20.2007    140.6333   9.6789615224e+01   4.3599505407e+01    0.1296915    0.1109115   9.09  0.000946973    1.752    0.429
       186  -9.5539    143.2815    138.1220   6.7222687704e+01   2.5979248304e+01    0.2729331     0.203547  35.35  0.001330716    1.426    0.299
       187  -9.5866    101.6780    138.3375   7.7175429010e+01   3.3844146144e+01    0.1467754    0.1023396  80.03 0.0007050555    1.714    0.417
       188 -11.7989     90.1454    136.7295   7.9696869291e+01   3.6085401428e+01    0.3781472    0.2524481  66.62  0.001921251    1.668    0.400
       189 -10.3345    125.4014    136.2248   7.1029724850e+01   2.9982149522e+01    0.2096769    0.1359376 -63.65 0.0009565608    1.704    0.413
       190  -9.6346     45.3215    135.3129   9.0386381337e+01   4.2333872739e+01    0.1176802   0.08555611 -45.34  0.000378658    1.654    0.395
       191  -9.8247     40.3296    134.4480   9.1465340921e+01   4.3050951066e+01     0.205785    0.1213733  88.98 0.0007815958    1.690    0.408
       192  -9.4970    232.9971    133.7092   4.7736716837e+01   6.9251930452e+00     0.199687    0.1770289  28.27 0.0004971037    1.086    0.079
       193 -10.5147    133.2867    133.8479   6.8644724774e+01   2.8926042234e+01    0.2735388    0.1983404  16.07  0.001225365    2.036    0.509
       194  -9.3716     61.6444    133.3112   8.6142167595e+01   4.0875561164e+01     0.135067   0.08694893  73.79 0.0007043814    1.733    0.423
       195 -10.9341      3.7233    130.4185   9.9518015887e+01   4.7035746857e+01    0.3192653    0.2631136  79.47  0.002296484    1.183    0.155
       196  -9.7339    172.3779    131.1809   5.9099086608e+01   2.1013788248e+01    0.2108211    0.1427585 -52.56 0.0002766845    1.646    0.393
       197  -9.8857     43.4586    131.1308   9.0279978809e+01   4.3457158766e+01    0.1861915    0.1008501 -68.15  0.001012426    1.544    0.352
       198 -11.3554     30.7408    128.9840   9.3082323466e+01   4.5185643631e+01    0.2530714    0.1710004  41.94 0.0007526386    1.656    0.396
       199 -10.7368     97.2094    130.0655   7.6705444867e+01   3.6425753731e+01    0.2077537    0.1901831 -41.04 0.0007407833    1.244    0.196
       200 -10.5221    128.3013    128.4069   6.8655789987e+01   3.1087731548e+01     0.294242    0.1406241  40.21  0.001146739    2.188    0.543
       201 -11.3305     25.0916    128.6633   9.4396705515e+01   4.5760504150e+01    0.2804228    0.1336498  45.86  0.001345152    2.219    0.549
       202 -11.2793     18.6431    120.5818   9.5024248453e+01   4.8050538874e+01    0.2886286    0.1450867 -73.42 0.0009379059    1.564    0.360
       203 -11.4755     10.7949    126.7548   9.7560428501e+01   4.7313283059e+01    0.2592846     0.245546  61.42  0.002122849    1.355    0.262
       204  -9.7352     93.2155    122.9532   7.6314775795e+01   3.8669200235e+01    0.3212605    0.1681792 -50.24  0.001228014    1.852    0.460
       205  -9.9858    249.2951    122.0526   4.2270446919e+01   5.2600677917e+00    0.3191872    0.1934983  27.10  0.001436228    1.994    0.499
       206  -9.5173      2.3860    121.7902   9.9043332154e+01   4.8949065439e+01    0.2059191    0.1114516 -25.24  0.001095367    3.572    0.720
       207  -9.0375    229.0377    121.5135   4.5562985265e+01   9.7382066828e+00    0.2188825    0.1433286  50.90  0.001019581    1.555    0.357
       208  -9.0969     65.7065    120.3364   8.2984331149e+01   4.3271041619e+01     0.133791     0.092558  81.76 0.0003855594    1.645    0.392
       209 -11.5090     28.6919    113.8040   9.1635582759e+01   4.8707893097e+01    0.2346037     0.211773 -48.17  0.001720817    1.307    0.235
       210  -9.1656    210.5574    113.4632   4.6958088219e+01   1.5336906281e+01    0.1503934     0.145249   9.04 0.0001097626    1.004    0.004
       211 -10.0912     38.7518    112.9571   8.8876414444e+01   4.7972867749e+01    0.1679791   0.08650523 -66.07 0.0008857395    1.589    0.371
       212 -10.6771     20.2710    112.9044   9.3688100456e+01   4.9596557598e+01    0.2499076    0.1421809  65.15  0.001304622    2.011    0.503
       213  -9.3766    219.9634    244.9887   7.1000233920e+01  -5.6480040965e+00    0.2037641    0.1605483 -70.68  0.001296055    2.558    0.609
       214  -8.8958    105.0485    107.9689   6.9909670151e+01   3.9974360607e+01    0.1648504    0.1587927 -84.35 0.0009470883    1.029    0.028
       215 -10.6793      9.6060    104.7197   9.5434923773e+01   5.2136248019e+01    0.3118108    0.1924079 -63.29  0.001191941    1.289    0.224
       216  -9.5872    112.4708    104.1924   6.7004893509e+01   3.9424130294e+01    0.2645124    0.1776596  17.72 0.0008314569    2.265    0.558
       217  -9.4713     80.9898    102.6978   7.5303905602e+01   4.5111164524e+01    0.1792975    0.1729551 -83.20 0.0001958394    1.077    0.072
       218  -9.7995    233.0854    100.8591   3.9802995545e+01   1.2139809737e+01    0.2463723     0.202968 -30.41 0.0004121682    1.170    0.146
       219 -10.2623     91.9205     90.3455   6.9185272015e+01   4.6098776217e+01    0.3783117    0.2814869  70.11   0.00190461    1.747    0.428
       220  -9.7602     56.8019     89.3943   7.9394165092e+01   5.1291070718e+01    0.1631823    0.1260124  10.76 0.0009512885    1.665    0.400
       221 -10.0200    152.3927     85.1410   5.1607837800e+01   3.4696289155e+01    0.2914686    0.2262013  59.43 0.0007422335    1.344    0.256
       222  -9.9385     18.0177     85.2472   9.0315333827e+01   5.5783046827e+01    0.2681615   0.09364163  25.82  0.001295765    3.454    0.710
       223  -9.6578     46.2480     79.3661   8.0419730707e+01   5.4642947177e+01      0.27773   0.09645216 -39.27 0.0009638951    4.078    0.755
       224 -10.1785     50.3923     90.7931   8.1623325515e+01   5.1708068368e+01    0.2638983    0.1624678 -39.38  0.001107469    1.731    0.422
       225  -9.7090     11.6875     78.2772   9.1084202957e+01   5.7687601692e+01    0.1897045   0.09050383 -75.42  0.000429153    1.905    0.475
       226  -9.8656    147.9632     70.5154   4.8264497996e+01   3.8477171523e+01    0.2359757    0.2075115 -34.83 0.0004381033    1.147    0.129
       227  -8.8794    103.9809     59.6777   5.6499095801e+01   5.0127598279e+01    0.1888398    0.1792223  19.20 0.0003694012    1.077    0.071
       228  -9.4404     48.1993     58.6101   7.4472891210e+01   5.8787019067e+01    0.1567771    0.1162402   4.70 0.0004982551    1.613    0.380
       229  -9.6838     35.5107     53.9316   7.7708016668e+01   6.0992748924e+01     0.189194   0.09911557 -54.40 0.0005500801    1.568    0.362
       230  -9.0833     43.3466     49.6813   7.3587816090e+01   6.1074031698e+01    0.1140836   0.09500759  87.79 0.0007048884    1.729    0.422
       231  -9.0357     88.4971     48.0063   5.7244621703e+01   5.5095055281e+01    0.2135678    0.1263631 -38.76  0.001030271    1.583    0.368
       232  -8.9322      8.5590     43.5079   8.5123198624e+01   6.5019909639e+01    0.1119813   0.08443305 -52.63 8.787442e-05    1.037    0.036
       233  -9.6824    158.5171     36.9913   3.5021442425e+01   4.1162373144e+01    0.2273041    0.1965217  53.94 0.0003658197    1.097    0.088
       234  -8.8883     63.3750     26.6809   5.7765905901e+01   6.2681514191e+01    0.1156149    0.1023575 -76.67 0.0007030054    1.807    0.447
       235  -9.3251     67.8478     24.8931   5.5378779678e+01   6.2286889552e+01    0.1781147    0.1562998 -61.42 0.0009391997    1.665    0.400
       236  -9.2293     24.8610     22.6099   7.1883548961e+01   6.7787391991e+01    0.1305188    0.1032675  28.61  0.000247052    1.601    0.375
       237  -9.5132    142.9709    248.4077   8.4474004939e+01   6.5828566775e+00    0.2508347    0.1823958  15.55  0.001551289    2.256    0.557
       238 -10.6725    100.7345    246.9453   9.1373159742e+01   1.3342247009e+01    0.2954112    0.2351968 -51.21  0.002190455    1.893    0.472
