#   1 NUMBER                 Running object number                                     
#   2 MAG_AUTO               Kron-like elliptical aperture magnitude                    [mag]
#   3 X_IMAGE                Object position along x                                    [pixel]
#   4 Y_IMAGE                Object position along y                                    [pixel]
#   5 X_WORLD                Barycenter position along world x axis                     [deg]
#   6 Y_WORLD                Barycenter position along world y axis                     [deg]
#   7 A_WORLD                Profile RMS along major axis (world units)                 [deg]
#   8 B_WORLD                Profile RMS along minor axis (world units)                 [deg]
#   9 THETA_WORLD            Position angle (CCW/world-x)                               [deg]
#  10 FWHM_WORLD             FWHM assuming a gaussian core                              [deg]
#  11 ELONGATION             A_IMAGE/B_IMAGE                                           
#  12 ELLIPTICITY            1 - B_IMAGE/A_IMAGE                                       
         1 -12.5679      2.3903     42.7123   2.9214566140e+02   7.2670651388e+00   0.07489273   0.01267606 -61.80  0.003806245    6.424    0.844
         2 -13.7979      6.6014     12.3768   2.9190567267e+02   7.5854327358e+00    0.1130547   0.06037111 -54.46   0.01063996    1.838    0.456
         3 -13.4802    188.1500     27.4898   2.8987279766e+02   6.2849523741e+00    0.0592712   0.05365635   5.76  0.005970649    1.124    0.110
         4 -14.0025    200.4310      9.3050   2.8961440376e+02   6.4144130833e+00   0.09022937   0.06074622 -14.88  0.008821671    1.942    0.485
         5 -11.1968     81.6771    248.8874   2.9250802203e+02   4.4317722712e+00   0.01780464   0.01065867  52.00  0.001183128    1.937    0.484
         6 -11.5142    139.3575    248.9205   2.9183435329e+02   4.0733684032e+00    0.0231731   0.01572738 -66.93  0.002403249    1.573    0.364
         7 -11.1580    125.4909    250.2623   2.9200471055e+02   4.1442499081e+00   0.02854927  0.007482809  28.13  0.001856865    3.728    0.732
         8 -10.4605     67.1759    250.2792   2.9268617320e+02   4.5058317551e+00   0.01545955   0.01227541 -54.43  0.001075693    1.265    0.210
         9  -9.5247     63.6643    250.7161   2.9272993823e+02   4.5226210015e+00   0.01362344  0.006732612  28.68 0.0006257585    1.969    0.492
        10 -10.9967     46.2249    248.4386   2.9291955240e+02   4.6565394780e+00   0.02056519   0.01403978  74.11 0.0009441325    1.985    0.496
        11 -13.6754     32.9353    246.1437   2.9306058035e+02   4.7648997471e+00    0.1618624   0.06546934  32.91   0.01338547    2.305    0.566
        12 -15.1682     56.6189    211.5170   2.9256755906e+02   5.0121474148e+00    0.6804131    0.3308071  62.41   0.04571644    4.238    0.764
        13 -12.6985     45.2164    234.3928   2.9284372364e+02   4.8225560472e+00   0.02056783   0.01759198 -38.99 0.0007521363    1.196    0.164
        14 -10.0342     94.9895    241.1695   2.9230424528e+02   4.4369747046e+00   0.01166032  0.009586075 -60.74 0.0005659366    1.241    0.194
        15  -9.6340    183.4700    238.5287   2.9125419743e+02   3.9172051046e+00  0.006626822  0.006437413  -3.22 4.696775e-05    1.021    0.021
        16  -9.1636    233.6959    236.3726   2.9065458129e+02   3.6290129569e+00  0.007106938  0.005045271  66.06 0.0002571499    1.759    0.431
        17 -11.1493     35.0481    229.2911   2.9293078270e+02   4.9435367168e+00   0.02221354   0.01613972 -40.54  0.001390892    1.439    0.305
        18 -10.5708    155.8325    228.4386   2.9151373229e+02   4.2037955754e+00   0.01566798  0.006845808  16.64    0.0011465    3.138    0.681
        19  -9.7511    177.2346    226.9907   2.9125470968e+02   4.0871248156e+00   0.01024979   0.00884515  70.28 0.0007069595    1.290    0.225
        20 -10.7278    172.9503    221.5319   2.9127053466e+02   4.1758226219e+00   0.01525971   0.01264402  46.80 0.0009918757    1.237    0.191
        21 -10.3335     27.5751    221.6200   2.9297031386e+02   5.0770477769e+00   0.01181404   0.01000884  19.40 0.0007183243    1.180    0.153
        22 -14.0369     51.3395    225.2771   2.9271523668e+02   4.8883299490e+00   0.05938151   0.05275673  88.64  0.004740259    1.236    0.191
        23 -15.1045      4.6290    237.4655   2.9333741789e+02   5.0386592122e+00    0.8463668          nan -58.50   0.03323167    9.257    0.892
        24 -14.1426     10.8317    207.5816   2.9307857863e+02   5.3403110970e+00    0.1199938   0.06513908 -66.43   0.01105249    2.012    0.503
        25  -8.9189    152.5026    212.9430   2.9145557038e+02   4.4006474623e+00  0.009542983  0.006633414 -62.02 0.0003925964    1.477    0.323
        26 -11.9724     30.3518    204.8156   2.9283295389e+02   5.2510383314e+00   0.01876313   0.01261006  40.02 0.0008170073    1.474    0.322
        27 -11.4650     24.3683    202.3485   2.9288755167e+02   5.3161280603e+00    0.0256867   0.01490549 -33.00  0.002254087    2.135    0.532
        28 -11.4645     69.2481    199.3754   2.9234395281e+02   5.0719729387e+00    0.0204911   0.01228514 -35.60  0.001350191    1.945    0.486
        29 -10.7230    198.0011    244.8097   2.9112393571e+02   3.7554130954e+00   0.01584996  0.009610706 -85.76  0.001400904    2.405    0.584
        30 -10.0911    192.9964    194.9633   2.9086981305e+02   4.3529642097e+00   0.03639231   0.01771854 -89.20  0.001945794    6.911    0.855
        31 -11.6841     74.3515    191.5398   2.9223524541e+02   5.1294456023e+00   0.01531159   0.01233857 -37.00 0.0005000707    1.293    0.227
        32  -8.9968    106.5023    182.0284   2.9179962956e+02   5.0380531079e+00  0.009063323  0.006619166 -61.46 -0.0001434342    1.400    0.286
        33 -10.9756     83.1818    178.7526   2.9205191049e+02   5.2200923351e+00   0.01221052    0.0114091 -36.93  0.000389092    1.080    0.074
        34 -13.1996     70.6911    176.6295   2.9218476583e+02   5.3217286890e+00   0.02741896   0.01428983 -37.67  0.001641493    2.310    0.567
        35  -8.6793    172.8091    174.6268   2.9097801331e+02   4.7097911738e+00  0.009284926  0.005825555  39.05  0.000300894    1.567    0.362
        36 -11.9374     90.0223    169.2031   2.9191207003e+02   5.2862323021e+00   0.03765591    0.0272796  39.21  0.004081496    1.364    0.267
        37  -8.8714    250.6817    171.6858   2.9005024494e+02   4.2577437217e+00  0.007006687  0.005018708 -24.01 0.0003325393    1.650    0.394
        38 -12.7098     67.3600    144.5693   2.9202297499e+02   5.7069866108e+00   0.05447414   0.03356236  77.37  0.004753422    2.575    0.612
        39 -10.1936    195.0858    158.8326   2.9061854400e+02   4.7504751206e+00   0.01856568   0.01186662  68.94  0.001376697    2.219    0.549
        40 -12.0361     90.3139    152.2103   2.9180217311e+02   5.4776460639e+00   0.01424039   0.01162039 -26.97 0.0005665325    1.321    0.243
        41  -9.8244    101.3272    152.6533   2.9167606689e+02   5.4042081842e+00   0.01775924   0.01180706 -30.28 0.0009702281    1.773    0.436
        42  -9.3526    104.1116    148.3256   2.9161634447e+02   5.4361109666e+00   0.01079225   0.00863513 -25.97  0.001199165    1.366    0.268
        43  -9.7178    235.4875    150.5088   2.9009440629e+02   4.5930339050e+00  0.006611628   0.00647173  26.50 0.0002265577    1.016    0.016
        44 -11.0812     67.7372    243.6090   2.9263798197e+02   4.5782177367e+00   0.02056496   0.01098207  36.90  0.001919238    1.804    0.446
        45  -8.5747    191.9937    143.9980   2.9056145111e+02   4.9382845089e+00  0.007938391  0.007538729 -54.68 0.0003927556    1.070    0.066
        46 -11.9842     30.3282    140.0198   2.9242813422e+02   5.9882168400e+00   0.01869562    0.0143544  47.80  0.002003967    1.355    0.262
        47  -9.7467    111.6267    137.4804   2.9146036287e+02   5.5126979200e+00   0.01527532   0.01043178 -30.34  0.001520543    1.698    0.411
        48  -9.2373     89.3768    138.3080   2.9172597560e+02   5.6415307348e+00   0.01116662  0.007162697  47.28 0.0005876059    1.658    0.397
        49 -11.9314     57.8041    132.0365   2.9205633174e+02   5.9087584177e+00   0.04169369   0.01958168 -81.09  0.002734561    4.433    0.774
        50 -10.4694    175.4731    138.8360   2.9072209330e+02   5.0999004231e+00   0.02582788   0.01311545  57.56  0.002020391    2.979    0.664
        51  -9.9716    169.6982    133.5850   2.9075660758e+02   5.1955463787e+00   0.01191644   0.01037434  56.25  0.000424331    1.217    0.179
        52  -9.1010    108.3256    124.1482   2.9141531714e+02   5.6847637451e+00  0.008609556  0.008202191 -67.32 0.0003820037    1.084    0.077
        53 -10.6572     99.2964    134.9616   2.9158886937e+02   5.6179596913e+00   0.01397412   0.01058807 -38.81  0.000430397    1.383    0.277
        54  -9.7818    151.4448    117.4916   2.9086892852e+02   5.4921072359e+00   0.02500275   0.01054874  54.76  0.001618838    4.269    0.766
        55 -10.5841    168.0237    113.2644   2.9064843916e+02   5.4368408697e+00   0.01719352   0.01293259  64.37  0.001112133    1.574    0.365
        56  -8.9318    203.0000    111.9460   2.9023125410e+02   5.2336915604e+00   0.01071806   0.00381155 -61.01 0.0005657814    2.863    0.651
        57  -9.1951    130.1015    102.1180   2.9102203835e+02   5.7996665015e+00   0.01027076  0.008463327  54.29  0.001163514    1.296    0.228
        58  -9.1535    126.9660    100.0071   2.9104547063e+02   5.8431641364e+00    0.0101393  0.008595008  58.31 0.0004797317    1.273    0.214
        59  -8.6115     30.1933     91.3629   2.9212484230e+02   6.5422520703e+00  0.009838632  0.005730052  38.13 0.0007262918    1.675    0.403
        60  -9.8378    154.9821     75.4926   2.9056336188e+02   5.9471246237e+00   0.01031481  0.006470161  28.11 0.0005683561    1.562    0.360
        61  -9.7667     23.2174     68.4709   2.9206301811e+02   6.8455918913e+00   0.01272326  0.009752214  45.25 0.0007534759    1.335    0.251
        62 -10.3028    248.6332    249.4237   2.9056224071e+02   3.3877596843e+00   0.01309634   0.00877165  28.09   0.00135287    1.463    0.316
        63 -10.0926    161.8736    249.1382   2.9157277406e+02   3.9309499544e+00   0.01063174  0.009174107  59.26 0.0007206469    1.246    0.198
        64 -11.2351     14.9174     47.1004   2.9202622413e+02   7.1397361230e+00   0.01747717  0.008137328  38.77  0.001127311    2.086    0.521
        65 -10.1062    152.7051    248.9381   2.9167858204e+02   3.9902209298e+00  0.009270027  0.008849022 -71.14  0.000476067    1.087    0.080
