#   1 NUMBER                 Running object number                                     
#   2 MAG_AUTO               Kron-like elliptical aperture magnitude                    [mag]
#   3 X_IMAGE                Object position along x                                    [pixel]
#   4 Y_IMAGE                Object position along y                                    [pixel]
#   5 X_WORLD                Barycenter position along world x axis                     [deg]
#   6 Y_WORLD                Barycenter position along world y axis                     [deg]
#   7 A_WORLD                Profile RMS along major axis (world units)                 [deg]
#   8 B_WORLD                Profile RMS along minor axis (world units)                 [deg]
#   9 THETA_WORLD            Position angle (CCW/world-x)                               [deg]
#  10 FWHM_WORLD             FWHM assuming a gaussian core                              [deg]
#  11 ELONGATION             A_IMAGE/B_IMAGE                                           
#  12 ELLIPTICITY            1 - B_IMAGE/A_IMAGE                                       
         1 -13.9839    213.3873     10.0206   3.9086106794e+01   3.0440705546e+01      2.36245     1.327316  39.38   0.01094946    2.579    0.612
         2 -13.3666    174.0632     55.1571   5.6863485744e+01   3.4507542068e+01     2.329983     1.405475  23.00   0.00658085    2.755    0.637
         3  -9.7865     60.4917      2.4946   6.5196856929e+01   6.6833196447e+01    0.1240448    0.1001295  13.42 -2.46128e-05    1.008    0.008
         4 -13.1670    189.5933     40.6264   5.0077647661e+01   3.2655378422e+01    0.9651359    0.8078451 -44.98  0.003084979    1.179    0.152
         5 -10.2409     58.7645    229.3125   1.1951062048e+02   1.9928559966e+01    0.1646197    0.1202743  79.09 0.0003485423    1.170    0.145
         6 -12.8178    247.2872    245.4211   8.6396255942e+01  -1.0981522719e+01     1.008698    0.4571979 -32.17  0.005746134    2.333    0.571
         7  -9.8339     55.5957    223.2113   1.1961128153e+02   2.1508738568e+01    0.1399332    0.1050303  85.36 0.0002978171    1.171    0.146
         8 -10.2928     43.9514    205.4872   1.2041252687e+02   2.6515802956e+01    0.1617741    0.1270529  89.91 -0.0001499952    1.131    0.116
         9 -19.5181     23.3909    146.5462   1.1940849381e+02   4.1916213102e+01     19.35298     4.853096 -74.80   0.06697604    3.781    0.736
        10 -10.5963     67.1985    204.8156   1.1562674488e+02   2.3714800201e+01    0.3164036    0.1744614 -49.41  0.001153574    2.393    0.582
        11  -8.5739     71.8020    201.8065   1.1434905551e+02   2.3717281937e+01    0.3051026    0.1717795  80.62  0.001509041    2.054    0.513
        12  -9.5253    160.5231    205.4988   9.6043255585e+01   8.4729799485e+00    0.1354174    0.1205486  36.63 0.0008102344    1.006    0.006
        13  -8.7109     93.9950    205.4738   1.1008688265e+02   1.9709537912e+01    0.1720635    0.1638065  58.30 0.0006366548    1.205    0.170
        14 -10.2941     96.4862    201.6342   1.0907413881e+02   2.0116298008e+01    0.3327282    0.2394665 -60.78  0.001434516    1.479    0.324
        15 -10.9501    193.1667    195.3528   8.7617693658e+01   4.3626388434e+00     1.110487    0.5580562 -61.39  0.003235504    6.459    0.845
        16 -10.5741     57.6127    201.5353   1.1728335962e+02   2.5666605955e+01    0.2624373    0.1963582 -38.92  0.001224378    2.048    0.512
        17 -10.4119    203.0520    200.5056   8.6635263599e+01   1.7718575468e+00     0.207457    0.1198605  38.86  0.001034382    1.595    0.373
        18 -11.4171     60.0118    195.0867   1.1613331655e+02   2.6738361437e+01    0.3413234    0.2864389 -53.44  0.001609292    1.489    0.328
        19  -9.9425     82.0923    195.0289   1.1136156599e+02   2.3693323916e+01    0.2071855    0.1715995  58.65 0.0004454135    1.094    0.086
        20  -9.3482     44.5736    195.4270   1.1941522046e+02   2.8575033245e+01    0.1246794    0.0950259  75.40 0.0002697147    1.066    0.062
        21  99.0000     43.7375    221.2702   1.2169307679e+02   2.3342817213e+01    0.1988357     0.151176  33.94  0.001348398    1.624    0.384
        22 -11.9806    149.6144    188.8274   9.5518612118e+01   1.3584143178e+01    0.5349476    0.3880461 -64.27  0.001692762    1.654    0.395
        23 -10.9244     99.1763    180.9046   1.0559443841e+02   2.4142065465e+01    0.3333011    0.2854126 -31.51  0.001241486    1.505    0.336
        24 -10.7716     95.6358    189.2091   1.0760239484e+02   2.2886797606e+01    0.4199106    0.3180135  72.68   0.00235902    1.305    0.234
        25 -10.5916     98.7950    185.8296   1.0640910899e+02   2.3119028741e+01    0.4038806    0.2423283  45.89  0.001238507    1.549    0.355
        26 -11.6912    144.0562    178.6975   9.4929340115e+01   1.6663478553e+01    0.4781844    0.3009245 -53.92  0.001664521    1.716    0.417
        27 -11.8299    129.7530    180.4171   9.8476747452e+01   1.8959406435e+01    0.4638275    0.3037357  23.45  0.002117513    1.977    0.494
        28 -11.4196    125.9891    173.2832   9.8088777701e+01   2.1178831248e+01    0.3033198    0.2774115  66.28  0.001388044    1.051    0.048
        29 -10.8124    150.0538    178.1675   9.3487918284e+01   1.5633154305e+01    0.3734263    0.2737538 -78.48 0.0009019494    1.872    0.466
        30 -10.3455    188.5396    176.5447   8.4908294514e+01   8.5131476575e+00    0.4016132    0.3484367 -56.18  0.001924666    1.365    0.267
        31 -10.4805    242.5994    172.8191   7.3928847660e+01  -7.3751998706e-01    0.1864959    0.1139206 -40.69 0.0009518514    1.701    0.412
        32 -10.7554    238.4277    174.7515   7.5047968555e+01  -3.2460550805e-01    0.2594512    0.1171898 -38.43  0.001151355    2.144    0.534
        33 -11.1813     50.4122    224.7430   1.2070815549e+02   2.1856817240e+01    0.2148659    0.1292103  77.47  0.001004191    1.499    0.333
        34 -11.2220    139.7023    171.9872   9.4670720158e+01   1.8892914116e+01     0.421006    0.2987917  51.53  0.001238125    1.396    0.283
        35 -10.4293    230.8353    168.3682   7.5069204086e+01   2.0054172315e+00    0.3914993    0.1404365 -48.74  0.001167395    5.031    0.801
        36  -9.1144    187.6016    163.3343   8.2358209887e+01   1.1147698202e+01    0.2763735    0.1379479 -45.81  0.001119755    2.115    0.527
        37  -9.8102     61.4555    219.9135   1.1820919567e+02   2.1404860839e+01    0.1541124    0.1033798 -65.01 0.0007606808    1.612    0.380
        38  -9.5585     55.9712    217.2073   1.1903802531e+02   2.2648032370e+01    0.2369482    0.1128547  76.11  0.001132837    2.454    0.593
        39 -11.0007     90.9947    157.5674   1.0383092858e+02   3.0820897789e+01    0.2662193     0.255298  19.31 0.0003664583    1.237    0.191
        40 -11.8567     96.7120    151.1378   1.0123444236e+02   3.1406627478e+01    0.6037816    0.4736078 -26.91  0.003048301    1.673    0.402
        41 -10.1151    187.9180    151.9496   7.9798516927e+01   1.3256996880e+01    0.2335946    0.2237005  -9.14  0.000797673    1.023    0.022
        42  -9.7186    113.3723    150.9436   9.6946923421e+01   2.8533552023e+01    0.3485381     0.241229  86.48  0.001531394    1.968    0.492
        43  -9.7158    174.8547    149.1654   8.1957505227e+01   1.6542445228e+01    0.2312712    0.2111024 -86.63 0.0007144371    1.279    0.218
        44  -9.8666    143.5692    145.3482   8.8284225395e+01   2.3910267118e+01    0.3050103    0.1486379 -52.83  0.001141138    2.197    0.545
        45 -11.2282    108.3014    137.6648   9.5526691343e+01   3.2576525715e+01    0.6403092    0.3952148 -49.27  0.002861351    1.587    0.370
        46 -10.9855    105.6337    131.0375   9.4799195219e+01   3.4632989884e+01    0.4975655    0.3725284 -37.61  0.002402299    1.459    0.314
        47 -10.9713    133.9320    145.5770   9.0683944950e+01   2.5817797068e+01     1.311738    0.3265649 -54.54  0.003026531    6.020    0.834
        48 -11.7649     96.4271    137.1424   9.8590642533e+01   3.4796718757e+01      0.33968    0.2875193 -80.47 0.0004716819    1.193    0.162
        49 -10.4386    135.6343    128.1268   8.6237754711e+01   2.9402526906e+01    0.4697479    0.1465984 -49.77  0.001383682    3.335    0.700
        50  -9.4061    160.9845    127.9942   8.0062809767e+01   2.3935130644e+01    0.2562982     0.199286 -82.42  0.001143057    1.724    0.420
        51 -10.5230    102.8095    124.4830   9.4092846104e+01   3.6701280304e+01    0.3011843    0.2617562  -9.22 0.0008487224    1.391    0.281
        52 -10.0468    119.9974    123.4391   8.9162426416e+01   3.3675177693e+01    0.3027367    0.2094828 -34.28 0.0008910761    1.619    0.382
        53 -10.2641    115.1043    128.8306   9.1749427512e+01   3.3380086264e+01    0.3466382    0.2875964 -13.89 0.0007137372    1.502    0.334
        54  -9.3646    110.3087    118.1164   9.0495689200e+01   3.6803925743e+01    0.2266877    0.2082355  23.86 0.0003240245    1.184    0.156
        55 -10.0314    231.2623    113.7879   6.2701912363e+01   1.1100923015e+01    0.2674497    0.2530667  30.15 0.0007701717    1.148    0.129
        56  -9.5872    167.4874    112.3212   7.4563194254e+01   2.5717015610e+01     0.343803    0.2478239 -74.82  0.001177888    1.960    0.490
        57  -8.6616    146.5019    113.4234   7.9784348622e+01   3.0283278095e+01    0.1552706    0.1539467 -70.07 0.0002378284    1.019    0.019
        58 -11.3810    118.9119    110.8743   8.6281635806e+01   3.6771890092e+01    0.5993506    0.4223706  72.22  0.002261678    1.972    0.493
        59  -9.7237    205.5274    110.4098   6.6320335699e+01   1.7303422504e+01    0.2945982    0.2593141   6.32 0.0006734789    1.251    0.200
        60 -10.3224    134.5228    106.2268   8.0870362635e+01   3.4499060079e+01    0.6026716    0.1481963 -46.92  0.001561781    4.191    0.761
        61  99.0000     50.0533    216.5467   1.2012715055e+02   2.3518755802e+01    0.3186592    0.2273672  -4.59  0.001657021    3.380    0.704
        62  -9.4704    130.8204     96.6376   7.9149325217e+01   3.7374159365e+01    0.2172442    0.1479766  56.92 0.0004122861    1.635    0.388
        63  -9.5050    184.6896    212.7049   9.2372366184e+01   3.0081844530e+00    0.2441363    0.1901896  76.28  0.001320694    2.037    0.509
        64  -9.0879     70.1112     72.2921   9.0321118263e+01   5.4083008694e+01    0.1801512     0.173348  -1.78 0.0003431997    1.117    0.105
        65  -9.8070     64.8673    223.7255   1.1788662132e+02   2.0209494027e+01    0.1469652    0.1018256  80.16 0.0005344587    1.301    0.231
        66 -12.5599    194.6654     34.3686   4.7608033219e+01   3.2201502778e+01    0.5549948    0.4966024 -13.70  0.001286992    1.292    0.226
        67  -8.6564     75.6720    247.1572   1.1787620144e+02   1.4439656691e+01    0.1207207   0.09758081 -74.84 0.0004035436    1.419    0.295
        68 -10.1500    189.6199     15.0577   4.2882790792e+01   3.5743255476e+01    0.2335997    0.1772792 -88.31 0.0007363812    1.255    0.203
        69 -10.3564     71.9246    244.9789   1.1837012049e+02   1.5325946511e+01    0.1922574    0.1444796 -67.79  0.001003343    1.555    0.357
