#   1 NUMBER                 Running object number                                     
#   2 MAG_AUTO               Kron-like elliptical aperture magnitude                    [mag]
#   3 X_IMAGE                Object position along x                                    [pixel]
#   4 Y_IMAGE                Object position along y                                    [pixel]
#   5 X_WORLD                Barycenter position along world x axis                     [deg]
#   6 Y_WORLD                Barycenter position along world y axis                     [deg]
#   7 A_WORLD                Profile RMS along major axis (world units)                 [deg]
#   8 B_WORLD                Profile RMS along minor axis (world units)                 [deg]
#   9 THETA_WORLD            Position angle (CCW/world-x)                               [deg]
#  10 FWHM_WORLD             FWHM assuming a gaussian core                              [deg]
#  11 ELONGATION             A_IMAGE/B_IMAGE                                           
#  12 ELLIPTICITY            1 - B_IMAGE/A_IMAGE                                       
         1 -14.9284    197.6532     70.9578   1.1246897644e+01   2.6007307040e+01     2.521633    0.9532887  45.13  0.008996953    3.586    0.721
         2 -12.9034    120.5065     26.1281   9.9586166850e+00   5.1950612519e+01    0.7776088    0.6024421  48.59  0.003643567    1.304    0.233
         3 -14.7851    119.1504     54.3343   2.1033886950e+01   4.8104904233e+01     1.255034    0.8074369  49.07  0.002184308    1.516    0.340
         4 -13.2406    135.9485     51.0636   1.5908958310e+01   4.4257541116e+01     1.516456     0.501345 -35.21  0.004958925    3.006    0.667
         5 -15.1080     59.5035     68.4531   4.7979522417e+01   5.8491329884e+01     3.405001     1.231849 -45.01   0.01126322    2.930    0.659
         6 -14.5647    166.7716     29.5931   3.7677519187e+00   3.9160613803e+01     1.078729    0.8565311  82.47  0.003579295    1.184    0.156
         7 -13.0596    140.4030     21.2328   4.6238432372e+00   4.7126490060e+01    0.7123545    0.3990161  72.36  0.001355178    1.646    0.393
         8 -14.0224     89.0251     62.8315   3.3597434943e+01   5.3867718421e+01     1.387174    0.8362365 -20.13  0.005000341    2.777    0.640
         9 -14.7349    124.5174     35.8591   1.2885470097e+01   4.9577253760e+01      1.70222    0.6384772  47.48  0.005121165    2.871    0.652
        10 -15.0729      6.6984     71.6556   7.6237015485e+01   6.3248444279e+01     1.158899    0.8656198 -67.00  0.004649069    1.191    0.160
        11 -13.3045      6.2557     43.0881   7.1559019319e+01   7.0543798502e+01     1.240512    0.6054227  -7.46  0.005690052    2.279    0.561
        12 -14.3175     41.4229      5.2789   2.6325760572e+01   7.3976918797e+01     1.103268      0.71715   8.81  0.004751762    1.894    0.472
        13 -12.9380      7.8806      2.4797   5.3423063454e+01   7.9450355041e+01    0.5488058    0.5039756  -0.36  0.002746941    1.191    0.160
        14 -16.0323     11.9282     22.4942   6.0466060147e+01   7.5027546147e+01     2.219484     1.119674 -36.01   0.01075427    1.881    0.468
        15 -14.1572     26.4650     13.2059   4.2747666539e+01   7.5311722020e+01    0.8241868     0.521639   7.17  0.003680251    1.858    0.462
        16 -15.2318    217.9070     16.8922   3.5567716408e+02   2.8460801120e+01     1.969377     0.990692 -28.01   0.01013889    1.922    0.480
        17 -12.2314    232.4664      2.1899   3.5151565019e+02   2.6913157117e+01    0.4347393    0.2564969  62.55  0.002334021    2.047    0.512
        18 -14.5415    189.5340     21.2539   3.5894347881e+02   3.4456846333e+01     1.817064    0.7697482 -41.98   0.00814386    2.001    0.500
        19 -13.8928    242.6691     34.7227   3.5810759584e+02   2.1456657795e+01    0.7477146    0.5523995 -75.71   0.00327993    1.344    0.256
        20 -14.7251    147.5019     29.6770   6.4692375311e+00   4.4210263847e+01     1.641265    0.7948391  66.52  0.006675696    1.907    0.476
        21 -15.5814     99.5687     11.8389   8.3359567998e+00   5.9239172465e+01     1.762128     1.003706  58.85  0.003239342    1.527    0.345
        22 -12.9284     85.4670     13.8234   1.2959659553e+01   6.2738775151e+01    0.5102779    0.4339908 -39.44  0.002034895    1.297    0.229
        23 -12.0843     71.0947     16.2922   1.9110816850e+01   6.6024599032e+01    0.4451129    0.3007973 -15.87  0.001630251    1.721    0.419
        24 -12.1549     74.5542     10.2193   1.4443273468e+01   6.5901560558e+01    0.4189626    0.2681299 -22.30  0.002062447    1.741    0.425
        25 -12.4820     59.9656     15.6903   2.3439132671e+01   6.8679409948e+01    0.6113373      0.36272  39.99  0.002907364    1.593    0.372
        26 -12.1628     46.6937     12.7776   2.8442979322e+01   7.1894513712e+01    0.3848363    0.3004745  65.54  0.001541748    1.639    0.390
        27 -11.7386    152.5272      8.5139   3.5871385833e+02   4.5196695418e+01    0.3014376     0.225831  51.62  0.001625725    1.462    0.316
        28 -11.2979     80.3411      6.9275   1.0796485039e+01   6.4783088673e+01    0.2213151    0.1718951 -50.26  0.001182762    1.477    0.323
        29 -12.2026    119.8089      2.9092   7.1444517676e-01   5.4562613827e+01    0.5416626    0.2489704 -81.59  0.002022065    2.721    0.633
        30 -11.4617     67.7589      2.7903   1.2373435665e+01   6.8342387867e+01    0.3139497    0.2088711  36.88  0.001613758    1.461    0.316
        31 -10.5785    192.5334      2.5156   3.5366699879e+02   3.5661317728e+01    0.1297648    0.1072924 -67.58 0.0006228762    1.022    0.021
        32 -12.4995     80.2998      1.7544   7.9537018411e+00   6.5271044767e+01    0.7640409    0.1244284  62.66  0.002217904    4.043    0.753
        33 -11.9047     61.2987      1.5472   1.3937723135e+01   7.0024519078e+01    0.4908941     0.145452  62.17  0.001681432    3.190    0.687
        34 -13.3177    197.4382    179.4651   3.5342642791e+01   8.6232443192e+00    0.5847922    0.4092904 -66.35  0.002773348    3.251    0.692
        35 -12.8955    108.0467    245.8017   6.3586355779e+01   1.0708242788e+01     0.562129    0.4984916 -89.79   0.00412187    1.526    0.345
        36 -14.7408     95.2420    234.9198   6.5368788807e+01   1.4139464320e+01     1.223855    0.7256788  59.34  0.006712417    2.019    0.505
        37 -12.7213     51.5916    248.4058   7.6020757660e+01   1.6986339366e+01    0.4779751    0.3221527  29.85  0.003174813    1.247    0.198
        38 -12.9987     57.2795    246.8918   7.4706597862e+01   1.6621831132e+01    0.5411254    0.2900618  27.15  0.003136115    1.562    0.360
        39 -11.6082     41.4300    249.7262   7.8258263124e+01   1.7840400280e+01    0.2560383    0.1579714  51.44  0.001691013    1.276    0.216
        40 -11.5079     40.5288    245.4914   7.8254958116e+01   1.8677482106e+01    0.1968584    0.1562841  75.22  0.001289331    1.353    0.261
        41 -14.0845     28.1631    246.5881   8.0940325779e+01   1.9735417046e+01     1.266424     0.565044  68.40  0.007056616    2.244    0.554
        42 -12.1674      2.7851    249.5274   8.6256476273e+01   2.1546829673e+01    0.3418761    0.1760487  42.15   0.00171023    1.301    0.231
        43 -14.2218      9.3192    245.5167   8.4846480164e+01   2.1687136458e+01     1.039164    0.5992987  62.10  0.003904384    1.420    0.296
        44 -14.4907     26.7215    225.9855   8.0453676213e+01   2.3715492113e+01     1.302473    0.6140966  81.50  0.006935081    2.288    0.563
        45 -14.1855     20.8176    224.5732   8.1743147590e+01   2.4560237505e+01    0.7970565    0.5879575  77.81  0.004495045    1.342    0.255
        46 -14.0407     22.2967    180.9620   7.9428135550e+01   3.3812389856e+01    0.8652921    0.5048469 -52.35  0.004007185    2.125    0.529
        47 -12.5044     77.3181    156.9302   6.0854220359e+01   3.3054351208e+01    0.5527944    0.3784745  23.39  0.001403526    1.521    0.343
        48 -13.7413     74.1033    153.1721   6.1280386463e+01   3.4462787563e+01    0.7501212    0.5813918  27.44  0.001607295    1.283    0.221
        49 -12.6339    111.7104    155.4400   5.0558998312e+01   2.7741229328e+01    0.5770311    0.3715947  72.95  0.002315619    2.487    0.598
        50 -12.8380    208.4873    154.0251   2.8505545619e+01   1.0814627331e+01    0.6126592    0.3949553  33.47  0.003417104    1.584    0.369
        51 -10.9589    101.9891    160.7636   5.4223006815e+01   2.8200847200e+01    0.2103566    0.1162971  34.37 0.0008892416    1.651    0.394
        52 -12.5413     55.7207    155.2553   6.7322263891e+01   3.6478480433e+01    0.4598049    0.2883004 -32.57  0.002011619    2.262    0.558
        53 -11.9496    103.5779    149.6612   5.1798666044e+01   3.0508540031e+01     0.390752    0.2989336 -14.98  0.001501638    1.709    0.415
        54 -12.4263     85.6855    152.6886   5.7647959806e+01   3.2794326892e+01    0.5332229    0.3302732 -41.10  0.002324981    1.957    0.489
        55 -12.7582      8.0330    148.3477   8.1910189423e+01   4.2943059247e+01    0.6094316    0.4100842  65.32    0.0033795    1.306    0.234
        56 -10.7256     38.2006    145.7934   7.1910973874e+01   4.0965660118e+01     0.188603    0.1640889 -38.44   0.00049491    1.351    0.260
        57 -12.4038     14.0145    152.4814   8.0255943360e+01   4.1459745529e+01    0.2936573    0.1781617  41.63   0.00153495    1.463    0.316
        58 -12.0984     42.6146    138.9011   6.9645320298e+01   4.2287620269e+01    0.4370532    0.2535055   4.18  0.001811068    2.414    0.586
        59 -11.8131     47.3814    133.0015   6.7222537886e+01   4.3295019222e+01    0.5709531    0.2927444 -89.54  0.002217416    2.405    0.584
        60 -12.9879    246.4275    133.0504   1.8539766332e+01   8.0014331131e+00    0.4161288    0.3217513 -34.50   0.00275291    1.199    0.166
        61 -14.7471    232.7546    127.6474   1.9320815220e+01   1.0847228515e+01     1.230657    0.6242809 -42.03   0.00631085    1.858    0.462
        62 -10.5395     10.8667    133.8976   8.0158257656e+01   4.6468548928e+01    0.1866661    0.1346371  55.88 0.0003537733    1.265    0.209
        63 -12.4374    136.8090    131.7050   3.8877983897e+01   2.8212232450e+01    0.7438859     0.304249  37.29  0.002582642    2.530    0.605
        64 -14.6287    104.6406    121.5882   4.5621796958e+01   3.7006427895e+01     2.025845     1.225286  35.08  0.008420004    1.647    0.393
        65 -15.0035    105.7942    105.3147   4.1204685873e+01   4.0643504697e+01     1.643339     1.394161  53.56  0.008024021    1.166    0.143
        66 -13.1345     21.4686     86.1574   7.0901987953e+01   5.8519677452e+01    0.8580996    0.4830584   3.40  0.003001947    2.121    0.529
        67 -14.8161     25.4381     93.9351   7.0272507855e+01   5.6108710440e+01     1.645433     1.002566   1.91  0.007534205    1.986    0.496
        68 -14.3402     18.4731    110.9649   7.5428836535e+01   5.2042808821e+01    0.9321432    0.7083123 -50.18  0.003566678    1.362    0.266
        69 -14.2317     11.1878    102.9971   7.7622863892e+01   5.4668425493e+01      0.83899    0.7886349  48.43  0.004499547    1.116    0.104
        70 -13.9676      2.3799     97.0395   8.0857286972e+01   5.6702452300e+01     1.113224    0.4602794 -83.37  0.003738298    2.186    0.542
        71 -13.1697     85.0307    115.0723   5.0538558291e+01   4.2332090965e+01     1.041439    0.5589936  20.94  0.003579093    2.633    0.620
        72 -12.1944     88.3550    109.4999   4.8064527150e+01   4.3118774483e+01    0.6540384    0.3914079 -69.48   0.00254808    2.102    0.524
        73 -11.1952    186.1967    116.1723   2.4312732722e+01   2.1073431537e+01    0.1889611    0.1684541 -72.85 0.0005160577    1.333    0.250
        74 -12.5802     78.9777    110.4504   5.1611414343e+01   4.4587993227e+01    0.4820025    0.2937529 -61.45  0.001854871    1.716    0.417
        75 -11.1706    195.3149    113.3148   2.2016142228e+01   1.9743535049e+01    0.1397152    0.1050614   3.96 0.0006212307    1.643    0.391
        76 -12.7666    121.3671    111.9033   3.8254452567e+01   3.5804473632e+01    0.4010476    0.3097891  69.94  0.001169118    1.546    0.353
        77 -11.6113     45.9329    110.2896   6.4249366529e+01   4.9568202603e+01    0.5717618    0.3326668 -40.52  0.002408899    2.013    0.503
        78 -11.8938     62.8824    110.4119   5.7609678093e+01   4.7228452590e+01     0.955689    0.4236168 -72.81  0.003187259    2.953    0.661
        79 -11.1427     64.5352    101.5311   5.5006803325e+01   4.9311136458e+01    0.3604176    0.3095416   2.69 0.0009813544    1.334    0.250
        80 -12.2173     62.3343     98.6720   5.5220353989e+01   5.0403365940e+01    0.6670924    0.3835738  54.95  0.002107204    2.052    0.513
        81 -11.8302    176.9224    110.3371   2.4666696820e+01   2.4012621017e+01    0.3415249    0.2420857 -12.09  0.001599883    1.789    0.441
        82 -13.0653    223.9956    128.6231   2.0796265182e+01   1.2130957695e+01    0.6970553    0.4556699 -61.54  0.003476433    2.507    0.601
        83 -12.6951    135.9069    102.8785   3.1918089596e+01   3.4538220585e+01    0.6899877    0.3388331  47.01  0.001933129    2.005    0.501
        84 -13.5356    120.2141    102.3613   3.6049944495e+01   3.8188413812e+01    0.6943654      0.37751  42.42   0.00271348    1.813    0.449
        85 -12.8549     50.2011     98.7082   6.0263938715e+01   5.2139877998e+01    0.8554418    0.5601891  -4.43  0.003333853    2.142    0.533
        86 -12.0494     49.0018     92.8700   5.9510244378e+01   5.3851871242e+01    0.4616134    0.3168148  69.67  0.001005542    1.767    0.434
        87 -13.5416    248.3283     95.4539   1.0662057709e+01   1.2788417719e+01    0.8177958    0.2654727 -42.60  0.003521025    2.654    0.623
        88 -12.5400    163.7939     97.5144   2.4026105676e+01   2.9223017150e+01    0.3722501     0.306311  50.84 0.0008234093    1.241    0.194
        89 -13.0979    137.3798     95.3129   2.9450804368e+01   3.5760307008e+01    0.5170615    0.4389947  84.52  0.001233952    1.341    0.254
        90 -13.6626     32.6169    112.1822   6.9891818796e+01   5.0510314536e+01    0.7552052    0.4041408 -57.51  0.003322403    1.790    0.441
        91 -11.6139    129.0111     96.0105   3.1826318208e+01   3.7562774614e+01    0.2568149    0.1985769 -89.45   0.00113518    1.678    0.404
        92 -13.1280     28.8103    121.8760   7.2604674069e+01   4.8247432695e+01    0.5771561    0.3884487 -54.60  0.002754081    1.518    0.341
        93 -12.4396    181.0070    120.3162   2.6267357992e+01   2.1390017858e+01    0.2849999    0.2355338  57.09  0.001272567    1.360    0.264
        94 -13.1794      4.9477    118.7895   8.1319787761e+01   5.0803504260e+01     0.794617    0.5016677 -48.39  0.003576548    1.705    0.414
        95 -13.4637    188.7670     83.9336   1.5902527455e+01   2.5955090790e+01     0.711656    0.4198467  42.74  0.002203707    1.973    0.493
        96 -14.8447    214.0111     77.0820   1.0605382844e+01   2.1643184141e+01     4.264102     1.525313  71.56   0.01267285    6.105    0.836
        97 -14.3144    170.3004    242.2207   5.0343585522e+01   3.3266898980e+00    0.9402382    0.5539764  16.14  0.005775548    1.447    0.309
        98 -14.3176    169.5873     76.8695   1.7273442344e+01   3.1521059849e+01    0.9058446     0.697753  22.78  0.003153357    1.693    0.409
        99 -14.5911    160.4990     80.8845   2.0131288355e+01   3.3001575826e+01     2.245096     1.495335  -3.30  0.005510456    2.549    0.608
       100 -12.4881    132.5139     85.8290   2.7936142706e+01   3.8831443891e+01    0.2990336    0.2272721  51.66 0.0009277119    1.292    0.226
       101 -13.3631    241.8053     83.6013   8.8558587765e+00   1.5482303311e+01    0.3871125    0.2274188  65.44  0.002174933    2.156    0.536
       102 -13.8627    237.7803     79.9319   8.4894502603e+00   1.6690917988e+01    0.5508063    0.3883566  86.13  0.003271034    1.875    0.467
       103 -11.9355     42.8748     90.2725   6.1668574394e+01   5.5316241520e+01    0.4496652    0.2860005 -68.47 0.0009553529    1.554    0.356
       104 -12.5485    144.4571    233.3398   5.4432249765e+01   7.9035525988e+00    0.4158993    0.2409156 -33.23  0.002358261    2.105    0.525
       105 -12.6982     39.3757     67.6387   5.7771966609e+01   6.1628979166e+01     1.100753    0.4064757  24.67  0.003896403    2.868    0.651
       106 -14.3557    100.8815     49.7830   2.4525264791e+01   5.3550913308e+01     1.056898     1.005585  85.01  0.004126968    1.068    0.064
       107 -13.5026    237.3998    231.2760   3.6935450684e+01  -3.0925004357e+00    0.4962687    0.3814543 -29.93  0.003857719    1.742    0.426
       108 -12.9386    147.5484    238.8757   5.4474362724e+01   6.6779357551e+00    0.4751811    0.2776184  54.94  0.002389475    2.911    0.656
       109 -13.4119     57.5161    201.9501   7.1505952399e+01   2.5299335127e+01    0.7998799    0.3717803 -77.85  0.003677922    2.548    0.607
       110 -14.0417     67.0313    222.6748   7.0832421140e+01   1.9923271847e+01    0.8541698    0.5414399  21.92  0.004810092    1.541    0.351
       111 -14.6644     62.6135    214.1404   7.1219292884e+01   2.2145133931e+01    0.9542934    0.5096174  35.97  0.005020367    1.461    0.316
       112 -13.8371     74.8199     73.5823   4.2950809213e+01   5.4487536352e+01     1.636754    0.8663942  17.98  0.004923603    3.913    0.744
       113 -13.4470    124.9821    167.9856   4.9272582021e+01   2.2681129968e+01    0.7238886    0.3213517 -53.40  0.002861269    2.541    0.606
       114 -10.5490      5.4977    219.4955   8.5062604738e+01   2.6934561741e+01     0.118817   0.08832328  51.21 -3.01261e-05    1.011    0.011
       115 -12.9767    135.3565     79.2507   2.5227267553e+01   3.9433188542e+01    0.8382663    0.4060317  53.48  0.002856699    2.039    0.510
       116 -13.8832    111.9863     39.9683   1.7442474124e+01   5.2314263330e+01    0.9329153    0.5815622  25.71  0.003011075    2.396    0.583
       117 -12.4858     85.6140    215.6071   6.5744430533e+01   1.8930727605e+01    0.2669463    0.1950705  46.55   0.00143374    1.191    0.160
       118 -14.3835      6.6017     63.3395   7.5108759204e+01   6.5418333691e+01    0.8428388      0.61184  14.20  0.004582802    1.499    0.333
       119 -11.7718     42.5018     79.4815   5.9342652906e+01   5.8205462447e+01    0.3322608    0.2535273 -23.19  0.001365366    1.490    0.329
       120 -11.4488     41.7702     75.9832   5.8812914451e+01   5.9203183580e+01    0.3491511    0.2419269 -65.95  0.001311307    1.437    0.304
       121 -11.6277     27.5125     76.3475   6.6108353242e+01   6.0631800828e+01    0.3984011       0.2495  78.93  0.001473807    1.982    0.495
       122 -12.5502     36.8232     92.8261   6.4926294826e+01   5.5321461621e+01    0.4635133     0.332998   4.85  0.001578847    1.617    0.382
       123 -12.8614    241.6586     71.1068   6.1582607246e+00   1.7163851934e+01    0.4179375     0.245679 -60.44  0.002279053    1.919    0.479
       124 -13.2722    133.7030     66.1861   2.1487273177e+01   4.2279623886e+01    0.9706845    0.7616124  17.27  0.003691456    1.688    0.407
       125 -12.1720    100.3434     64.1287   3.0140962804e+01   5.0972719703e+01    0.4638689    0.4092319 -13.75  0.002317472    1.300    0.231
       126 -13.2154     79.0197     60.1590   3.6443770134e+01   5.6626918674e+01    0.7931632    0.5832013 -52.65  0.003720914    1.452    0.311
       127 -12.6006     83.4308     54.2264   3.2381248041e+01   5.6876456078e+01     0.531577    0.3365605 -13.25  0.001976517    2.730    0.634
       128 -13.9401    177.9142     56.6675   1.0217172793e+01   3.2703837156e+01    0.9646883    0.5780321 -48.29  0.002759781    1.590    0.371
       129 -12.0063     38.9126     59.8415   5.5674388369e+01   6.3625827925e+01    0.4741638    0.2683953  59.59  0.001856839    2.713    0.631
       130 -11.9020     34.4331     60.5253   5.8393232025e+01   6.3993743345e+01    0.3972907     0.250876 -49.90   0.00184143    1.489    0.328
       131 -12.5071     35.6085     54.8215   5.5919280564e+01   6.5253094393e+01    0.4025201     0.297235 -32.21  0.001148766    1.382    0.277
       132 -12.1417     24.8685     59.2601   6.3560659585e+01   6.5280683276e+01    0.5315363    0.2499576 -50.51  0.001983724    1.915    0.478
       133 -13.3455    248.1962     52.2196   1.4882990961e+00   1.8364212343e+01    0.6771707    0.3324895 -32.78  0.003681647    1.670    0.401
       134 -10.7911     47.7634     56.6052   4.9743054955e+01   6.3176412090e+01    0.2094142    0.1302777  42.29 0.0005663601    1.674    0.403
       135 -11.5515     17.4932     55.0837   6.6962168682e+01   6.6922484558e+01    0.3349325    0.2279906 -77.22  0.001728693    1.515    0.340
       136 -12.1927    230.8270     54.8021   3.5487974426e+00   2.1312956350e+01    0.3352557    0.2244959  74.71  0.001979848    1.704    0.413
       137 -10.4954     23.5350     49.9731   6.1753029712e+01   6.7704603363e+01    0.2005695    0.1279747 -61.26 0.0004520138    1.485    0.327
       138 -12.1166    154.5467     46.5075   1.0857116643e+01   4.0074676933e+01    0.4062073    0.2605292  66.23  0.001512974    1.512    0.339
       139 -13.1749    158.1090     43.2019   9.2256029904e+00   3.9620645816e+01    0.7185627    0.5373474  46.73  0.003613316    1.485    0.326
       140 -11.5401     38.9463     46.2941   5.0840197256e+01   6.6822634891e+01    0.2049629    0.1822083  10.12  0.001159823    1.105    0.095
       141 -10.8956     29.8783     45.8964   5.6328705353e+01   6.8041654494e+01    0.2321013    0.1764866 -30.75  0.001242636    1.294    0.227
       142 -11.1619     25.9025     44.1110   5.8286162825e+01   6.8883956940e+01    0.2569562    0.2032655  13.48  0.001434117    1.281    0.219
       143 -11.2281    136.5126    210.9897   5.3217128273e+01   1.2615445230e+01    0.1730084    0.1311262 -46.84  0.001030207    1.584    0.369
       144 -11.7606     40.5111    210.9913   7.6429880800e+01   2.5325523993e+01    0.1889171    0.1465103 -34.50  0.001139859    1.818    0.450
       145 -12.9328     46.6692    208.8634   7.4770322902e+01   2.5094120717e+01    0.5237206    0.2140476  64.76  0.002189826    2.901    0.655
       146 -12.2358      5.3642    209.4649   8.4842992610e+01   2.8987623170e+01    0.2375269    0.1788104 -28.12  0.001500322    2.004    0.501
       147 -12.1406     80.6626    208.3483   6.6232009619e+01   2.1023141218e+01    0.2988658     0.171837  53.74  0.001328819    1.722    0.419
       148 -13.7845     95.4709    218.4025   6.3669921230e+01   1.7080067845e+01     0.646122    0.2578613  30.00  0.002843629    2.070    0.517
       149 -10.9810    151.4852    206.1655   4.9199173406e+01   1.1237654144e+01    0.2502222    0.1373643  13.44  0.001138401    2.253    0.556
       150 -14.8865    212.1566     40.7309   1.9384500837e+00   2.6954524240e+01     2.168077     0.701555  76.86  0.007682291    4.141    0.759
       151 -12.0384     13.6072    205.5885   8.2755899346e+01   2.9099206365e+01    0.3778527    0.1573266 -58.93  0.001767271    3.049    0.672
       152 -12.6992     36.7504     34.2174   4.6981905958e+01   6.9765857370e+01    0.5778956    0.3123619   4.30  0.002109114    3.336    0.700
       153 -12.3228     40.4505     40.2957   4.7421803358e+01   6.7937368139e+01    0.5982295    0.3074839  33.64  0.002504873    1.914    0.477
       154 -12.7761     32.7232     40.1245   5.2247021609e+01   6.9028077023e+01    0.3936908     0.311456   1.42 0.0006420664    1.296    0.228
       155 -12.9709     76.0043     37.1063   2.7880634520e+01   6.1740301378e+01    0.6582715    0.4094372  52.68  0.001275573    1.557    0.358
       156 -11.7088     70.9776     36.0000   2.9448012185e+01   6.3063605791e+01    0.3574177    0.1960139  46.99   0.00106317    1.716    0.417
       157 -10.6594     50.5461     38.7875   4.0835186677e+01   6.6621335622e+01    0.1841775    0.1397897 -59.24  0.000462695    1.561    0.359
       158 -12.0110     14.3261    200.3355   8.2389306630e+01   3.0162339383e+01    0.2223719    0.1663383 -64.82  0.001123119    1.607    0.378
       159 -12.5403    105.5537     33.4843   1.6479627315e+01   5.4969291413e+01    0.8214825    0.4175278 -20.74  0.003101297    2.631    0.620
       160 -12.0136    114.0839     80.0406   3.1245100274e+01   4.4432711263e+01    0.5000263     0.365283 -52.16  0.002255174    1.436    0.304
       161 -13.4022     56.5649     27.1303   3.1674172923e+01   6.7649709762e+01    0.8712313    0.3510513  46.59  0.002013983    2.373    0.579
       162 -12.1374     64.5009     24.9553   2.6660815142e+01   6.6318877448e+01    0.4201896     0.293318 -27.25  0.001728965    1.552    0.356
       163 -12.9932     16.9120    195.9492   8.1566113223e+01   3.0892795479e+01     0.440179    0.2856451 -63.05  0.001921406    1.813    0.448
       164 -11.4869     98.1809     26.8423   1.5593942916e+01   5.7828042082e+01    0.2926955    0.2364363  80.81  0.001063057    1.286    0.222
       165 -12.4764     30.8227     25.3937   4.6624284007e+01   7.2398662330e+01    0.4327084    0.2535162  19.18  0.001487117    1.830    0.453
       166 -11.7206     36.0448     23.1010   4.1652907482e+01   7.2075977028e+01     0.336832    0.2304206 -30.43  0.001766524    1.487    0.328
       167 -13.9236     39.8457    195.7514   7.5626462205e+01   2.8675924218e+01    0.8447515    0.4237867  56.20   0.00399243    1.800    0.445
       168 -11.3226    212.9886    199.9848   3.6093742328e+01   3.5207368046e+00    0.2006222    0.1208281  -0.87  0.001147069    1.719    0.418
       169 -12.4528     48.1571     19.8981   3.2098010293e+01   7.0513028769e+01    0.7503248    0.2414239  46.84  0.002642315    3.052    0.672
       170 -11.1148    180.6829    197.6621   4.1744850215e+01   8.3118089856e+00    0.1334303   0.08622684  -0.60  0.000601777    1.703    0.413
       171 -13.0978    164.1687    194.0899   4.4559945381e+01   1.1345667826e+01    0.5197196    0.3352134 -58.09  0.002639148    2.343    0.573
       172 -14.3125     30.1993    168.9857   7.6432526278e+01   3.5924887732e+01     1.069581    0.7718716  19.45  0.003998387    1.485    0.327
       173 -15.1249      8.1309    183.2165   8.3352486927e+01   3.4501624510e+01     1.181924     1.028787  61.76  0.007993833    1.101    0.091
       174 -10.7171    124.1100     11.4782   3.4961943785e+00   5.2602732958e+01    0.2270443    0.1297974  72.97  0.001024298    1.568    0.362
       175 -15.3912     15.5725    175.2242   8.0994683294e+01   3.5757303336e+01     2.415071    0.8715452  53.03   0.01034551    2.334    0.571
       176 -12.0804    201.0865    191.2213   3.6743210891e+01   6.3494403471e+00    0.3097553    0.2112755   2.41  0.001327874    1.404    0.288
       177 -12.9418     46.2152     33.1369   4.0562269786e+01   6.8493268187e+01      0.59592    0.4691876 -18.18  0.003200121    1.343    0.255
       178 -12.5338     48.5599    181.3591   7.2156168122e+01   3.0982332834e+01     0.516723    0.3252819 -51.21  0.002618522    1.913    0.477
       179 -11.5281    109.3885    183.3935   5.5803259686e+01   2.2016015661e+01    0.2841044    0.1270045  20.28 0.0009604453    3.269    0.694
       180 -12.3931     89.7684    169.7561   5.9099459797e+01   2.8097721190e+01    0.4033142    0.2193935  25.56  0.001691645    1.886    0.470
       181 -13.8097     85.3023    180.0307   6.1765640579e+01   2.6428277814e+01     1.053628    0.3397177  44.95  0.003640455    2.914    0.657
