#   1 NUMBER                 Running object number                                     
#   2 MAG_AUTO               Kron-like elliptical aperture magnitude                    [mag]
#   3 X_IMAGE                Object position along x                                    [pixel]
#   4 Y_IMAGE                Object position along y                                    [pixel]
#   5 X_WORLD                Barycenter position along world x axis                     [deg]
#   6 Y_WORLD                Barycenter position along world y axis                     [deg]
#   7 A_WORLD                Profile RMS along major axis (world units)                 [deg]
#   8 B_WORLD                Profile RMS along minor axis (world units)                 [deg]
#   9 THETA_WORLD            Position angle (CCW/world-x)                               [deg]
#  10 FWHM_WORLD             FWHM assuming a gaussian core                              [deg]
#  11 ELONGATION             A_IMAGE/B_IMAGE                                           
#  12 ELLIPTICITY            1 - B_IMAGE/A_IMAGE                                       
         1 -12.6044     58.7892    130.8958   1.0014648463e+02   4.2297929497e+01     1.737226    0.6644292 -75.24  0.004473386    5.622    0.822
         2 -11.9767    196.8520     43.1950   4.2530271670e+01   3.0770507738e+01    0.8597276     0.764441 -59.69  0.003301403    1.095    0.087
         3 -12.0207    205.5759     34.8016   3.9437506865e+01   2.9857269586e+01    0.6250567    0.6045203  63.84  0.001436729    1.276    0.216
         4 -12.1389    230.0745      8.2663   3.1318343588e+01   2.7588929161e+01       0.8227    0.6586331 -68.48  0.004383094    1.059    0.055
         5 -11.6778     41.6857      6.7294   6.6083440734e+01   6.9270754185e+01    0.4334905    0.2794929  23.14  0.002706937    1.353    0.261
         6 -10.6481     59.3064      4.0961   5.7840569620e+01   6.6536145207e+01     0.357734    0.2010672   4.60  0.001891974    2.097    0.523
         7  -9.0199    142.0000    234.9987   9.6115594435e+01   5.1244005579e+00    0.1954805    0.0758652 -51.81 0.0008057222    2.965    0.663
         8  -9.5162    141.1127    249.5156   9.8272969700e+01   2.7320016983e+00    0.2052367    0.1727185   1.38  0.001317844    1.349    0.259
         9 -10.7746    106.1240    248.9546   1.0533601310e+02   8.1054078531e+00    0.3298289     0.238986 -80.58  0.001994849    1.657    0.397
        10 -10.1108     72.1118    244.8513   1.1181428301e+02   1.3721474409e+01    0.3922533    0.2411945  62.84   0.00159823    1.514    0.339
        11 -17.1498      7.5724    245.8725   1.2414871042e+02   2.1154677603e+01     10.11976     4.365507 -78.79   0.01639063    2.103    0.524
        12 -10.5474    110.9512    203.6406   9.8431213519e+01   1.6474114688e+01    0.2669894    0.2520593  29.14 0.0007473702    1.130    0.115
        13 -10.3530    122.2981    198.8452   9.5024051231e+01   1.5614708771e+01    0.3830877    0.2615861 -79.10  0.001194048    1.926    0.481
        14 -16.3767      1.8582    224.6002   1.2417027754e+02   2.5981464278e+01     21.98779          nan -75.73   0.01282633   19.495    0.949
        15  -9.7127    193.8684    197.1044   7.8893916413e+01   3.4318071309e+00    0.1996717    0.1975488  78.90  0.001238082    1.275    0.216
        16  -8.9662    115.0000    193.9889   9.5969662707e+01   1.7940598462e+01    0.2328567    0.0821149 -56.01 0.0008056122    2.964    0.663
        17  -8.7205    150.3207    192.4874   8.7423410253e+01   1.2023129690e+01    0.2606656    0.1338238 -49.11  0.001093623    2.037    0.509
        18  -9.8274     60.5495    198.2124   1.0959847489e+02   2.5298584283e+01    0.2430694    0.2130223  56.89   0.00047114    1.118    0.106
        19 -12.2411     57.4068    184.5535   1.0874600701e+02   2.8964274978e+01    0.9788343    0.7060382  36.61  0.005367169    1.449    0.310
        20 -10.9779    127.6520    211.5413   9.5789050357e+01   1.2007750506e+01    0.3984456    0.2431621  50.87  0.001909279    1.655    0.396
        21 -10.0201     66.1753    179.5809   1.0590698675e+02   2.9000241793e+01    0.3107816    0.2200969  59.88 0.0007781527    1.397    0.284
        22  -8.6871    146.5097    186.4439   8.7185923902e+01   1.3997565081e+01    0.1456472    0.1387942  46.56 0.0002173284    1.054    0.051
        23  -8.7235     99.5104    180.9346   9.7648242134e+01   2.3581692703e+01    0.2164196    0.1926475  51.97 0.0005572856    1.086    0.079
        24  -8.9974     39.7274    177.3739   1.1229679643e+02   3.2865427809e+01    0.2824436    0.1745669  65.00 0.0008506374    1.628    0.386
        25  -8.6659     46.7155    177.4313   1.1055489541e+02   3.2038775764e+01    0.2395324    0.1181657  38.49 0.0007710953    1.996    0.499
        26  -9.3831    186.5904    174.2993   7.5890487894e+01   9.0380067582e+00    0.3365907    0.3006803 -38.00  0.001318057    1.125    0.111
        27 -10.1134    114.1296    173.2104   9.2601103937e+01   2.2903472107e+01    0.2814637    0.2350055 -80.90  0.001440173    1.291    0.225
        28 -10.7959     72.1563    170.6101   1.0307202580e+02   3.0371383796e+01    0.4693609     0.318746 -35.88  0.001666156    1.923    0.480
        29 -10.6560     75.9781    166.0937   1.0135248994e+02   3.0938362242e+01    0.3900188     0.341071  89.19   0.00125133    1.085    0.079
        30  -9.0187     47.1048    172.3521   1.0984340142e+02   3.3245670962e+01    0.2355591    0.1720172 -61.13 0.0007821188    1.325    0.245
        31  -8.2555     88.8574    210.2416   1.0447160369e+02   1.8517357587e+01     0.166623    0.1582848 -23.75 0.0003865808    1.306    0.234
        32  -8.2201     42.2961    167.3023   1.1046748590e+02   3.5063386923e+01    0.1316347   0.09754253 -43.98 0.0002407853    1.578    0.366
        33 -10.0480     32.5907    165.0207   1.1272577972e+02   3.6688151029e+01    0.3105424    0.1803185 -57.97  0.001030656    1.626    0.385
        34 -10.0479    119.6104    245.0279   1.0211285898e+02   6.7960951908e+00    0.3158151    0.2048287  79.18  0.001609222    2.302    0.566
        35 -12.3970     68.9789    144.2779   9.9580780805e+01   3.7486808388e+01     1.083464    0.6311389  63.03  0.003456708    2.270    0.560
        36 -10.7575     90.8699    151.3074   9.4657521888e+01   3.2305023787e+01    0.6533846    0.4660441 -20.40  0.002208169    2.022    0.506
        37  -9.9146    134.0237    146.4837   8.2033950279e+01   2.5453069330e+01     1.009469    0.2275631 -53.85  0.002133172    6.625    0.849
        38 -11.3668     53.9670    148.8836   1.0470014912e+02   3.8326402235e+01    0.5492054    0.4192346  72.04  0.002919527    1.380    0.275
        39 -10.3918     40.8365    146.6825   1.0812261743e+02   4.0428888923e+01    0.3957409    0.1903493 -61.34  0.001776635    1.784    0.439
        40  -9.8912    103.7028    138.1539   8.8315789455e+01   3.3335602832e+01    0.6121177    0.3353705 -28.23  0.002032516    3.222    0.690
        41  -9.2976    105.9351    130.8490   8.6017558707e+01   3.4710706525e+01    0.3653075    0.2944809 -66.97  0.001765469    1.296    0.228
        42 -10.5928     91.6343    137.1911   9.1562588413e+01   3.5715620057e+01    0.3028988    0.2556964 -45.10 0.0003827974    1.186    0.157
        43  -9.1689     32.4194    203.8976   1.1656865110e+02   2.7403558770e+01    0.3242507    0.1886993 -78.25  0.001756871    1.547    0.353
        44 -10.9297     45.1719    131.7065   1.0448723777e+02   4.3758206430e+01    0.5169798     0.223842 -70.25  0.002038719    2.305    0.566
        45  -9.3259    135.4412    129.2955   7.7622409923e+01   2.9152893870e+01    0.3120093    0.1504224 -42.75  0.001135094    2.090    0.521
        46 -10.3239    113.1416    128.2801   8.3370583716e+01   3.3946514306e+01    0.4860199    0.3116154 -24.22  0.001867461    2.280    0.561
        47  -9.2805     99.9509    124.7651   8.6307915871e+01   3.7307080184e+01     0.306055    0.2549997  -2.73 0.0008121458    1.468    0.319
        48 -10.7430     41.0281    125.6925   1.0474060462e+02   4.5741009536e+01    0.3910339    0.2411609 -71.46  0.001916626    1.514    0.340
        49  -8.1629    108.5194    118.4236   8.2245709717e+01   3.7200944396e+01    0.1537848    0.1507305 -64.05 6.614708e-05    1.018    0.018
        50 -11.4434     43.0886    114.4976   1.0200463758e+02   4.8327728407e+01    0.6737988    0.2566011  35.70  0.002684871    2.776    0.640
        51 -11.3160     41.8852    109.3455   1.0137893831e+02   4.9735776787e+01    0.4642005    0.2849326 -60.31  0.002117365    1.423    0.297
        52  -8.6566    231.1059    113.8087   5.4438104128e+01   1.1902355306e+01    0.2110947    0.1742293 -57.51   0.00086278    1.194    0.162
        53 -10.5203    114.8748    110.4122   7.8336235137e+01   3.7790138572e+01    0.5573751    0.2047706 -41.34  0.001759455    2.910    0.656
        54  -8.1819    205.5281    110.4750   5.7811943449e+01   1.7722117413e+01    0.1475969    0.1332487 -52.73 0.0008091941    1.038    0.036
        55 -11.3681     83.6184    158.6937   9.8032201847e+01   3.1624818908e+01    0.8761553    0.6785573  87.73 0.0007270209    1.403    0.287
        56  -9.4826    135.0000    111.9796   7.3302899644e+01   3.3154476363e+01    0.3827013   0.08881465 -44.83 0.0009707069    4.231    0.764
        57  -8.6173    128.4679     96.0094   7.0603477007e+01   3.8036662651e+01    0.2322308    0.1518441 -43.34 0.0005409489    1.514    0.339
        58  -7.9960    168.2019    232.0200   9.0213365917e+01   1.4859358741e+00    0.1587538    0.1030823 -43.37 0.0004991554    1.713    0.416
        59 -11.9830     72.6084    152.9148   1.0007671388e+02   3.4761823490e+01    0.5215185    0.4756193  88.38 0.0009673357    1.046    0.044
        60  -8.5651    156.3126     88.4339   6.1718002477e+01   3.3126653607e+01    0.2639457    0.1795307 -61.03 0.0005509274    1.714    0.416
        61 -10.9853     45.8901    109.1459   9.9974130320e+01   4.9338909555e+01    0.3725064    0.2793368 -57.95  0.001547402    1.175    0.149
        62  -9.3886    149.4116    229.7816   9.3791968328e+01   4.8817261015e+00     0.177118    0.1225812 -34.84 0.0009532393    1.678    0.404
        63 -10.5531     21.5647     62.4518   9.7975866726e+01   6.2461529208e+01    0.3628761    0.1709517 -47.86  0.001816967    1.705    0.413
        64 -11.3894    184.9158     52.6810   4.6618344677e+01   3.2262523996e+01    0.5493438    0.4556924  32.69  0.001701891    1.519    0.342
        65  -8.5798     49.8143    222.2318   1.1439099704e+02   2.1281606366e+01    0.1980307    0.1405893  67.54 0.0009741112    1.214    0.176
        66  -8.2541     83.6826    245.3374   1.0952364507e+02   1.2027048210e+01    0.2012687     0.118607  63.55 0.0007905867    1.734    0.423
        67  -9.5112     72.0000    249.0121   1.1220852986e+02   1.2935809827e+01    0.2433911    0.1506081 -77.48  0.001430828    1.755    0.430
        68  -8.5622     60.0206    218.5681   1.1186447772e+02   2.0768174137e+01    0.2150209    0.1527556  82.70 0.0004294568    1.337    0.252
        69 -10.6043    139.2970    214.9439   9.3710856576e+01   9.3633336920e+00    0.3794927    0.1946459  31.63  0.001667117    1.948    0.487
        70  -8.8861     73.2729    238.7391   1.1101118350e+02   1.4766319911e+01    0.3173202    0.1345689 -63.83  0.001177032    2.501    0.600
        71  -9.5884     79.0950    237.1993   1.0965822992e+02   1.4265293884e+01    0.2750464    0.1927865 -62.27 0.0008506178    1.589    0.371
