#   1 NUMBER                 Running object number                                     
#   2 MAG_AUTO               Kron-like elliptical aperture magnitude                    [mag]
#   3 X_IMAGE                Object position along x                                    [pixel]
#   4 Y_IMAGE                Object position along y                                    [pixel]
#   5 X_WORLD                Barycenter position along world x axis                     [deg]
#   6 Y_WORLD                Barycenter position along world y axis                     [deg]
#   7 A_WORLD                Profile RMS along major axis (world units)                 [deg]
#   8 B_WORLD                Profile RMS along minor axis (world units)                 [deg]
#   9 THETA_WORLD            Position angle (CCW/world-x)                               [deg]
#  10 FWHM_WORLD             FWHM assuming a gaussian core                              [deg]
#  11 ELONGATION             A_IMAGE/B_IMAGE                                           
#  12 ELLIPTICITY            1 - B_IMAGE/A_IMAGE                                       
         1 -11.8666     76.6596     25.3333   8.9712655897e+01   6.0072304075e+01    0.3959512    0.2745912  -1.75  0.001470141    1.476    0.322
         2 -11.4252     74.7012     21.6711   8.8914659626e+01   6.0837460512e+01    0.2806892    0.2172092   5.22 0.0008558313    1.178    0.151
         3 -11.1203     92.7768      8.8781   7.8821044699e+01   5.8755288950e+01    0.3600867    0.2217496 -17.65  0.001125183    1.767    0.434
         4  -9.6750     88.5222      7.4670   7.9394670858e+01   5.9712183688e+01    0.1819426    0.1602992 -17.25 0.0007826647    1.299    0.230
         5 -11.0711     90.2612     15.9460   8.2135044471e+01   5.8584088773e+01    0.2958965    0.1963511  -3.73 0.0004984963    1.646    0.392
         6 -10.7309     87.3080     12.2428   8.1541586471e+01   5.9512350637e+01    0.2968954    0.2335736  40.11  0.001263236    1.118    0.105
         7 -11.4297     13.1444     20.6776   1.1251215437e+02   6.8918179953e+01    0.2614308    0.1820332 -35.54 0.0007991545    1.300    0.231
         8 -10.6936     13.2680     15.9753   1.1058514523e+02   6.9572901972e+01    0.3470077    0.1563123  24.10  0.002086198    2.250    0.556
         9 -11.1611     41.2421     18.5386   9.9592723141e+01   6.6258386741e+01    0.3995299     0.273736  -8.50  0.002678505    1.264    0.209
        10 -10.6470    100.2118     18.7996   8.0562476247e+01   5.6318634066e+01    0.3429795    0.2251508 -51.99  0.001817413    2.224    0.550
        11 -10.3108     38.4227      2.7366   9.3823170069e+01   6.8407441014e+01    0.2719746    0.1345757 -27.38  0.001643855    1.930    0.482
        12 -11.2438     22.3005      9.2017   1.0359391064e+02   6.9599850607e+01    0.3308484    0.1824475  10.37  0.002024621    1.794    0.443
        13 -11.7444     30.2891      7.3545   9.9276939496e+01   6.8931660328e+01    0.3317438    0.2515269  15.60   0.00120281    1.213    0.175
        14 -11.7090     35.1594     13.1912   9.9796168938e+01   6.7668289198e+01     0.372631    0.2195612 -34.03  0.001870541    1.700    0.412
        15 -12.0765     39.7782      9.0822   9.6125259260e+01   6.7558725864e+01    0.5372239    0.3080047   1.23  0.002966494    1.829    0.453
        16 -10.7889    236.1586     16.5488   5.8977171194e+01   2.5094294283e+01    0.2134905    0.1545232  35.52  0.001203323    2.280    0.561
        17 -10.7612    190.6213     14.0458   6.3107686200e+01   3.5925658944e+01    0.2492687    0.1875366 -85.86 0.0006833413    1.212    0.175
        18 -10.6391    155.7228     14.1507   6.7900177512e+01   4.4297128147e+01    0.3671669    0.2207424  43.54  0.001810881    1.710    0.415
        19 -10.4937    119.2688     12.0802   7.3834621887e+01   5.2911686454e+01    0.2333853    0.1677691  63.35 0.0006068346    1.306    0.235
        20 -10.1774     50.3808      1.9968   8.8944973814e+01   6.6786333137e+01    0.2827106    0.2548116  46.12  0.001345452    1.607    0.378
        21 -11.4061     55.4836      7.4818   8.9522236968e+01   6.5485595145e+01    0.3562783    0.2713515 -44.60  0.001639483    2.009    0.502
        22 -11.5659     56.1978      4.5871   8.8024562629e+01   6.5653552600e+01    0.6343779     0.214524  37.04  0.002975071    2.644    0.622
        23 -10.8886    148.1925      9.8550   6.7856158283e+01   4.6490030025e+01    0.2544608    0.1667716  38.82 0.0008061356    1.614    0.381
        24 -11.1090    151.5042      7.3617   6.6619525893e+01   4.5934717769e+01    0.2461967    0.2255585  63.37    0.0016427    1.092    0.085
        25  -9.8121     10.4797      1.5054   1.0562531052e+02   7.1677496618e+01    0.1418214   0.07971285  10.74 0.0006351521    1.622    0.383
        26 -11.6862     10.8246      6.9164   1.0789812460e+02   7.0983124378e+01    0.4937145    0.3579012  30.71   0.00365705    1.833    0.454
        27 -10.2918      2.2530      2.9913   1.1035702887e+02   7.2184208865e+01    0.1929575    0.1187509  -7.68  0.001130709    1.318    0.241
        28 -11.3726      4.3963      9.8275   1.1224589629e+02   7.1125001530e+01    0.2127661    0.1643849  -1.48 0.0001993999    1.235    0.190
        29 -10.2524      2.7047      6.3442   1.1159839988e+02   7.1716573998e+01    0.1727627    0.1121824  11.85 0.0006008056    1.460    0.315
        30 -10.6088    210.1326      7.6521   5.9509361455e+01   3.2001926968e+01    0.2117075     0.150014 -57.84 0.0009675531    1.343    0.255
        31 -11.5573     68.7056      6.3911   8.4668100017e+01   6.3433985762e+01    0.6741171    0.2156108  45.97   0.00308149    2.593    0.614
        32 -11.8519     80.0852      2.0395   7.9559299558e+01   6.1770162303e+01     0.406874    0.1925971  38.73  0.002181739    1.782    0.439
        33 -10.3853    144.8993      5.6984   6.7166094342e+01   4.7631391922e+01    0.1966686    0.1684462  14.14 0.0007171486    1.375    0.273
        34 -11.6461    130.6680      3.6823   6.8936466344e+01   5.1078798241e+01    0.3045995    0.2168243  62.08  0.001144506    1.191    0.160
        35 -10.7770    120.5201      4.3638   7.1030646483e+01   5.3297877220e+01    0.3077894    0.1561864  49.94  0.001109092    1.613    0.380
        36 -11.3523     18.2592      2.8733   1.0257848249e+02   7.0766444271e+01     0.332178     0.159489  17.79 0.0007523382    2.080    0.519
        37 -10.8812    160.1676      2.2289   6.3941268001e+01   4.4335826425e+01    0.2815043    0.2074559 -76.11  0.001682257    1.444    0.308
        38 -11.2763    194.4528      4.5293   6.0397619117e+01   3.5989659609e+01    0.2637969    0.1962851   7.17  0.001524953    2.102    0.524
        39  -9.1556    204.2795      1.3081   5.8664682325e+01   3.4007281788e+01    0.1152689   0.08679181  50.28 0.0002004122    1.558    0.358
        40 -11.3313    172.2034      2.8786   6.2550078881e+01   4.1422717852e+01    0.2549386    0.1953667  75.70 0.0004212252    1.086    0.079
        41 -10.8932     12.7576    130.5885   1.3848659353e+02   4.7182103077e+01     0.339843    0.1907287  67.55  0.001076858    2.255    0.556
        42 -11.8054     17.7424    249.0388   1.4797668294e+02   2.0969495192e+01    0.2463713    0.1536848  34.74  0.001625762    2.098    0.523
        43 -11.4295      1.7080    248.7032   1.5049553849e+02   2.2737082235e+01    0.8800157    0.1188349 -76.63  0.003014355    6.360    0.843
        44 -12.7700      8.0585    246.0667   1.4936001966e+02   2.2578243466e+01    0.4632698    0.3867629  20.68  0.003511094    2.166    0.538
        45 -12.1321      6.0584    241.4525   1.4942674456e+02   2.3666715777e+01    0.3383802    0.2243459  70.54  0.002005891    1.101    0.092
        46  -9.6914      2.3084    132.3645   1.4139143443e+02   4.7511140350e+01    0.1252098   0.06751247 -49.97 0.0007038515    1.749    0.428
        47  -9.4876     21.1508    126.1476   1.3562233124e+02   4.7543693948e+01    0.1613293    0.1285517  86.07 0.0004100114    1.280    0.219
        48 -11.8673     23.6877    121.5252   1.3421176338e+02   4.8396843452e+01    0.4888375    0.2488312 -84.08 0.0009184121    2.410    0.585
        49 -10.5815      3.3857    118.9134   1.3942370908e+02   5.0469135504e+01     0.190682    0.1659353 -38.46 0.0006453226    1.317    0.240
        50  -9.2341      9.2959    116.6558   1.3748755446e+02   5.0592556243e+01    0.1190222   0.08084556  80.34 0.0004282501    1.667    0.400
        51  -9.9101    132.0245    114.2178   1.0192919348e+02   3.3683255841e+01    0.2271679    0.2059883   2.20 0.0004804039    1.252    0.201
        52  -9.6279     33.9655    115.0000   1.3015606481e+02   4.8978906862e+01    0.1818445   0.07462718  26.14 0.0008010658    2.933    0.659
        53 -10.1171    249.2001    111.8062   7.7887726552e+01   7.7764414413e+00    0.1848422    0.1632261 -14.39  0.001069875    1.327    0.247
        54 -11.7026      4.6671    108.7151   1.3762719441e+02   5.2660174953e+01    0.3249211    0.2180093   8.44  0.002088123    1.975    0.494
        55 -10.9588     58.3299    107.8810   1.2139209925e+02   4.7927178734e+01    0.2854918    0.2084049 -14.11  0.001012606    1.738    0.424
        56  -9.8712     34.3694    107.7750   1.2867563363e+02   5.0585567043e+01    0.1845581   0.09557085 -53.47 0.0005089401    1.567    0.362
        57  -9.3752     79.5711    106.8286   1.1470898192e+02   4.5176072199e+01    0.1977997     0.131223 -62.01 0.0003871205    1.589    0.371
        58  -9.2270     20.6349    107.2864   1.3272034777e+02   5.1875804901e+01    0.1187372   0.08716083  72.61 0.0007021604    1.695    0.410
        59  -9.7103    113.5084    102.5084   1.0375839760e+02   4.0072859681e+01    0.1490753     0.145422 -37.31 0.0002030423    1.001    0.001
        60  -9.9820     66.8070    101.4241   1.1726445809e+02   4.8255873155e+01    0.2346877    0.1498906 -47.88 0.0007729697    1.398    0.285
        61 -11.0037     57.8525    101.4699   1.2006219156e+02   4.9426854326e+01    0.2867343    0.2551465  40.64  0.001179335    1.281    0.219
        62  -9.3862     87.7394    101.3550   1.1086828521e+02   4.5069242717e+01    0.1413385    0.1122971 -81.72 0.0003821542    1.618    0.382
        63  -9.0924     12.2837    101.2974   1.3419277447e+02   5.3808963973e+01    0.1220762   0.07112201 -43.80  0.000160215    1.545    0.353
        64 -10.0494     62.1273     98.8721   1.1809775388e+02   4.9450863224e+01    0.2042646    0.1798698 -76.87 0.0006838042    1.278    0.218
        65 -10.8426     15.3175     96.6998   1.3243992236e+02   5.4606211778e+01    0.4176494    0.1909185  47.37   0.00197339    3.211    0.689
        66 -12.0091     17.5443     94.4913   1.3132326124e+02   5.4927317996e+01    0.4584901    0.3844047 -85.58  0.002709983    1.336    0.252
        67  -9.1615    129.5142     97.4810   9.8081493247e+01   3.7780329187e+01     0.150079    0.1495102 -40.15 0.0008102164    1.001    0.001
        68  -9.9561    100.8410     95.8541   1.0552033099e+02   4.3931592196e+01    0.3422847     0.237789 -88.16  0.001412421    2.558    0.609
        69  -9.8308     37.9247     94.5607   1.2480541590e+02   5.3177479903e+01    0.3916208    0.1583851 -63.36  0.001645173    2.522    0.604
        70 -10.7422     78.9284     94.9604   1.1184921409e+02   4.7879027644e+01    0.2098175    0.1876626 -30.11 0.0003122886    1.059    0.055
        71  -9.7044      3.5038     95.4892   1.3588695512e+02   5.5615529422e+01    0.1180747   0.09055492 -59.20 6.264697e-07    1.006    0.005
        72 -11.1724     27.3287     90.9174   1.2744653856e+02   5.4933216263e+01    0.5107856     0.324118  54.85  0.002608729    2.278    0.561
        73 -10.0939     25.5956     85.3024   1.2679039997e+02   5.6272837096e+01    0.2424378    0.1665041 -71.85  0.001431764    1.583    0.368
        74 -10.4589     58.3792     91.3511   1.1740825518e+02   5.1566662725e+01    0.2618239    0.1953046 -13.37 0.0009115498    1.544    0.352
        75 -10.5978     17.3514     88.5408   1.3021023521e+02   5.6219535065e+01    0.4302711     0.225526 -16.54   0.00197642    2.699    0.629
        76 -10.2525     10.6630     90.7032   1.3279548307e+02   5.6211264936e+01    0.2191057    0.1674072 -64.11 0.0007118054    1.136    0.119
        77 -11.4434     11.4075     86.5996   1.3176713970e+02   5.7035517608e+01     0.383743    0.1988368 -73.15  0.002014719    2.050    0.512
        78 -11.3663     76.3080     89.2836   1.1112476138e+02   4.9484668153e+01    0.2554002    0.2212138 -35.47 0.0003586051    1.058    0.055
        79 -10.7165      1.8259     89.8112   1.3544271915e+02   5.6921395049e+01    0.1986949    0.1268933 -63.39 0.0002575859    1.225    0.184
        80 -10.4948     98.8112     89.3911   1.0429270823e+02   4.5646479646e+01    0.2027991     0.135807  28.72 0.0009441824    1.670    0.401
        81  -9.6801     43.9571     89.4880   1.2165697200e+02   5.3652537026e+01    0.1764036    0.1265853  28.04  0.001025623    1.588    0.370
        82  -9.4747    124.1386     86.8301   9.6468345059e+01   4.1073400126e+01    0.2064313    0.1778111   6.88 0.0005196416    1.308    0.235
        83 -10.3768     54.5536     84.5173   1.1688308753e+02   5.3484126361e+01    0.2475882    0.1996196 -57.79 0.0009995191    1.270    0.212
        84  -9.5707     78.1623     83.3419   1.0886463277e+02   5.0415052432e+01    0.1857247    0.1252422  46.06 0.0004085615    1.689    0.408
        85 -10.3485      3.9004     82.6391   1.3346880390e+02   5.8315289162e+01    0.2287064    0.1425567 -65.67 0.0008734514    1.359    0.264
        86  -9.6668    100.5549     81.7384   1.0154569752e+02   4.6843683102e+01    0.2897103    0.1349151 -38.71  0.001153505    2.165    0.538
        87 -11.6212     63.7636     80.1171   1.1261370372e+02   5.3187668618e+01    0.5016865    0.3596225 -54.28  0.002767841    1.424    0.298
        88 -11.6530     55.9998     75.4681   1.1390148556e+02   5.5138476705e+01    0.4215288    0.2775331  18.76  0.001952297    1.712    0.416
        89 -10.0557     89.3107     80.3384   1.0450348205e+02   4.9160347872e+01    0.2702696    0.1852057 -52.52 0.0007842595    1.568    0.362
        90  -9.2721    124.4502     78.9935   9.4084204445e+01   4.2494103878e+01     0.194886    0.1265865 -64.46 0.0005162338    2.232    0.552
        91  -9.4987     23.9632     79.0315   1.2591222226e+02   5.7711855011e+01    0.2048937    0.1145424 -34.46  0.001129069    1.707    0.414
        92 -10.3076    176.3903     77.4219   8.1844409980e+01   3.0566464427e+01    0.3240637    0.2579372  30.26  0.001594087    1.521    0.343
        93  -9.9385     74.9126     75.8129   1.0769559349e+02   5.2410042877e+01    0.1951068    0.1652032 -12.53 0.0002699109    1.153    0.133
        94 -10.4036     15.0415     75.7066   1.2824330067e+02   5.9055571058e+01    0.1594037    0.1339383 -37.86  0.000630129    1.097    0.088
        95 -10.7505     32.0701     72.9847   1.2157528567e+02   5.8242438228e+01    0.1906244    0.1713317 -14.62            0    1.161    0.139
        96 -11.1244     35.9820     71.9941   1.1992232461e+02   5.8068691901e+01    0.4170499    0.2774301 -59.48  0.001431318    1.550    0.355
        97  -9.5933     26.0074     74.6797   1.2415198024e+02   5.8432576643e+01    0.1564738    0.1384566 -26.62  0.000361015    1.131    0.116
        98 -11.0542      3.8705     73.8539   1.3172867803e+02   6.0120155423e+01    0.3350906    0.1956453  21.95  0.001130976    2.091    0.522
        99  -9.2362    224.0557     74.2367   7.3080130878e+01   1.9674502814e+01    0.1706515      0.11468  63.22 0.0003482151    1.508    0.337
       100  -9.5210    136.4840     74.4778   8.9702399088e+01   4.0624738799e+01    0.1467728    0.1429775  50.97 0.0003101577    1.014    0.014
       101  -9.2401     95.9491     73.4372   1.0039153727e+02   4.9278748984e+01     0.201373    0.1355163  42.65 0.0004641584    1.515    0.340
       102 -10.4753    105.9739     71.3172   9.6798988713e+01   4.7740089259e+01    0.2511706    0.2013979 -22.63 0.0005983777    1.282    0.220
       103  -9.3702     92.4666     72.4639   1.0114139195e+02   5.0095452546e+01     0.137184    0.1307402 -12.13 9.202719e-05    1.058    0.055
       104  -9.4512     46.0715     68.8502   1.1545228252e+02   5.7619594873e+01    0.2504054    0.1728535 -81.10  0.001218735    2.782    0.640
       105  -9.8529     10.2970     69.1904   1.2843295128e+02   6.0677518609e+01    0.2008232    0.1084757 -43.79  0.001196122    1.445    0.308
       106  -8.9025    122.3227     68.6991   9.1522205998e+01   4.4794522760e+01    0.1426649    0.1160764 -84.33 0.0003354487    1.630    0.387
       107 -10.1561    114.3824     66.6001   9.2980974581e+01   4.6849112375e+01    0.2498547    0.2016289  75.03 0.0007854617    1.588    0.370
       108 -11.9409     34.1683     65.0912   1.1866964988e+02   5.9587854732e+01    0.3660665    0.2382232 -26.13  0.000430829    1.466    0.318
       109 -11.2506     38.9921     62.5158   1.1615141300e+02   5.9591025041e+01    0.6932293     0.263185 -30.49   0.00254334    3.901    0.744
       110 -10.4101    131.9598     64.8122   8.7899068589e+01   4.3307358724e+01    0.4016824    0.2464961  60.99  0.001793983    1.784    0.439
       111 -10.2584     15.9924     64.2626   1.2515590270e+02   6.1264181530e+01    0.2863643    0.2224872  21.37  0.002006948    1.534    0.348
       112  -9.3458     72.6292     63.7330   1.0469217419e+02   5.5009746257e+01    0.1826871     0.118574 -49.08 0.0006271087    1.661    0.398
       113 -10.6382     62.5962     62.0623   1.0756059791e+02   5.6789251761e+01     0.250276    0.1978555  -6.58  0.001048523    1.236    0.191
       114 -10.2685     60.4967     57.7281   1.0688607871e+02   5.7847634940e+01    0.2679041    0.2266835 -62.12 0.0009788485    1.596    0.373
       115 -11.4216      9.6226     60.1897   1.2650286660e+02   6.2473040693e+01    0.4634413    0.1903177 -34.52 0.0003399592    2.279    0.561
       116 -10.9248      3.4722     60.9392   1.2899576162e+02   6.2691190350e+01    0.2773257    0.1863207  52.13  0.001151184    2.369    0.578
       117  -9.4856    100.8492     61.8090   9.5253144726e+01   5.0394924789e+01    0.1836599    0.1690891 -77.21 0.0006712066    1.363    0.266
       118 -11.0590      3.2101     53.4806   1.2725006530e+02   6.4115726360e+01    0.5308352    0.1726843 -33.54  0.002409499    3.113    0.679
       119 -11.2326     10.5617     47.8164   1.2278452244e+02   6.4700003778e+01    0.5408512    0.2407342  27.92  0.003048109    2.611    0.617
       120 -11.2637     16.6898     44.9200   1.1943030771e+02   6.4771624024e+01     0.403396    0.2801732  31.56  0.002729216    1.813    0.448
       121 -10.5348     20.5229     51.0518   1.1976537733e+02   6.3390085820e+01    0.3175722    0.1641531 -35.09 0.0008113121    1.628    0.386
       122  -9.7439     23.7786     62.0477   1.2166866141e+02   6.1094752325e+01    0.1820286    0.1433076 -36.74 0.0007762931    1.013    0.012
       123 -12.9161     20.7588     56.9478   1.2139077910e+02   6.2295783811e+01    0.3428533    0.3225989 -41.23 0.0009523984    1.295    0.228
       124  -9.4376     54.2931     55.3126   1.0829833528e+02   5.9099523783e+01    0.1616991    0.1115555 -45.82  0.000222447    1.470    0.320
       125 -11.4511     83.4775     56.9547   9.8930059239e+01   5.4395903395e+01    0.2510428    0.2057897 -31.02 5.219392e-05    1.194    0.162
       126 -11.9108     87.5507     53.9778   9.6647927583e+01   5.4161614816e+01    0.4674917    0.2983703  34.03   0.00131464    1.543    0.352
       127  -9.4494     71.4154     57.7158   1.0312798694e+02   5.6246509955e+01    0.1719607     0.113556 -28.07 0.0003100159    1.462    0.316
       128  -9.8914    225.0350     55.5611   6.8643191893e+01   2.2383199067e+01    0.2925473    0.1813865  37.17  0.001312991    2.552    0.608
       129 -10.3869     99.8393     56.1705   9.3696576690e+01   5.1511633451e+01    0.1887238    0.1823638 -26.20 0.0004574576    1.149    0.129
       130 -10.9597     54.7870     58.5642   1.0918272222e+02   5.8466145056e+01    0.4504177    0.2746935  52.61  0.002209536    2.671    0.626
       131 -11.0712    114.6317     53.8215   8.8828934352e+01   4.8861115823e+01    0.3150028    0.2680908  31.41 0.0009102438    1.118    0.105
       132 -10.2959     78.1606     45.8159   9.6799799931e+01   5.7061085159e+01    0.3046861    0.1979783  32.64  0.001013346    1.485    0.327
       133 -12.3242     66.1264     52.5601   1.0319025017e+02   5.7913958971e+01    0.5320253     0.227038  34.10  0.001539509    2.433    0.589
       134  -9.9187     75.3081     50.2868   9.9301999774e+01   5.6846348186e+01    0.2319889    0.1648434   7.08 0.0002463893    1.526    0.344
       135 -10.1122     34.3695     53.4813   1.1512594220e+02   6.1710324389e+01     0.262318    0.1539447 -27.49 0.0009135886    1.598    0.374
       136 -10.2349    106.0039     52.9749   9.0885743155e+01   5.0783277610e+01    0.2094096    0.1972506  37.99 0.0007219237    1.106    0.096
       137  -9.1212    176.2917     52.2898   7.5081915366e+01   3.4617557869e+01    0.1383865    0.1083667  32.67 0.0001817682    1.546    0.353
       138  -9.6226    211.8874     48.8524   6.8797281913e+01   2.6450975239e+01    0.1882751    0.1417486 -78.08  0.001020218    1.281    0.219
       139 -10.0886     38.0585     49.0470   1.1227778558e+02   6.2100789039e+01    0.1818961    0.1412536 -20.43 0.0005132633    1.071    0.066
       140  -9.2352     87.4965     48.4970   9.4785269701e+01   5.5022490829e+01    0.1334671    0.1176537   7.45 0.0008106235    1.017    0.016
       141  -9.8518     52.7876     48.3790   1.0650409913e+02   6.0463544978e+01     0.254124     0.146505  22.94  0.001310226    1.837    0.456
       142 -10.4323    104.0848     47.1836   8.9477708634e+01   5.2033442987e+01    0.2825151    0.1758187  29.54  0.001376261    1.727    0.421
       143 -10.3840     36.2149     41.3921   1.1038932927e+02   6.3569631282e+01    0.2704192    0.1965276  -6.43  0.001335907    1.260    0.206
       144 -10.1205     31.0377     45.8398   1.1395659967e+02   6.3365422242e+01    0.2471997    0.2039766 -33.89  0.001511792    1.177    0.150
       145 -10.8702     25.8132     44.0669   1.1545808839e+02   6.4156874722e+01    0.2433948    0.2267669   2.50  0.001065337    1.349    0.259
       146  -9.2686     64.9750     46.2694   1.0139975158e+02   5.9094462715e+01    0.1716663    0.1421235  17.19            0    1.146    0.127
       147  -9.3000     91.4641     44.5350   9.2199978383e+01   5.4875634393e+01    0.1332424    0.1168005  12.57 0.0001066163    1.025    0.024
       148 -10.7264     70.2971     41.3992   9.7821914345e+01   5.9007721099e+01    0.3318898    0.2336379 -20.39  0.001949504    1.358    0.264
       149 -10.2571    182.1376     40.2787   7.0923875890e+01   3.4854705546e+01    0.3713343    0.2781979  42.22  0.001317195    1.513    0.339
       150  -9.5251    159.8274     40.6242   7.4756983672e+01   4.0272925396e+01    0.1793725      0.17381  21.81 0.0005600426    1.153    0.133
       151 -10.8860    139.5111     40.3914   7.8660923646e+01   4.5166243256e+01     0.273174    0.2293381 -58.41  0.001365615    1.354    0.262
       152  -9.2632     43.1542     40.6328   1.0740547152e+02   6.2905424387e+01    0.1525344    0.1004082  13.30 0.0005170238    1.530    0.346
       153 -10.4744     12.7656     39.0347   1.1919047694e+02   6.6069881105e+01    0.2728188   0.06767105 -49.22  0.001188076    3.049    0.672
       154 -11.0550    134.1244     34.0046   7.7810853294e+01   4.7224754299e+01    0.2077484    0.1726464  47.41 0.0003039385    1.089    0.082
       155 -10.4389    130.9958     37.7052   7.9656639721e+01   4.7484683949e+01    0.2977007    0.2561893  45.16 0.0008831932    1.058    0.055
       156 -12.0869    121.6363     36.9301   8.1543257530e+01   4.9691412163e+01     0.466753    0.4170715  64.51  0.001987035    1.176    0.150
       157  -9.6324    101.7437     39.3961   8.7455247632e+01   5.3587407897e+01    0.1861536    0.1114533  39.07 0.0003265696    1.562    0.360
       158  -9.9838     30.4424     30.6783   1.0883564846e+02   6.5841967889e+01    0.1684846    0.1311113 -21.26 0.0003568149    1.086    0.079
       159 -10.7037     22.7906     38.6145   1.1486482155e+02   6.5333565391e+01    0.2082798    0.1813779  11.39 0.0008069422    1.352    0.260
       160 -11.2563     26.4066     35.5203   1.1228579451e+02   6.5499765808e+01    0.3995598    0.2175813 -20.80  0.002292901    1.833    0.454
       161  -9.0499    236.6911     37.6924   6.3344743333e+01   2.2283864803e+01    0.1170853    0.1003064  41.42 0.0003018437    1.615    0.381
       162  -9.4437     99.1458     35.8418   8.6929929941e+01   5.4572252450e+01    0.1841364     0.134445  24.36 -0.0006383859    1.350    0.259
       163  -9.9213      2.4700     42.3595   1.2451384950e+02   6.6165536693e+01    0.1532961   0.09561148   9.11 0.0006041888    1.760    0.432
       164 -10.4673      1.8877     35.8347   1.2280824817e+02   6.7320809891e+01    0.2341337    0.1575542 -30.99  0.001568932    1.120    0.107
       165 -10.3156      3.3350     32.6713   1.2117811865e+02   6.7761156983e+01    0.2062438    0.1721258 -66.61  0.001560339    1.739    0.425
       166 -10.0519     90.6606     35.6910   8.9298561099e+01   5.6239196837e+01    0.1373077   0.09031976  17.51 0.0007043924    1.687    0.407
       167  -9.5910     54.6812     34.6407   1.0083183887e+02   6.2317003006e+01    0.2275637    0.1252804  11.38 0.0008804547    2.376    0.579
       168 -10.6133     50.3428     33.7833   1.0212476186e+02   6.3030428636e+01    0.2125905    0.1827775  32.91 0.0004100617    1.426    0.299
       169 -10.4553    145.0231     32.9913   7.5292105703e+01   4.4793899994e+01    0.1975543    0.1773829  58.87            0    1.004    0.004
       170  -9.8323     71.6540     33.6889   9.4515018180e+01   5.9867762035e+01    0.1325026   0.08577903   9.96 0.0002441985    1.708    0.414
       171 -11.1374     20.1713     31.6690   1.1353053088e+02   6.6671905941e+01    0.5131852    0.2411026   1.87  0.002286953    3.086    0.676
       172 -10.3264    126.9675     30.9040   7.8365550761e+01   4.9231562761e+01    0.2849629    0.1903399  30.62  0.001010915    1.620    0.383
       173  -9.8842    166.3047     31.0784   7.0954796183e+01   3.9895078259e+01    0.1799237    0.1696813 -59.73 0.0003813283    1.147    0.128
       174 -11.5954     43.9763     29.2424   1.0282453484e+02   6.4496934120e+01    0.4515533    0.2777004 -21.75   0.00201152    1.480    0.324
       175  -9.8401    205.3184     30.6543   6.5321355842e+01   3.0475201581e+01    0.1445529   0.08872373 -69.37 0.0007048957    1.726    0.420
       176 -10.1606    149.4004     29.6166   7.3458759548e+01   4.4151471806e+01    0.2744604    0.1230487  76.27 0.0009598815    3.373    0.704
       177 -10.4550     69.1729     27.8990   9.3137034432e+01   6.1025112069e+01    0.2648487    0.2269396 -55.14  0.001704632    1.750    0.428
       178 -10.3917      7.5372     27.9656   1.1773308139e+02   6.8242849915e+01    0.1944106    0.1626163  10.46 0.0009090665    1.417    0.294
       179  -9.8286    140.3621     26.9015   7.4342176854e+01   4.6601516531e+01    0.2377589    0.1696962  70.74 0.0007234014    1.389    0.280
       180 -10.0870    195.3111    249.6918   1.1516270693e+02  -6.2042143447e+00    0.1171425    0.0943383  62.07 0.0005079921    1.621    0.383
       181  -9.1748    229.5193    247.5470   1.0843625402e+02  -1.1277699261e+01    0.1217994   0.09836931  14.54 0.0005018509    1.004    0.004
       182 -10.4199    113.9507     25.1756   7.9428413491e+01   5.2760424718e+01     0.210723    0.1900739 -11.15 0.0007494044    1.195    0.163
       183  -9.8464    101.3753     26.1827   8.2906185952e+01   5.5288246116e+01    0.1712796    0.1148993 -37.68 0.0009409002    1.703    0.413
       184  -9.3927     18.3482     26.3119   1.1234721946e+02   6.7648505163e+01    0.1181945   0.06620859 -16.56 0.0007045966    1.715    0.417
       185  -9.9075    153.9295     25.6488   7.1491242477e+01   4.3519648287e+01    0.3995834    0.1273786  67.80  0.001325482    3.512    0.715
       186 -10.0581     59.0935     24.4137   9.5254081302e+01   6.3044202725e+01    0.2244479    0.1441572 -10.75 0.0008918992    1.545    0.353
       187 -10.2776     51.2879     24.1566   9.8007133097e+01   6.4209111756e+01    0.3023293    0.2361697  85.82  0.001538977    3.781    0.736
       188  -9.8265     89.2957     22.1763   8.4735117826e+01   5.8118776594e+01    0.3514312    0.1441705 -27.09  0.001597697    2.593    0.614
       189 -10.3998     34.1293    247.1208   1.4514349837e+02   1.9435098112e+01    0.1627689   0.09773271  67.65 0.0004222249    1.297    0.229
       190  -9.1984    224.6989    246.6526   1.0916927784e+02  -1.0428479932e+01    0.1265437   0.08282634   4.78 0.0004665375    1.687    0.407
       191  -9.2988    136.3218    245.6682   1.2603497928e+02   4.4512695445e+00    0.1336291   0.08984423  68.05 0.0005384271    1.699    0.411
       192  -9.7138    217.4195    245.0000   1.1024198825e+02  -9.0731843417e+00    0.2787199   0.06142447  39.97 0.0009425034    3.998    0.750
       193 -11.0342     38.4086    242.5950   1.4408541853e+02   1.9790517997e+01    0.3907602    0.1388362  67.21  0.001604987    3.532    0.717
       194 -10.6322     19.8695     16.7765   1.0791505964e+02   6.8867615794e+01      0.18498    0.1274638  14.05 0.0004107621    1.362    0.266
       195  -9.2391     74.1936    243.6455   1.3773620971e+02   1.4771412237e+01    0.1494835    0.1035087  41.83 0.0002139999    1.484    0.326
       196 -10.1286      1.9033     22.0624   1.1819214582e+02   6.9534566304e+01    0.2359245    0.1201081 -45.18  0.001100124    1.628    0.386
       197 -10.4990    174.6248     20.8517   6.6920012320e+01   3.9047273859e+01    0.3127466    0.1035141  54.13  0.001212861    2.653    0.623
       198 -10.1282    124.4547     20.8856   7.5651463009e+01   5.0902532500e+01    0.2125534    0.1232142 -32.46  0.000703785    1.912    0.477
       199  -9.9853     85.3375     20.9321   8.5402500740e+01   5.9002590791e+01    0.2597603    0.1280652  35.15 0.0008729763    1.932    0.482
       200  -9.4656    202.4543    240.3188   1.1229578288e+02  -5.9761115173e+00    0.2091521     0.121607 -33.94 0.0008748826    1.929    0.482
       201 -10.6082     30.9534     20.4517   1.0460662556e+02   6.7234492855e+01    0.2354073    0.1378734 -34.58 0.0005875931    1.564    0.361
       202 -10.3295     26.5360     16.6510   1.0492477019e+02   6.8214310086e+01    0.2189979     0.181932  32.38  0.001638726    1.676    0.403
       203  -9.6470    132.0274     20.2084   7.3886869104e+01   4.9253482364e+01    0.2273181     0.119068  39.20  0.001062018    1.977    0.494
       204  -9.2991     60.5222    241.0000   1.4001109158e+02   1.7223382670e+01    0.2523136   0.05967568  39.11 0.0009328978    3.920    0.745
       205  -9.4025    148.6047     18.8349   7.0416885164e+01   4.5521099567e+01    0.1657331    0.1186134 -45.24 0.0003236465    1.574    0.365
       206  -9.2762     65.3626     18.8275   9.0838298730e+01   6.2725320919e+01    0.1653148    0.1000668 -13.36 0.0009414838    1.690    0.408
       207  -9.6086     58.1996     19.2219   9.3479325940e+01   6.3805295436e+01    0.1475386    0.1368441 -17.04  0.001067221    1.398    0.285
       208  -8.9069    148.7133    239.6785   1.2275672054e+02   3.3762391991e+00    0.1235389    0.1006079   7.25 0.0002395842    1.598    0.374
       209 -12.7491     25.6753    235.8307   1.4580719438e+02   2.2638839096e+01    0.4096355    0.3296652  54.39  0.002591822    1.373    0.271
       210 -13.5255      9.9540    230.0983   1.4812225669e+02   2.5489941380e+01    0.7757629    0.4124364  79.01  0.004882124    1.514    0.340
       211 -11.8869      4.1367    232.6129   1.4924432980e+02   2.5581077575e+01    0.3804053    0.1876727  79.72 0.0003909395    1.641    0.391
       212  -9.1163    210.6731    235.7159   1.0995625473e+02  -6.6340621858e+00    0.1298469   0.08918223  10.33 0.0003058088    1.604    0.377
       213  -9.8546    249.1762    234.1096   1.0260109522e+02  -1.2357416654e+01    0.1827738    0.1359911   5.46 0.0004874297    1.175    0.149
       214  -9.7852    140.2401    227.3735   1.2267784616e+02   7.1378991942e+00    0.2020535    0.1099562  50.23 0.0009438538    1.691    0.409
       215 -10.2243     32.9957    225.1424   1.4371651465e+02   2.3958143189e+01      0.27303    0.1457686  44.78  0.001602652    1.768    0.434
       216  -9.9591     63.7024     14.9539   8.9824243617e+01   6.3419461814e+01    0.2197565    0.1570392  68.92  0.001201962    2.728    0.633
       217  -9.6342    174.3408     14.6629   6.5332991445e+01   3.9774576939e+01    0.1393237   0.08922549 -71.92 0.0007050564    1.762    0.432
       218  -9.7436    218.8630     25.8518   6.2659409562e+01   2.7885638478e+01    0.1853665    0.1286657 -69.66 0.0004510858    1.330    0.248
       219  -9.6817    212.3063     12.6203   6.0396719399e+01   3.0960034134e+01    0.1392897   0.07870664 -66.77            0    1.784    0.439
       220 -10.2136     25.3670    225.3256   1.4511232991e+02   2.4798173325e+01    0.1583318      0.12582 -59.18  0.001101644    1.666    0.400
       221 -11.9352      7.9141    217.6215   1.4768325150e+02   2.8228020507e+01    0.3366001    0.2212793  81.27  0.001703445    1.130    0.115
       222 -10.6818      3.7888    212.7809   1.4809904907e+02   2.9628248949e+01    0.2570096    0.1192002  53.16  0.001523347    1.894    0.472
       223  -9.5634    246.4742    216.5291   9.9901915153e+01  -9.4712763563e+00    0.1277589     0.104841   0.15  0.000216381    1.044    0.042
       224 -11.0105     15.9759    212.3260   1.4586273849e+02   2.8519771325e+01    0.2585382    0.1809706 -59.13  0.001719004    1.704    0.413
       225  -9.4978    209.5469    211.5149   1.0587164855e+02  -2.5659117445e+00     0.134532    0.1213269  12.79 0.0003284113    1.008    0.008
       226  -9.8491     20.6004    209.7617   1.4480777050e+02   2.8581292205e+01    0.1618939   0.08762668  89.84 0.0003319913    1.567    0.362
       227  -9.6764    246.9843    207.2624   9.8072106092e+01  -8.1571413158e+00    0.1785094    0.1516691  -5.09 0.0007517365    1.008    0.008
       228 -11.4382      9.3035    203.4788   1.4645357650e+02   3.1062780932e+01    0.2257346    0.1793897  78.39 0.0008396643    1.131    0.116
       229  -9.4511    180.5624    199.3810   1.0947160626e+02   5.0054631014e+00     0.300003    0.1176752  53.00 0.0009720388    3.444    0.710
       230  -9.5845     23.2052    197.5760   1.4329885914e+02   3.0950704235e+01    0.1369531    0.1180167  28.23 0.0005775294    1.634    0.388
       231 -10.1537      7.0280    192.0039   1.4602661832e+02   3.3752654895e+01    0.2561904    0.1105818  69.04  0.001267425    2.416    0.586
       232  -9.6476     15.3703    185.1763   1.4379398182e+02   3.4485396233e+01    0.1753246   0.08948883 -86.67  0.000941063    1.696    0.410
       233  -9.5616      1.3128    183.2311   1.4647301103e+02   3.6168518507e+01    0.1622936   0.08131373 -85.06 0.0005661609    1.594    0.373
       234 -11.1246      4.6101    167.2960   1.4445624194e+02   3.9439344954e+01    0.3015217    0.2165308  69.86  0.001474096    1.314    0.239
       235  -8.8660     41.6953    158.3153   1.3490848399e+02   3.7988317786e+01    0.1340653   0.08812995  76.29 0.0007025003    1.622    0.384
       236 -10.1686    199.8249     17.1811   6.2784503510e+01   3.3387358393e+01    0.1969976    0.1526262 -79.01 0.0004839721    1.169    0.144
       237  -9.0376    247.4827    155.5272   8.7570545596e+01   3.5171481104e-01    0.1377272    0.1227904 -28.40 9.619971e-05    1.003    0.003
       238  -9.8428      1.9903    153.4862   1.4373498444e+02   4.2754110153e+01    0.1579105   0.07340497  56.54 0.0008089641    2.428    0.588
       239  -9.8605      9.3295    147.3322   1.4137998570e+02   4.3603898731e+01     0.122971   0.07399372 -49.25 0.0006439076    1.719    0.418
       240 -10.3617     21.9317    143.3318   1.3780895845e+02   4.3490656421e+01     0.224553    0.1452659 -80.44  0.001089802    1.344    0.256
       241 -10.2334      3.2265    138.5639   1.4187558483e+02   4.6046485290e+01    0.1991024    0.1067656  33.39  0.001159699    2.222    0.550
