#   1 NUMBER                 Running object number                                     
#   2 MAG_AUTO               Kron-like elliptical aperture magnitude                    [mag]
#   3 X_IMAGE                Object position along x                                    [pixel]
#   4 Y_IMAGE                Object position along y                                    [pixel]
#   5 X_WORLD                Barycenter position along world x axis                     [deg]
#   6 Y_WORLD                Barycenter position along world y axis                     [deg]
#   7 A_WORLD                Profile RMS along major axis (world units)                 [deg]
#   8 B_WORLD                Profile RMS along minor axis (world units)                 [deg]
#   9 THETA_WORLD            Position angle (CCW/world-x)                               [deg]
#  10 FWHM_WORLD             FWHM assuming a gaussian core                              [deg]
#  11 ELONGATION             A_IMAGE/B_IMAGE                                           
#  12 ELLIPTICITY            1 - B_IMAGE/A_IMAGE                                       
         1 -10.1774     32.8968     26.8570   1.0478397214e+02   6.6284352496e+01    0.9566048   0.08350412 -41.77  0.002299799   10.722    0.907
         2  -9.6822     33.0000      4.9654   9.5474680169e+01   6.8968676868e+01    0.3581831   0.09762055 -32.64  0.001616411    3.575    0.720
         3 -11.2294    194.7182     28.0602   6.3941224748e+01   3.3198258985e+01    0.9407952    0.5407078 -23.36  0.004571953    2.374    0.579
         4 -11.2962    201.4206     22.6681   6.1861923529e+01   3.2243161208e+01     0.545337    0.4611515 -46.31   0.00332003    1.319    0.242
         5 -11.6639    207.8075     15.3910   5.9520919975e+01   3.1577963293e+01    0.9102516    0.6755868 -10.00  0.003337524    2.120    0.528
         6 -10.4213    220.8867      2.1963   5.5504367743e+01   3.0021174968e+01    0.5631077    0.2106382  74.67  0.002569075    2.266    0.559
         7  -9.2483     74.3605    248.3700   1.3681274485e+02   1.3366848186e+01    0.2959245    0.1137057 -72.76  0.001274582    3.080    0.675
         8  -9.8094    164.0000    244.4481   1.1826671076e+02  -6.6297897870e-01    0.3053522    0.1600675 -48.00  0.001478252    2.237    0.553
         9 -10.2006    141.6610    249.7605   1.2359530598e+02   2.2546242752e+00    0.4817373     0.178735  40.37  0.002004294    2.264    0.558
        10 -12.8341     33.7972    245.5860   1.4407000555e+02   1.9352256696e+01     2.000375    0.9879453  55.09    0.0116531    1.641    0.391
        11 -11.0778     41.8029    222.6951   1.4075751468e+02   2.3101080971e+01    0.4173223    0.3161831 -48.25  0.001014806    1.847    0.459
        12 -13.1048     51.5903    211.0621   1.3765844970e+02   2.4408055267e+01     1.709949     1.417539  66.81  0.009578662    1.107    0.097
        13  -9.5484    105.0024    229.6872   1.2852985848e+02   1.2342860776e+01    0.2467891     0.184119  53.99  0.001134649    1.161    0.139
        14 -11.0467    114.8078    229.8432   1.2646841256e+02   1.0657026356e+01    0.6454117     0.302339 -56.99  0.002887663    2.343    0.573
        15 -10.2698    109.6375    229.0776   1.2746630083e+02   1.1691733330e+01    0.3838833    0.2627438 -66.10  0.002007509    1.586    0.369
        16 -11.5153    127.2747    230.0290   1.2383356422e+02   8.4595654402e+00    0.5286681    0.4836825 -49.84   0.00324354    1.279    0.218
        17 -10.0124     83.4143    224.2339   1.3241760444e+02   1.6962000732e+01    0.2980525    0.1808587 -58.98   0.00155769    1.758    0.431
        18 -10.8355     94.8138    228.4169   1.3052082827e+02   1.4275460478e+01    0.4293118    0.3544048 -72.53  0.002606162    1.272    0.214
        19 -12.9708      4.7786    243.7830   1.4892896862e+02   2.2944490215e+01     1.616783     1.024546 -85.55   0.01080302    1.299    0.230
        20 -10.2613     78.7513    222.2507   1.3316819731e+02   1.8102551437e+01    0.3056262    0.2392431  68.05  0.001830319    1.099    0.090
        21 -10.9812     74.2692    217.9271   1.3361577314e+02   1.9717764846e+01    0.6279659    0.3868878 -68.51  0.003350045    1.598    0.374
        22 -10.2653    100.8071    228.1036   1.2921525471e+02   1.3365332881e+01    0.3374627     0.289141  -1.16  0.001945341    1.731    0.422
        23 -15.0401      6.6010    206.4602   1.4629794296e+02   3.0452096090e+01     19.43663     1.445863 -73.95   0.04697828    9.469    0.894
        24  -9.8282     66.9170    190.9613   1.3191794482e+02   2.6952055768e+01    0.4097193    0.2470608 -42.32  0.001912789    2.249    0.555
        25  -9.9753     72.0709    184.1639   1.2976794070e+02   2.7826118388e+01    0.3233849    0.2553288 -47.21 0.0004947699    1.460    0.315
        26  -9.4419     81.1016    172.7105   1.2579967275e+02   2.9232285247e+01    0.2770467    0.2508096  -8.12 0.0004869085    1.425    0.298
        27 -11.4581     68.5457    169.8488   1.2851321373e+02   3.1800257663e+01    0.5371202    0.3042271 -42.74  0.001494346    2.179    0.541
        28 -10.7544     86.6010    164.8219   1.2305817502e+02   3.0289246499e+01    0.6210088    0.5335653  73.04  0.003000084    1.153    0.132
        29 -10.1878     73.7228    156.1884   1.2492782957e+02   3.4402114666e+01    0.5357934    0.2705302 -79.11  0.001954851    2.903    0.656
        30 -11.4010     67.9863    144.5185   1.2439620706e+02   3.8094305800e+01    0.7941617    0.5398079  80.56  0.003385706    1.870    0.465
        31  -7.9876    208.6991    246.3293   1.0960190901e+02  -8.4229780248e+00     0.114555   0.09964231  62.68 0.0005759564    1.645    0.392
        32  -9.9843    125.3871    245.2107   1.2630509505e+02   5.8533074720e+00    0.2589349    0.1979951  73.95  0.001503794    1.412    0.292
        33  -9.1541    100.9647    148.0707   1.1602311371e+02   3.1949289492e+01    0.4812296    0.2882162 -34.80  0.001941553    2.167    0.539
        34 -10.3329     89.1036    147.8946   1.1921823413e+02   3.4035940816e+01    0.3100856    0.2653109 -36.09 0.0004851918    1.286    0.222
        35 -10.6849     58.2345    133.2272   1.2505151106e+02   4.2146705767e+01    0.5376266    0.2893109 -72.55  0.002324674    2.093    0.522
        36  -8.3410    110.3965    135.7560   1.1074887226e+02   3.3174401397e+01     0.220695    0.1405126 -41.83 0.0007264253    1.637    0.389
        37  -9.0152     98.5017    131.8926   1.1318290319e+02   3.6300719602e+01     0.301477    0.2429613 -24.01 0.0005633717    1.460    0.315
        38  -7.9525    107.9631    122.4930   1.0827543667e+02   3.6763146209e+01    0.2198615    0.1523219  39.08 0.0005183311    1.484    0.326
        39  -9.5607    167.8888    113.0143   9.0487031104e+01   2.5728992468e+01    0.3627737    0.2913374 -73.59 0.0006834543    1.431    0.301
        40 -10.7462    106.0964    242.9570   1.2995737530e+02   9.5007405580e+00    0.6460487    0.1454297  46.07   0.00213602    3.696    0.729
        41  -8.9216    194.3949    243.1732   1.1190403111e+02  -5.6193046195e+00    0.1661765    0.1257559 -52.29 0.0009568849    1.711    0.415
        42  -9.8212     59.0886    241.2005   1.3906163576e+02   1.6965768974e+01    0.3438701    0.1462651 -80.71  0.001552004    2.735    0.634
        43  -9.6535     32.8338     76.3233   1.2074261528e+02   5.7707362915e+01     1.097041   0.09987961 -56.37  0.002128291   12.257    0.918
        44  -9.2975     33.0000     56.1134   1.1496877838e+02   6.1568051328e+01    0.4535885   0.05998158 -50.82  0.001235766    6.755    0.852
        45  -8.2606    194.3117    249.6683   1.1297135790e+02  -6.6156452964e+00    0.1199507   0.09805743  62.93 0.0007043659    1.675    0.403
        46 -10.2211     83.3108    245.4409   1.3478712599e+02   1.2609175254e+01    0.4541704    0.2192407 -69.73  0.002247427    2.263    0.558
        47 -10.5875     94.4564    240.0422   1.3197641503e+02   1.1952274238e+01    0.4072362    0.2147058 -56.02  0.002043646    2.143    0.533
        48  -8.4887    120.3087    249.6532   1.2790240545e+02   5.8808903685e+00    0.1358144   0.08857338  67.71  0.000704427    1.704    0.413
        49  -9.1246    115.3321    248.4582   1.2875688761e+02   6.9294594638e+00    0.2082903    0.1210069 -60.65  0.001087205    1.978    0.495
        50  -9.6941     97.4879    249.1351   1.3239472058e+02   9.6914895342e+00    0.2925791    0.1307936  53.00  0.001356919    2.012    0.503
        51 -10.5855     52.2306    237.7578   1.4006255276e+02   1.8594170967e+01    0.3589289    0.2454028  58.39  0.001283041    1.210    0.174
        52  -9.7444     50.6075    232.7674   1.3993427109e+02   1.9841278165e+01    0.2604293    0.1742719 -80.93  0.001162622    1.367    0.269
