#   1 NUMBER                 Running object number                                     
#   2 MAG_AUTO               Kron-like elliptical aperture magnitude                    [mag]
#   3 X_IMAGE                Object position along x                                    [pixel]
#   4 Y_IMAGE                Object position along y                                    [pixel]
#   5 X_WORLD                Barycenter position along world x axis                     [deg]
#   6 Y_WORLD                Barycenter position along world y axis                     [deg]
#   7 A_WORLD                Profile RMS along major axis (world units)                 [deg]
#   8 B_WORLD                Profile RMS along minor axis (world units)                 [deg]
#   9 THETA_WORLD            Position angle (CCW/world-x)                               [deg]
#  10 FWHM_WORLD             FWHM assuming a gaussian core                              [deg]
#  11 ELONGATION             A_IMAGE/B_IMAGE                                           
#  12 ELLIPTICITY            1 - B_IMAGE/A_IMAGE                                       
         1 -14.1494    117.6220     76.1348   2.7883915344e+01   4.3735667223e+01     1.694005    0.8758969 -51.93  0.007494761    2.069    0.517
         2 -14.6657    245.8610     38.0943   3.2257661022e+00   2.4867713563e+01     1.835902    0.8927256 -52.21   0.01271029    1.466    0.318
         3 -13.6614    204.3740     61.0942   1.0647801439e+01   2.8734779453e+01     1.095816    0.5589925 -37.63   0.00616104    1.969    0.492
         4 -13.3236    184.6702     42.3240   8.8834268738e+00   3.4866303907e+01    0.7593821     0.507952 -50.97  0.004950419    1.317    0.240
         5 -14.5446    159.9712     59.5360   1.5740634583e+01   3.7445006625e+01     1.088157    0.9921266   8.10  0.007106955    1.604    0.377
         6 -14.1200    105.3773     77.7155   3.1393598521e+01   4.6046524067e+01     1.475759    0.8466127 -48.60  0.006828711    1.830    0.454
         7 -14.7843    240.7052     66.6214   8.3502596831e+00   2.2095037826e+01     1.780031    0.9582866  61.75   0.01196839    2.252    0.556
         8 -11.2386     12.7867     26.5141   5.2819396267e+01   7.1725598925e+01    0.3819853    0.1629593 -53.08  0.001774121    2.780    0.640
         9 -12.9610    246.6445      7.7900   3.5828250388e+02   2.8073729434e+01     0.586929    0.3929648 -54.07  0.004989644    1.180    0.153
        10  -9.9324     42.2564    215.2635   7.6011085610e+01   2.2585056969e+01    0.2128268    0.1134233  86.45 0.0008976397    2.424    0.587
        11 -11.7341     85.6564    208.2417   6.3264259249e+01   1.9293832694e+01    0.3381115    0.1891418 -81.33  0.001372062    2.724    0.633
        12 -11.7143     98.4068    205.1043   5.9438381094e+01   1.8387866075e+01    0.3097036    0.1475304 -71.60  0.001141869    3.183    0.686
        13 -10.5959    197.8287    204.3917   3.7452999610e+01   6.0893517650e+00    0.2043322    0.1578438 -63.17  0.001282715    1.861    0.463
        14 -12.1067    184.7876    202.9341   3.9578104876e+01   7.8134524775e+00    0.3743358    0.2987862 -55.14  0.002399456    1.510    0.338
        15 -11.0701    124.2065    197.9303   5.1801535137e+01   1.6537548685e+01     0.288384    0.2042864 -69.35   0.00144464    1.811    0.448
        16 -13.5955     88.7254    196.7737   6.0875638404e+01   2.1588554938e+01    0.6182006    0.4240445 -84.96  0.002886018    1.962    0.490
        17  -9.9497    140.3916    197.8222   4.7953565294e+01   1.4373321551e+01    0.2019958    0.1132448 -39.77 0.0009556885    1.755    0.430
        18 -10.5764     77.8052    213.3354   6.6022333737e+01   1.9076044875e+01    0.3522122    0.2031533  46.82  0.001609596    1.824    0.452
        19 -10.9534    246.3182    192.7531   2.8194999925e+01   2.9822335485e+00     0.232874    0.1973583 -85.85  0.001737732    2.206    0.547
        20 -10.7833    225.5668    193.4441   3.1244721951e+01   4.9132764123e+00    0.2337085    0.1822411 -37.81  0.001621394    1.163    0.140
        21 -12.5238    103.2969    192.7620   5.6336442262e+01   2.0562547827e+01    0.4028082    0.2885997 -87.37  0.001903853    1.976    0.494
        22 -13.0414     78.0272    191.2509   6.3112569340e+01   2.4320899775e+01     0.658886    0.4628089  82.08  0.003071289    1.882    0.469
        23 -11.2564     20.4170    189.7261   8.0187465913e+01   3.1055562280e+01    0.3344176    0.1468949  59.26  0.001267864    2.633    0.620
        24 -10.4965      3.6697    190.6584   8.5275727633e+01   3.2128896282e+01    0.1440654   0.09487014 -39.98 0.0006852799    1.746    0.427
        25 -11.7602     95.8626    188.7381   5.7731389260e+01   2.2531027750e+01    0.2801684    0.1942281  76.38   0.00125167    2.107    0.525
        26 -13.2186     85.6444    185.1653   6.0054604501e+01   2.4796385393e+01     0.740148    0.4284201  81.96  0.002663369    3.271    0.694
        27 -10.2414    165.3985    183.8051   4.0210463776e+01   1.3790195198e+01    0.1974464    0.1071246 -37.91 0.0009556099    1.754    0.430
        28 -10.8864    250.0000    183.9882   2.6393436194e+01   3.9174715350e+00    0.1792599   0.04558869 -43.58 0.0008047801    2.959    0.662
        29 -11.2824     94.9915    180.9818   5.6764686502e+01   2.4506391767e+01    0.2459352    0.1740075 -20.94  0.001100313    1.686    0.407
        30 -11.1166    129.7448    188.4569   4.8928833831e+01   1.7814162884e+01    0.4012162    0.1932377 -58.83  0.001651485    2.398    0.583
        31 -11.7847     12.3047    184.1158   8.2234003141e+01   3.3183325007e+01    0.4016476    0.1819922  64.07  0.001566787    2.542    0.607
        32 -11.9079     56.2018    168.6360   6.6586135494e+01   3.2869140942e+01    0.5082839     0.424059  41.72  0.002641024    1.168    0.144
        33  -9.6687    120.6542    169.6806   4.7953204905e+01   2.3323046463e+01    0.1526524    0.1090223 -15.56  0.000704922    1.728    0.421
        34 -10.8448    150.3764    168.9857   4.0778224452e+01   1.8908235428e+01    0.3585135    0.2325413 -52.18   0.00181824    1.531    0.347
        35 -11.9697    213.2647    161.8548   2.7984522681e+01   1.1439618602e+01     0.446546    0.2214577 -47.37  0.002430638    1.733    0.423
        36 -10.7853    222.6147    161.2015   2.6505210748e+01   1.0392078641e+01    0.1710864   0.08659469 -37.27 0.0009535082    1.676    0.403
        37 -11.5298    171.1230    158.1386   3.4520637674e+01   1.7940141932e+01    0.2384395    0.2152209 -33.88   0.00151184    1.009    0.009
        38 -11.5140    249.1026    150.1784   2.1278876293e+01   9.0185152773e+00    0.2736983    0.1449113 -46.37  0.001762281    1.468    0.319
        39 -10.2695     91.3226    151.6712   5.2759500036e+01   3.2228774452e+01    0.1576332    0.1161341  66.84 0.0005881243    1.694    0.410
        40 -13.8368    171.4826    125.5289   2.8176444875e+01   2.4082230987e+01     1.235861     1.041188 -63.75  0.007587783    1.172    0.147
        41 -12.0558    180.2056    132.4154   2.7995968677e+01   2.1362116966e+01     0.576502    0.4000003 -76.50   0.00302224    2.022    0.506
        42 -13.9312    183.5238    124.6426   2.5927823643e+01   2.2226137516e+01     1.142325    0.9230247  85.42  0.007013491    1.495    0.331
        43 -12.7292    185.9467    115.8299   2.3812520671e+01   2.3378075289e+01     0.798181    0.2841755 -46.98  0.003365662    2.475    0.596
        44 -13.3089    194.2154    130.2579   2.5286389134e+01   1.9528675675e+01     0.607727    0.5088836  82.33  0.003961053    1.450    0.310
        45 -10.6053     48.9876    137.9845   6.4326795054e+01   4.1905520763e+01    0.2361219    0.2349223  63.51  0.001230372    1.020    0.020
        46 -11.4175    207.1941    136.4390   2.4461236172e+01   1.6533311409e+01    0.2486373    0.1999186 -80.91  0.001626948    1.565    0.361
        47 -12.8845    153.6443    129.4464   3.2406176961e+01   2.6430186928e+01    0.7443823    0.5367408 -83.29  0.003700788    1.934    0.483
        48 -12.0151    145.7546    131.8817   3.4580013720e+01   2.7337305747e+01    0.6353332    0.4211359  63.61  0.003025549    1.954    0.488
        49 -11.1578     39.1691    131.8261   6.6949668340e+01   4.4727845158e+01    0.2198153    0.1737878 -29.77  0.001087189    1.350    0.259
        50 -10.9517    205.2779    130.6470   2.3694287550e+01   1.7788467992e+01    0.2092664    0.1692544 -64.67  0.001022512    1.280    0.219
        51 -10.7911    209.7176    119.1696   2.0980921794e+01   1.9029661665e+01    0.2859387    0.0896563 -42.02  0.001203501    2.740    0.635
        52 -11.9911    123.7362    107.9911   3.4387355804e+01   3.6371889589e+01    0.7018466    0.4801895 -12.07  0.002944849    2.647    0.622
        53 -12.1896    130.5633    113.7554   3.4079919932e+01   3.3865328862e+01    0.6353949    0.3170064 -44.66   0.00269414    2.008    0.502
        54 -13.1094    129.4205    102.3576   3.1701923808e+01   3.6377233059e+01     1.146881    0.4775722 -58.79  0.003847428    3.518    0.716
        55 -10.9123    239.6458    141.4331   2.1002399606e+01   1.1439999502e+01    0.2314666    0.1093157 -42.25  0.001354604    1.626    0.385
        56 -12.2159     74.3539    101.3875   4.7386146278e+01   4.7222896441e+01    0.4216682    0.3075817 -35.94  0.002023075    1.536    0.349
        57 -11.3146     78.1270    110.8432   4.8379384501e+01   4.4365945671e+01    0.3618733    0.2886603  61.14  0.001621579    1.383    0.277
        58 -12.0258     77.9176    105.2984   4.7116744323e+01   4.5694131768e+01    0.4299646    0.3144077 -36.93  0.002059519    1.519    0.342
        59 -14.1015    192.0247    138.0011   2.7079098710e+01   1.8502793009e+01     1.309102     0.853227 -55.44  0.007455479    1.500    0.333
        60 -11.5132    211.8683    101.3011   1.7420551896e+01   2.1552109497e+01    0.3023261    0.2585314 -57.00  0.002194259    1.064    0.060
        61 -12.2905    199.8310     93.2511   1.7411567062e+01   2.4777163150e+01    0.5762075     0.369678 -35.71  0.003394181    1.643    0.391
        62 -13.5053     96.1678     96.0198   3.8903281231e+01   4.4311207634e+01    0.9283463    0.7631416  60.35  0.004893798    1.236    0.191
        63 -12.8735    122.6496     63.3507   2.3318101783e+01   4.4808246102e+01    0.6630529    0.4499511 -51.29  0.003539338    1.510    0.338
        64 -13.7517    126.3816     86.7412   2.8591741505e+01   3.9974339119e+01     1.865098     0.931683 -29.36  0.006735661    3.528    0.717
        65 -10.6218    212.5889    247.1807   4.1182642416e+01  -2.0031228989e+00    0.1599007   0.07577056 -32.56 0.0009568868    1.733    0.423
        66 -14.8507     87.7449     81.7423   3.7649314731e+01   4.8905962743e+01      1.42157     1.208225 -44.10  0.007810313    1.261    0.207
        67 -13.6145     95.2469     70.4257   3.2138845264e+01   4.9510378162e+01     1.044728    0.5702855 -66.92  0.003938412    3.173    0.685
        68 -10.5517    250.1148     91.0041   1.1607393320e+01   1.7465722944e+01    0.2420277     0.124215 -27.98  0.001251648    3.212    0.689
        69 -13.6103     35.6915     86.5668   5.9304243334e+01   5.6639191082e+01     1.064863    0.4951138 -48.36   0.00440049    2.135    0.532
        70 -11.9778      4.3635     89.2558   7.4975457782e+01   5.8936322184e+01     0.512139    0.3604065  87.01  0.002643459    1.676    0.403
        71 -12.1338     50.4924     85.9586   5.2607847685e+01   5.4702266854e+01    0.3744161    0.2756768  65.36  0.001806518    1.749    0.428
        72 -12.2256     46.2822     81.6631   5.3266818202e+01   5.6306814009e+01    0.3542811    0.2765459 -88.71  0.001790518    1.704    0.413
        73 -12.2780     20.5178     85.3050   6.6236863387e+01   5.8636742582e+01    0.4496278    0.2534801 -29.96  0.001994243    1.975    0.494
        74 -13.3362     74.2848     79.1814   4.1428887203e+01   5.2048647482e+01    0.6042133     0.567288  69.19   0.00348425    1.107    0.097
        75 -12.3660    167.6179     77.5032   1.8668005395e+01   3.3161665771e+01     0.359275    0.2897315 -77.12  0.002248658    1.158    0.136
        76 -12.1550     23.5303     75.5301   6.2452044691e+01   6.0636795454e+01    0.4414875    0.1863579 -49.28  0.001804956    2.262    0.558
        77 -11.8403    156.8819    245.9364   5.1409576307e+01   3.3823116439e+00    0.2973034     0.142056 -37.63  0.001542585    2.011    0.503
        78 -10.7868    169.6310    241.7230   4.8260078216e+01   2.7933231980e+00    0.2705128    0.1607826 -15.64  0.001537735    1.693    0.409
        79 -12.2095     51.8691     71.3541   4.7874549329e+01   5.7653711255e+01    0.3644913    0.2548969 -78.81  0.001698697    2.151    0.535
        80 -12.1507     43.3356     70.0244   5.1273413307e+01   5.9281468566e+01    0.3927309    0.2779989 -43.14  0.002033301    1.482    0.325
        81 -10.4054    139.6002    242.7919   5.4666515268e+01   5.7549210550e+00    0.1584348    0.1224322 -61.60 0.0009568714    1.713    0.416
        82 -12.3370    132.1671     61.5823   2.0918935495e+01   4.3020007248e+01    0.4005947    0.2761494 -20.44  0.002005488    2.234    0.552
        83 -11.9383     37.6606     56.6670   4.9768955270e+01   6.2853420396e+01    0.2581398    0.1649497  11.94  0.001235506    1.831    0.454
        84 -14.2676     71.5511     57.4579   3.5685844404e+01   5.6692365596e+01     1.053155    0.7572207 -18.79  0.005305854    1.909    0.476
        85 -13.2644    127.7390     75.7104   2.5486848191e+01   4.1655854726e+01    0.9113584    0.4519613 -55.99  0.003880725    2.326    0.570
        86 -12.8281     25.6126     47.6806   5.3056226105e+01   6.6289676255e+01    0.7401502    0.4022842  15.47  0.003431929    2.031    0.508
        87 -11.2395     53.5471     52.7908   4.1104783289e+01   6.0947209546e+01    0.3011183    0.1332928 -56.12   0.00114287    3.300    0.697
        88 -12.9949     63.7455     51.7442   3.6623229468e+01   5.9215702000e+01    0.7488863     0.317593 -47.31  0.003089722    2.708    0.631
        89 -11.6951     44.6711     49.8708   4.4032762386e+01   6.3016808432e+01     0.246125    0.1740362  25.89  0.001087004    1.361    0.265
        90 -12.7403     62.4324     71.7530   4.3650788129e+01   5.5746262335e+01    0.5764588    0.2705397 -51.81  0.002373949    2.359    0.576
        91 -13.2665    149.4218     45.8198   1.4007169263e+01   4.1586678528e+01    0.4968475    0.2715906 -72.59  0.002388758    2.245    0.555
        92 -11.0598    153.6697    240.5173   5.1347754826e+01   4.6500240707e+00    0.2075454    0.1075457 -48.30 0.0008698077    1.989    0.497
        93 -11.8493     38.0166     36.8603   4.2323896411e+01   6.6365732656e+01    0.5083946    0.3011057  -8.46  0.002131891    3.160    0.684
        94 -10.1365    129.4936    237.3376   5.6205418574e+01   7.8792242814e+00    0.2449327     0.131568 -59.73  0.001191551    2.331    0.571
        95 -12.1702    133.8121     34.2718   1.3401616205e+01   4.6480568283e+01    0.2299804    0.2036061  71.88  0.001535661    1.174    0.148
        96 -10.9156     27.1915     30.6591   4.5575706410e+01   6.9090655908e+01    0.5731043    0.1721239 -35.78  0.001781846    5.683    0.824
        97 -12.7828    188.7800    233.3577   4.3422161228e+01   2.2542033431e+00    0.5388902    0.2827557 -57.20  0.002705601    2.908    0.656
        98 -10.4488    105.4853     33.5046   1.8335073061e+01   5.2925959823e+01    0.1305891    0.1116982  72.22 0.0003167725    1.018    0.018
        99 -10.0265    198.4069    215.2215   3.9015749021e+01   4.2301619108e+00    0.1553053    0.1011335 -49.38 0.0007159343    1.655    0.396
