#   1 NUMBER                 Running object number                                     
#   2 MAG_AUTO               Kron-like elliptical aperture magnitude                    [mag]
#   3 X_IMAGE                Object position along x                                    [pixel]
#   4 Y_IMAGE                Object position along y                                    [pixel]
#   5 X_WORLD                Barycenter position along world x axis                     [deg]
#   6 Y_WORLD                Barycenter position along world y axis                     [deg]
#   7 A_WORLD                Profile RMS along major axis (world units)                 [deg]
#   8 B_WORLD                Profile RMS along minor axis (world units)                 [deg]
#   9 THETA_WORLD            Position angle (CCW/world-x)                               [deg]
#  10 FWHM_WORLD             FWHM assuming a gaussian core                              [deg]
#  11 ELONGATION             A_IMAGE/B_IMAGE                                           
#  12 ELLIPTICITY            1 - B_IMAGE/A_IMAGE                                       
         1 -12.5821    198.8430     35.8578   4.9466889880e+01   3.0906850652e+01     1.201862    0.9889425  35.98  0.006493533    1.422    0.297
         2 -12.5271    210.3075     23.3046   4.4650765700e+01   2.9596026642e+01    0.9809597    0.7699922  22.62  0.004985934    1.708    0.415
         3 -10.3983     32.6478     18.1942   8.7592314416e+01   6.8884322004e+01    0.4070593   0.09873107 -42.09  0.001559379    3.557    0.719
         4  -9.4607    234.7319      1.5987   3.7061626666e+01   2.6157892571e+01    0.4855005    0.1426471  75.67  0.001860018    3.277    0.695
         5 -10.2437     24.0724      1.9127   8.3711648966e+01   7.2201598574e+01    0.4025387    0.1476063  40.67  0.001860931    3.717    0.731
         6 -10.6421     83.6604    225.1113   1.1607730579e+02   1.7671228786e+01    0.5280794    0.3511016 -63.89  0.003170561    1.669    0.401
         7  -9.3922     53.2289    240.7375   1.2290924613e+02   1.8879008250e+01    0.3241211    0.2331906  39.35  0.001844585    1.553    0.356
         8 -12.1794    144.2569    229.8290   1.0491871352e+02   7.3559519732e+00     1.121573    0.3722443  44.21  0.004687672    2.484    0.597
         9 -12.6317    112.7808    229.5911   1.1096435878e+02   1.2480424551e+01     1.866481    0.6468182  44.45  0.008261358    2.328    0.570
        10 -12.8043    129.1378    230.9155   1.0797285639e+02   9.6487392778e+00     1.474272     1.135053  35.00  0.009376938    1.276    0.216
        11 -13.2081     77.6071    248.6672   1.1926817917e+02   1.4322132770e+01     3.629533     1.070174  33.00   0.01144559    6.713    0.851
        12 -11.6737     15.8372    192.5861   1.2649071267e+02   3.2421990195e+01    0.6026807    0.2279415 -62.85   0.00245388    2.559    0.609
        13 -12.3479     44.5849    205.2515   1.2183997646e+02   2.6724945661e+01     1.736361    0.9110293 -46.84   0.00857125    3.212    0.689
        14 -12.5563     54.2411    195.1775   1.1901568270e+02   2.7647325142e+01     1.989296    0.9898345 -84.17   0.01008253    2.054    0.513
        15 -14.7242      7.1870    244.4684   1.3066273901e+02   2.3347216518e+01      1.94971     1.227408  48.99  0.003337621    1.424    0.298
        16 -15.4918      6.5357    207.5922   1.2908433855e+02   3.0252897453e+01     18.60573     1.077685 -76.97    0.0208386   12.325    0.919
        17  -9.6110     49.5518    218.9195   1.2197684288e+02   2.3398895136e+01    0.3454963    0.1851329  76.46  0.001149665    1.779    0.438
        18  -9.6526     95.3649    221.5944   1.1345357046e+02   1.6611607722e+01    0.3242806    0.2193673  39.75   0.00094166    1.425    0.298
        19 -10.1305    165.7826    219.9172   9.9318457279e+01   5.3321821118e+00    0.3959667    0.2499625  71.21  0.001797743    2.885    0.653
        20  -9.2075     73.1356    217.9462   1.1741116490e+02   2.0518116096e+01    0.2190231    0.1666077 -86.39 0.0008667121    1.254    0.203
        21  -7.4863     29.6478    210.7370   1.2508108448e+02   2.7310569265e+01   0.09356669   0.08574557 -57.59  0.000391142    1.617    0.381
        22  -8.9846     65.8432    206.0516   1.1770537777e+02   2.3879598133e+01    0.3781619    0.1516969 -66.52  0.001086845    2.436    0.590
        23  -8.6877    114.2592    200.6304   1.0702292659e+02   1.7680097895e+01    0.2296427     0.158094 -78.59  0.001226245    1.680    0.405
        24  -8.6970     49.9809    234.2832   1.2302739596e+02   2.0445137795e+01      0.19812    0.1118878  70.31 0.0005091899    1.512    0.339
        25  -9.0309    193.1912    193.7400   8.9483491992e+01   4.7408710030e+00    0.4245663    0.1985536 -51.36  0.001715629    2.990    0.666
        26  -8.2794     73.7834    188.1869   1.1412820449e+02   2.6549491405e+01    0.1988809    0.1449384  75.07 0.0006322023    1.261    0.207
        27  -8.1489     74.7605    231.4779   1.1833802936e+02   1.7739916983e+01    0.2307532   0.08661212  45.01  0.001136768    2.115    0.527
        28 -10.3963     69.2571    178.3548   1.1394624471e+02   2.9343690036e+01    0.4282646    0.2860542 -36.60  0.002168349    2.347    0.574
        29 -10.2467     73.5144    173.1839   1.1231682629e+02   2.9912826911e+01    0.3199595    0.2404617 -43.65 0.0009981509    1.693    0.409
        30  -8.0544     99.5361    180.4994   1.0737549997e+02   2.4316529810e+01    0.1347686    0.1236693  73.96 9.518603e-05    1.061    0.057
        31  -8.4279    115.2144    174.0169   1.0276286578e+02   2.3076573910e+01    0.1874282    0.1126811 -57.16 0.0008747319    1.715    0.417
        32  -9.5927    104.0194    172.6751   1.0514431597e+02   2.5297923327e+01    0.2556356     0.223431   6.53  0.001434852    1.524    0.344
        33 -11.8581     58.1107    129.7533   1.0972782297e+02   4.2215650369e+01     1.399531    0.4800662 -74.00  0.003991592    5.017    0.801
        34 -10.9798     82.6014    163.2091   1.0875765093e+02   3.0868659655e+01    0.5964623    0.4103591  71.42  0.001216734    1.542    0.352
        35 -10.7205     88.6994    156.7582   1.0624427877e+02   3.1427275286e+01    0.5675985    0.4310871 -26.47  0.001556289    1.902    0.474
        36 -11.8991     70.4923    159.1497   1.1109913900e+02   3.3567902599e+01    0.6149867    0.4724716 -35.28  0.001338709    1.754    0.430
        37 -11.9379     68.5545    144.3687   1.0933796670e+02   3.7333540059e+01    0.8905348     0.561225  79.89  0.003094423    1.912    0.477
        38  -9.0281    133.6800    142.1696   9.2200713906e+01   2.6668370974e+01    0.3163135    0.1380852 -56.21  0.001095109    2.644    0.622
        39 -10.0634     32.5927    163.9563   1.2065595172e+02   3.7015519791e+01    0.5097045    0.1183184 -71.02  0.001846435    3.613    0.723
        40  -9.2469    102.6262    141.3081   9.9892594952e+01   3.2741278057e+01    0.4950548    0.2860322 -32.46  0.001924509    2.677    0.626
        41 -10.5623     90.1625    141.2494   1.0313837966e+02   3.4852635231e+01    0.2774988    0.2496046 -44.44 0.0004873327    1.222    0.182
        42  -8.8806     84.4703    143.9975   1.0513027057e+02   3.5098839120e+01    0.3226624    0.2202762  81.06  0.001543599    1.754    0.430
        43 -10.1550     32.4609    156.9676   1.1997174793e+02   3.8629488136e+01    0.3198613    0.1702095 -70.01  0.001728991    1.574    0.365
        44 -10.1656     32.2732    131.6414   1.1703268478e+02   4.4588862105e+01     0.334768    0.1581032 -67.80  0.001651427    1.723    0.420
        45  -9.3463    112.2872    130.9421   9.5174373745e+01   3.3419391270e+01    0.3013012    0.2063644  21.35  0.001303135    1.985    0.496
        46  -8.2254    127.0000    129.0155   9.0898657318e+01   3.0988799768e+01    0.2593263   0.08632573 -48.79 0.0008056145    2.965    0.663
        47  -9.3695     99.0319    127.3254   9.7939178432e+01   3.6674732848e+01    0.2913605    0.2420843 -19.71   0.00120551    1.508    0.337
        48  -8.5074    105.8951    131.1449   9.6916725971e+01   3.4551667093e+01    0.2400319    0.1999291  84.04  0.001227631    1.312    0.238
        49 -10.8110     27.6760    121.6669   1.1693511255e+02   4.7377744474e+01     0.381694    0.1718607  28.57  0.001866714    2.610    0.617
        50  -8.1344    135.0000    120.0293   8.6668836293e+01   3.1348845085e+01    0.2570665   0.08787028 -46.23 0.0007663327    2.886    0.654
        51  -8.2772    107.9092    119.8668   9.3809435666e+01   3.6825301827e+01    0.2211963    0.1991957 -19.53 0.0003547886    1.260    0.206
        52  -8.2430     53.7252    230.8585   1.2211666858e+02   2.0612872087e+01     0.183393    0.1183946 -76.39 0.0009972091    1.537    0.349
        53  -7.8429    168.4624    112.9861   7.6818508361e+01   2.5332449046e+01     0.229685    0.1323624 -61.33 0.0008087226    2.533    0.605
        54  -8.4600    134.6140    112.7988   8.4914549986e+01   3.3032187921e+01    0.2295571    0.1454199 -55.13 0.0006723567    1.686    0.407
        55 -10.5347     32.7314    109.0374   1.1356173865e+02   4.9928775905e+01     0.481829    0.1435064 -68.47  0.001776388    3.029    0.670
        56 -10.1976     51.3764    108.8901   1.0789483325e+02   4.8045918604e+01    0.3163146    0.1992536 -73.59  0.001519478    1.565    0.361
        57  -9.9318    118.0631    107.6410   8.7952834106e+01   3.7653180882e+01    0.2941185    0.2521185  -5.60  0.001102876    1.388    0.280
        58  -8.8965    134.5936    105.9961   8.3106148855e+01   3.4524167030e+01    0.4523145    0.1366441 -35.04 0.0009603982    6.540    0.847
        59 -10.5994    121.9965    223.3893   1.0843150605e+02   1.2111633456e+01    0.5411938    0.4041487 -36.22  0.003178893    1.868    0.465
        60  -8.5749     41.6690     91.9792   1.0752260900e+02   5.3094337425e+01    0.1883328      0.14804 -58.03 0.0004212555    1.065    0.061
        61  -8.8641     35.0338    228.9037   1.2528878638e+02   2.3205730013e+01    0.2178018    0.1188021  49.29  0.001025179    1.500    0.333
        62  -7.9253     58.6682     67.3127   9.5192139129e+01   5.6648063281e+01    0.1282883    0.1066911  86.25   0.00070444    1.677    0.404
        63  -9.5332    148.1970     52.1129   6.3293794367e+01   4.1564494316e+01    0.4683931    0.3090682 -78.22   0.00108003    2.383    0.580
        64  -8.6274     32.7520     51.8760   1.0045067093e+02   6.2770481832e+01     0.295829   0.09597114 -56.34  0.001175596    2.848    0.649
        65 -11.8042    189.6104     42.5952   5.2709007501e+01   3.2355926675e+01    0.6055118    0.5342869  -9.93   0.00182697    1.295    0.228
        66 -11.6261     60.5778    248.9136   1.2221783464e+02   1.6525474104e+01    0.6775437    0.3584297  36.07  0.001091162    2.016    0.504
        67  -9.6978    164.4577    228.0248   1.0077601353e+02   4.2712697442e+00     0.170289    0.1268581 -45.72  0.001037409    1.615    0.381
        68  -8.8324    149.6799     45.5015   6.0783744744e+01   4.2193929603e+01    0.2666453    0.2275404 -63.79  0.001381903    1.300    0.231
        69  -9.2564     62.8520    237.3684   1.2097849235e+02   1.8259730871e+01    0.2194349    0.1369925  67.77 0.0004783001    1.330    0.248
        70  -8.5493     49.1537    224.8655   1.2249909208e+02   2.2303687915e+01    0.2076074    0.1445691 -78.05 0.0007692294    1.409    0.290
        71  -9.4885     79.0745    220.8387   1.1654111488e+02   1.9131657393e+01    0.6393386    0.1911818  36.61   0.00253315    3.401    0.706
        72 -10.5413     45.4130    220.7119   1.2287667992e+02   2.3552399125e+01    0.2437599    0.1737339  74.04 0.0006225079    1.092    0.084
        73 -11.4211     89.0189    228.1366   1.1535490157e+02   1.6336659910e+01    0.4993198    0.3104216 -58.85 0.0004766447    1.868    0.465
