#   1 NUMBER                 Running object number                                     
#   2 MAG_AUTO               Kron-like elliptical aperture magnitude                    [mag]
#   3 X_IMAGE                Object position along x                                    [pixel]
#   4 Y_IMAGE                Object position along y                                    [pixel]
#   5 X_WORLD                Barycenter position along world x axis                     [deg]
#   6 Y_WORLD                Barycenter position along world y axis                     [deg]
#   7 A_WORLD                Profile RMS along major axis (world units)                 [deg]
#   8 B_WORLD                Profile RMS along minor axis (world units)                 [deg]
#   9 THETA_WORLD            Position angle (CCW/world-x)                               [deg]
#  10 FWHM_WORLD             FWHM assuming a gaussian core                              [deg]
#  11 ELONGATION             A_IMAGE/B_IMAGE                                           
#  12 ELLIPTICITY            1 - B_IMAGE/A_IMAGE                                       
         1 -11.2579    217.3517     30.3994   6.6201889089e+01   2.7558351436e+01     3.341026     1.292013 -67.82  0.007976827    8.107    0.877
         2 -11.5020    225.0665     22.2138   6.3457971342e+01   2.6762454442e+01    0.7736439    0.6635267 -89.24  0.003040444    1.062    0.058
         3 -10.7275    233.6107     14.0327   6.0817051560e+01   2.5770818589e+01    0.3702846    0.3432199   6.92  0.000813139    1.549    0.354
         4  -7.5034    149.7123      9.6717   7.0065678491e+01   4.6242097354e+01     0.133835   0.08801217  36.48 0.0007012633    1.615    0.381
         5  -9.9443      2.0000    233.9620   1.5118598401e+02   2.5721213957e+01    0.3572723    0.1282648 -77.59  0.001755178    2.240    0.554
         6  -7.7574     74.5807    250.2730   1.4036588997e+02   1.3875526957e+01    0.1412584    0.1018416 -67.00 0.0009373043    1.563    0.360
         7  -7.7162    122.0000    238.4205   1.3044513575e+02   8.6703930297e+00    0.2432136     0.072145 -56.49 0.0009226108    3.837    0.739
         8  -8.1861     27.2498    230.3260   1.4686928489e+02   2.3759850525e+01    0.1662267    0.1354349  79.98 0.0004876092    1.216    0.178
         9 -11.7792     20.7144    216.2986   1.4699142789e+02   2.7273562754e+01    0.6512722    0.4130129  76.36  0.002749726    1.234    0.189
        10  -7.4685     47.3427    208.1619   1.4143010965e+02   2.5896646141e+01    0.1637837   0.09406392 -84.73 0.0002348749    1.564    0.361
        11 -10.0931    172.5692    205.2640   1.1527262496e+02   5.7057288555e+00    0.2482256    0.2211621  46.16  0.000260818    1.049    0.047
        12 -11.5473     37.3748    200.6858   1.4264226018e+02   2.8689296143e+01    0.6692569    0.5021034  32.11  0.002385155    1.774    0.436
        13 -11.0870     42.6850    193.0195   1.4084500110e+02   2.9733583478e+01    0.8396964    0.4702565  58.09  0.004703532    1.696    0.410
        14  -7.3623    173.5309    190.4991   1.1234877478e+02   8.3479415694e+00    0.1436018    0.1358991  45.72 1.941394e-05    1.019    0.019
        15 -10.2847     53.6384    184.7422   1.3766354678e+02   3.0234793148e+01    0.3649608    0.2393264  58.41  0.002101671    1.464    0.317
        16  -9.6016     55.0878    177.2670   1.3643839564e+02   3.1749012237e+01    0.3230579    0.1764143  36.03     0.001653    2.066    0.516
        17  -7.4043     48.3725    167.1931   1.3665324324e+02   3.4892414562e+01    0.1708185    0.1044492 -79.98 0.0002042937    1.485    0.326
        18  -8.1005      1.9415    155.3362   1.4561480998e+02   4.2036259815e+01    0.1521824    0.1240798 -83.13  0.000747133    1.120    0.107
        19  -6.9894    188.6747    154.6933   1.0168570270e+02   1.2404681291e+01    0.1545659    0.1207094   5.09 0.0005958892    1.649    0.393
        20  -8.6724    119.0620    150.0329   1.1668060392e+02   2.8009946021e+01    0.2163614    0.2034535 -75.52            0    1.017    0.017
        21  -7.4013      3.4996    149.5639   1.4471757272e+02   4.3198317956e+01    0.1168015   0.08750027 -81.76  5.17471e-05    1.018    0.017
        22  -8.0695     70.5280    145.5580   1.2804091152e+02   3.7123756859e+01    0.3202553    0.1780042 -89.80  0.001260188    2.836    0.647
        23  -8.0446     66.2632    143.0470   1.2868976600e+02   3.8303271524e+01    0.3591804    0.1605191 -68.01  0.001463325    2.298    0.565
        24  -8.6212    184.3240    142.1052   9.9723632191e+01   1.5944607975e+01    0.2585451    0.2181222  57.11 0.0003080075    1.228    0.186
        25 -10.2491    230.5897    135.3707   8.9154297150e+01   7.1756359922e+00    0.2646045    0.2539665  64.48 0.0004155334    1.136    0.120
        26  -8.7986    116.9801    134.9256   1.1392255514e+02   3.1918416718e+01    0.2173485    0.2045952 -72.73  0.001175078    1.020    0.019
        27  -7.7375    159.8297    125.8303   1.0123361719e+02   2.4912606965e+01    0.2132616    0.1838357 -79.70  0.000334669    1.290    0.225
        28  -8.4187    244.2604    125.3885   8.4588877013e+01   6.1628728143e+00    0.1834435    0.1383943  66.20  0.000527824    1.581    0.368
        29  -7.8550    177.1288    119.6396   9.5814611505e+01   2.2237368132e+01    0.2155364    0.1940409  50.85 0.0004068488    1.125    0.111
        30  -9.5876    248.4908    116.7279   8.1977743640e+01   6.8280004390e+00    0.2689489    0.2468841  47.15  0.000382603    1.217    0.178
        31  -8.1139    234.4453    116.2900   8.4115844196e+01   9.8455311791e+00    0.2327738    0.1748648  87.43 0.0005524246    1.731    0.422
        32  -7.6822    181.5083    115.0101   9.3711316254e+01   2.2155954029e+01    0.2083556    0.1315485 -65.12 0.0004103992    2.151    0.535
        33  -7.9960    168.0029    113.9603   9.6369934009e+01   2.5536718799e+01     0.256248    0.1953142 -86.47  0.001127487    1.710    0.415
        34  -7.5572     19.9994    112.5333   1.3589172199e+02   5.0270915376e+01    0.1505176    0.1194114  33.73 0.0007658836    1.561    0.359
        35  -9.1644    243.9468     93.9937   7.7513423199e+01   1.1721672882e+01    0.2276199    0.2039533 -52.24  0.001322771    1.022    0.021
        36  -7.2611    202.8484     94.3935   8.4273382527e+01   2.1052140884e+01    0.1946016    0.1398546  44.08 0.0003111459    1.513    0.339
        37  -9.4322    187.0051     93.2240   8.6956445971e+01   2.5084588924e+01    0.4476545     0.230077 -53.59  0.001670355    2.272    0.560
        38  -8.1596    151.0122     92.2842   9.4441382005e+01   3.3881712159e+01    0.2760656    0.2191906  -6.52 0.0008605059    1.597    0.374
        39  -7.5994    136.0710     91.1584   9.7750598310e+01   3.7502754198e+01    0.2046756    0.1792471  85.75 0.0005006675    1.316    0.240
        40 -10.1742    242.0057     86.1042   7.5988026240e+01   1.3478073939e+01    0.5315515    0.3107169 -72.40  0.002219158    2.463    0.594
        41  -8.7790    144.7917     80.6501   9.2593785281e+01   3.7538953643e+01    0.3434355    0.2512341 -48.23 0.0008267637    1.417    0.295
        42  -9.4172    164.0202     80.2797   8.8147940812e+01   3.3047467182e+01    0.3343867    0.2699269  13.13 0.0009870317    1.562    0.360
        43  -7.9398    149.1685     74.9072   8.9895957818e+01   3.7556796276e+01    0.2110763    0.1974857 -76.39  0.000243655    1.133    0.118
        44  -7.1786    111.2229     74.6351   9.9433273599e+01   4.5933421752e+01     0.139815    0.1098007 -62.99 0.0006865787    1.578    0.366
        45  -8.6213    186.8695     72.3075   8.1421970830e+01   2.8837051627e+01    0.2394647    0.2117454 -31.80 0.0003611335    1.207    0.172
        46 -11.0292    177.0407     65.9071   8.1502099208e+01   3.2324732894e+01    0.8889161    0.6632357 -75.85  0.004263037    1.591    0.372
        47 -10.1911    160.2319     69.1117   8.5771351913e+01   3.5913627673e+01    0.3700247    0.2845839 -20.54 0.0009236424    1.496    0.331
        48  -8.0144    238.3539     69.6788   7.2719795218e+01   1.6976903138e+01    0.1512011   0.09669653 -69.38  0.000704685    1.754    0.430
        49  -9.8151    242.1964     60.5841   7.0160438866e+01   1.7530910954e+01    0.2389571    0.2297879 -59.07 0.0003743617    1.192    0.161
        50  -9.1723    246.8234     56.1086   6.8609462347e+01   1.7177360976e+01    0.3151931    0.2092573  45.67   0.00114707    1.944    0.486
        51  -8.6223    127.9905     59.1209   9.0146494134e+01   4.5078378824e+01    0.2198415     0.196613 -25.13 0.0002789389    1.138    0.121
        52  -9.3194    233.4196     57.9583   7.0662489494e+01   1.9921852257e+01    0.3643841   0.09735074 -41.88  0.001242074    3.197    0.687
        53  -8.9707    186.5078     58.3604   7.7731380094e+01   3.1175704723e+01     0.260795    0.2366023  71.74 0.0007536163    1.051    0.049
        54  -9.4081    162.3489     54.2030   8.1009978089e+01   3.7775091104e+01    0.3061431    0.1688213  65.78  0.001285213    1.932    0.482
        55 -11.1582    179.9067     46.0563   7.5501394165e+01   3.4625514592e+01    0.5672235    0.4095985   1.30  0.001883907    2.017    0.504
        56  -9.5589    197.3631     48.0840   7.3259435048e+01   3.0017497097e+01    0.2882109    0.2568528  33.24 0.0006156862    1.334    0.250
        57 -10.3616    226.8909     44.1571   6.8279201625e+01   2.3455951404e+01    0.8431812    0.3159845 -57.33  0.002843149    3.708    0.730
        58  -7.6816    131.0003    243.5314   1.2938113881e+02   6.2478278575e+00    0.1797994   0.08840998  59.77 0.0004058932    2.325    0.570
        59  -7.5428    117.1239    242.8347   1.3190619518e+02   8.6808853329e+00    0.1479602    0.1441263  57.31  0.000498502    1.301    0.231
        60  -9.9725      2.4206    237.7762   1.5132372839e+02   2.4962871033e+01    0.4200499    0.2054763 -69.04  0.002437369    1.954    0.488
        61 -10.4437    152.6750     44.4925   8.0052922764e+01   4.1523949175e+01    0.7252684    0.3557358  81.22  0.002061947    5.239    0.809
        62  -9.4487    204.0597     42.3771   7.0828022010e+01   2.9176276405e+01    0.3427306    0.2545332  36.61  0.001053004    1.708    0.415
        63  -7.4694    101.6755     41.2752   9.1142270507e+01   5.3278782890e+01    0.1224847    0.1079696 -85.61 0.0006985257    1.582    0.368
        64  -7.5237    155.6636     38.7570   7.7744747290e+01   4.1572519236e+01    0.1889327    0.1250172 -41.21 0.0009293297    1.615    0.381
        65 -10.4720    138.4245     36.0628   8.0383173782e+01   4.6017145461e+01    0.3209915    0.2460287  38.69  0.000430285    1.264    0.209
        66  -8.7686    149.3827     31.7347   7.6821045977e+01   4.3967152633e+01    0.2221222    0.1751006  -9.32 0.0005316996    1.482    0.325
        67  -7.3653    189.2997     19.6733   6.7043258986e+01   3.5633362843e+01    0.1391292   0.09226234 -69.24 0.0007028774    1.636    0.389
