#   1 NUMBER                 Running object number                                     
#   2 MAG_AUTO               Kron-like elliptical aperture magnitude                    [mag]
#   3 X_IMAGE                Object position along x                                    [pixel]
#   4 Y_IMAGE                Object position along y                                    [pixel]
#   5 X_WORLD                Barycenter position along world x axis                     [deg]
#   6 Y_WORLD                Barycenter position along world y axis                     [deg]
#   7 A_WORLD                Profile RMS along major axis (world units)                 [deg]
#   8 B_WORLD                Profile RMS along minor axis (world units)                 [deg]
#   9 THETA_WORLD            Position angle (CCW/world-x)                               [deg]
#  10 FWHM_WORLD             FWHM assuming a gaussian core                              [deg]
#  11 ELONGATION             A_IMAGE/B_IMAGE                                           
#  12 ELLIPTICITY            1 - B_IMAGE/A_IMAGE                                       
         1 -16.8150    140.5885    102.9440   7.7936840907e+01   3.3883776495e+01     6.089831     3.624838 -51.44    0.0215913    1.774    0.436
         2 -14.4135    184.9525    110.6324   6.9786858548e+01   2.2027527528e+01     1.784656     1.144047  18.74  0.006808707    2.517    0.603
         3 -15.5742     26.5810     71.5840   1.0621693474e+02   5.9242682976e+01     2.428425     1.776317 -45.55   0.01480513    1.135    0.119
         4 -13.9438     82.6159     49.3938   7.7965573743e+01   5.6472148251e+01     1.290285    0.9439026 -44.79  0.005568268    1.452    0.311
         5 -14.7977     70.7555     44.7733   8.0461214609e+01   5.9316388131e+01     2.568222     1.382743 -48.36   0.01183482    2.109    0.526
         6 -14.4648     55.5565     47.7744   8.7462549929e+01   6.1060236301e+01     1.589439     1.135037 -25.71  0.009065508    1.291    0.225
         7 -13.1656      2.6160     51.7936   1.1121216782e+02   6.5019156586e+01     1.510064    0.2634419 -65.51  0.004856649    5.073    0.803
         8 -13.5958      9.9756     47.2884   1.0687504226e+02   6.5564624880e+01     1.318349    0.6414309 -60.46  0.006215544    1.743    0.426
         9 -14.7621     17.8693     11.4586   8.9888752839e+01   7.1500294741e+01     1.571264     1.091516  -3.64  0.007518098    1.281    0.219
        10 -14.1678    189.4627      8.6239   4.0921504308e+01   3.6608800565e+01     2.389997    0.8941711  59.20  0.009950297    2.364    0.577
        11 -13.2863    164.0070      5.5588   4.3145332433e+01   4.3295266195e+01     1.412108    0.8050342  76.18  0.006897208    1.644    0.392
        12 -12.0010     64.7689      8.4566   6.6924958186e+01   6.5514486817e+01    0.5365988    0.4353182 -17.04  0.003460659    1.244    0.196
        13 -12.3515     55.5346     11.5305   7.1987836565e+01   6.6710934052e+01    0.5332842     0.402961   8.74  0.003066957    1.140    0.123
        14 -12.9191     55.8899      4.3605   6.8276582378e+01   6.7481518420e+01    0.8078762    0.4714121  31.51  0.004579692    1.541    0.351
        15 -11.3063     88.3016      3.1105   5.6899218007e+01   6.1482387076e+01    0.3647002    0.2282395  33.85  0.002014512    1.438    0.304
        16 -10.8962    142.2010    190.7990   9.6879558801e+01   1.4438608437e+01     0.330279     0.168567 -28.45  0.001086392    4.242    0.764
        17 -11.4630    239.7113    244.6847   8.6695653854e+01  -1.0072783862e+01    0.4438164    0.2567058  43.65  0.002624519    2.038    0.509
        18 -10.7053     13.2151    188.0881   1.2506848069e+02   3.3307241124e+01    0.2956136    0.1392886  89.26  0.001602151    1.845    0.458
        19 -11.4437      8.8187    186.3414   1.2584560605e+02   3.4077271526e+01    0.4132408    0.2296863 -64.60  0.002514233    1.758    0.431
        20 -11.4739    140.2299    175.0187   9.4532034423e+01   1.8069814281e+01    0.3459027    0.2287243 -25.03  0.001502048    2.206    0.547
        21 -11.5834    151.4360    211.4687   9.8241079686e+01   8.8392088759e+00    0.5054339    0.3382713 -36.54  0.002670873    1.806    0.446
        22 -10.8889     96.6924    172.9334   1.0451744723e+02   2.6259718187e+01    0.2325548    0.1982748  30.00 0.0007205678    1.330    0.248
        23 -11.8303    134.6532    168.8698   9.4688328944e+01   2.0451493595e+01    0.4849667    0.1997018  48.27  0.001758789    2.491    0.599
        24 -11.8127    147.2913    209.8373   9.8857419325e+01   9.8590967611e+00    0.3951643    0.3503888 -67.72  0.002338557    1.301    0.231
        25 -10.7338    207.1366    166.1614   7.8287609518e+01   6.7407296936e+00    0.2258203     0.186273   9.99 0.0008136507    1.219    0.180
        26 -10.5566     91.0397    164.0227   1.0448746308e+02   2.9237917476e+01    0.2354865    0.1603187  77.79 0.0008069075    1.722    0.419
        27  -9.6968    219.3379    160.6750   7.4778015959e+01   5.3772219323e+00    0.1352772    0.1145139 -77.71 0.0007051334    1.722    0.419
        28 -11.7448    116.1011    157.4276   9.7036543430e+01   2.6491017458e+01    0.4481369    0.2669996  74.01  0.001662442    2.839    0.648
        29 -12.5814     20.1568    153.6736   1.2077210536e+02   4.0442921662e+01     0.667942    0.6294175 -87.71  0.003919832    1.246    0.197
        30 -10.2650    100.6969    157.7449   1.0098622672e+02   2.9130709543e+01     0.235989    0.1051636  48.82 0.0008965665    2.343    0.573
        31 -10.9531    188.5098    154.4982   7.9552959752e+01   1.2612920743e+01    0.2752152    0.1348897  34.10  0.001036851    2.343    0.573
        32 -10.9751    198.9680    149.9890   7.6397128805e+01   1.1326489848e+01    0.2340681    0.2203425 -11.88  0.001269426    1.016    0.016
        33 -14.6360    134.6867    116.6561   8.3111366476e+01   3.2184399523e+01     1.989054     1.075965 -49.22  0.007850307    1.855    0.461
        34 -15.5851    148.1163    130.2626   8.3110400641e+01   2.6266620618e+01     1.919569     1.861844 -40.29  0.007850219    1.032    0.031
        35 -11.6884    186.1780    248.4530   9.6885535029e+01  -2.7297523258e+00    0.4255742     0.199484  36.76  0.002235141    1.718    0.418
        36 -13.8636    188.7308    116.2290   7.0439091954e+01   2.0067019184e+01     1.529988    0.8385633  26.91  0.005252728    3.045    0.672
        37 -10.1560    200.3783    239.0482   9.2858412215e+01  -3.6415446682e+00    0.2490035    0.1152005 -39.20  0.001265628    2.508    0.601
        38 -13.5615     46.8671     81.8479   1.0121241525e+02   5.5009173948e+01    0.8946715    0.7343546  36.75  0.005166483    1.411    0.291
        39 -10.5051    182.0139    238.9879   9.6302833936e+01  -7.5246860501e-01    0.1918398    0.1453565  61.03  0.001151723    1.767    0.434
        40  -9.4414     85.7214    108.6677   9.4975377109e+01   4.3415419909e+01    0.1494114    0.1103567 -27.36 0.0003268107    1.605    0.377
        41 -10.3105    103.1987    107.6823   8.9500732114e+01   4.0587825928e+01    0.3351494    0.1428298  37.52  0.001198993    2.537    0.606
        42 -11.8230    174.2972    105.7006   7.0747404554e+01   2.5489661109e+01    0.4136742    0.2865843  76.86  0.001470645    2.017    0.504
        43 -12.4928    172.8776     98.0140   6.8984370714e+01   2.7337703131e+01    0.4086621    0.3135574 -10.63  0.001847276    1.637    0.389
        44 -12.6380    176.0675    138.9344   7.8686017768e+01   1.8343449190e+01    0.5342889    0.3145921 -38.24  0.002186175    1.719    0.418
        45 -14.9837     36.5825    107.4596   1.1011034689e+02   5.0037726975e+01     2.356215     1.570284  52.39   0.01290834    1.762    0.432
        46 -13.0583    181.9298     87.9966   6.4364928151e+01   2.7049662349e+01    0.6311247     0.401149  48.05  0.002758804    1.612    0.380
        47 -12.1306      6.5902     84.4272   1.1604389813e+02   5.7664035235e+01    0.4859143    0.1773389 -66.87  0.001965557    2.069    0.517
        48 -13.3442    106.0812    142.1003   9.6599498075e+01   3.1905953229e+01    0.8132916    0.6959844  37.62  0.002985656    1.226    0.185
        49 -10.0225     21.5008    133.0495   1.1823403543e+02   4.5207836733e+01    0.2002622    0.1023919 -71.75  0.000854148    1.584    0.369
        50 -11.5583    169.0065     84.2821   6.5982909186e+01   3.0891019868e+01    0.2911996    0.2472765  60.35   0.00100607    1.199    0.166
        51  -9.9086     89.8441     83.6926   8.6977206811e+01   4.8419839779e+01    0.2720955    0.1841954 -38.33   0.00103783    1.434    0.303
        52 -11.5778    182.7243    129.5694   7.5003812359e+01   1.8779859783e+01      0.26101    0.2487674  -5.32 0.0007157853    1.051    0.049
        53 -11.6359     93.6739     74.2350   8.2839855996e+01   4.9722243171e+01    0.6745609    0.6017512 -25.27  0.003731461    1.070    0.065
        54 -12.7122    104.5596     76.1899   8.0058995881e+01   4.7221658792e+01    0.8471822    0.6868511  35.12  0.004356855    1.263    0.208
        55 -12.6682    104.7767     69.3480   7.7782730179e+01   4.8535416498e+01    0.9919499    0.6519825  68.12   0.00413776    2.373    0.579
        56 -11.3818     98.7974     69.4362   7.9658741155e+01   4.9709323710e+01    0.4975352    0.3723934  61.16  0.001805443    1.678    0.404
        57 -12.7713    176.9431     71.8249   6.0802209333e+01   3.1155636908e+01    0.6756475    0.3763047 -50.19  0.002733153    1.944    0.486
        58 -12.0317    183.5189     69.6065   5.8931302845e+01   2.9893104250e+01    0.5785031    0.3865826   3.15  0.002304702    2.507    0.601
        59 -12.4788    177.1892     64.9159   5.8764691452e+01   3.2254243080e+01    0.9130751    0.3928846  60.43  0.003326309    2.398    0.583
        60 -12.5197    107.0490    148.0027   9.7526101054e+01   3.0331121980e+01    0.6297652    0.3776496  25.54  0.002619073    2.195    0.544
        61 -10.2214    221.4244     71.7809   5.3332185150e+01   2.0377524840e+01    0.1991868    0.1356521 -23.90 0.0009456288    1.645    0.392
        62  -9.5685    102.8907    127.8431   9.4426108135e+01   3.5884101080e+01    0.2077691    0.1753344  89.38 0.0005864584    1.301    0.232
        63 -11.4286    205.4590    229.6182   9.0424720343e+01  -3.1331058814e+00    0.3777862    0.2127418  25.99  0.002019736    1.661    0.398
        64 -12.0878     11.5140    229.6316   1.2773949238e+02   2.5036701667e+01    0.4232681    0.1769264  54.46  0.002543209    1.815    0.449
        65 -11.4725     16.1489    228.8614   1.2690118255e+02   2.4718329884e+01    0.3785432    0.1609728  75.13  0.002101951    2.123    0.529
        66 -11.2190    212.7450    227.6545   8.8747378257e+01  -3.9994099573e+00    0.3181294    0.1255315  29.42  0.001348048    2.662    0.624
        67 -10.8873    223.8977    219.8058   8.5369616223e+01  -4.6471301150e+00    0.2680899    0.1575622 -44.08   0.00144156    2.158    0.537
        68 -10.4726    250.7175     62.8269   4.7432800011e+01   1.5263699514e+01    0.4091488    0.1259019 -33.37  0.001479325    3.026    0.669
        69 -12.0289    249.6253     49.4577   4.4520629150e+01   1.7408954128e+01     1.040002    0.3184763 -30.41  0.003650302    3.541    0.718
        70 -14.1459     49.7388     95.0485   1.0333862477e+02   5.1632931084e+01     1.439619     1.082825  61.26  0.007925079    1.650    0.394
        71 -11.2840    193.8990     55.5431   5.3226784762e+01   2.9546243350e+01    0.3687291    0.2555417 -76.52  0.001713289    1.714    0.417
        72  -9.8224    201.3416     55.2905   5.2010406926e+01   2.7740732262e+01    0.1447185    0.1112212  30.68 0.0004321487    1.650    0.394
        73 -12.1315    171.2052    125.8109   7.6599790329e+01   2.2116560101e+01    0.5595679     0.287895  57.74  0.002032416    2.413    0.586
        74 -11.4000    126.8758     43.1809   6.2625458100e+01   4.8112747132e+01    0.4320619    0.3760167  29.71  0.002368966    1.131    0.116
        75 -10.5068    123.2346     40.6089   6.2616886013e+01   4.9343690555e+01     0.367404    0.2980864  29.97  0.001441199    1.234    0.190
        76 -14.5801     94.2519    191.9799   1.0785617569e+02   2.2390032319e+01     1.908867     1.169952 -84.88  0.009224675    1.971    0.493
        77 -15.3177     70.4397    197.6146   1.1382350028e+02   2.4669307471e+01     3.046571     1.324699  54.62   0.01365941    2.279    0.561
        78  -9.7768      1.9693    205.4740   1.2824506362e+02   3.0674662734e+01    0.1603255   0.05244739  54.56 0.0008090214    2.457    0.593
        79 -10.4374    123.3908    194.5046   1.0167129303e+02   1.7031714928e+01    0.3069186    0.1808314  51.22  0.001460988    1.627    0.385
        80 -10.6620    192.7012    192.9079   8.6512481740e+01   4.7452917203e+00    0.3265486    0.1673876 -46.77  0.001452749    2.230    0.552
        81 -14.4967     73.1244    182.5728   1.1145413058e+02   2.7628224464e+01     1.548277    0.9267755  44.51  0.007494964    1.578    0.366
