#   1 NUMBER                 Running object number                                     
#   2 MAG_AUTO               Kron-like elliptical aperture magnitude                    [mag]
#   3 X_IMAGE                Object position along x                                    [pixel]
#   4 Y_IMAGE                Object position along y                                    [pixel]
#   5 X_WORLD                Barycenter position along world x axis                     [deg]
#   6 Y_WORLD                Barycenter position along world y axis                     [deg]
#   7 A_WORLD                Profile RMS along major axis (world units)                 [deg]
#   8 B_WORLD                Profile RMS along minor axis (world units)                 [deg]
#   9 THETA_WORLD            Position angle (CCW/world-x)                               [deg]
#  10 FWHM_WORLD             FWHM assuming a gaussian core                              [deg]
#  11 ELONGATION             A_IMAGE/B_IMAGE                                           
#  12 ELLIPTICITY            1 - B_IMAGE/A_IMAGE                                       
         1 -10.6544    222.9334     16.9251   2.1105627397e+01   2.7521541265e+01    0.5631755    0.3671997 -73.95  0.002980858    1.532    0.347
         2 -10.1755    228.1555     12.3784   1.9692599780e+01   2.6889859731e+01    0.5458341    0.2647811 -33.04  0.002463618    1.627    0.385
         3 -10.5828    222.4681     10.9774   1.9648652742e+01   2.8208055587e+01    0.4902264    0.4336493  45.67   0.00333681    1.463    0.316
         4  -9.3852    120.1784      8.8799   2.8213536811e+01   5.3925656351e+01    0.4653851    0.3141267  50.75  0.001939991    1.503    0.335
         5  -8.6810    191.0114      6.5126   2.0303347517e+01   3.5697484340e+01    0.2297283    0.1767207 -30.28 0.0003422568    1.260    0.207
         6  -8.9865    128.9853    218.4357   8.0973304470e+01   1.3955943905e+01    0.1887091    0.1659683  80.77 0.0006558554    1.568    0.362
         7 -17.7443     15.0524    233.4143   1.0667512919e+02   2.4447369678e+01     3.178177      2.96381 -52.36   0.02621457    1.548    0.354
         8  -8.5365    153.6869    217.1442   7.5783716098e+01   1.0853290470e+01    0.2494659    0.1397493  41.34  0.001203522    1.723    0.419
         9  -7.0397    173.6581    215.6789   7.1741229662e+01   8.4217430545e+00    0.1216501   0.07589035   4.03 0.0007050196    1.722    0.419
        10  -8.5837    152.7866    243.4594   7.9207972941e+01   7.3996704780e+00    0.1632539    0.1389512  -8.61 0.0001855276    1.303    0.233
        11  -9.8699    134.1887    210.6235   7.8903043144e+01   1.4483694120e+01    0.2563677    0.1907531 -20.58   0.00160999    1.577    0.366
        12 -10.6719    119.5175    234.8295   8.4760498770e+01   1.2676379929e+01    0.3771071    0.2552637  26.89 0.0006515521    1.169    0.144
        13  -7.9009     87.4797    207.1210   8.8868190719e+01   2.1392540641e+01    0.1523086    0.1243782 -65.89 0.0002795722    1.470    0.320
        14  -8.4521     89.1976    211.7041   8.8932829381e+01   2.0333526880e+01    0.2099461    0.1236112  45.30  0.001182474    1.454    0.312
        15  -9.4220    118.7063    242.6068   8.5706540581e+01   1.1641697987e+01    0.3065111    0.2361516 -25.79  0.002214978    1.636    0.389
        16  -8.9025    101.5055    203.2805   8.5209679426e+01   2.0235695365e+01    0.3006115    0.1926622 -27.17  0.001568592    2.296    0.564
        17  -7.4178    248.4748    202.4369   5.7357612996e+01   8.9372241375e-01    0.1044746   0.07584485  -1.70 7.166646e-05    1.048    0.046
        18  -7.2695    166.5053    202.4466   7.1177883633e+01   1.1237455434e+01     0.122079    0.0983488  15.66 0.0001394564    1.010    0.010
        19  -8.2795     90.1494    201.6600   8.7673796622e+01   2.2063614369e+01    0.1947061    0.1634753  71.12 0.0006014459    1.308    0.236
        20  -7.4635    181.3435    242.2664   7.3887868861e+01   4.1709802219e+00    0.1157969   0.09643486 -28.79 0.0003474957    1.560    0.359
        21  -8.2335     81.4095    195.2410   8.9082896869e+01   2.4459915745e+01    0.4108473   0.09629995  40.29  0.001475767    3.148    0.682
        22  -7.5489     98.2246    192.9989   8.4761045005e+01   2.2613615956e+01     0.178824    0.1410797  55.75 0.0006904755    1.274    0.215
        23  -7.7905     97.2193    189.4259   8.4563401615e+01   2.3448444289e+01    0.2086259    0.1758342  83.76 0.0006698738    1.378    0.274
        24  -8.5704    105.0135    187.2282   8.2395599969e+01   2.2758269757e+01    0.2698274    0.1767487 -66.19 0.0003844374    1.874    0.466
        25 -11.4377    124.4857    228.8781   8.3110343276e+01   1.2940218532e+01    0.8102362    0.4895411 -73.85  0.004438668    3.035    0.671
        26  -7.1363    162.6416    244.7126   7.7531700066e+01   6.0693716614e+00     0.112573    0.0677667   8.36 0.0005975341    1.681    0.405
        27  -8.8281    185.6213    227.9964   7.1273694550e+01   5.3484735114e+00    0.3186158    0.1037755 -42.66  0.001518107    3.763    0.734
        28 -10.2094    140.6457    228.5502   7.9810079351e+01   1.0919494878e+01     0.305521    0.2464971  53.74   0.00214035    1.574    0.365
        29  -9.1980     88.3308    180.9660   8.5716136272e+01   2.6410199638e+01     0.309058    0.2057356 -23.07  0.001495829    2.309    0.567
        30  -7.8116    180.0325    174.6877   6.3999539437e+01   1.3408146067e+01     0.177962    0.1464038  15.38 0.0005958363    1.064    0.060
        31  -8.3127    103.5778    173.5777   8.0846967977e+01   2.5692638442e+01    0.3425212    0.2403282 -87.24  0.001737997    1.957    0.489
        32  -9.4040    134.3086    230.1232   8.1258997651e+01   1.1502592691e+01    0.1673903    0.1312174  -9.42 0.0005865547    1.429    0.300
        33  -9.6024    114.1354    226.3764   8.4987039908e+01   1.4648849626e+01    0.2369828    0.1805149  20.49 0.0007145076    1.188    0.158
        34  -8.1062     94.8641    174.1133   8.3142909133e+01   2.6892857412e+01    0.2162196    0.1667422  50.93  0.001190761    1.224    0.183
        35  -9.6607    154.2039    170.3371   6.8455393970e+01   1.8208638427e+01    0.2262581    0.2009668   7.37 0.0002332555    1.041    0.040
        36  -8.1629    160.0173    167.7748   6.6763804492e+01   1.7699588338e+01     0.242969    0.1653233  18.28 0.0008616984    1.535    0.348
        37  -8.5765    190.7629    166.4664   6.0495685870e+01   1.2990886347e+01    0.3286888    0.2272128  51.24  0.001841804    1.909    0.476
        38  -9.2521    117.5307    225.9941   8.4234576901e+01   1.4273686936e+01    0.2073853    0.1696877 -40.33  0.001052237    1.512    0.339
        39  -8.5385     97.5059    162.2490   8.0714582524e+01   2.9020406343e+01      0.22675    0.1899466  30.48 0.0002184339    1.143    0.125
        40  -8.1254     35.3147    163.4752   9.8314026491e+01   3.6952096571e+01    0.2266749    0.1274538  19.79 0.0008916999    1.953    0.488
        41  -8.0907    159.3334    161.3540   6.5720537978e+01   1.8915976794e+01    0.2138041    0.1506404   0.98 0.0009275266    1.706    0.414
        42  -9.6851    143.7154    222.4847   7.8457776397e+01   1.1397195183e+01    0.2935141    0.1859905  22.59 0.0009828198    1.340    0.254
        43  -7.8044    137.0432    157.1872   6.9906844393e+01   2.3492116583e+01    0.2296092    0.1506135  58.10  0.001074186    1.965    0.491
        44  -9.1198    109.8500    223.2981   8.5568468936e+01   1.5689815309e+01    0.2039772    0.1179124  42.44  0.001185272    1.479    0.324
        45  -9.5190     41.7743    154.6273   9.5646222515e+01   3.8379312462e+01    0.3030267    0.2425859  34.45  0.001026485    1.221    0.181
        46 -10.0882     38.1085    151.8576   9.6491411580e+01   3.9453662872e+01    0.5860921     0.188656  46.36  0.002216578    2.700    0.630
        47  -8.5535      6.6451    155.0361   1.0612624135e+02   4.1506454422e+01    0.3154038    0.1196506  40.83  0.001074164    2.087    0.521
        48  -9.4643     92.9453    149.9416   7.9979700353e+01   3.2478545570e+01    0.5942786    0.4656959 -21.42  0.002204111    1.648    0.393
        49  -7.6873     98.6951    151.3344   7.8618120997e+01   3.1232128006e+01    0.2175434    0.1503714 -65.90 0.0005638266    1.619    0.382
        50  -8.5922      9.4018    151.5206   1.0515696369e+02   4.2148751276e+01    0.2369742    0.1746474  71.16 0.0006748422    1.154    0.134
        51  -8.9896      2.5006    151.3598   1.0720188849e+02   4.2681863843e+01    0.2374858    0.2073423 -50.03 0.0009851125    1.413    0.292
        52 -10.9937     54.4572    148.0901   9.1080836137e+01   3.8477593926e+01    0.6708261    0.4417731 -79.24  0.003386916    1.561    0.359
        53  -8.5859    248.1776    220.9406   6.0224345643e+01  -9.3170788987e-01    0.1718068     0.112065  14.72 0.0006905887    1.222    0.182
        54  -8.3143    109.8584    149.2935   7.5239207755e+01   2.9810756725e+01    0.2393266    0.1992863 -78.31 0.0007029655    1.389    0.280
        55  -8.9449    133.8976    145.5378   6.8400214773e+01   2.6338723673e+01    0.3914945    0.1870426 -59.08  0.001452116    3.008    0.668
        56  -8.3664    239.1174    141.8213   4.7984190148e+01   9.0951815540e+00    0.1640249    0.1408154 -25.69 0.0004276888    1.250    0.200
        57  -9.4120      4.2268    139.3444   1.0619210045e+02   4.5509241126e+01    0.4286417    0.1569674 -86.33  0.001786681    2.500    0.600
        58  -9.1062     25.7134    139.2800   9.9271891033e+01   4.3827847219e+01    0.2995096    0.2705711 -85.20  0.001137913    1.132    0.116
        59  -8.8974    105.3597    136.8870   7.4105010488e+01   3.3342712920e+01    0.3958297    0.2934187  57.08  0.001527164    1.430    0.301
        60  -9.8069     93.4035    136.2534   7.7410748308e+01   3.5566337273e+01    0.2959523    0.2702046 -65.26 0.0004461115    1.138    0.122
        61 -10.1037     33.7479    134.2427   9.6146048817e+01   4.4332515910e+01    0.4858299    0.3274586 -54.30  0.002497549    1.610    0.379
        62 -10.2599     44.1954    129.3206   9.2030322776e+01   4.4458144688e+01    0.4749304    0.2522535 -87.06  0.002019468    2.088    0.521
        63  -7.6176    139.2975    145.6684   6.7134733375e+01   2.5331145708e+01     0.138224    0.1133697  80.47  0.000330128    1.643    0.391
        64  -9.2220      3.3579    130.4575   1.0606767433e+02   4.7799247999e+01    0.3852055    0.1919135 -48.04  0.001772084    2.432    0.589
        65  -9.2787      1.5899    126.7818   1.0649236100e+02   4.8841238962e+01    0.3584251    0.1654405 -74.94  0.001410034    1.964    0.491
        66  -7.8861    113.2135    128.7636   7.0234374493e+01   3.3726565580e+01    0.2037755    0.1763207   1.64 0.0005334151    1.343    0.256
        67 -10.6352     70.2472    124.4326   8.2439728019e+01   4.2197979945e+01    0.5693346    0.4505594  35.37  0.002266665    1.257    0.204
        68  -8.7577     28.8025    128.2132   9.7208592167e+01   4.6378940140e+01    0.4645212    0.0972463  44.57  0.001426369    3.990    0.749
        69  -9.9940     37.5052    126.0802   9.3935098975e+01   4.6050339333e+01    0.4421732    0.2482625 -50.35   0.00200335    1.966    0.491
        70  -9.0308    164.2905    124.7111   5.6990226447e+01   2.4540636698e+01    0.3222341     0.245905 -22.13 0.0007689611    1.367    0.269
        71  -8.6966    100.5799    124.4745   7.2905774521e+01   3.7055145429e+01    0.2820908    0.2494235 -21.78 0.0006908944    1.301    0.232
        72 -10.7412     38.8877    116.5190   9.2183570991e+01   4.8410415594e+01     0.585749    0.2650453 -65.72  0.002427052    2.045    0.511
        73  -9.7519     33.7683    117.9254   9.4261147551e+01   4.8584916841e+01    0.3507563    0.2373605  34.36  0.001779853    1.458    0.314
        74  -8.5184     84.6548    118.9015   7.6622335908e+01   4.1230286610e+01    0.3501126    0.2225705  28.42 0.0007050921    1.726    0.420
        75  -8.7243      7.8086    130.3905   1.0457220485e+02   4.7526662388e+01    0.1697941    0.1271064   1.39 0.0009542216    1.659    0.397
        76  -9.8074     47.4047    116.1332   8.8990567450e+01   4.7513045088e+01    0.4167264     0.185835  57.98  0.001017687    2.831    0.647
        77  -7.2990    141.9909    110.9468   5.8594800435e+01   3.1706995861e+01    0.1707331    0.1681426  -7.82 0.0009473049    1.002    0.002
        78  -9.6959     54.7255    111.3351   8.5474520351e+01   4.7819248205e+01    0.4649081    0.2150572  25.74  0.001783985    2.402    0.584
        79 -10.1878     69.8521    109.2606   7.9569928709e+01   4.6110724755e+01    0.2589726    0.2427828  77.82 0.0002365406    1.019    0.018
        80  -8.2649     26.8704    113.8456   9.6340682675e+01   5.0338401961e+01    0.2128203    0.1872117 -54.22  0.001227251    1.228    0.186
        81  -7.5966     81.1344    110.1442   7.5857004817e+01   4.4001054528e+01    0.2047502    0.1718261  77.23 0.0002948583    1.267    0.210
        82  -8.3434     30.4419     98.5463   9.2861649056e+01   5.4092480335e+01    0.2865998    0.1386393  24.44  0.001205766    2.170    0.539
        83  -7.7911    120.1102     93.8403   5.9557606170e+01   3.9980445125e+01    0.2269473    0.2065899 -81.69 0.0004887737    1.166    0.142
        84  -7.7321     28.1577     93.1229   9.2987144427e+01   5.5771057738e+01     0.192293     0.150769  60.84            0    1.273    0.215
        85  -7.8680     10.0551     86.2386   1.0016043029e+02   5.9023372001e+01     0.182193    0.1692692  62.20 0.0003847102    1.109    0.099
        86  -7.6971    145.4154     69.7554   4.6087174107e+01   3.8711913145e+01    0.2015831    0.1466308 -24.30 0.0002747654    1.517    0.341
        87  -7.5195    107.0055     68.9548   5.5475932612e+01   4.8175119019e+01    0.1805012     0.176056 -80.72  0.000947358    1.004    0.004
        88  -8.2535    138.3705     67.1003   4.6755922782e+01   4.0908672289e+01    0.2399167    0.2026478  46.28 0.0003778797    1.238    0.192
        89  -8.3138    212.0379     63.9769   3.4000315168e+01   2.4292615327e+01    0.1913576    0.1690006 -38.03            0    1.029    0.029
        90  -7.3312    224.7257     60.3524   3.1733198188e+01   2.2197209859e+01    0.1464079    0.1188059  53.79  0.000324392    1.462    0.316
        91  -7.6108    143.7676     59.7458   4.3199479790e+01   4.0819848728e+01    0.2135586    0.1694787 -67.49 0.0006088184    1.355    0.262
        92 -10.3566    180.7421     56.8398   3.6038640930e+01   3.2204566245e+01    0.4213662    0.3441779 -33.23  0.001164814    1.155    0.134
        93  -9.2761    177.1423     51.9006   3.5096384149e+01   3.3756992613e+01    0.3120992    0.1943903 -38.33 0.0007454532    1.451    0.311
        94  -8.5750    108.0865     56.6542   5.0708013954e+01   5.0314419818e+01    0.2706533    0.2211915 -30.49  0.000353685    1.296    0.228
        95  -7.4332     51.6526     57.7438   7.2893125140e+01   6.1988133054e+01     0.146219    0.1142767 -11.66  0.000238164    1.594    0.373
        96 -11.7992    196.7127     44.7384   3.0621769823e+01   3.0126485288e+01     1.169063    0.7595267  51.66  0.005580483    1.764    0.433
        97 -10.7912    201.9550     38.5998   2.8396153149e+01   2.9697667798e+01    0.6029931    0.3998214  63.53  0.001132068    1.654    0.395
        98  -7.9363    221.6520     40.3410   2.7065417193e+01   2.5242407943e+01    0.2080045    0.1169204 -53.57 0.0007894559    1.672    0.402
        99  -8.1993    155.3081     30.1614   3.1228744733e+01   4.2125248844e+01    0.2274223     0.186859  62.42  0.000401401    1.251    0.200
       100  -9.1843    151.8006    248.2929   7.9934836564e+01   6.9077121470e+00    0.1861999    0.1447566  20.74 0.0002862167    1.079    0.073
       101  -8.4240     91.0584    247.1505   9.1661554526e+01   1.4250182608e+01     0.290821    0.1348391  52.61  0.001516984    2.324    0.570
       102  -7.3660    223.3259    247.6971   6.7666897577e+01  -9.6940812959e-01    0.0851708   0.06848178  24.25  0.000703194    1.641    0.391
       103  -7.4067     82.5861    247.2331   9.3383140194e+01   1.5206695294e+01    0.1185634    0.1055861 -42.33 0.0005801447    1.519    0.342
