#   1 NUMBER                 Running object number                                     
#   2 MAG_AUTO               Kron-like elliptical aperture magnitude                    [mag]
#   3 X_IMAGE                Object position along x                                    [pixel]
#   4 Y_IMAGE                Object position along y                                    [pixel]
#   5 X_WORLD                Barycenter position along world x axis                     [deg]
#   6 Y_WORLD                Barycenter position along world y axis                     [deg]
#   7 A_WORLD                Profile RMS along major axis (world units)                 [deg]
#   8 B_WORLD                Profile RMS along minor axis (world units)                 [deg]
#   9 THETA_WORLD            Position angle (CCW/world-x)                               [deg]
#  10 FWHM_WORLD             FWHM assuming a gaussian core                              [deg]
#  11 ELONGATION             A_IMAGE/B_IMAGE                                           
#  12 ELLIPTICITY            1 - B_IMAGE/A_IMAGE                                       
         1 -10.9296     33.5211     62.8930   9.8059612480e+01   6.0485854666e+01     1.672848    0.5859958 -32.17  0.005629486    4.158    0.759
         2 -10.2811     10.6763     18.7202   9.3466322094e+01   7.0785568710e+01     1.178115    0.4112432 -21.67  0.003862906    5.828    0.828
         3 -11.0786     23.8799     32.1646   9.2074537325e+01   6.7366774821e+01     1.426976    0.4325706 -37.38  0.003871035    2.947    0.661
         4  -9.4435     97.3571     58.3850   7.2670503504e+01   5.1883376986e+01    0.7923632    0.5069558 -20.60  0.003638579    1.753    0.430
         5 -10.9127    134.0058     31.0484   5.3194232318e+01   4.7684138811e+01    0.3829889    0.2832516  11.05            0    1.589    0.371
         6  -9.4895     78.1184      4.0697   5.6737948958e+01   6.2965692919e+01    0.4904895    0.2916208  -4.64  0.002014197    1.801    0.445
         7 -10.0950     73.6303     17.4587   6.4257795552e+01   6.2469861842e+01    0.9567521     0.249209 -27.95  0.003346937    4.016    0.751
         8  -8.5070     71.9006      8.6891   6.0852803997e+01   6.3744512224e+01    0.2449376    0.1535873  -3.25 0.0007750057    1.650    0.394
         9 -10.1796     69.5825     40.4566   7.5521587364e+01   6.0004414353e+01    0.9217237    0.3841997 -36.23  0.002866689    2.316    0.568
        10  -9.7389     60.8680     31.5394   7.5220050246e+01   6.2813738877e+01    0.8388178    0.3740214 -25.38  0.003371109    2.525    0.604
        11 -10.0639     63.1492      3.1758   6.1260458495e+01   6.5908471232e+01    0.5085742    0.3476284  14.07  0.002150316    1.311    0.237
        12  -9.5639     63.2716     21.4597   6.9847028559e+01   6.3831886314e+01    0.4186024    0.3013732 -52.22  0.001105873    2.237    0.553
        13 -10.1507     64.4660     13.1217   6.5551926351e+01   6.4638625261e+01    0.4416158    0.2896615 -19.36  0.001701732    1.480    0.324
        14 -10.3928     51.4515     14.9513   7.1586227525e+01   6.6586825696e+01    0.9789947    0.4943091  13.22  0.003998409    2.759    0.638
        15  -9.6603     91.5366     26.4804   6.2310395534e+01   5.7857994557e+01    0.6760783    0.2754271 -42.37  0.002606225    3.225    0.690
        16  -8.9701    133.1972     10.7896   4.6409645244e+01   5.0016731536e+01    0.4053257    0.1920849 -41.84  0.001792878    2.466    0.594
        17  -9.4904    103.0341     20.8728   5.6791938929e+01   5.6051608218e+01    0.7160032    0.3289192 -20.05  0.002319656    2.472    0.595
        18  -7.9715    137.3866      9.7772   4.5325670052e+01   4.9090639980e+01    0.2224727    0.1642252  15.95  0.001000917    1.569    0.363
        19  -9.6357    119.0747     20.5812   5.2757305543e+01   5.2427424903e+01    0.5556806    0.2888197 -12.20  0.002385444    2.424    0.587
        20  -8.6381    141.4222     12.3431   4.5484438686e+01   4.7870462716e+01    0.3387855    0.1703644  -2.83  0.001382708    3.049    0.672
        21  -8.9982     40.7716     20.4509   7.8926625245e+01   6.7377454412e+01    0.3571169    0.1539748 -36.09 0.0008773633    2.141    0.533
        22 -10.6434     37.2322      9.5326   7.5290493937e+01   6.9339726764e+01    0.8510372    0.3472254 -35.61  0.002726538    2.387    0.581
        23 -10.2204     18.2362      5.2574   8.2896139451e+01   7.2173054872e+01    0.6244191    0.3763547 -44.19  0.002730634    2.040    0.510
        24  -9.3854      2.2785     14.2752   9.6312299805e+01   7.2110472519e+01    0.3829623    0.1977037 -60.75  0.001729312    2.796    0.642
        25 -10.4536      5.2886      4.5564   9.0072784769e+01   7.3443211000e+01    0.5119834    0.3602114  -7.83  0.001827425    1.149    0.130
        26  -9.4134     30.7315     11.3825   7.9407079029e+01   6.9928951037e+01    0.3937688    0.3295162 -64.64  0.002340556    2.549    0.608
        27  -9.3569     24.4906     11.2044   8.2529579722e+01   7.0674581901e+01    0.3641172    0.2523499   8.70  0.001266307    1.271    0.213
        28  -9.1094     96.5083     12.9739   5.5345608525e+01   5.8300334166e+01     0.412824    0.2332165   2.93  0.001743644    2.231    0.552
        29  -8.5293    112.1126     15.5139   5.2459797680e+01   5.4562058720e+01    0.2615192     0.193904 -48.17  0.000898511    1.679    0.404
        30  -9.0527    114.0807      9.9861   4.9922982197e+01   5.4628611748e+01    0.3079724    0.1959198  26.26 0.0004212339    1.667    0.400
        31  -9.7746     85.2968     13.1735   5.8605988584e+01   6.0644722832e+01    0.4302042      0.29307 -55.00   0.00179332    2.389    0.581
        32  -8.7583    235.1644     13.4943   3.4780290543e+01   2.5436670194e+01    0.1911747    0.1807331 -47.42 0.0003492338    1.261    0.207
        33  -8.2789    122.3802     10.1783   4.8259062914e+01   5.2664623694e+01    0.2523014     0.179787 -56.72 0.0003609658    1.801    0.445
        34  -8.5111    120.8039      5.6260   4.6922323037e+01   5.3429812450e+01    0.3251673     0.200036  70.50  0.001669723    1.624    0.384
        35  -8.4223    125.4629     13.0556   4.8673895724e+01   5.1667587718e+01    0.2526151    0.1689611 -21.49   0.00083724    1.654    0.395
        36  -8.7567    126.8231      8.9960   4.6969780300e+01   5.1711212300e+01    0.2553638    0.1532472  43.29 0.0005764606    1.529    0.346
        37  -8.9778    125.8428      5.4282   4.5893672030e+01   5.2249474958e+01    0.3025528    0.2125628  19.59  0.001670091    1.587    0.370
        38  -8.8869    101.9529      7.9858   5.1932142507e+01   5.7566483337e+01    0.2974498    0.1932869 -35.08 0.0007526603    1.786    0.440
        39  -8.3052    104.3976      2.1346   4.9028517647e+01   5.7504163429e+01    0.2863745    0.1508999  39.22  0.001095864    1.710    0.415
        40 -10.1797     46.2241     29.4801   8.0494400131e+01   6.5284982033e+01    0.5246122     0.267877 -43.46  0.001410639    2.069    0.517
        41  -8.3342    247.0733      7.9777   3.2729353492e+01   2.3520390658e+01    0.1746275    0.1440946 -71.30 0.0003199083    1.047    0.045
        42  -9.4392    115.2959      4.2580   4.7516901714e+01   5.4834118326e+01    0.6358141    0.3138339  80.65  0.002537309    3.096    0.677
        43  -8.5164    110.2875      7.6490   4.9866875034e+01   5.5709596566e+01    0.2147976    0.1723227 -30.62 0.0007942585    1.425    0.298
        44  -8.7319    111.3138      4.3438   4.8378115869e+01   5.5750200891e+01    0.2615022    0.2257112  80.34  0.001623825    1.311    0.237
        45  -7.8658     80.4817     12.4827   5.9782529519e+01   6.1688062947e+01    0.2468009    0.1384848 -43.96  0.001036039    2.519    0.603
        46  -9.0569    131.8552      5.4488   4.4820536363e+01   5.0804714651e+01    0.4334666    0.1655393  49.50   0.00131137    2.221    0.550
        47  -8.6746     97.7989      5.8158   5.2072049267e+01   5.8674244903e+01    0.2615615    0.1877518  34.00 0.0009608581    1.224    0.183
        48  -8.5225     96.3016      2.6885   5.1153452656e+01   5.9261864927e+01    0.2050014    0.1887521 -36.18 0.0005756013    1.337    0.252
        49  -8.6276    152.3261      3.6815   4.1037402105e+01   4.5959422888e+01    0.3865412   0.09485003 -41.76  0.001255992    4.628    0.784
        50  -8.2446    143.0011      4.9793   4.2827009874e+01   4.8135784689e+01    0.2075486     0.146764 -66.47 0.0005994685    1.682    0.405
        51  -8.3747     89.1968      2.6776   5.2966310550e+01   6.0796413600e+01    0.2496419    0.1724541 -21.96 0.0008360309    1.578    0.366
        52  -8.0853    136.5160      1.5196   4.2716614173e+01   4.9994155038e+01    0.1307908    0.1144855  66.03 0.0003415697    1.046    0.044
        53 -10.0585    108.8439    114.7329   8.6241671489e+01   3.7913379337e+01    0.6697236    0.4509127 -86.33  0.001480977    2.682    0.627
        54  -9.9465    201.5316    250.0890   9.1138488375e+01  -5.2189252737e+00    0.3795222    0.1331064  42.64  0.001631649    2.901    0.655
        55 -10.4678    165.1879    249.1738   9.7982931486e+01   3.2203061344e-01    0.4986966    0.1841891  39.04  0.002259751    2.205    0.546
        56  -9.9651    139.2922    104.4137   7.5052451571e+01   3.3916901863e+01     0.795564    0.4724931 -54.15  0.001485592    1.947    0.486
        57 -10.4777    131.6877    119.7445   8.1161207371e+01   3.2209416179e+01    0.8611628    0.6253515  87.33  0.002385084    2.194    0.544
        58 -10.1752    127.6283    102.4317   7.7607773047e+01   3.6875719356e+01    0.6050692    0.5242181 -53.91  0.001722359    1.212    0.175
        59 -11.0050    123.2140     91.5492   7.5693834783e+01   4.0120471592e+01     1.222019    0.7454506 -27.95  0.002264415    1.898    0.473
        60  -9.5884    109.1342    106.0226   8.3862533901e+01   3.9852346047e+01    0.5893402    0.5555542 -19.53  0.003151853    1.038    0.036
        61 -10.5285    108.8156     99.5156   8.2160144339e+01   4.1369480339e+01     1.126282    0.5408301  56.15  0.003549182    3.281    0.695
        62 -11.1904    133.4476    109.3817   7.7953124709e+01   3.4125904987e+01     1.683604    0.6368881 -49.40  0.005364166    2.882    0.653
        63 -11.3605    121.4606    110.0469   8.1408167957e+01   3.6493665532e+01     1.590098     0.766288 -49.53  0.003633322    2.115    0.527
        64  -9.9428     42.0568    123.0009   1.0837679264e+02   4.5663007739e+01    0.7060105    0.3598603 -89.80  0.002713676    3.105    0.678
        65  -7.6691    200.9746    125.7213   6.6683302424e+01   1.5904976898e+01    0.2027725    0.1921704  27.44 0.0004195141    1.100    0.091
        66  -9.9785     27.2967    122.9852   1.1281051933e+02   4.7030000385e+01    0.5874499    0.3090211  70.93  0.002238375    2.750    0.636
        67  -8.0370    243.3377    121.3283   5.8256059985e+01   8.1541264679e+00    0.1409038    0.1023128   0.46 0.0007051856    1.730    0.422
        68  -8.5559    151.7148    121.2313   7.6407806762e+01   2.7594770524e+01    0.2978127    0.1991806  47.83  0.001289786    1.540    0.351
        69  -8.5898     99.2117    119.5645   9.0269133580e+01   3.8542766070e+01    0.5151497    0.3038141  -4.94  0.001551899    4.380    0.772
        70  -8.6420      1.4661    116.3992   1.1955524846e+02   5.0372047598e+01    0.3429054    0.1015476 -75.54  0.001023344    2.844    0.648
        71 -10.2778     92.0721    113.1308   9.0837799851e+01   4.1305704502e+01    0.6019677    0.4518123  77.11  0.001740472    1.869    0.465
        72  -8.7908     91.6700    104.3735   8.8725470299e+01   4.3426294810e+01    0.7166151    0.4996672  -4.67  0.003127617    2.019    0.505
        73 -10.2925     78.3192    113.1792   9.5107044140e+01   4.3503050021e+01    0.5621594    0.3698793 -82.25   0.00193623    2.246    0.555
        74  -7.9979     78.2713    105.2929   9.3214845053e+01   4.5391329673e+01    0.4008116    0.2169294 -26.77  0.001471236    2.828    0.646
        75  -9.6897     81.5697     99.3634   9.0622333259e+01   4.6261867691e+01    0.7917866    0.3455188 -56.59  0.002047641    2.450    0.592
        76  -8.7369    153.0093    115.3429   7.4557399988e+01   2.8561971431e+01    0.2216317     0.207706  38.38 0.0006072914    1.081    0.075
        77 -10.4955     63.1226     96.2372   9.5968551788e+01   4.9689018854e+01    0.7554616    0.4396897 -72.22  0.002107752    2.396    0.583
        78  -9.0619     65.0692     86.0262   9.2599947203e+01   5.1768276810e+01    0.6370558    0.3610309  -4.48  0.002373151    3.264    0.694
        79  -8.3238     63.5643     81.7912   9.1945212143e+01   5.2920355001e+01     0.227961    0.1691561 -63.26 0.0007378864    1.527    0.345
        80 -10.5406     65.9316    109.1404   9.8117956456e+01   4.6247248636e+01     1.157124    0.6118183 -54.75  0.002104047    1.692    0.409
        81  -9.8918     59.0862    109.7074   1.0046017248e+02   4.6997366561e+01    0.5332464    0.4745983  34.37  0.001871341    1.250    0.200
        82  -7.4757    167.4701    114.0037   7.0796095274e+01   2.5594443716e+01    0.2361091    0.1510273 -43.26 0.0004264115    1.541    0.351
        83 -10.9833     21.4132    100.8482   1.1115783728e+02   5.2833736753e+01     1.596779    0.7916893  88.15  0.005117519    3.237    0.691
        84 -10.8119     25.1888     78.1491   1.0531297803e+02   5.7845102927e+01    0.7698796    0.5666128 -57.31  0.003132555    1.163    0.140
        85 -10.7482    173.0809    247.3662   9.6189100573e+01  -6.1201804428e-01    0.4397316    0.2899842  44.41  0.002608103    1.476    0.322
        86 -10.3003     36.8113     81.1355   1.0163109165e+02   5.6169925078e+01    0.9521803     0.453756 -16.15  0.003518017    3.836    0.739
        87  -9.8457     14.3779    111.4131   1.1505861707e+02   5.0792315557e+01    0.5000538    0.2364975  89.68  0.002069692    2.719    0.632
        88  -9.0409     14.3203    105.3299   1.1418971564e+02   5.2250120720e+01    0.3141215    0.1505542 -39.60   0.00152905    2.172    0.540
        89  -8.2325    149.6558    109.9751   7.3950127731e+01   3.0439437178e+01    0.3471768    0.1465226 -42.21 0.0008573235    2.335    0.572
        90  -9.3610     35.7449    110.8880   1.0824032840e+02   4.9236820590e+01     0.240335     0.168832 -84.50 0.0008296322    1.532    0.347
        91 -10.8058     44.7021    102.4091   1.0365048609e+02   5.0406145629e+01    0.8216563    0.4658809  71.53  0.003105558    3.466    0.711
        92  -8.6411     39.9196    106.5871   1.0608393657e+02   4.9882934386e+01    0.2678709    0.1662633 -83.65 0.0006580895    1.963    0.491
        93  -9.5447    149.4963    103.2344   7.2146331310e+01   3.1874981237e+01    0.4251716    0.2940312 -53.37 0.0009741642    1.592    0.372
        94  -9.5625      5.7984    104.1443   1.1672373840e+02   5.3037037211e+01    0.3560551     0.332239 -25.44  0.001569416    1.279    0.218
        95  -8.3830    166.0380    103.8804   6.8422381597e+01   2.7950502735e+01      0.26868    0.2192069 -42.91 0.0005737936    1.213    0.175
        96  -8.5022     73.8887    102.6492   9.3976753559e+01   4.6673966529e+01    0.3277773     0.179453 -55.25 0.0007025743    1.728    0.421
        97  -8.7285    158.9792    101.4115   6.9367538791e+01   3.0071421143e+01    0.2889538    0.2123327 -54.66 0.0005344393    1.504    0.335
        98  -9.4745     94.3411     97.1926   8.5939909526e+01   4.4597841710e+01     0.344966    0.2904795 -69.17 0.0007136872    1.387    0.279
        99  -8.9197     96.2533     90.8087   8.3513045049e+01   4.5666552320e+01    0.5393148    0.3362546  -8.99  0.002025332    2.730    0.634
       100 -10.0207    240.4981     95.0909   5.2705627477e+01   1.3012371381e+01    0.4484634    0.3641073 -20.81  0.002560375    1.276    0.217
       101 -10.1848      4.4404     89.5330   1.1502953749e+02   5.6526808590e+01    0.7077102     0.323888  88.21  0.002699435    3.281    0.695
       102  -9.4485      6.7002     78.3588   1.1231557468e+02   5.8975702184e+01    0.7505323    0.2133382 -35.05  0.002699298    4.294    0.767
       103  -8.3927    248.8261     96.8460   5.1950321857e+01   1.1087621592e+01    0.3132071    0.1030426  58.62   0.00112269    3.872    0.742
       104  -8.5964    150.8361     96.3857   6.9898711815e+01   3.2954318584e+01    0.2316117     0.142985  36.67 0.0006393453    1.762    0.432
       105  -8.5900    164.6201     93.8550   6.5979847957e+01   3.0231224955e+01    0.4934432    0.2501538 -32.72  0.001860494    2.099    0.524
       106  -9.8747    138.7501     93.0631   7.1965114692e+01   3.6383696074e+01    0.4333573    0.4015129  64.44  0.001188211    1.171    0.146
       107  -9.2620    157.7681     90.4255   6.6562164978e+01   3.2500294105e+01    0.5762379    0.2767186 -25.92  0.001911069    2.909    0.656
       108  -9.4788    150.5076     89.8179   6.8094059267e+01   3.4320696682e+01    0.5580931     0.262455 -27.84  0.001865054    2.809    0.644
       109  -9.6099    110.6500     90.0717   7.8877969474e+01   4.3047618605e+01    0.8112166    0.3823553  27.54  0.002615958    3.304    0.697
       110  -9.3061     49.2740     77.1841   9.5909457367e+01   5.5748119548e+01    0.5055097     0.289458   4.46  0.002274573    2.417    0.586
       111  -7.7462    174.6137     88.7887   6.2422031930e+01   2.8811927451e+01    0.2279495    0.1363484 -47.42 0.0006753665    1.733    0.423
       112  -9.9305     81.6725     72.4308   8.2674930245e+01   5.2123801829e+01    0.4465297    0.3424312 -76.66 0.0009099549    2.045    0.511
       113  -9.2305     83.6165     64.6413   7.9409100715e+01   5.3323555398e+01    0.5627355    0.3374099  -5.28  0.002198638    2.744    0.636
       114 -10.2070     85.3000     86.5444   8.5808871178e+01   4.8531908480e+01    0.4581502    0.3601724 -85.04  0.000863304    1.877    0.467
       115  -9.8514     87.4421     78.7553   8.2730138866e+01   4.9823806756e+01    0.7089027    0.4103804  14.99  0.001811823    2.648    0.622
       116  -7.6755    163.4982     87.4916   6.4432833148e+01   3.1696114960e+01    0.1543425    0.1496568 -66.34 -5.704971e-05    1.071    0.066
       117 -10.3582     47.9247     84.4522   9.8348091890e+01   5.4269285062e+01     0.683575    0.4302155 -63.99   0.00172546    1.657    0.396
       118 -10.6541    103.5249     82.6345   7.8776570170e+01   4.6019750657e+01    0.5014518    0.3829657 -50.90 0.0009727532    1.393    0.282
       119  -9.6187    105.2145     71.1090   7.4570188585e+01   4.7969184489e+01    0.8545743    0.4133921 -33.28  0.003317509    2.198    0.545
       120  -8.8426    158.7747    112.2168   7.2342898798e+01   2.7923584176e+01    0.2699875     0.216945 -35.30 0.0006258122    1.229    0.186
       121  -8.7706    157.8351     82.7945   6.4342845105e+01   3.3913634284e+01    0.4811461     0.223002 -34.46  0.001600733    2.227    0.551
       122  -9.4335    140.4520     82.2246   6.8314608385e+01   3.8117284375e+01     0.605522    0.3295043 -30.20  0.001491256    2.039    0.510
       123  -9.0694    140.0237     75.0096   6.6214442099e+01   3.9556492399e+01    0.5959924    0.2713216 -33.01  0.001613651    2.345    0.574
       124  -8.9268    198.5563     81.7510   5.5983438555e+01   2.4385416156e+01     0.336396     0.262535 -34.20 0.0009882983    1.249    0.199
       125  -7.7255    170.5096     83.0150   6.1657549289e+01   3.0836635299e+01    0.2353536    0.1484682 -38.19  0.001020437    1.561    0.359
       126  -8.8315    149.9264     80.4237   6.5467317990e+01   3.6231500662e+01    0.4732924    0.2153271 -36.45  0.001188316    2.218    0.549
       127  -8.9898    118.9818     80.5307   7.3536976135e+01   4.3257263376e+01    0.3551947    0.2300015 -50.17 0.0007675355    1.698    0.411
       128  -8.6449    119.9192     75.8972   7.1810036354e+01   4.3951650796e+01    0.3614176    0.2428175  35.31 0.0008365198    1.535    0.349
       129  -9.2005     74.3305     79.3475   8.7400475909e+01   5.1874576301e+01    0.6261369    0.2800695 -50.11  0.001816479    2.163    0.538
       130  -8.2144     68.8025     79.4473   8.9385874118e+01   5.2689159215e+01    0.3267375    0.1458245 -39.34  0.001295785    2.200    0.546
       131  -7.8750    174.4744     78.9153   5.9689972753e+01   3.0605506091e+01    0.2221385    0.1471343 -37.21 0.0005622279    1.489    0.328
       132  -8.4326    166.6720     77.9831   6.1022219904e+01   3.2653096416e+01    0.4439105     0.180526 -30.04  0.001470067    2.887    0.654
       133  -8.1309    184.1299     78.0206   5.7574145432e+01   2.8435023552e+01    0.2247515    0.2159268 -47.93  0.000612211    1.019    0.018
       134  -8.7963    157.0022     76.2631   6.2607641339e+01   3.5290465541e+01    0.3278733    0.1987314 -44.63 0.0006894389    1.699    0.411
       135  -9.2501    127.3773     75.2423   6.9551135801e+01   4.2421922804e+01    0.3392471    0.2580923 -59.62 0.0008305518    1.609    0.379
       136  -8.9847    128.9704     69.3011   6.7230639792e+01   4.3144327911e+01    0.5781891    0.3436295  15.34  0.002039613    3.012    0.668
       137  -8.7278    130.5096     64.9537   6.5422436103e+01   4.3550728367e+01    0.3766448     0.185349 -33.27   0.00147337    2.106    0.525
       138  -9.9884     62.9360     60.8198   8.5623360437e+01   5.7398821061e+01    0.8214445    0.2739127  33.16  0.002351862    3.218    0.689
       139 -10.6219     55.2130     70.9859   9.1856865781e+01   5.6370863195e+01    0.6801065    0.3798307  51.27  0.001337841    2.852    0.649
       140  -9.4272     54.8168     63.5369   8.9673004696e+01   5.7972364127e+01    0.4070085    0.2654269  -5.34  0.001976771    1.845    0.458
       141  -8.6137    151.0468    250.1616   1.0088290494e+02   2.3267895688e+00     0.206363    0.1166859  52.14  0.000841669    1.955    0.489
       142 -10.9264     21.7520     53.4463   1.0029929044e+02   6.3456100858e+01    0.7273697    0.4928285 -85.38  0.003018303    2.564    0.610
       143  -8.8781    243.0159    246.0192   8.2947483677e+01  -1.0391953219e+01    0.1744078    0.1300697   6.33 0.0003507209    1.033    0.032
       144  -9.5749     16.0234     70.6419   1.0715722309e+02   6.0174653004e+01    0.5187262    0.1803634 -55.71  0.001622861    2.081    0.520
       145  -9.4781     16.9522     62.1896   1.0475216386e+02   6.1960813619e+01    0.6017422    0.2299796 -54.53  0.002845795    1.962    0.490
       146 -10.0452     12.3305     45.7416   1.0225975831e+02   6.5679862517e+01    0.8300052    0.3793162  -3.01  0.003369413    2.813    0.645
       147 -10.0405      5.1224     42.0035   1.0453737192e+02   6.6845455425e+01    0.5752441    0.2983093 -59.64  0.002281665    1.712    0.416
       148  -9.4868      6.8110     32.6654   1.0078877638e+02   6.8560744746e+01    0.2819572    0.1801063 -24.93  0.000761127    1.320    0.243
       149 -10.0649      7.4028     28.2505   9.8946749317e+01   6.9343079820e+01    0.3491803    0.2406617  18.02 0.0009984707    1.645    0.392
       150  -9.1329    115.1528     72.1789   7.1970329439e+01   4.5686321459e+01    0.5836029    0.3195604 -27.79  0.001184909    2.104    0.525
       151  -8.2637    162.7926     72.9940   6.0385900480e+01   3.4458481706e+01    0.2741591    0.1994382 -54.86 0.0007151123    1.531    0.347
       152  -7.7464    175.0628     72.2226   5.7679174382e+01   3.1603225977e+01    0.2438308    0.1718317 -86.90 0.0008879183    1.957    0.489
       153  -7.8477    169.5093     71.4907   5.8564087859e+01   3.3078227945e+01    0.1492095    0.1460521 -77.35 0.0002428965    1.029    0.028
       154  -9.2817    147.0275     69.2611   6.2753640801e+01   3.8910819941e+01    0.3674396    0.2669666 -62.44 0.0008221634    1.738    0.425
       155  -8.7228    156.6340     69.8181   6.0762352834e+01   3.6496072785e+01    0.5066278    0.2078829 -28.54  0.001591135    2.965    0.663
       156  -8.4938    157.7788     63.2651   5.8537169969e+01   3.7301274669e+01    0.3457187    0.2209387 -40.64 0.0007164818    1.589    0.371
       157  -9.7578     94.8145     68.3534   7.6925529566e+01   5.0550864943e+01    0.4363882    0.2734752 -49.12 0.0007874606    1.759    0.431
       158 -10.2821    186.4535    244.7412   9.3206719973e+01  -2.2587903621e+00    0.2729181    0.1962844  13.30  0.001190439    1.300    0.231
       159  -8.9644    138.8766     56.5858   6.0638595852e+01   4.2954632507e+01    0.4410303    0.2605669 -49.88 0.0007034361    2.012    0.503
       160  -9.5083    141.3074     48.6789   5.7504447659e+01   4.3565776588e+01    0.7596635    0.4472762  -3.35  0.002153877    2.784    0.641
       161  -9.3972    138.0434     66.1238   6.3910544750e+01   4.1587769622e+01    0.3898411    0.2589935 -51.47  0.001089366    1.743    0.426
       162  -8.0028    139.5946     61.7223   6.2127957695e+01   4.1956860457e+01    0.3604705    0.1920479  32.44  0.001346373    2.454    0.593
       163  -8.9709    121.0166     65.9255   6.8264691274e+01   4.5541112628e+01    0.3906105    0.2485386 -44.11  0.001031909    1.663    0.399
       164  -8.4823    122.1995     61.5420   6.6482260625e+01   4.6034829560e+01    0.3656971    0.2262212  27.93  0.001110031    1.937    0.484
       165  -8.4266    170.6401     65.2437   5.6530542751e+01   3.3827233473e+01    0.2611237    0.1944317 -22.35 0.0007296542    1.480    0.324
       166  -9.2643    109.6694     63.7763   7.0774395545e+01   4.8394366006e+01    0.3370037    0.2642956 -58.18 0.0006450401    1.596    0.374
       167  -8.8228    110.6688     58.2563   6.8585008141e+01   4.9139744514e+01    0.3557023    0.2675779   8.88 0.0009786779    1.517    0.341
       168  -8.0313    147.3120     64.0123   6.1056585609e+01   3.9726729136e+01    0.2882346    0.2041006  29.30  0.001188532    1.618    0.382
       169  -8.5657     10.7071     61.6987   1.0723389723e+02   6.2452392677e+01    0.2639551    0.1981021  56.68  0.001633693    1.914    0.478
       170  -9.8403     73.1325     59.0936   8.1205560537e+01   5.6159229280e+01    0.5020023    0.2720489 -52.20 0.0009492169    2.242    0.554
       171  -9.5586     75.4384     50.5693   7.7267338259e+01   5.7319980126e+01     0.627643    0.3676353  12.51  0.002694185    2.375    0.579
       172  -8.4359    164.5170     60.0951   5.6212015862e+01   3.6148321125e+01     0.219624    0.1463771 -33.46 0.0005957924    1.532    0.347
       173  -9.0242    146.4279     58.8444   5.9631250989e+01   4.0776968451e+01    0.3770883    0.2273365 -42.37 0.0008506797    1.733    0.423
       174  -9.5779    149.7657     47.5978   5.5345017675e+01   4.1653569518e+01    0.6018405     0.219794 -28.29  0.002028928    3.088    0.676
       175  -8.5016     87.5915     58.4437   7.5887842327e+01   5.3754754689e+01    0.3001592    0.2348622 -58.26 0.0009285321    1.677    0.404
       176  -8.8445     88.5100     53.4990   7.3794314150e+01   5.4453005811e+01    0.4667985    0.2280676  33.19  0.001920887    2.212    0.548
       177  -8.4501    130.0072     58.0010   6.3262491849e+01   4.4827805591e+01    0.2779056    0.2325775 -57.25 0.0004695003    1.393    0.282
       178  -7.9668    130.8317     53.6671   6.1610221466e+01   4.5322199987e+01    0.2358206    0.1927125  22.30 0.0007683526    1.282    0.220
       179  -8.6370     53.1969     39.1939   8.1530258057e+01   6.2741827356e+01    0.2089754    0.1873191  17.96  0.001342228    1.267    0.211
       180  -8.9754     43.8594     54.2074   9.1018051543e+01   6.1183146507e+01    0.2768362    0.1745947 -29.18 0.0006150187    1.455    0.312
       181 -10.2660     49.8772     54.4526   8.8607467001e+01   6.0410284279e+01    0.5880469    0.3566131 -51.52  0.001485288    1.718    0.418
       182  -9.8701     56.2283     43.2512   8.1877963672e+01   6.1617149249e+01    0.9128802     0.464209  -3.05  0.002970014    4.796    0.791
       183  -8.9072    121.0761     46.9386   6.1766746181e+01   4.8613262584e+01    0.3469679    0.2404009 -46.50 0.0004787918    1.657    0.397
       184  -9.2219    118.1618     55.4349   6.5499639848e+01   4.7957948432e+01    0.3693773    0.2970703 -77.99 0.0008604892    1.758    0.431
       185  -8.0873    118.9665     50.9944   6.3740701347e+01   4.8480605652e+01    0.2457557    0.1688133  19.59  0.001128685    1.732    0.422
       186  -7.2519    169.3300     55.6753   5.3982409382e+01   3.5635557346e+01    0.1540104    0.1113722 -70.52 0.0003177941    1.702    0.412
       187  -8.7518    162.6984     54.1735   5.4793250616e+01   3.7500643939e+01    0.3305748    0.2032681 -53.16 0.0007179311    1.892    0.471
       188  -8.3729    152.9520     53.9707   5.6689354979e+01   3.9935995564e+01    0.2298186    0.1765523 -74.36 0.0004894116    1.630    0.387
       189  -8.9499    105.5739     51.8708   6.7821621138e+01   5.1286895475e+01    0.5866292    0.2758208 -31.94  0.001806968    2.200    0.545
       190  -8.4585    157.6374     49.5091   5.4358869353e+01   3.9436569228e+01    0.3668222    0.2177199 -58.33  0.001046828    2.229    0.551
       191  -7.7301    172.1768     50.1999   5.1864017729e+01   3.5732053053e+01     0.196099    0.1581061 -60.28 0.0002329024    1.321    0.243
       192  -9.1554    130.1260     48.0592   5.9889695697e+01   4.6337008982e+01    0.3424421    0.2641289 -21.66  0.000537614    1.369    0.269
       193  -8.8422    132.0290     41.8132   5.7312429495e+01   4.6772552303e+01    0.6946422    0.3600647  16.90  0.002137736    4.463    0.776
       194  -9.0330    132.3775     36.0761   5.5270676127e+01   4.7450975965e+01    0.3647889    0.2692529  40.14 0.0009738586    1.296    0.228
       195  -9.9257    161.9484    243.4374   9.7822335214e+01   1.6910570512e+00    0.2457526    0.1953777  63.51   0.00118566    1.651    0.394
       196 -10.2378     85.1774     48.1539   7.2931372787e+01   5.5981259687e+01    0.4151037    0.3145061 -56.96  0.001019818    1.836    0.455
       197 -10.3736     90.4261     38.1874   6.7348866380e+01   5.6509523157e+01    0.9981313    0.3335147  34.54  0.002632532    4.321    0.769
       198  -8.6216    111.9279     46.8741   6.4197386446e+01   5.0687935338e+01     0.248165    0.2049634 -34.75 0.0004595266    1.278    0.218
       199  -7.7582    162.6910     46.3201   5.2422606901e+01   3.8634227978e+01    0.1488132    0.1092514 -69.29 0.0007034237    1.642    0.391
       200 -10.0691     34.4025     90.4731   1.0466636392e+02   5.4237268569e+01    0.5385653    0.2891458 -77.65  0.001796502    2.461    0.594
       201  -9.1418     71.1896     25.8035   6.8805026171e+01   6.1878708230e+01    0.3880487      0.21715  25.62  0.001617132    1.865    0.464
       202  -8.6111    226.0480    248.2592   8.6329347426e+01  -8.4200883954e+00    0.1738274    0.1216181  21.09 0.0006231188    1.139    0.122
       203  -8.3672    102.8920    241.7792   1.0941859127e+02   1.0968488961e+01    0.1761549    0.1503703  37.05  0.000556349    1.174    0.148
       204  -8.2954    213.9351    235.3604   8.6472449558e+01  -5.0393724448e+00    0.1742549    0.1492451  -0.94 0.0003216743    1.179    0.152
       205  -9.0555    187.9927    234.0232   9.1253331870e+01  -9.2676012674e-01    0.2581598    0.1873677 -46.88   0.00138128    1.757    0.431
       206 -10.0951     76.1578     32.1154   6.9704042069e+01   6.0111867232e+01    0.5098732    0.4296327  69.97  0.002439299    1.802    0.445
       207  -9.6559     79.4259     23.9175   6.5109601046e+01   6.0591715117e+01    0.4915301    0.2581966  26.60  0.001357139    2.114    0.527
       208  -8.9846     84.5252     21.9210   6.2592671394e+01   5.9835060013e+01    0.2731663    0.2167081  18.31 0.0008381725    1.122    0.109
       209  -9.2230    153.9969     41.0852   5.2446860804e+01   4.1505343486e+01    0.4976542     0.201301 -42.40  0.001867145    2.665    0.625
       210  -9.8177     37.9650     42.2584   8.9325038291e+01   6.4120653611e+01    0.3288342    0.2924713 -88.29  0.001643326    1.853    0.460
       211 -10.3785     35.9085     38.0070   8.8642368174e+01   6.5116488183e+01    0.6862623    0.3425128 -15.89 0.0003681234    2.784    0.641
       212  -8.3961    122.8294     40.9100   5.9200360038e+01   4.9069127750e+01    0.4187266    0.2395865  14.08  0.001590993    2.885    0.653
       213  -8.5483    113.4726     42.0403   6.2025037077e+01   5.1052399902e+01    0.2714945    0.1793862  19.26  0.001170162    1.808    0.447
       214  -9.2772    110.2705     32.1591   5.9226443336e+01   5.3103001202e+01    0.6300521    0.2386526 -33.05  0.002308161    2.701    0.630
       215  -8.7960    104.9788     41.0041   6.4007501743e+01   5.3073089193e+01    0.3429831    0.2433264 -55.18  0.001022169    1.937    0.484
       216  -8.7204    105.9949     36.5075   6.2028673919e+01   5.3480243121e+01    0.3472765    0.2001125  29.96  0.001174121    1.912    0.477
       217  -8.8045    139.5598     39.8435   5.4973431400e+01   4.5221060706e+01    0.3927509    0.2337731 -43.20  0.001293081    1.849    0.459
       218  -8.8246    144.2363     36.5326   5.2909220797e+01   4.4508572798e+01    0.2703891    0.2208263 -59.90 0.0005225475    1.403    0.287
       219  -9.3244    100.9016     32.5403   6.1954187011e+01   5.5113561461e+01    0.4925918    0.2267722 -27.42  0.001472221    2.288    0.563
       220  -7.2004      7.6325     36.7861   1.0173268108e+02   6.7727464230e+01    0.1180959   0.06737199 -24.82 0.0002508386    1.572    0.364
       221  -8.8244    118.9153     34.4998   5.7878261059e+01   5.0832256596e+01    0.2870166    0.1985405 -26.06 0.0006919311    1.523    0.343
       222  -8.9609    212.6403    218.2054   8.3787638212e+01  -2.3962008175e+00    0.2466901    0.2259619 -46.05  0.001021394    1.549    0.355
       223  -7.8258     55.6775    215.4657   1.1637689342e+02   2.2503484265e+01    0.1894752    0.1657984 -72.86 0.0008081659    1.272    0.214
       224  -6.9529    100.7377    214.7482   1.0671944903e+02   1.6435188183e+01    0.1131066    0.1005122  -0.37            0    1.435    0.303
       225  -8.7721    201.0018    212.3577   8.5020373356e+01   3.4864971456e-01    0.2113439    0.1955777   7.22  0.000459142    1.198    0.165
       226  -8.4475    153.5143     34.5027   5.0469642359e+01   4.2471704278e+01    0.2260667    0.1868063 -43.46 0.0008092605    1.288    0.224
       227  -9.1542    152.8954     30.3221   4.9265654366e+01   4.3132564327e+01    0.2906994    0.2052963 -72.28  0.001247076    1.769    0.435
       228 -10.4371    232.3220    211.3482   7.8854164732e+01  -4.3853293453e+00    0.2212719    0.1855829   1.61 0.0002241625    1.104    0.094
       229  -8.8382     42.3678     28.1896   8.1663786102e+01   6.5996870386e+01    0.2327368    0.1607369 -16.62 0.0001972813    1.267    0.211
       230  -7.4910    124.2508    209.6387   1.0085810958e+02   1.3741481271e+01    0.1326022    0.1004157  75.08 0.0002046433    1.613    0.380
       231  -8.6656     92.0047     20.9813   5.9912353929e+01   5.8413513116e+01    0.3538934    0.1854163  26.22  0.001185663    2.226    0.551
       232  -8.2097    161.6803     29.0700   4.7368336292e+01   4.1095357305e+01    0.1822567    0.1799047 -42.41   0.00062812    1.097    0.089
       233  -8.9033    144.8887     26.2673   4.9428705310e+01   4.5582385486e+01    0.4353961    0.2659584 -74.45  0.001854399    2.514    0.602
       234  -8.9172    155.1319     26.8151   4.7774606861e+01   4.2984532766e+01    0.3768522    0.1854841  74.85  0.001519427    2.373    0.579
       235  -8.7897    128.3972     25.8762   5.2601759854e+01   4.9638639829e+01    0.2844982    0.2104838 -64.62 0.0005475668    1.773    0.436
       236  -8.6452    129.6563     21.6768   5.0864498970e+01   4.9798383197e+01    0.3151387    0.1967708  31.16  0.001525078    1.751    0.429
       237  -8.8831    132.6935     16.9825   4.8629429846e+01   4.9549716190e+01    0.2465739    0.2123586  43.95  0.001086061    1.067    0.062
       238  -8.9043    201.9743    207.9123   8.4024486578e+01   8.9975654640e-01    0.2034127    0.1729974  -6.87 0.0002930863    1.098    0.090
       239  -8.0569     15.5209    206.0143   1.2375259635e+02   2.8841719458e+01    0.1989876    0.1288004  55.98  0.001308751    1.335    0.251
       240  -9.2775      7.6632    208.1776   1.2540237139e+02   2.9108693036e+01    0.3316768    0.1408075  35.87  0.001862698    2.276    0.561
       241  -9.2122     11.9736    206.9757   1.2450391835e+02   2.8969273277e+01      0.50974    0.2016301  82.12  0.002433964    2.627    0.619
       242  -9.0458    139.6074     22.2385   4.9090516598e+01   4.7323003290e+01      0.37902    0.2580695 -70.65  0.001602788    1.969    0.492
       243  -7.9644    139.9706     17.9842   4.7605525115e+01   4.7677352105e+01    0.2332419    0.1668389 -43.19  0.000646855    1.564    0.361
       244  -7.0623    212.3369    203.7312   8.1213188755e+01  -1.2736168907e-01    0.1179869    0.1055895  56.63 0.0003371233    1.596    0.373
       245  -7.3461    155.2979     22.3410   4.6354955325e+01   4.3439307132e+01    0.1430026   0.09730023  33.45 0.0007034073    1.665    0.399
       246  -8.3164    111.6284     21.2300   5.4748211207e+01   5.4080952660e+01    0.3345615    0.2062594 -15.05  0.001662864    1.813    0.448
       247  -8.1079    202.4955    203.0507   8.3024845523e+01   1.6027289555e+00    0.1943209    0.1573458  22.15  0.000301899    1.109    0.099
       248  -7.5747    229.3731    199.3060   7.7140851330e+01  -2.1580972816e+00    0.1626809    0.1142494 -36.25 0.0004297979    1.494    0.331
       249  -9.2354    192.0708    194.2805   8.3487278204e+01   4.8719828995e+00    0.7738495    0.3942635 -60.04  0.002455423    5.132    0.805
       250 -10.2502    169.9996    198.1210   8.8875382602e+01   8.0793016084e+00     0.246992     0.231493 -16.53 0.0003549697    1.122    0.108
       251  -8.4044    122.0955    196.3782   9.9322979136e+01   1.6806851913e+01    0.1969032    0.1852383 -33.75 0.0003211769    1.175    0.149
       252  -9.2171     54.6244    188.8313   1.1396742247e+02   2.8418516838e+01      0.20796    0.1908324 -88.84 0.0003854241    1.127    0.112
       253  -7.4805    222.9740    187.9991   7.6135121901e+01   6.4136654910e-01    0.1579875    0.1323927   9.12 -0.005334738    1.069    0.065
       254  -7.0507    151.5001     19.5247   4.6101463091e+01   4.4679186435e+01    0.1375445    0.1230233  58.93 0.0008100648    1.023    0.023
       255  -7.4797    155.2842     17.6257   4.4896357454e+01   4.3937068189e+01    0.1409119    0.0966178 -62.78 0.0007015701    1.712    0.416
       256  -8.5697     95.8370     16.8084   5.7101579275e+01   5.8056383944e+01     0.219621    0.1889191 -33.71 0.0003919659    1.363    0.266
       257  -8.5884    191.5420    182.9834   8.1384999390e+01   6.9826478437e+00    0.2262021     0.186943  34.57  0.001246083    1.198    0.166
       258  -7.3340    177.2694    180.5922   8.3951286711e+01   1.0061182892e+01    0.1402722    0.1167431 -83.00 0.0002073455    1.759    0.431
       259 -10.4324    100.9886    175.9763   1.0108058076e+02   2.4802391675e+01    0.1998336    0.1893697  71.87  0.001162663    1.001    0.001
       260  -7.3938    244.4597    174.4900   6.9515480219e+01  -7.1465726662e-01    0.1322287    0.1117819 -14.20 0.0002605703    1.069    0.064
       261  -7.4263    119.4520    173.4033   9.6065450187e+01   2.2265575993e+01    0.1430926    0.1377457  35.64 0.0001423384    1.043    0.041
       262  -8.6620     55.9024    173.1022   1.1183971593e+02   3.1903344418e+01    0.1878717    0.1669812  88.41  0.001171248    1.022    0.022
       263  -7.1867    220.2664    172.7093   7.3535975142e+01   3.6363848661e+00    0.1219593    0.1105459 -60.79 0.0002520766    1.503    0.335
       264  -7.8405    230.4814    167.9886   7.0649107458e+01   2.6523709775e+00    0.1884917     0.113048 -54.55 0.0008103005    2.579    0.612
       265  -8.9913    234.6570    155.1394   6.7166201940e+01   4.0690878986e+00    0.2850669    0.1107609 -42.85   0.00109756    2.568    0.611
       266  -7.5836    149.7560    153.9725   8.4695116869e+01   2.0876566423e+01    0.2020392    0.1921692 -30.29 0.0002293008    1.053    0.051
       267  -8.7818    133.7479    146.8635   8.7111455309e+01   2.5639579188e+01    0.7142686    0.1914806 -52.05  0.001906434    4.298    0.767
       268  -9.7954    236.9295    145.8449   6.4750918121e+01   5.2256214612e+00    0.5309137    0.2470663  26.68  0.001893171    3.646    0.726
       269  -9.4465     66.7933    143.9861   1.0473246118e+02   3.7575119888e+01    0.5428768    0.3566453  71.27  0.002141797    1.913    0.477
       270  -8.6103    112.2177    133.6418   8.9861555316e+01   3.2842036555e+01     0.316949    0.2441556  83.81   0.00100596    1.728    0.421
       271  -9.1232     83.2110    131.5316   9.7673851554e+01   3.8292789391e+01    0.6391223    0.3921958  77.43   0.00242713    2.873    0.652
       272  -9.5259    135.6128    132.2330   8.3239779942e+01   2.8585914269e+01    0.7489327    0.2502537 -46.19  0.002337754    2.956    0.662
       273  -8.5896    131.8138    131.0135   8.3939315353e+01   2.9637254022e+01     0.345741    0.2392725 -82.14  0.001352009    2.372    0.578
       274 -10.9783     70.1739    126.4935   1.0050846432e+02   4.1434640079e+01    0.8681013    0.6421848 -32.56  0.001643709    1.510    0.338
       275 -10.2865     58.3937    124.6257   1.0370450326e+02   4.3431522748e+01    0.7030262    0.4140254  81.68  0.002431608    2.780    0.640
       276  -8.2254    142.1069    131.6109   8.1418534740e+01   2.7381389305e+01    0.5460728    0.2560467  61.96  0.001336434    5.716    0.825
       277  -9.7140    195.6505    129.1741   6.8578057294e+01   1.6381536150e+01    0.2663933    0.2512066 -18.60 0.0003020514    1.012    0.012
       278  -9.7303     98.6139    128.6127   9.2562035064e+01   3.6483649437e+01     0.637013    0.4015658  73.45  0.002298086    2.791    0.642
       279 -10.2777    117.2626    125.5606   8.6553699604e+01   3.3783317577e+01    0.9965787    0.5944014  64.78  0.003608923    2.758    0.637
       280 -10.0606    140.4973    118.3125   7.8478250126e+01   3.0661017644e+01    0.7537038    0.3649104 -49.27  0.001144911    2.155    0.536
