#   1 NUMBER                 Running object number                                     
#   2 MAG_AUTO               Kron-like elliptical aperture magnitude                    [mag]
#   3 X_IMAGE                Object position along x                                    [pixel]
#   4 Y_IMAGE                Object position along y                                    [pixel]
#   5 X_WORLD                Barycenter position along world x axis                     [deg]
#   6 Y_WORLD                Barycenter position along world y axis                     [deg]
#   7 A_WORLD                Profile RMS along major axis (world units)                 [deg]
#   8 B_WORLD                Profile RMS along minor axis (world units)                 [deg]
#   9 THETA_WORLD            Position angle (CCW/world-x)                               [deg]
#  10 FWHM_WORLD             FWHM assuming a gaussian core                              [deg]
#  11 ELONGATION             A_IMAGE/B_IMAGE                                           
#  12 ELLIPTICITY            1 - B_IMAGE/A_IMAGE                                       
         1 -14.5806    184.9976    111.8430   2.9031809083e+02   5.3982687891e+00    0.1077455   0.08065616  51.41   0.01208777    1.488    0.328
         2 -15.1725    139.7297     71.7493   2.9060610910e+02   6.0939225100e+00    0.1157838   0.07906866 -25.30   0.01220858    1.664    0.399
         3 -15.9356     27.4244     93.0756   2.9202727343e+02   6.4584124549e+00    0.1925301    0.1344984 -68.71   0.02097971    1.523    0.343
         4 -14.2104     50.1273     99.5754   2.9180282724e+02   6.2633432041e+00     0.123384   0.03870751 -55.36  0.009523799    2.826    0.646
         5 -15.7621    144.8411    109.7294   2.9076874665e+02   5.6389694504e+00    0.1905365    0.1111454 -84.82   0.01715751    2.490    0.598
         6 -13.0857    172.2689     63.7420   2.9018393848e+02   6.0081476818e+00   0.04765281    0.0276366  39.48  0.004762387    1.761    0.432
         7 -14.1800     53.7461     49.5120   2.9146944384e+02   6.8073878296e+00   0.05835975   0.04697807 -53.95  0.006902801    1.221    0.181
         8 -15.1106    126.7229    104.5827   2.9094774641e+02   5.7946511990e+00    0.1577634   0.08949914  81.35    0.0127584    3.241    0.691
         9 -15.1530     73.8178     49.6478   2.9123827298e+02   6.6978974711e+00    0.1068144   0.08322582  47.02   0.01232457    1.377    0.274
        10 -11.9029     59.6522      5.1291   2.9114221141e+02   7.2747474008e+00   0.03474059   0.01841612   8.77  0.003072604    2.387    0.581
        11 -11.1119    130.4924    240.9788   2.9169768796e+02   4.2383925161e+00   0.01474245  0.009676656 -88.37  0.001450426    2.050    0.512
        12 -10.6724     55.8395    227.3725   2.9247883207e+02   4.7929841560e+00    0.0160962   0.01020745  50.57  0.001624934    1.823    0.451
        13 -10.0509     38.5028    218.9688   2.9262998752e+02   4.9806993778e+00   0.01006446  0.006305167 -60.85  0.001031838    1.587    0.370
        14 -10.5398    177.8360    216.5117   2.9101041113e+02   4.2587968983e+00   0.01497254   0.01071888  41.44  0.001522595    1.450    0.310
        15 -11.3273    107.5019    212.3305   2.9179624092e+02   4.6848104690e+00   0.03478958  0.008390803 -52.06  0.002395069    3.528    0.717
        16 -15.5453     72.8913    193.8217   2.9208776195e+02   5.0794352652e+00    0.1401733    0.1000075  45.56   0.01543779    1.502    0.334
        17 -11.7478    123.1329    207.7894   2.9158975834e+02   4.6518289111e+00   0.03399955  0.009715399 -45.99            0    3.688    0.729
        18 -12.2488    177.9448    200.5280   2.9091617556e+02   4.4381609113e+00   0.03740798   0.02094421  10.40  0.003485648    2.120    0.528
        19 -12.2778    149.8825    210.0619   2.9129480376e+02   4.4821368777e+00   0.05715431     0.022155  33.60   0.00479304    2.429    0.588
        20 -10.2651     21.5240    206.4784   2.9275341715e+02   5.2124808391e+00    0.0122147  0.008677546  60.42  0.001291878    1.718    0.418
        21 -10.6833    218.2002    205.8046   2.9048352802e+02   4.1614512890e+00   0.01631045   0.01085804  37.10   0.00174146    1.513    0.339
        22 -10.4658    191.7620    208.3888   2.9080284145e+02   4.2751072002e+00   0.01217592  0.008422866 -78.81  0.001275216    1.709    0.415
        23  -9.9044    152.9659    199.0173   2.9119507207e+02   4.5898890588e+00   0.01111737  0.007352497 -28.31  0.001135458    1.712    0.416
        24 -10.7961    113.4246    192.7214   2.9161409814e+02   4.8738175463e+00   0.02066944   0.01338828 -78.89  0.002083763    1.883    0.469
        25 -10.0934    228.3268    193.6695   2.9029632610e+02   4.2433002806e+00  0.006818205  0.004873541  60.60 0.0007051057    1.708    0.415
        26 -11.6000    193.8225    191.4166   2.9068032278e+02   4.4550355868e+00   0.02122889   0.01701939   6.14  0.002478323    1.295    0.228
        27 -11.9138     36.7723    189.8923   2.9248149130e+02   5.3176306682e+00   0.02735017   0.01395361 -58.16  0.002590667    1.887    0.470
        28 -11.0846    139.9915    188.9025   2.9128572853e+02   4.7737294617e+00   0.02222862   0.01258931 -64.68  0.002175312    1.826    0.452
        29 -12.9025      8.1482    187.6318   2.9279855547e+02   5.4965290030e+00   0.04131535   0.02654098  -2.01  0.004126398    1.905    0.475
        30 -12.6565    206.9887    185.0933   2.9049192197e+02   4.4551037789e+00   0.04939727   0.02780851  -3.01  0.004327818    2.536    0.606
        31 -10.4702    122.7513    187.6355   2.9147704296e+02   4.8808818475e+00   0.01766177   0.01120135  60.30   0.00171947    2.076    0.518
        32 -10.5043    121.2769    181.7885   2.9146004611e+02   4.9546770717e+00   0.01589575   0.01196414 -34.06  0.001791044    1.370    0.270
        33 -13.8487     94.4099    191.0061   2.9182332148e+02   4.9954629687e+00   0.06971157   0.05343181  70.99  0.007772238    1.605    0.377
        34 -10.5467    130.5371    184.3290   2.9136808490e+02   4.8761818030e+00   0.01611765   0.01155104  38.67  0.001782608    1.422    0.297
        35 -11.7552    167.2008    179.5778   2.9091798307e+02   4.7320009507e+00   0.03181842   0.02343863 -80.96  0.003495283    1.590    0.371
        36 -10.6416    169.5003    172.0243   2.9084751342e+02   4.8046329302e+00   0.01237911   0.01134382 -15.32  0.001546248    1.081    0.075
        37 -10.6473    166.5037    168.9916   2.9086437681e+02   4.8549481037e+00   0.01541162   0.01228821 -58.92  0.001800626    1.252    0.201
        38 -12.6721     19.2732    178.1431   2.9261524938e+02   5.5438521099e+00   0.03184764    0.0163471 -59.98  0.003017356    1.903    0.475
        39 -10.6309    103.3026    183.5731   2.9167762328e+02   5.0313477359e+00   0.01773444   0.01273583  62.78  0.001892008    1.721    0.419
        40 -10.4713    182.2057    175.4171   2.9072091889e+02   4.6978567804e+00   0.01998181   0.00807855 -69.85  0.001521042    3.120    0.679
        41 -11.4758     99.9196    175.1398   2.9166762228e+02   5.1445478435e+00   0.02440261   0.01258863  49.15  0.002169738    2.359    0.576
        42 -11.7079    195.6641    173.4711   2.9055459116e+02   4.6470847575e+00    0.0141489   0.01291657 -53.06  0.001768305    1.092    0.084
        43 -10.8348    108.2941    172.7372   2.9155709612e+02   5.1265337305e+00   0.03040699   0.01076689  47.72  0.002024252    4.180    0.761
        44  -9.5630    109.4879    169.4977   2.9152449651e+02   5.1565945053e+00  0.009993097  0.006318747   7.36 0.0009448198    1.817    0.450
        45  -9.9944    116.4826    171.8624   2.9145759979e+02   5.0922950123e+00    0.0123899  0.007465317  -8.59  0.001138803    2.236    0.553
        46 -11.5718     26.8462    169.2072   2.9247607378e+02   5.6039451113e+00   0.01797784   0.01470534 -11.27  0.002114151    1.291    0.225
        47 -10.3179    215.7365    168.3992   2.9029393474e+02   4.5957069105e+00   0.01223868  0.008438571 -78.57   0.00127965    1.714    0.417
        48 -11.0721    149.1156    166.6594   2.9105116353e+02   4.9750124232e+00    0.0346572   0.01327965  36.74  0.002859052    2.529    0.605
        49 -11.9347    151.1926    160.3266   2.9099035633e+02   5.0351135980e+00   0.03305889   0.01750219 -53.41  0.003194457    1.801    0.445
        50 -10.7221    141.6463    169.1297   2.9115162810e+02   4.9874730371e+00   0.01685783  0.008862705  31.92  0.001613044    1.843    0.457
        51 -11.6594     49.1702    166.9055   2.9220514932e+02   5.5101024808e+00   0.02790431   0.01339545 -52.31  0.002573826    1.972    0.493
        52 -11.5597    175.1777    165.0365   2.9074140830e+02   4.8526543561e+00    0.0323562   0.01707286 -59.31  0.003107144    1.848    0.459
        53 -10.8321    126.0097    167.2415   2.9132088685e+02   5.0930161205e+00   0.01784319   0.01426304  14.44   0.00208519    1.266    0.210
        54 -12.9392    199.9179    160.8247   2.9043190481e+02   4.7664378134e+00   0.03311347   0.03078751  18.79  0.004198029    1.070    0.065
        55 -10.5196    162.4915    164.9870   2.9088728453e+02   4.9216833926e+00   0.01372729   0.01073705  69.94  0.001541475    1.548    0.354
        56 -10.8815     89.7061    163.9948   2.9172063411e+02   5.3250430904e+00   0.01435641   0.01164819 -69.28  0.001309326    1.297    0.229
        57 -10.7343    209.6116    163.0911   2.9033350024e+02   4.6885450643e+00   0.01429409   0.01120794 -29.37  0.001641621    1.325    0.245
        58 -11.8067     58.3882    160.7630   2.9206313669e+02   5.5298032060e+00   0.02413329   0.02155816  54.90  0.002982665    1.213    0.176
        59 -11.7716    102.8844    157.8822   2.9153310298e+02   5.3229722810e+00   0.03332707  0.008877113 -53.46  0.002399546    3.221    0.690
        60 -10.1434    113.7804    159.9597   2.9141952999e+02   5.2409029159e+00   0.01150591  0.009547487  23.57  0.001029761    1.197    0.164
        61 -10.9232     91.3762    158.1119   2.9166717414e+02   5.3823216097e+00   0.01507451   0.01120252  25.52  0.001701437    1.333    0.250
        62 -10.8121     14.0395    135.7352   2.9242970756e+02   6.0497175554e+00   0.02698601   0.01589904  79.65  0.002306002    2.871    0.652
        63 -13.1468     20.0337    153.9420   2.9246615342e+02   5.8124674696e+00   0.03595982    0.0329917  59.55   0.00431629    1.185    0.156
        64 -12.8682     12.7053    145.8262   2.9250366384e+02   5.9431814745e+00   0.03534263   0.02626211  18.63  0.003999175    1.358    0.264
        65 -11.3552    187.4157    153.7739   2.9053479984e+02   4.9133388640e+00    0.0251004   0.01586009  63.19  0.002415683    2.168    0.539
        66 -11.6260      2.8386    152.1455   2.9265420895e+02   5.9248371363e+00   0.02166854   0.01356579 -49.96      0.00226    1.547    0.354
        67 -11.0347    179.1346    153.5641   2.9062897620e+02   4.9604287776e+00   0.01370608  0.009219155 -51.17  0.001472057    1.442    0.307
        68 -10.3067    174.0727    154.1300   2.9069059491e+02   4.9813933877e+00   0.01400268  0.008632391  19.25  0.001421048    1.672    0.402
        69 -12.8557    116.3251    146.2664   2.9131050681e+02   5.3814042740e+00   0.04369339   0.03564745 -85.69  0.005108158    1.406    0.289
        70 -12.5237    105.7023    145.2637   2.9142719687e+02   5.4499136092e+00   0.03827411   0.02954195 -68.28  0.004395584    1.361    0.265
        71 -10.7620    106.5656    137.4026   2.9137148984e+02   5.5337913254e+00   0.01561723   0.01329299 -26.11  0.001864814    1.191    0.160
        72 -10.8929    232.7170    151.1510   2.8999788785e+02   4.6979476533e+00    0.0231583  0.009506592 -57.71  0.001983142    2.291    0.563
        73 -10.9586    193.5023    161.5592   2.9051007042e+02   4.7928342550e+00   0.01820078   0.01154757 -70.47  0.001858518    1.737    0.424
        74 -10.7738    126.9274    150.5264   2.9121303487e+02   5.2763023086e+00   0.01781739   0.01166398 -49.98  0.001894308    1.483    0.326
        75 -10.0899     60.9579    150.7479   2.9197531513e+02   5.6288224420e+00   0.01282163  0.008467603  40.93  0.001351611    1.568    0.362
        76 -10.5726    161.6785    147.9830   2.9079760320e+02   5.1174996348e+00   0.01573374   0.01184078  71.85  0.001718222    1.662    0.398
        77 -11.3488    138.7395    145.3004   2.9104640764e+02   5.2714629456e+00    0.0300834   0.01916044 -44.93    0.0031491    1.558    0.358
        78 -11.4087      3.4884    145.6313   2.9260893551e+02   5.9947531849e+00   0.01464181    0.0121053  82.37  0.001526682    1.421    0.296
        79 -10.5253     80.9222    144.9563   2.9171128882e+02   5.5867381216e+00   0.01675241    0.0106807  81.76  0.001571241    2.330    0.571
        80  -9.8789     83.1925    141.5882   2.9166550736e+02   5.6124617068e+00   0.01115351  0.008158195  -4.26 0.0009132432    1.536    0.349
        81 -11.8462    198.4294    142.8843   2.9034444060e+02   4.9763773693e+00   0.01809448   0.01170215 -75.52  0.001839706    1.810    0.448
        82 -10.2398     53.6867    143.2027   2.9201539155e+02   5.7528780835e+00   0.01124186  0.009628757  11.79  0.001266068    1.171    0.146
        83 -10.4168     28.7247    140.2867   2.9228658734e+02   5.9197087809e+00   0.01153957   0.01007073  58.26  0.001115165    1.264    0.209
        84  -9.9439    176.5742    138.6824   2.9057173016e+02   5.1417594229e+00   0.01172872   0.00724306  45.12  0.001177714    1.757    0.431
        85 -10.4777     92.6514    246.3139   2.9216444355e+02   4.3818494823e+00  0.006870198  0.004816385  58.15 0.0006395825    1.721    0.419
        86 -10.6286     44.1751    131.6497   2.9205805800e+02   5.9340908206e+00   0.01532622   0.01298332  41.28  0.001497282    1.224    0.183
        87 -10.5865    124.7496    130.1633   2.9111957892e+02   5.5173237715e+00   0.01409169    0.0138271 -87.67  0.001824714    1.084    0.077
        88 -10.6635    111.9680    130.9646   2.9127168686e+02   5.5771847814e+00   0.01502107   0.01380665 -50.00  0.001695354    1.078    0.073
        89 -10.9959    117.2928    127.1443   2.9118801079e+02   5.5915066572e+00   0.02311223   0.01215317 -76.64  0.002005205    2.539    0.606
        90 -10.3561    245.5854    128.8757   2.8971976402e+02   4.8788470371e+00   0.01383661  0.009369667  34.37  0.001489604    1.469    0.319
        91 -10.2672    233.7166    127.2113   2.8984664995e+02   4.9618244365e+00   0.01313994   0.01010835  68.39  0.001458496    1.584    0.369
        92 -12.7044    121.1496    239.9122   2.9179909106e+02   4.3006907884e+00   0.04148744   0.01209495 -52.80  0.003089817    3.022    0.669
        93 -11.2734     71.4762    133.9944   2.9175655140e+02   5.7609993119e+00   0.01990562   0.01739299   1.05  0.002436788    1.158    0.136
        94 -10.6975    106.2114    116.4346   2.9125348965e+02   5.7717940753e+00   0.01735398   0.01052435 -10.45  0.001615592    2.211    0.548
        95 -10.5616     97.4999    120.5173   2.9137779501e+02   5.7727458872e+00   0.01308472   0.01048775   2.68  0.001400396    1.308    0.235
        96 -11.9860     99.6327    116.1584   2.9132779982e+02   5.8103388407e+00   0.02465922   0.02114303  -8.93  0.002264006    1.199    0.166
        97 -11.5306     65.9233    117.3474   2.9172382368e+02   5.9783337052e+00   0.02505395   0.01512704 -57.61  0.002569459    1.612    0.380
        98 -12.2423     63.6855    108.4981   2.9169817281e+02   6.0900131661e+00   0.05193337   0.02805447  24.42   0.00502482    1.843    0.458
        99 -12.4224     73.4342    231.4533   2.9229971845e+02   4.6525291991e+00   0.04048121   0.01452895 -67.20  0.002993651    3.271    0.694
       100 -10.2309    168.3433    236.5695   2.9123629007e+02   4.0841536493e+00   0.01286387   0.00581331  30.25  0.001139494    2.115    0.527
       101 -11.9233    114.5685    113.4050   2.9113940682e+02   5.7608719250e+00   0.02184495   0.01033326  37.51  0.001977941    2.101    0.524
       102 -10.0923     88.4645    134.0656   2.9156091584e+02   5.6688184663e+00   0.01581854  0.008981591 -24.58  0.001417764    2.334    0.572
       103 -10.9750    106.5058    109.9503   2.9121231982e+02   5.8432107076e+00   0.01559653   0.01112428 -42.55  0.001393112    1.397    0.284
       104 -10.6685     52.6635    133.7906   2.9197250908e+02   5.8643932824e+00   0.01575151   0.01178525 -51.92  0.001787349    1.303    0.233
       105 -11.4381    107.4701    103.0373   2.9116091082e+02   5.9158370513e+00   0.01870309   0.01128971  17.56  0.001876094    1.741    0.425
       106 -12.3470    186.7527    131.9408   2.9041512976e+02   5.1626361997e+00   0.03245573   0.02192425  10.81  0.003440055    1.602    0.376
       107 -12.2036    210.7527     96.4026   2.8993116024e+02   5.4326317231e+00   0.03714224    0.0230471  39.01  0.003840787    1.640    0.390
       108 -10.9231     77.2645     95.0421   2.9146303921e+02   6.1684841762e+00    0.0154055   0.01321594 -68.17   0.00186279    1.216    0.178
       109 -11.3213    195.4868     92.5514   2.9008456656e+02   5.5585580987e+00     0.019142   0.01524308  66.90  0.002189596    1.489    0.329
       110 -12.0481     94.6459     87.9947   2.9122128326e+02   6.1542455410e+00   0.03009802   0.01918594 -58.12  0.003169304    1.537    0.349
       111 -14.3129    104.3508     79.8167   2.9106155537e+02   6.1939984268e+00   0.07394689   0.06417263  19.87  0.009069165    1.144    0.126
       112 -13.9361    101.1716     69.2756   2.9103678478e+02   6.3297485347e+00   0.07828304   0.03360386  21.17  0.006594398    2.475    0.596
       113 -12.1524     81.3946     86.3849   2.9136491374e+02   6.2437117137e+00   0.03306901   0.01981707 -12.58  0.003059475    2.267    0.559
       114 -10.5392    144.3978    235.2198   2.9150413354e+02   4.2283750893e+00  0.009297321  0.006337603 -77.64 0.0009589429    1.722    0.419
       115 -13.0451    152.8807     90.0292   2.9056108453e+02   5.8172491212e+00   0.05328459   0.03041662  47.40  0.005133432    1.992    0.498
       116 -12.2653      7.0968    118.2028   2.9240810812e+02   6.2844150096e+00   0.03343394   0.01637557  31.96  0.003116202    1.967    0.492
       117 -10.3125    203.1761     84.4426   2.8994858087e+02   5.6081412987e+00   0.01362081  0.009876819 -29.44    0.0014903    1.480    0.324
       118 -10.7594    198.1327     79.0977   2.8997547080e+02   5.6955432973e+00   0.01522576  0.009111078  30.34  0.001547568    1.634    0.388
       119 -12.0431     62.7023     74.4850   2.9151148686e+02   6.4782120367e+00   0.03526582    0.0206366 -78.27   0.00331347    2.192    0.544
       120 -12.0473     58.4534     67.8397   2.9152185997e+02   6.5758480634e+00   0.01601037   0.01507634 -38.59  0.002037153    1.040    0.038
       121 -11.6695     54.6950     66.0274   2.9155472863e+02   6.6164477663e+00   0.01257372  0.009815019  10.35 0.0008512826    1.322    0.243
       122 -11.9155      7.6031    110.9394   2.9236007992e+02   6.3635123749e+00   0.03723914   0.02108835  36.52  0.003699507    1.759    0.431
       123 -11.0192    114.3262    233.0385   2.9183779975e+02   4.4148297821e+00   0.01895782  0.009442661 -53.40  0.001774017    1.904    0.475
       124 -12.3847     12.9883    228.1700   2.9297732538e+02   5.0137596545e+00   0.03671239   0.02449473  37.27  0.003946727    1.512    0.338
       125 -10.8235    113.8153     59.5169   2.9083384455e+02   6.3713739473e+00   0.01584927    0.0122554   4.18   0.00180535    1.371    0.271
       126 -11.1520     86.7161    117.0391   2.9148200461e+02   5.8699621655e+00   0.01449674   0.01284062 -51.00  0.001230603    1.114    0.102
       127 -12.8189      6.1099     50.3988   2.9202533146e+02   7.0530912933e+00   0.05640045   0.02985292 -29.96   0.00493653    2.450    0.592
       128 -12.4737    124.7068     41.9722   2.9060563321e+02   6.5099340134e+00   0.02775657   0.02219575  49.51  0.003235851    1.357    0.263
       129 -12.1174    124.7328     50.2636   2.9065376235e+02   6.4165518961e+00     0.016848   0.01556898   6.38  0.002060535    1.069    0.065
       130 -11.3819     85.3503    109.5702   2.9145428723e+02   5.9614090925e+00   0.02323643   0.01726968 -61.13  0.002628521    1.351    0.260
       131 -10.6438    249.6210     45.1924   2.8918402274e+02   5.7975620487e+00    0.0098076  0.005517785 -50.52 0.0009558221    1.714    0.416
       132 -11.7605    204.8304    228.4510   2.9076917407e+02   3.9787549278e+00   0.03358219   0.01666349  24.60  0.003108773    2.008    0.502
       133 -10.8828    113.1582     42.4400   2.9074173142e+02   6.5669909788e+00   0.01455539   0.01072159 -48.31  0.001636448    1.326    0.246
       134  -9.5758    137.3057     36.6731   2.9042920433e+02   6.5014853253e+00  0.006681803  0.004910991  61.84 0.0004656553    1.650    0.394
       135 -12.6081    131.0397     55.6508   2.9061241069e+02   6.3219196484e+00    0.0481017    0.0214082  20.17   0.00410172    2.425    0.588
       136 -10.8132    168.3727    135.0046   2.9064480707e+02   5.2274493167e+00    0.0148661   0.01356899 -46.74  0.001859408    1.078    0.072
       137  -9.9947    134.5028     44.9550   2.9050995672e+02   6.4235051738e+00   0.01006172  0.006337833 -61.46   0.00103308    1.590    0.371
       138 -11.0989    101.0256     29.2946   2.9080510489e+02   6.7802404694e+00   0.02216431   0.01205265  11.22   0.00202527    2.190    0.543
       139 -10.1064    181.2182    223.1894   2.9101031110e+02   4.1653752632e+00   0.00928104  0.007701022  58.36  0.001082354    1.354    0.262
