#   1 NUMBER                 Running object number                                     
#   2 MAG_AUTO               Kron-like elliptical aperture magnitude                    [mag]
#   3 X_IMAGE                Object position along x                                    [pixel]
#   4 Y_IMAGE                Object position along y                                    [pixel]
#   5 X_WORLD                Barycenter position along world x axis                     [deg]
#   6 Y_WORLD                Barycenter position along world y axis                     [deg]
#   7 A_WORLD                Profile RMS along major axis (world units)                 [deg]
#   8 B_WORLD                Profile RMS along minor axis (world units)                 [deg]
#   9 THETA_WORLD            Position angle (CCW/world-x)                               [deg]
#  10 FWHM_WORLD             FWHM assuming a gaussian core                              [deg]
#  11 ELONGATION             A_IMAGE/B_IMAGE                                           
#  12 ELLIPTICITY            1 - B_IMAGE/A_IMAGE                                       
         1 -11.4229      6.2216     35.4324   9.3816264655e+01   6.8564670774e+01    0.8156675    0.5058782 -46.27  0.005148179    1.412    0.292
         2 -10.6460     92.8983     43.8411   6.1108370852e+01   5.4569582364e+01    0.8597222    0.7555013  77.93  0.004650936    1.404    0.288
         3 -12.3917    107.6828     29.0790   5.1957505588e+01   5.3274417453e+01    0.4454208    0.3605691  16.94  0.002625356    1.358    0.264
         4 -12.7590    105.1620     20.7784   4.9662132137e+01   5.4754903017e+01    0.2964931    0.2608162  62.14 0.0004706116    1.110    0.099
         5  -9.9135     50.6620     22.1853   6.7211060752e+01   6.5339924353e+01    0.4475153    0.2278031 -16.07  0.001612515    2.535    0.606
         6 -10.3922     28.1553     20.7211   7.6649463976e+01   6.8775353728e+01    0.5936521    0.3443795  20.76  0.003190683    1.614    0.380
         7 -11.3512     40.3829     20.9030   7.1008974811e+01   6.7092084923e+01     0.542183    0.4176866  70.12   0.00139325    2.828    0.646
         8 -10.2689     30.1840     28.7788   7.9137907075e+01   6.7345816954e+01    0.6142255     0.286267 -20.20  0.002678228    3.015    0.668
         9 -11.5311     18.5447     26.4939   8.3995008215e+01   6.9003474960e+01    0.9956348    0.3617694 -50.92  0.001147673    3.472    0.712
        10 -11.8157     14.0403     10.7237   7.9395352655e+01   7.1781552097e+01    0.2870634    0.1866226 -13.26  0.001910559    1.323    0.244
        11 -11.1367     16.0336      3.4855   7.4680141492e+01   7.2486262158e+01    0.4599616     0.245154   1.48  0.002089596    2.175    0.540
        12 -11.4585     20.9861      6.2245   7.3416104160e+01   7.1559175094e+01    0.3234691    0.2092121   3.76 0.0005390415    1.383    0.277
        13 -10.2272      6.5371      9.1800   8.2947143480e+01   7.2739250042e+01    0.3401481    0.1859099 -20.69  0.001441427    1.658    0.397
        14 -11.5705    179.1117      2.3386   3.2860467825e+01   3.9300332824e+01    0.4853472    0.1758765  60.69   0.00143647    2.389    0.581
        15 -11.0631    176.1386     13.0073   3.5759271181e+01   3.8946474700e+01    0.7894654    0.4889037  86.22  0.004405674    1.485    0.327
        16  -9.8427    183.0699      7.2832   3.3644558278e+01   3.7925684145e+01    0.2256273    0.1954339 -71.00  0.000225691    1.132    0.117
        17 -10.7265    182.4080     18.3421   3.6360758000e+01   3.6934781694e+01    0.3037823    0.2253496  57.06 0.0002802254    1.409    0.290
        18 -10.1639    184.8163     13.1220   3.4849507405e+01   3.6936681790e+01    0.4483768    0.2428936 -47.89  0.001924405    1.795    0.443
        19 -10.7988    173.0990     22.9943   3.8622781058e+01   3.8587604572e+01    0.5147661    0.3259429 -87.25  0.001773118    1.605    0.377
        20 -11.5434    232.5597     23.5523   3.2737181194e+01   2.5402428186e+01    0.4441585    0.3603308  77.36  0.003116327    1.295    0.228
        21 -10.9278    230.9282     14.2238   3.1024378811e+01   2.6813938923e+01    0.4626585    0.2485316 -88.37  0.002658138    1.743    0.426
        22 -10.2118    131.2509     22.0705   4.4719186217e+01   4.8605693010e+01    0.4315631    0.2995462  18.45  0.002289052    1.937    0.484
        23 -11.4564     73.6188      4.1353   5.1431364352e+01   6.3022823482e+01    0.7108841    0.5335186  43.78  0.004630651    1.097    0.088
        24 -10.0706     70.2185     19.6951   5.8971209679e+01   6.2170256467e+01     0.447425    0.2713512 -37.52  0.002018129    1.930    0.482
        25  -9.3633     78.9336     11.6991   5.3012591859e+01   6.1272969566e+01    0.1810959    0.1404163  29.82 0.0002729222    1.153    0.132
        26  -9.2093     75.5104     12.4353   5.4315309858e+01   6.1892556849e+01    0.2308183    0.1739685  27.05 0.0005859538    1.205    0.170
        27 -11.1159     69.7596     11.2733   5.5602772260e+01   6.3137433564e+01    0.2532383    0.1799002  32.88 0.0002181765    1.206    0.171
        28 -11.8052     62.1531     17.0645   6.0626416870e+01   6.3966082222e+01    0.6384187    0.3187962  30.33  0.000355401    2.052    0.513
        29 -11.0701    218.3498     18.9157   3.2974167755e+01   2.8892986387e+01    0.4686927    0.2802733 -75.80  0.001011654    1.543    0.352
        30 -10.8923    166.1043     18.4332   3.8340305605e+01   4.0728108956e+01    0.3435348     0.283722  -7.28   0.00119387    1.622    0.383
        31  -9.6065    199.9406     18.3361   3.4527546533e+01   3.2960100402e+01    0.2844103    0.2070692 -22.64  0.001613344    1.810    0.447
        32  -9.7445    225.4631     17.6555   3.2128301771e+01   2.7546521793e+01    0.3404317    0.1799472 -28.37    0.0018192    2.367    0.578
        33 -10.5002    146.3806     12.5445   3.9427784829e+01   4.5984091806e+01    0.4496669    0.2348398  63.88  0.001292896    1.603    0.376
        34 -10.7923    208.8359      3.8964   3.0615219209e+01   3.2545396256e+01    0.4390774    0.2641473 -60.09  0.001325024    1.462    0.316
        35  -9.8823    218.5801     10.9043   3.1303079375e+01   2.9736546659e+01    0.4489236    0.1682296 -59.31  0.002035599    2.707    0.631
        36 -10.7333    210.7255     14.1575   3.2627169638e+01   3.1057450757e+01    0.3976948    0.2764923 -26.85  0.001452081    1.820    0.451
        37  -9.3809    212.9989     10.2112   3.1605382138e+01   3.0996010113e+01    0.2259168    0.1499733  86.63 0.0008759401    1.291    0.226
        38  -9.8452    116.6847     14.9811   4.5209619839e+01   5.2714459805e+01    0.2507975    0.2274419  -3.81 0.0009510688    1.274    0.215
        39 -11.5806    243.9243     13.5716   2.9978825148e+01   2.4303906277e+01     0.878697    0.3439504 -33.25  0.004402921    2.749    0.636
        40 -10.5816    248.1328      4.8327   2.8110969452e+01   2.4459190877e+01    0.2559531    0.1586902  86.27 0.0007495799    1.424    0.298
        41 -10.7615    249.9869      1.4343   2.7395671912e+01   2.4470465520e+01    0.1945649    0.1346185 -70.73  0.000326873    1.071    0.066
        42  -9.2916     51.8650     13.3426   6.2810994354e+01   6.6185188617e+01    0.3022312    0.1401141 -38.93 0.0009558474    2.648    0.622
        43 -11.1320    133.0578     12.6134   4.1504438335e+01   4.9122143060e+01    0.2697878    0.2360455 -62.72 0.0002755028    1.250    0.200
        44  -9.7070    127.0563      8.2374   4.1150741366e+01   5.0923986647e+01    0.3444962    0.2327777  83.55  0.001017133    1.508    0.337
        45 -11.3785     97.1548     11.5813   4.8230736185e+01   5.7426198988e+01    0.6224909    0.4617285  79.12   0.00162111    1.564    0.361
        46 -10.7017    106.5322      5.7946   4.4114859625e+01   5.5843375726e+01    0.4669101    0.3593245  25.24   0.00275366    1.404    0.288
        47  -9.1339     87.9365      6.1334   4.8405953760e+01   5.9894340041e+01     0.189453    0.1469163  46.30 0.0007364593    1.064    0.060
        48 -10.9449     24.8950      7.1418   7.1860837040e+01   7.0952659015e+01    0.3420866    0.1874273 -41.40  0.001969456    2.321    0.569
        49  -9.7239     30.9106     12.3770   7.1452486240e+01   6.9516252142e+01    0.3486334    0.1794303  32.24  0.001896831    1.747    0.427
        50 -10.4952    201.6687      7.9768   3.2077408857e+01   3.3687891719e+01    0.4380664    0.2349175  85.81  0.001579293    1.689    0.408
        51 -10.5212    191.4707      8.6628   3.3151253970e+01   3.5885413053e+01    0.4809378    0.2574348 -34.01  0.001922015    2.004    0.501
        52 -10.7111    195.8580      3.4522   3.1583833414e+01   3.5424453699e+01    0.4289334    0.2179163  77.35  0.001125361    1.693    0.409
        53 -10.4991    231.9823      6.2979   2.9411662002e+01   2.7469295617e+01    0.2925304    0.1517169 -47.97  0.001072794    1.637    0.389
        54 -11.3313    236.6029      8.0767   2.9439369457e+01   2.6352759936e+01    0.3881838    0.2545342 -47.57  0.002609576    1.379    0.275
        55 -11.0113    236.5758      3.0730   2.8498883367e+01   2.6893525202e+01     0.518672    0.2180595  82.18  0.002785979    2.198    0.545
        56 -10.0440    224.4341      9.8872   3.0650321410e+01   2.8624497627e+01     0.308299    0.1505768 -45.01  0.001134277    1.794    0.443
        57 -10.1327    166.5229      9.1295   3.5883331682e+01   4.1568807600e+01    0.3083817    0.2632997  68.03  0.001353588    1.153    0.132
        58  -9.1572     56.0481     10.4973   5.9944522469e+01   6.5761525428e+01    0.2087819    0.1439938   2.98 0.0006157901    1.477    0.323
        59  -8.8343     42.8687     10.3805   6.5096960804e+01   6.7985794420e+01    0.2357602    0.1418295  19.88   0.00137123    1.596    0.373
        60 -10.7313      7.7546     15.5290   8.5166283321e+01   7.1711700424e+01    0.4871917    0.2617392  -0.40  0.000867921    1.953    0.488
        61  -8.3011    113.5027      9.4538   4.3987426742e+01   5.3950626337e+01    0.1269017    0.1087295  64.62 0.0001028923    1.060    0.056
        62  -8.4101     37.8504      9.6863   6.6948113503e+01   6.8837582118e+01    0.1435703   0.09468355  40.35 0.0004209332    1.514    0.340
        63  -8.5674    119.9997      8.4407   4.2438934491e+01   5.2545195929e+01    0.1877287     0.106525  63.42  0.000377518    1.477    0.323
        64  -9.9494    152.8688      5.9645   3.6713217803e+01   4.5063218198e+01    0.2846018    0.1712389  44.96 0.0004849224    1.832    0.454
        65  -9.9865     62.0079      6.4642   5.6048171597e+01   6.5068568888e+01    0.3201379    0.2105745  60.15   0.00131461    1.752    0.429
        66  -8.5977     48.2430      7.7011   6.1633799925e+01   6.7394119911e+01     0.236108   0.09984514  52.31  0.001088212    2.720    0.632
        67 -11.2002    160.7643      2.8690   3.4932868428e+01   4.3489984303e+01    0.5883967    0.2873148  64.65  0.003055818    1.699    0.412
        68  -9.7630     38.1705      4.0572   6.4060683770e+01   6.9394433545e+01    0.2842341    0.2627071 -45.19  0.002085995    1.700    0.412
        69 -10.6932     31.0027      3.3086   6.6937794070e+01   7.0546460402e+01    0.2734539    0.1935389 -41.77 0.0009227545    2.048    0.512
        70 -10.1612    127.2062      1.8902   3.9153451776e+01   5.1418442254e+01     0.452182     0.179523  47.69  0.001806348    2.370    0.578
        71 -10.3234    217.7926      2.5963   2.9675545694e+01   3.0774688302e+01    0.2934776    0.2285927 -86.44  0.001727666    1.085    0.078
        72  -9.4634     50.1653      2.0549   5.8225156757e+01   6.7609053900e+01    0.2198144    0.1541623  28.51  0.001027124    1.161    0.139
        73  -8.8786    143.9787      1.8413   3.6724449206e+01   4.7505007813e+01    0.2139891    0.1105063  48.41  0.001088954    1.931    0.482
        74  -9.0693    135.8260      1.5918   3.7774603151e+01   4.9433348579e+01    0.1782253    0.1336699  76.59  0.001102856    1.149    0.130
        75 -10.2510    115.7040      1.9187   4.1070887241e+01   5.4070366600e+01     0.211717    0.1530107  64.74 0.0003227982    1.157    0.136
        76  -8.2902      3.3466      2.2593   8.1444201962e+01   7.3972782622e+01    0.1117417   0.06443939  -5.57 0.0004302791    1.598    0.374
        77 -10.6301     90.7658      1.9717   4.6131702009e+01   5.9624461162e+01    0.3053622    0.1782281  63.40 0.0009930142    1.547    0.354
        78 -11.2858      7.6486    122.7734   1.1201971907e+02   4.9361585082e+01    0.3964592    0.2799453 -36.58  0.001792444    1.504    0.335
        79  -9.6229    201.5035    249.5553   8.2948590903e+01  -6.1011059789e+00    0.2152161    0.1654347  13.66 0.0005442134    1.066    0.062
        80  -9.4630     39.1633    123.1859   1.0191581953e+02   4.6549521140e+01    0.2655498    0.1950435  -0.03 0.0008396818    1.679    0.404
        81  -9.8853    236.7104    121.6800   5.2555431415e+01   9.8863921358e+00    0.2318839    0.1999108 -20.22  0.001423998    1.253    0.202
        82  -9.4986     12.2303    106.9152   1.0820048205e+02   5.2894936016e+01    0.1880367    0.1571403 -87.13 0.0004164839    1.242    0.195
        83 -10.8418     19.9033    104.6133   1.0512197254e+02   5.2879471377e+01    0.5687667    0.3364477  20.69  0.002986119    1.921    0.479
        84 -11.6599     21.3687    119.5879   1.0714325625e+02   4.9124635514e+01    0.5587852    0.4029714  55.70  0.003127483    1.605    0.377
        85  -9.9495     20.5049    112.9296   1.0635220470e+02   5.0824056069e+01    0.2238888     0.197602  32.26 0.0008374071    1.298    0.229
        86 -10.6785     20.3139    108.9933   1.0574989793e+02   5.1793692618e+01    0.3745953    0.3124779 -28.90  0.002311351    1.245    0.197
        87  -9.6034    221.1356    119.5006   5.4462820138e+01   1.3155602378e+01    0.2550561    0.2391417 -80.21 0.0006847233    1.145    0.127
        88  -9.2514     93.7174    119.2567   8.3584050455e+01   3.9620982085e+01    0.2794064    0.2474331 -37.03  0.000850848    1.131    0.116
        89  -9.4661     53.0770    113.0885   9.5272723578e+01   4.7408436823e+01     0.287168    0.2044386  27.75 0.0005166738    1.513    0.339
        90  -9.6267     48.8563    111.8068   9.6434212708e+01   4.8244261371e+01    0.2982276    0.2062205 -71.27 0.0004982064    1.537    0.349
        91 -10.7021     45.1347    119.3721   9.9232527979e+01   4.6831516779e+01    0.4240523    0.2663459  27.49  0.001651764    1.738    0.425
        92 -10.2616     48.5444    115.4539   9.7305305667e+01   4.7393142574e+01    0.4479979    0.2651018  52.15 0.0009200463    2.117    0.528
        93  -8.8440    103.7253    119.0042   8.0535293948e+01   3.7819403698e+01     0.218948    0.1968476 -49.78 0.0004022369    1.098    0.090
        94 -10.0533      3.3805    117.1680   1.1264734450e+02   5.0991524041e+01    0.3741103    0.2495041 -58.18  0.002198806    1.248    0.199
        95  -9.3519     67.7608    118.5660   9.1603589849e+01   4.4056215761e+01     0.227716    0.1476087  31.99  0.001058617    1.626    0.385
        96  -9.3625     70.3159    116.0437   9.0197677342e+01   4.4286174011e+01    0.2506274     0.195461 -75.49 0.0003684761    1.455    0.313
        97 -11.1254     32.4515    112.8468   1.0226473236e+02   4.9782369306e+01    0.4054823    0.3175267  74.13  0.001593786    1.515    0.340
        98 -10.9604     14.0362    113.3831   1.0860663955e+02   5.1207676824e+01    0.5025168     0.280371 -41.51  0.001493546    1.761    0.432
        99  -9.4952     38.4640    116.5301   1.0091740619e+02   4.8269503722e+01    0.2496976    0.1983987 -42.45 0.0005187042    1.204    0.170
       100 -10.4122     62.7448    111.6817   9.1695252192e+01   4.6447656420e+01    0.5260343    0.2034741 -52.29            0    2.330    0.571
       101 -11.3927      4.9166    108.0051   1.1087553380e+02   5.3102801792e+01    0.7427936     0.510857 -67.17  0.002896569    1.212    0.175
       102 -10.6562    129.9626    113.7240   7.1900721493e+01   3.3671236833e+01    0.2848462    0.2628241 -54.48 0.0002115124    1.090    0.082
       103  -8.5858     76.5694    114.7461   8.7864461636e+01   4.3622539143e+01    0.2135763    0.1423093 -64.81 0.0004621903    1.646    0.392
       104  -8.8557    234.3282    112.6599   5.1018719869e+01   1.1861908550e+01    0.1384413    0.0943966 -66.50 0.0007051604    1.737    0.424
       105  -8.3573    121.5431    112.4697   7.3823141801e+01   3.5727720418e+01    0.1523153    0.1515529 -44.67 6.272158e-05    1.003    0.003
       106 -10.0180    102.6319    108.6393   7.8210438418e+01   4.0406155965e+01    0.3925819    0.2666271  -5.33  0.001559909    2.388    0.581
       107 -10.6891     62.6542    105.1912   9.0189367953e+01   4.8004724581e+01    0.5063576    0.3080756 -16.01  0.002054821    2.543    0.607
       108  -9.5471     72.2640    104.5965   8.6783828298e+01   4.6700142468e+01    0.8181093    0.2924219  49.70  0.002307437    4.817    0.792
       109  -9.3923     66.8925    107.8064   8.9383741300e+01   4.6769408526e+01    0.2281504    0.1869413 -27.44 0.0007622463    1.267    0.211
       110  -9.4706     57.9215    108.0638   9.2494026936e+01   4.7982457940e+01    0.2095663    0.1960222 -42.55 0.0003278806    1.010    0.010
       111  -9.5429     91.1629    105.5660   8.0903712162e+01   4.3261978948e+01    0.5157592    0.3326423 -81.03  0.001861151    2.831    0.647
       112  -9.6742     84.7138    103.1947   8.2326564624e+01   4.4952447086e+01    0.5306334    0.2519133 -37.52  0.001591325    2.442    0.591
       113 -10.5436     35.4596    104.3480   9.9541036170e+01   5.1536974593e+01    0.4930001    0.3025242  54.28  0.002345189    2.161    0.537
       114  -9.3062     39.8243    102.8200   9.7658639765e+01   5.1441823996e+01    0.2833754    0.2473946 -62.22 0.0009232223    1.115    0.104
       115 -10.5432     51.5122    100.8775   9.3042875521e+01   5.0523618093e+01    0.4035653     0.272293 -71.16  0.001430289    1.721    0.419
       116 -10.9134     42.8128     99.6857   9.5885597103e+01   5.1850446543e+01    0.7962258     0.258568  37.43  0.002542029    3.281    0.695
       117  -9.6724    132.1113    104.1045   6.8816990236e+01   3.5260722453e+01    0.2385425    0.2354479   1.90  0.001291084    1.036    0.035
       118 -11.2115    101.5762    102.4007   7.6859646279e+01   4.2001052035e+01    0.4541552    0.3978651 -29.72   0.00090693    1.166    0.142
       119  -9.8475    119.0386    103.1449   7.2034723486e+01   3.8280202966e+01    0.2333439    0.2066924   2.51 0.0003242956    1.265    0.210
       120 -10.7663    109.9543     99.7072   7.3654726297e+01   4.0906968118e+01    0.4606811    0.2784716  53.42  0.001313245    1.838    0.456
       121  -9.4163    126.8216    102.1576   6.9669397657e+01   3.6821754516e+01    0.3856928    0.2008259  41.22 0.0008376592    1.972    0.493
       122  -9.5708     80.7812    101.6121   8.3186091450e+01   4.5990387804e+01    0.4422465    0.2128323  35.22  0.001758723    2.152    0.535
       123  -9.2672     77.8018     98.9815   8.3470371893e+01   4.7087533866e+01    0.3017513    0.2717262 -47.32  0.001659427    1.094    0.086
       124  -9.1109     59.1558     96.8913   8.9342477196e+01   5.0427821087e+01    0.2173438    0.1893711 -26.97 0.0002540718    1.111    0.100
       125  -9.4320     59.5583    100.5305   9.0117411289e+01   4.9532113408e+01    0.2672363    0.2279854  72.44 0.0006726194    1.444    0.308
       126  -9.8506     56.6962    100.3299   9.1074055974e+01   4.9971880417e+01    0.3805892    0.2394499 -84.10  0.001555694    2.691    0.628
       127 -10.8238     16.6182     99.0689   1.0529266308e+02   5.4449085911e+01    0.6045767     0.371002  48.43  0.002563503    2.048    0.512
       128 -10.8394     43.6777     89.5191   9.3130157388e+01   5.4095719499e+01    0.8984165    0.4552743  42.75  0.003078715    2.364    0.577
       129 -10.1162     22.9194     94.7884   1.0214311740e+02   5.4957940019e+01    0.5938317    0.1585701 -52.48  0.002240312    2.764    0.638
       130 -10.7719     42.6520     81.0641   9.1320044141e+01   5.6092844702e+01     0.906849    0.4315915  29.32  0.003356981    2.201    0.546
       131 -10.5289     51.5730     82.9371   8.8407016220e+01   5.4572566243e+01    0.3542816     0.296552  43.88 0.0006601464    1.377    0.274
       132 -11.2030     31.4595     92.8580   9.8528886776e+01   5.4637277227e+01    0.4514971    0.3818194 -39.92  0.001658241    1.053    0.050
       133 -11.1194     28.8871     85.9479   9.7927625696e+01   5.6461249140e+01    0.8392479    0.4423006 -30.25  0.003896887    2.120    0.528
       134 -11.4012     45.2203     68.8097   8.6781500608e+01   5.8357369391e+01    0.4054689     0.232494 -38.76 0.0002559219    1.625    0.384
       135 -11.5327    117.6743     97.9721   7.0993388629e+01   3.9662433375e+01    0.2808681    0.2630155  34.76 0.0003243659    1.066    0.062
       136  -9.7880      7.0117     89.3031   1.0706813939e+02   5.7367928646e+01    0.4569397    0.2696286 -68.93 0.0008820662    1.537    0.349
       137 -10.3865      2.4997     80.5062   1.0717731558e+02   5.9618033224e+01    0.4105877    0.2195272 -63.22  0.002229059    1.560    0.359
       138  -9.8817      8.2663     98.4381   1.0820440400e+02   5.5167783085e+01    0.3976484    0.2611704  79.89  0.002085502    1.928    0.481
       139  -8.1375      4.0188     97.7774   1.0962387142e+02   5.5575719077e+01    0.2212789    0.1916166 -32.19 0.0008352808    1.187    0.157
       140 -10.1518      2.0610     92.1363   1.0941563425e+02   5.6995730040e+01    0.2877912    0.2045291  63.07 0.0003890006    1.793    0.442
       141 -10.1351      2.0798     87.0843   1.0854461765e+02   5.8154292455e+01    0.4951312    0.1247891 -56.82  0.002028589    2.596    0.615
       142  -9.8375    137.7832     96.9336   6.5457802513e+01   3.5468978412e+01    0.4619683    0.2653193  31.70  0.001784767    2.296    0.564
       143  -8.4257    171.1308     96.8582   5.8041920181e+01   2.7899703503e+01    0.1938393     0.176245  11.25 0.0003969787    1.298    0.229
       144  -9.0780    149.9888     97.0350   6.2596009946e+01   3.2685824947e+01    0.2222263    0.2186139  84.77            0    1.013    0.012
       145  -9.4557    125.8752     97.0741   6.8529062555e+01   3.8080969736e+01    0.2430781    0.2137661 -81.73  0.001236906    1.291    0.225
       146  -9.4005     86.7267     96.1067   7.9757146584e+01   4.6176884837e+01    0.2726767     0.248242  52.46 0.0007026137    1.187    0.157
       147  -8.6408    184.4710     96.5553   5.5422619881e+01   2.4953352576e+01    0.1453946    0.1353797 -69.25 0.0001208002    1.022    0.022
       148  -8.8974     80.1250     94.8323   8.1567911648e+01   4.7618608709e+01     0.213564    0.2008614  84.47 0.0005289835    1.224    0.183
       149  -9.4232    165.4400     94.0980   5.8485733720e+01   2.9713593841e+01    0.2561452    0.2090677  66.16 0.0003275877    1.261    0.207
       150 -10.0219     63.3364     74.8683   8.1637147877e+01   5.4585293824e+01    0.4209597    0.3287467  21.92  0.002316336    1.289    0.224
       151 -10.2129     66.2955     85.5132   8.3714922347e+01   5.1905258960e+01    0.4804838    0.3528704   4.47  0.001204461    1.593    0.372
       152  -9.6549     68.4292     75.1860   7.9875569513e+01   5.3715891280e+01    0.3308648    0.2130074 -50.71  0.001048592    1.625    0.385
       153 -11.3877     79.9618     83.6885   7.8427378905e+01   5.0030874980e+01     0.636755    0.3379401  32.73  0.002708795    1.986    0.496
       154 -10.3347     73.3445     79.3425   7.9400128409e+01   5.2062484769e+01    0.4450856    0.3601485  25.75   0.00142396    1.237    0.191
       155  -8.8658    134.9640     91.3487   6.4617966353e+01   3.7207495742e+01     0.213424    0.1857163  47.47 0.0003519476    1.136    0.120
       156 -10.6777     86.5274     88.5503   7.7677405672e+01   4.7837603565e+01    0.4028693    0.3532456 -15.53 0.0007564712    1.168    0.144
       157  -9.5465     86.9575     83.5130   7.6053166899e+01   4.8803737864e+01    0.2631096    0.2320286 -42.65 0.0004078148    1.147    0.128
       158  -9.0300     52.4936     90.5212   9.0104481547e+01   5.2776040966e+01    0.2195811    0.1816491  80.09 0.0005650736    1.612    0.380
       159 -11.0178    123.3837     87.3240   6.6440959772e+01   4.0578382744e+01    0.4311778    0.3179529 -33.49  0.001255941    1.439    0.305
       160 -10.3026    119.5330     84.2747   6.6585067321e+01   4.2016040043e+01     0.496162    0.2000779  43.88  0.001769086    2.471    0.595
       161 -10.6099    128.6229     85.3632   6.4520428431e+01   3.9790609089e+01    0.5032939    0.3825337   0.98  0.001533231    1.812    0.448
       162  -9.4214    132.5763     82.5316   6.2719928147e+01   3.9430938349e+01    0.2665314    0.2233473 -66.43 9.926931e-05    1.329    0.248
       163  -9.5310     13.9899     87.8912   1.0413060557e+02   5.7237602707e+01    0.2701262    0.1822529 -48.14 0.0007205045    1.236    0.191
       164  -8.9448     17.4615     88.4803   1.0291434794e+02   5.6849943309e+01    0.3030065    0.1224735 -69.35  0.001239721    2.650    0.623
       165  -9.1152     58.7280     88.3323   8.7235671081e+01   5.2413055515e+01    0.3325899    0.2228627 -83.67  0.001091892    2.613    0.617
       166  -8.6092     97.3152     87.6584   7.3996901354e+01   4.5975645307e+01     0.149326    0.1202253  89.24  0.000704794    1.707    0.414
       167  -8.9456    103.6077     86.0477   7.1617916920e+01   4.5042139429e+01    0.3321777    0.1982261   8.12 0.0009028132    3.934    0.746
       168  -9.8342    155.1607     85.0195   5.8238219108e+01   3.3762157178e+01    0.2486575    0.2111875  52.35 0.0005291925    1.171    0.146
       169  -8.7032     13.0165     78.0173   1.0243605695e+02   5.9528024551e+01    0.2098617    0.1666108 -21.36 0.0009667312    1.231    0.188
       170 -10.1270     19.3398     80.2639   1.0038475034e+02   5.8560039327e+01    0.3985037    0.3124682   0.34  0.002470469    1.361    0.265
       171  -8.8203     18.4247     76.5403   9.9887927905e+01   5.9454059392e+01    0.2342195   0.09970922 -55.39 5.752462e-05    1.925    0.481
       172 -10.7024    151.3191     80.4645   5.7821502798e+01   3.5476946485e+01     0.467747    0.3041072  63.43   0.00194566    1.627    0.386
       173 -10.1909    139.9008     83.1061   6.1122296792e+01   3.7647742422e+01    0.8071543    0.3590457  34.14  0.002457489    3.904    0.744
       174  -9.3926    167.9413     78.2549   5.3869492795e+01   3.1976940760e+01    0.2480085    0.2044364 -45.37 0.0006164287    1.209    0.173
       175  -9.6285    137.2504     78.8491   6.0539003988e+01   3.9035039546e+01    0.2523878    0.2355484  30.00   0.00081697    1.125    0.111
       176  -9.1985     93.9366     78.8697   7.2412941008e+01   4.8400812027e+01    0.2691371     0.227683  14.32 0.0004130233    1.242    0.195
       177 -11.0685     80.0047     70.0665   7.4195089365e+01   5.2724822439e+01    0.2682737    0.2473216  -0.27 0.0003570806    1.018    0.018
       178  -9.6613     83.4146     64.4323   7.1205049953e+01   5.3131346379e+01    0.5104533    0.2390581 -45.49   0.00177699    2.280    0.561
       179  -9.1028     87.1255     68.1437   7.1203654113e+01   5.1753249424e+01    0.2129588    0.2004337  10.09 0.0002671868    1.014    0.014
       180  -9.0029     90.0346     65.6378   6.9449888175e+01   5.1641243270e+01    0.2434613    0.2166694  17.28 0.0005139986    1.085    0.078
       181  -9.3577     89.3702     78.1753   7.3650737507e+01   4.9419639854e+01    0.2916378    0.2439058 -73.91 0.0006745289    1.541    0.351
       182 -10.1067     89.3120     74.1388   7.2412691445e+01   5.0212258343e+01    0.3961606    0.3222862 -14.45  0.001130422    1.324    0.245
       183 -10.6012     93.8383     70.0559   6.9682441205e+01   5.0089707414e+01    0.4946598    0.4111261 -41.31  0.001867206    1.249    0.199
       184  -8.9530    231.3517     77.8516   4.4060569844e+01   1.8143925600e+01    0.1778134    0.1410633 -48.67 0.0003650236    1.118    0.106
       185 -11.0864    178.1145     75.1208   5.1213253527e+01   3.0140550509e+01    0.6104124    0.2951235  56.12  0.002576646    2.041    0.510
       186  -9.7858    110.9303     76.1922   6.6540134873e+01   4.5412078399e+01    0.5304409       0.2098 -43.44  0.001924366    2.613    0.617
       187  -8.8195    111.8522     70.2078   6.4441838958e+01   4.6297206567e+01    0.2242496    0.1971939 -35.31 0.0003522318    1.179    0.152
       188  -9.8671     27.9808     76.3056   9.5917780005e+01   5.8681410913e+01    0.3352146    0.2556728 -25.35  0.001123909    1.233    0.189
       189  -9.5512    184.7522     75.9773   5.0299022772e+01   2.8471449132e+01    0.1945674    0.1733601 -54.30 0.0004123472    1.087    0.080
       190  -9.7309    141.4972     75.4852   5.8597043847e+01   3.8648397742e+01     0.277889     0.232525  19.83 0.0006290303    1.425    0.298
       191 -10.4364    135.0221     64.2222   5.6795267577e+01   4.2061696475e+01    0.4027996    0.3417893  62.85  0.001138635    1.143    0.125
       192 -10.2738    141.4244     60.6246   5.4326197425e+01   4.1131330660e+01    0.4942562    0.3501573  -9.45  0.001660705    1.998    0.500
       193 -10.0642    145.2582     74.7604   5.7552334755e+01   3.7896435143e+01    0.3973915    0.2444808 -48.09  0.001270485    1.702    0.412
       194  -9.0403    145.5383     70.5157   5.6290183787e+01   3.8555211066e+01    0.3182735    0.2377064  71.95  0.001101708    1.438    0.305
       195  -9.9598    143.5499     66.5227   5.5578494081e+01   3.9685568675e+01    0.3088059    0.2783945 -33.20 0.0007069212    1.188    0.158
       196  -8.9041    126.3382     75.6988   6.2285874040e+01   4.2097287503e+01    0.2013007    0.1387345 -28.55 0.0005544302    1.640    0.390
       197  -9.0685    117.9769     75.0262   6.4255946236e+01   4.4089823038e+01    0.2269903    0.1817892 -84.99 0.0005216621    1.625    0.385
       198 -13.2641     52.8914     74.4466   8.5456914284e+01   5.6193734217e+01    0.7550232     0.401891 -57.32  0.001481853    2.142    0.533
       199  -9.7932    173.5302     68.8708   5.0407936660e+01   3.2228928536e+01    0.2584722    0.2302721  81.66 0.0003497398    1.070    0.065
       200 -10.2485    170.0073     73.2538   5.2176441512e+01   3.2337629434e+01    0.3699984     0.262445 -36.61  0.001193895    1.466    0.318
       201  -9.5151    166.5197     72.9971   5.2753414530e+01   3.3197798619e+01    0.2562915      0.19629  33.68 0.0006648428    1.590    0.371
       202  -9.8016    140.7007     68.2825   5.6708441265e+01   4.0064808516e+01    0.2951025    0.1992794 -61.80 0.0002145881    1.810    0.448
       203  -8.9240     18.2587     71.9331   9.8838435080e+01   6.0467115539e+01    0.2206068    0.1458626 -15.73 0.0008957436    1.583    0.368
       204 -11.2122     53.5697     58.9229   8.0241038739e+01   5.9140645920e+01    0.9844348    0.5973119 -42.76  0.002745596    1.599    0.375
       205 -10.3436    115.9036    248.5138   1.0027848880e+02   6.5839130392e+00    0.2600117    0.2321469  47.26  0.001063885    1.072    0.067
       206  99.0000     43.4517     46.2865   7.9964738640e+01   6.2809439664e+01     1.369786     1.190622  46.01  0.004946108    1.508    0.337
       207  -9.5636     37.3316     47.2964   8.3001403204e+01   6.3422833647e+01    0.4297754    0.2543727 -18.72  0.002207277    1.886    0.470
       208 -10.8829     11.9400     67.4434   1.0041930163e+02   6.1894043915e+01    0.9167988    0.3707418 -23.15  0.002348209    3.510    0.715
       209 -11.3375      8.5824     51.1026   9.7580143806e+01   6.5461992556e+01    0.7952275    0.3967922 -11.24  0.004006485    2.353    0.575
       210 -11.5545     14.4573     39.2991   9.0949473895e+01   6.7228374601e+01    0.7299156    0.4665058 -66.59   0.00401725    2.386    0.581
       211 -12.3391      2.4937     66.2433   1.0422468140e+02   6.2732635416e+01    0.3698524    0.2394917 -58.58 -9.504652e-05    1.325    0.245
       212 -10.3187      9.2979     62.7066   1.0039255140e+02   6.3067797705e+01     0.320916     0.230465   6.28  0.001050482    1.477    0.323
       213 -10.8003      4.6673     59.3144   1.0161287592e+02   6.4059778199e+01    0.5136747    0.2696856 -32.27  0.002445631    1.719    0.418
       214 -11.9017     24.1803     46.6430   8.8775934361e+01   6.5003331890e+01    0.6010096    0.3602994  -4.78  0.001949892    1.845    0.458
       215 -11.5310     28.0130     63.4642   9.2374648230e+01   6.1375653547e+01    0.5385001    0.2501886 -53.31 0.0001613052    1.975    0.494
       216 -11.5170     24.6217     56.0175   9.1625117305e+01   6.3186153727e+01     1.232286    0.2665515 -46.58  0.003510684    3.518    0.716
       217 -11.2907     29.4932     53.2056   8.8535043429e+01   6.3237340461e+01    0.6838214    0.2743502  26.89  0.003065891    2.548    0.608
       218 -10.0396    102.6326     69.0468   6.6699668549e+01   4.8473639934e+01    0.5782663    0.3673482  11.74  0.002330684    2.589    0.614
       219  -9.6135     37.1575     69.7331   9.0346191830e+01   5.9129711331e+01    0.3737042    0.2212088 -32.34  0.001900892    1.654    0.395
       220  -8.5937    215.4871     70.4761   4.4462628779e+01   2.2553966139e+01    0.1333712    0.1165637 -66.34  9.27834e-05    1.012    0.012
       221  -8.5332    129.4842     70.4139   5.9938024441e+01   4.2309279590e+01    0.1455609    0.1376494  61.72 5.866091e-05    1.031    0.030
       222  -9.4887    119.1140     67.9830   6.1808670642e+01   4.5080418438e+01    0.3322284    0.2385281 -17.68  0.001165065    1.726    0.421
       223 -10.6821     71.2748     88.7705   8.2884427066e+01   5.0416347246e+01    0.5994111    0.2639495 -51.67 0.0004536238    2.279    0.561
       224  -8.7507    157.2922     68.3150   5.3258866785e+01   3.6144922240e+01      0.14071    0.1134748  21.28 0.0002594299    1.596    0.373
       225  -9.2144     75.0069     65.7907   7.4525899352e+01   5.4417525336e+01    0.2566037    0.1954765 -31.05 0.0006122398    1.302    0.232
       226  -9.2147     77.4461     62.0164   7.2417547907e+01   5.4666785483e+01    0.2382091    0.1934038  33.74 0.0003689993    1.190    0.159
       227  -8.1309    201.7312     65.7074   4.5227732057e+01   2.6276138490e+01    0.1205105    0.1075224  18.65 0.0002334835    1.511    0.338
       228  -9.3369     97.0151     63.7057   6.6650929161e+01   5.0576956232e+01     0.196165    0.1779048  40.18 0.0002575578    1.077    0.072
       229  -9.5386    110.3347     62.9021   6.2558071979e+01   4.7885034635e+01    0.2473102    0.1919116  44.47 0.0004905004    1.221    0.181
       230  -9.1088    114.4902     60.9498   6.0821146734e+01   4.7289962180e+01    0.2441119    0.1916813  61.35 0.0006802219    1.319    0.242
       231  -9.8370    193.4796     61.0066   4.5279671656e+01   2.8843058489e+01    0.3906006    0.2933729 -32.90   0.00141002    1.462    0.316
       232  -9.2156     64.7185     61.7215   7.6889119963e+01   5.6908927243e+01    0.2671469    0.2234095  28.83  0.001556695    1.181    0.154
       233 -10.0589    160.8447     60.7690   5.0524263381e+01   3.6498326967e+01    0.3145068    0.2043832  43.57  0.001261571    1.694    0.410
       234  -9.5225    151.9062     60.7240   5.2208965898e+01   3.8630391673e+01        0.381    0.2007992  47.65   0.00119594    1.915    0.478
       235 -10.0076    133.1093     58.4902   5.5516142288e+01   4.3419365629e+01    0.4424156    0.3086604  13.42  0.002013259    2.139    0.532
       236  -8.9973    129.2263     57.8008   5.6194470098e+01   4.4431726755e+01    0.3359953    0.2324812  89.84  0.001523583    2.060    0.515
       237  -9.6068    136.6572     55.3571   5.3794068636e+01   4.3064870328e+01    0.3363433    0.2348604 -29.65  0.001256348    1.596    0.373
       238 -10.2314     71.6008     60.0479   7.3803879208e+01   5.6054896494e+01    0.4535678    0.2724448  30.09   0.00219145    1.695    0.410
       239  -9.5668     40.0104     59.6263   8.6046921547e+01   6.0817501298e+01    0.3129661    0.1946073 -24.74  0.001629937    1.660    0.397
       240  -9.3213     30.5045    247.4911   1.1776004311e+02   1.8207208000e+01     0.118336   0.09196401  64.71 0.0001474403    1.006    0.006
       241  -9.8182     98.6794     55.2912   6.3361812836e+01   5.1628262824e+01    0.4141389    0.2451898 -44.93  0.001206149    1.881    0.468
       242 -11.2225     93.2012     51.4832   6.3693287938e+01   5.3366362930e+01    0.5253487    0.3548156 -51.66   0.00130547    1.840    0.456
       243 -10.7906    168.1594     57.5077   4.8355668857e+01   3.5257221952e+01    0.4271473    0.3730516  86.18  0.001354363    1.080    0.074
       244  -8.5026    198.9880     58.2851   4.3861889273e+01   2.8004522066e+01    0.1824452    0.1585069 -86.82 0.0003077512    1.057    0.054
       245  -9.5889     65.0970     56.4177   7.4927745628e+01   5.7799133735e+01    0.2434648    0.2005703 -29.05 0.0004478058    1.185    0.156
       246 -10.3559     72.0765     51.1180   7.0504190686e+01   5.7496054694e+01    0.5940183    0.3978489  -8.21  0.002957089    1.850    0.460
       247  -9.8288     68.1053     48.4461   7.0965169417e+01   5.8630379102e+01    0.3219482    0.2900199 -82.70 0.0009276553    1.595    0.373
       248 -12.2974     61.9179     44.3687   7.1757359429e+01   6.0335268745e+01     0.452364    0.2861506  36.38 0.0004206305    1.501    0.334
       249  -9.5125    117.7444     52.3611   5.7246761136e+01   4.7900242156e+01    0.3174764    0.1871227 -48.57 0.0002747005    1.972    0.493
       250 -10.8054    121.4737     50.8919   5.5869214349e+01   4.7266109656e+01    0.7243074    0.4745724  19.51  0.003263232    2.201    0.546
       251  -9.2262     79.7375     54.3256   6.8990155082e+01   5.5564373906e+01    0.2466388    0.2160697 -76.47  0.001015087    1.568    0.362
       252  -9.2498    192.8686     52.8504   4.3401548055e+01   3.0178071698e+01    0.2652491    0.1743101  51.02  0.001033528    1.676    0.403
       253  -8.3567    191.1673     49.6207   4.2854393617e+01   3.1023597323e+01    0.1641868     0.160057  39.61 0.0003030034    1.274    0.215
       254  -9.6942    145.9261     52.2322   5.0963971829e+01   4.1328953405e+01     0.317456    0.2399691 -59.94  0.001170091    1.450    0.310
       255  -8.7804    106.4597     52.7750   6.0320731924e+01   5.0353249160e+01    0.2494858    0.1629458  60.13 0.0002406415    1.638    0.389
       256  -8.8610     83.5678     51.2789   6.6647913072e+01   5.5325741503e+01      0.26602    0.1289211 -42.43  0.001153391    2.238    0.553
       257  -9.8519    174.6426     50.2352   4.5400085803e+01   3.4780965557e+01    0.2989947    0.2430501 -14.96  0.001177803    1.590    0.371
       258  -9.6855    163.9968     46.8046   4.6191675232e+01   3.7782398108e+01    0.3292257     0.246258  15.17  0.001306393    1.991    0.498
       259 -10.7121    153.6801     48.0571   4.8312210231e+01   4.0071915306e+01    0.3703244    0.2839195  73.28 0.0006320932    1.251    0.201
       260  -9.0929    181.9304     48.8663   4.3962000528e+01   3.3264346594e+01    0.2058573    0.1802214  42.27  0.001219867    1.361    0.266
       261 -10.2903    114.6982     46.6810   5.6163175310e+01   4.9418613606e+01    0.3682409    0.2408368 -24.22 0.0009841896    1.767    0.434
       262  -9.8080    112.9449     41.3074   5.4822987208e+01   5.0556659477e+01    0.2233251    0.1990016 -23.00 0.0001886595    1.225    0.183
       263 -10.6544     87.9681     49.2406   6.4521447271e+01   5.4775452599e+01    0.8699072    0.4329521 -54.35  0.003256083    3.502    0.714
       264 -10.0604    202.4700     46.6361   4.0696615405e+01   2.8880269956e+01     0.260234    0.2275754  66.18 0.0004783084    1.240    0.193
       265  -8.3415    196.6695     48.6614   4.1897165389e+01   2.9904466470e+01    0.1278745    0.1024165  31.87 0.0007051883    1.738    0.425
       266  -8.7860     79.2193     47.9711   6.6903856795e+01   5.6680367526e+01    0.2958202    0.1337722 -36.66  0.001272777    2.304    0.566
       267 -10.5843     79.4392     42.8923   6.4976580202e+01   5.7405146069e+01    0.4364189    0.2944138  49.54  0.001498021    1.498    0.333
       268  -9.3843    234.8411     46.9930   3.7250909390e+01   2.1951307187e+01    0.1891449    0.1542999 -82.83 0.0003172203    1.118    0.105
       269  -9.1445    145.8530     46.0861   4.9197316908e+01   4.2214387602e+01    0.2104915    0.1750925 -82.21 0.0004542806    1.267    0.211
       270 -10.1557    245.0048     44.3056   3.5770568758e+01   2.0305974897e+01    0.2691382    0.1918216 -34.65  0.001343807    1.552    0.356
       271  -9.2961    132.0108     44.6661   5.1549405796e+01   4.5693604420e+01    0.2320241    0.1872749  25.77  0.000686632    1.428    0.300
       272  -9.8357     31.7935     47.6547   8.5611752615e+01   6.4012216510e+01    0.2085508    0.1696407 -31.99 0.0008026122    1.143    0.125
       273  -9.4406    186.7353     44.4059   4.2184477636e+01   3.2760244335e+01    0.3165334    0.1160468  63.06 0.0009404987    2.526    0.604
       274  -9.5493    177.7966     44.2280   4.3388843437e+01   3.4867073389e+01    0.3101809    0.1737067  69.61  0.001493484    1.712    0.416
       275  -9.9441    105.2190     42.9676   5.7352864887e+01   5.2053999166e+01    0.4825169    0.2451278  45.05  0.002176719    1.813    0.449
       276 -10.9890    103.7119     38.5135   5.6219893336e+01   5.2986513749e+01    0.2887031     0.243713 -31.97 0.0002703345    1.296    0.228
       277  -9.3784    142.5572     42.5791   4.8799878313e+01   4.3474243671e+01    0.4578249    0.1438555  47.12  0.001535674    3.394    0.705
       278  -9.3585     71.9388     42.3094   6.7315293446e+01   5.8898917380e+01    0.2309557    0.1826968 -11.47 0.0004650446    1.276    0.216
       279  -9.7966    223.4350     34.8290   3.5835884118e+01   2.5896536586e+01    0.2370293    0.1656949 -79.39 0.0005409885    1.286    0.223
       280 -10.9357    228.3230     39.3062   3.6301029352e+01   2.4303036647e+01    0.5716125    0.2624365 -34.50  0.002497698    2.251    0.556
       281  -8.7073    191.5017     42.1329   4.1006747868e+01   3.1967653174e+01     0.184357    0.1234279 -40.89 0.0005453748    1.497    0.332
       282  -9.4913     35.6445     41.2286   8.1525369670e+01   6.4677856872e+01    0.3722898    0.1647635  22.68  0.001690942    2.507    0.601
       283 -10.4480     40.6108     39.0691   7.8476693126e+01   6.4394064416e+01    0.6012065    0.2889159  11.77  0.001146032    3.617    0.724
       284 -10.5704    249.4323     35.7760   3.3751855695e+01   2.0566751657e+01    0.2664771    0.2291189 -88.26  0.001951838    1.234    0.189
       285  -9.6366    222.5568     40.5899   3.7134448370e+01   2.5335578624e+01    0.2177099    0.1926905  76.44 0.0006668989    1.253    0.202
       286  -9.6922    158.4291     39.5653   4.5133555307e+01   4.0076003236e+01    0.3187563    0.2498776 -70.88 0.0005153402    1.323    0.244
       287 -10.1581     15.6605     60.0502   9.6845722255e+01   6.3157032089e+01    0.3336186    0.2197111 -50.41 0.0004406582    1.324    0.245
       288  -8.8927    146.2036     34.0002   4.5626621651e+01   4.3696441481e+01    0.2050919    0.1669136 -83.40 0.0008100553    1.269    0.212
       289  -8.5627    140.8347     26.8337   4.4460062887e+01   4.5816076291e+01    0.2480688    0.1478629 -53.16  0.001116075    1.941    0.485
       290  -9.7268    134.0012     29.0568   4.6360302809e+01   4.7184977676e+01    0.4295672    0.3038414  -7.54  0.001408349    1.881    0.468
       291  -9.7229    146.4066     29.0570   4.4161507422e+01   4.4234994147e+01    0.4714803    0.2069948  51.69  0.002064762    2.109    0.526
       292  -9.7923    127.5168     39.5632   5.0920124231e+01   4.7428113853e+01    0.4994927    0.3344926   9.10  0.002350143    2.254    0.556
       293 -10.2973    137.1078     37.2214   4.8249848014e+01   4.5464334651e+01    0.4205644    0.3118398  31.93 0.0009219854    1.570    0.363
       294 -10.0037    141.6936     33.9237   4.6406124406e+01   4.4781648871e+01    0.3034726    0.2642264  35.05 0.0003989714    1.268    0.211
       295  -9.1803    131.6137     35.8363   4.8909620388e+01   4.6938080921e+01    0.2017365    0.1778318 -79.40 0.0004174237    1.213    0.176
       296  -9.6420    129.9996     32.7285   4.8268437806e+01   4.7698214188e+01    0.2466724    0.2264967  85.66 0.0008333161    1.109    0.098
       297  -9.4941    120.6558     38.8089   5.2186884963e+01   4.9122355204e+01    0.3182534     0.211358 -51.87  0.001182444    1.794    0.442
       298 -10.7627    115.4627     35.1027   5.2161162178e+01   5.0786322391e+01    0.6634167    0.3075898  40.47  0.002780696    2.326    0.570
       299 -11.1039    126.3619     46.7566   5.3430808418e+01   4.6727941583e+01    0.6100625    0.4957156 -73.85  0.002050272    1.451    0.311
       300 -11.2984     32.4851     63.6604   9.0510235224e+01   6.0878627549e+01    0.8407932    0.2502449 -51.59  0.002078314    2.938    0.660
       301  -8.1364     27.2888     36.6574   8.3680177210e+01   6.6425693286e+01     0.154921    0.1037653  11.83 0.0009263781    1.426    0.298
       302  -8.7631    215.3584     39.0879   3.7550053847e+01   2.7063483198e+01    0.1736422    0.1354422 -59.96 0.0004182808    1.123    0.110
       303  -8.2447    203.4845     39.4651   3.8932583376e+01   2.9612978211e+01    0.1312732     0.108154 -76.03 0.0001859242    1.044    0.042
       304  -8.7936    165.4893     38.5147   4.3731456194e+01   3.8527799907e+01    0.2509027    0.1272221 -36.93  0.001162797    2.040    0.510
       305  -8.9661    163.4540     36.0000   4.3369204775e+01   3.9330425003e+01    0.3904787   0.06438185  61.15  0.001122593    4.610    0.783
       306  -9.5937    238.4425     37.3798   3.4985127964e+01   2.2502782117e+01    0.2213277    0.1899866  60.29 0.0008762694    1.481    0.325
       307  -8.4779    192.6850     38.1994   3.9918593180e+01   3.2211884568e+01    0.1730375    0.1204252 -27.08 0.0009414327    1.740    0.425
       308 -10.6522    178.3278     36.8763   4.1452048481e+01   3.5703891721e+01    0.3272344    0.2832755  73.63 0.0004968632    1.104    0.094
       309  -8.4290    148.2245     38.5862   4.6595171729e+01   4.2641359989e+01    0.1799747    0.1153874  53.43 0.0001997294    1.455    0.313
       310 -10.3534     87.0998     33.6517   5.9132007905e+01   5.7151859235e+01    0.4276143    0.2717462  -5.98   0.00159197    2.056    0.514
       311 -10.0955     73.4349     36.8813   6.4734694802e+01   5.9405440550e+01    0.3942015    0.3116261  24.21 0.0009733881    1.153    0.133
       312  -9.1252     74.9981     23.1979   5.8840459894e+01   6.0850000594e+01    0.2119488    0.1684578  -5.58 0.0003978997    1.299    0.230
       313 -11.1284     78.4996     30.7813   6.0704390361e+01   5.9245412391e+01     0.618356    0.5091128  87.04   0.00250527    1.820    0.451
       314 -10.0305     72.0588     29.8690   6.2469299548e+01   6.0602092247e+01    0.2664999    0.2620392  37.26  0.001242559    1.268    0.211
       315  -8.6526    198.4865     36.9001   3.8919565791e+01   3.1063435238e+01     0.186031    0.1189517 -40.83  0.001018225    1.550    0.355
       316  -9.4610    186.0904     36.5370   4.0344212512e+01   3.3939938171e+01    0.3000284    0.1640589 -49.65  0.001494283    1.788    0.441
       317  -9.8162    183.8633     31.9119   3.9494552936e+01   3.5032123657e+01    0.2774141    0.1822316  73.96 0.0008689126    1.387    0.279
       318 -10.4763     56.0330     34.8975   7.0362867595e+01   6.2740005729e+01    0.3490783    0.2857057 -53.91  0.002115102    1.720    0.419
       319  -9.6031     49.3653     33.5831   7.2535795468e+01   6.3984783757e+01    0.4291711    0.1879034  27.16  0.001800687    2.621    0.618
       320  -9.8525     96.2769     34.6021   5.6843017324e+01   5.5105824704e+01    0.3556742    0.2637239  33.78  0.001997473    1.285    0.222
       321  -9.2650     93.4347     30.2080   5.6035790602e+01   5.6257773164e+01    0.3620698    0.1796992  55.97  0.001671998    1.919    0.479
       322  -8.9253     61.0401     34.6537   6.8328772918e+01   6.1939613855e+01    0.1916536    0.1620794 -12.86 0.0005660557    1.149    0.130
       323  -9.6065     63.9717     30.3308   6.5502495344e+01   6.2023111851e+01    0.4234709    0.2955219  42.25  0.002463338    1.366    0.268
       324  -9.6424    208.7818     32.8837   3.6876082302e+01   2.9284254776e+01    0.3019953    0.1906358 -54.05  0.001721811    1.434    0.303
       325  -9.7360    163.4806    246.0464   8.9972528356e+01  -1.3782534854e-01    0.1790051    0.1250283 -42.00  0.001040871    1.617    0.382
       326  -9.4907    100.7097     26.6204   5.2811787163e+01   5.5105750659e+01    0.3459018    0.1621701  55.22 0.0007397361    1.878    0.468
       327  -8.4031    219.4917    245.5056   7.8935616077e+01  -7.8913067894e+00    0.1224071   0.09331279   1.81   0.00080979    1.064    0.060
       328  -9.0028     43.4383     32.5126   7.4621516561e+01   6.5021444003e+01    0.2108788    0.1656719 -22.80 0.0006433965    1.206    0.171
       329  -9.0490     42.2727     29.3328   7.3814533623e+01   6.5655632480e+01     0.215305    0.1650513 -24.61 0.0009053517    1.254    0.203
       330 -10.2617    248.2391     30.4967   3.2844846934e+01   2.1459969254e+01    0.2891567     0.224866 -28.61  0.001326238    1.682    0.406
       331  -9.0682    168.8685     31.6805   4.1428482058e+01   3.8575498181e+01    0.2334632    0.1688679 -48.75 0.0007650581    1.406    0.289
       332  -9.2497    153.2172     31.3430   4.3694525030e+01   4.2340942548e+01    0.3326677    0.2161415 -81.16  0.001660533    1.820    0.451
       333  -8.5753     25.7407     27.4053   8.0729726902e+01   6.8082462072e+01    0.1928536    0.1525677   4.57 0.0004876571    1.098    0.089
       334  -8.8421      1.4716    244.0423   1.2305656571e+02   2.1917801704e+01    0.1594823   0.09104015 -86.60 0.0004004036    1.540    0.351
       335  -8.4128    244.6586    241.7482   7.3854167934e+01  -1.0465717290e+01    0.1163543   0.07084236   0.73 0.0005529514    1.575    0.365
       336  -9.9566     34.4986     31.5343   7.8240406869e+01   6.6384135673e+01    0.2679072    0.2091386  17.61  0.001124605    1.189    0.159
       337 -10.2890     37.2430     26.4956   7.4866132882e+01   6.6768905781e+01    0.3064714    0.2036439  -2.83 0.0009152415    1.515    0.340
       338  -7.9319     67.2925    123.2979   9.2794824164e+01   4.2965576740e+01     0.147702    0.1092363 -27.27 0.0001915033    1.563    0.360
       339 -11.2319     42.6250     15.5045   6.7586427072e+01   6.7433413802e+01    0.3289219    0.1799262  37.03   0.00186086    1.638    0.390
       340  -8.7920    127.9972    240.6696   9.6697867958e+01   6.2018338378e+00    0.2267506   0.07533371  49.89 0.0007051268    4.340    0.770
       341  -9.6067     24.9783     31.4985   8.2780588989e+01   6.7525917813e+01    0.2148878    0.1680551 -16.94 0.0007103783    1.062    0.059
       342 -10.4919    233.9221     30.3821   3.3983007258e+01   2.4295443318e+01    0.4071534    0.1996747  58.06  0.001868049    2.298    0.565
       343  -9.0814    188.8201    239.6231   8.3862949512e+01  -2.8246422330e+00    0.1735283    0.1047764  38.75 0.0006070876    1.616    0.381
       344  -9.0779    221.4396    237.4922   7.7275899943e+01  -7.0027003402e+00    0.1215273   0.09704195  -0.28 0.0001472306    1.010    0.010
       345  -8.5708    139.9845    236.9497   9.3603032978e+01   5.0337912931e+00     0.200436    0.1492059  60.96 0.0006036849    1.633    0.388
       346  -8.9530    221.9674    233.4854   7.6514484330e+01  -6.4886814238e+00    0.1753554    0.1063702  28.91 0.0005336575    1.541    0.351
       347  -9.2075    189.6351     28.8299   3.8053192251e+01   3.4075154125e+01    0.2078814    0.1531106  67.97 0.0003829248    1.279    0.218
       348  -8.7711    125.5018     29.4867   4.8153906401e+01   4.9136044048e+01    0.1342184    0.1194911  62.76 5.454485e-05    1.022    0.021
       349  -9.1214    211.9040     26.9711   3.5269066861e+01   2.9329226960e+01    0.1974802    0.1619378 -40.13 0.0009607053    1.361    0.265
       350  -8.4551    116.1727     27.8538   4.9593590257e+01   5.1486874905e+01    0.1774974    0.1375722  36.96  0.001013237    1.284    0.221
       351  -8.1971     52.4358     28.5003   6.9183357383e+01   6.4223305874e+01    0.1264599    0.1044464   8.79 4.504616e-05    1.024    0.023
       352  -9.0555     32.0349    232.4784   1.1642800045e+02   2.1105906893e+01    0.1816988    0.1391708  85.93   0.00055504    1.170    0.146
       353  -9.7998    223.0661     26.3494   3.4105630570e+01   2.7024770640e+01    0.2099808    0.1911934 -71.94 0.0008270701    1.224    0.183
       354  -8.8040    183.0381     27.0285   3.8400572760e+01   3.5808222432e+01    0.2204128    0.1338147 -69.39    0.0011363    1.739    0.425
       355 -10.3155    186.8772    230.8118   8.2832349394e+01  -1.1155499078e+00    0.2041942    0.1594945   2.34 0.0006460011    1.211    0.174
       356  -9.0845    162.4391    225.5130   8.7043832922e+01   3.5812374837e+00    0.3919697    0.2616124 -78.54    0.0017198    3.097    0.677
       357  -8.9726    223.9812    225.0875   7.4724082360e+01  -5.5077193193e+00    0.1871054    0.1506543   1.45 0.0005701249    1.038    0.036
       358  -8.2683    143.3235    225.7156   9.1219653104e+01   6.6065596340e+00    0.1336034    0.1001928  59.61 0.0002626804    1.598    0.374
       359  -8.6783    132.1500    225.3929   9.3644667708e+01   8.4651162825e+00    0.1938981    0.1124476  44.61 0.0002759479    1.618    0.382
       360  -8.8760    196.4845    222.0216   7.9437542194e+01  -1.0976437432e+00    0.1857634   0.09995362 -19.73 0.0008099485    2.506    0.601
       361 -10.1178    177.0651     21.6516   3.7794982311e+01   3.7810052816e+01    0.3352175    0.2234779 -34.41  0.001120246    1.649    0.394
       362  -9.1169    161.1320     26.7819   4.1232912028e+01   4.0986433173e+01    0.2539851      0.15749  50.51  0.001323465    1.637    0.389
       363 -10.0550    205.9397     24.6932   3.5353601277e+01   3.0903154143e+01    0.3916267    0.2619887 -72.29  0.001014713    1.364    0.267
       364 -10.8753      2.1161     25.2600   9.2362721105e+01   7.0616385071e+01    0.2094231    0.1437258 -31.58  0.000341493    1.151    0.131
       365  -8.7913    206.9720    217.9470   7.6680324609e+01  -1.9852368029e+00    0.1554494     0.130538  -9.76 0.0003827962    1.057    0.054
       366 -10.5595    233.5150     18.5175   3.1670496783e+01   2.5800332789e+01    0.3395868    0.1944622  73.91  0.002051605    1.652    0.395
       367  -8.4132      2.9799    212.4763   1.2111449798e+02   2.8374191590e+01    0.1781617   0.05943817  51.27 0.0008100659    2.557    0.609
       368  -9.1806    242.5128    210.0683   6.8815430938e+01  -5.7104398764e+00    0.2030124    0.1871069 -38.67 0.0009195451    1.478    0.323
       369  -8.4954     91.4341     25.2036   5.4738923502e+01   5.7269231352e+01    0.1581218    0.1233096 -38.07 0.0002778249    1.482    0.325
       370  -8.4942    230.7707    209.4349   7.0750089148e+01  -4.0288317694e+00    0.1682636    0.1063975  16.86  0.000657255    1.645    0.392
       371  -9.3491     88.9671    220.8672   1.0282717318e+02   1.6135991400e+01     0.214829    0.1965064 -76.55 0.0007169338    1.166    0.143
       372  -8.4991    123.8909    206.1132   9.2585620123e+01   1.3781869741e+01     0.180442    0.1595652  -1.60  0.001005179    1.269    0.212
       373  -8.2268     95.3230    205.3334   9.9283088539e+01   1.8593781223e+01    0.1389557    0.1099508 -18.38 0.0004533496    1.706    0.414
       374  -9.5496     72.1451     15.1181   5.6456130171e+01   6.2288812513e+01    0.2017798    0.1906775  65.23            0    1.327    0.246
       375  -8.9283     35.4786    201.4812   1.1313264463e+02   2.7595652420e+01    0.1296448    0.1101499  77.67 0.0007686623    1.008    0.008
       376 -11.0228     61.8835     22.9398   6.3218969544e+01   6.3333529692e+01    0.5187365    0.2453679  36.57  0.002016133    1.941    0.485
       377  -8.0884    120.2649    199.6414   9.2406412119e+01   1.5800043428e+01    0.1441379    0.1098524  76.14 0.0003274246    1.634    0.388
       378 -10.3857    153.6688     22.9207   4.1272579999e+01   4.3192749667e+01    0.2336787    0.2141146  62.47 0.0003114367    1.131    0.116
       379  -8.2730    124.5255     23.4915   4.6436724518e+01   5.0032744373e+01    0.1334358    0.1149064  54.32 -5.596472e-05    1.049    0.047
       380  -9.9002    116.9795     22.2800   4.7570237423e+01   5.1912750747e+01     0.217889     0.183106  -0.48  0.000308218    1.389    0.280
       381  -9.0996     10.3957     22.3979   8.6640431293e+01   7.0424395851e+01    0.1879248    0.1480829  45.48  0.001039033    2.041    0.510
       382 -10.2627    248.0070     21.4693   3.1167055595e+01   2.2600436907e+01    0.2009261    0.1870016  15.58  0.001495079    1.757    0.431
       383  -8.6841      9.6317    196.2841   1.1862584251e+02   3.1419373141e+01    0.1331286   0.07256315  61.42 0.0007017868    1.697    0.411
       384  -8.3038    188.2970     22.3205   3.6657663011e+01   3.5140435543e+01    0.1190195   0.09313074  43.26 0.0003450806    1.617    0.382
       385  -9.7668     84.6465     20.5857   5.4887507177e+01   5.9200927843e+01    0.3342658    0.2386095 -52.54 0.0009833708    1.929    0.482
       386  -8.2713     80.3217     22.6788   5.6976811323e+01   5.9853025257e+01    0.1189873    0.1014664 -81.80 0.0003544884    1.673    0.402
       387  -8.7080      6.4141    194.7995   1.1924321699e+02   3.2047085301e+01    0.1637706    0.1488437  77.86 0.0008522325    1.178    0.151
       388  -8.3375     95.4612     21.5554   5.2316157936e+01   5.6808359931e+01     0.129411    0.1124597  44.51  5.52849e-05    1.024    0.023
       389  -8.3932     96.4625    195.4864   9.7568555011e+01   2.0665799475e+01    0.1423214    0.1333208  61.36  0.000196906    1.004    0.004
       390  -8.8184    193.2959     19.9291   3.5559894930e+01   3.4272784301e+01    0.1607713    0.1430124 -79.91  0.000275805    1.114    0.102
       391  -8.6668    139.4680     19.7383   4.2588106942e+01   4.6906331564e+01    0.1639692    0.1294386  -0.42 0.0009516193    1.641    0.391
       392  -8.5746    242.1452    193.8114   6.5930392051e+01  -3.1473760721e+00    0.1695761     0.125548  -5.97 0.0003794382    1.295    0.228
       393 -10.2123    150.0313     17.6351   4.0334152883e+01   4.4615386943e+01    0.4731321    0.2123765  77.18  0.001306453    2.385    0.581
       394  -9.5826    144.3743     16.7159   4.0922229981e+01   4.6050617470e+01    0.3587521    0.2144598  -8.68  0.001677709    2.487    0.598
       395  -8.2779     55.2865    181.3240   1.0604641975e+02   3.0047175044e+01    0.1353793    0.1026266 -38.99 0.0002709477    1.603    0.376
       396  -9.6302     18.4803    174.0703   1.1467428687e+02   3.5881113131e+01    0.2175477    0.1811838 -15.19  0.000840749    1.617    0.382
       397  -9.0494      3.4275    173.5047   1.1836107285e+02   3.7294737080e+01    0.1260717    0.1004724  86.73 6.750353e-05    1.035    0.034
       398 -10.0628     10.5337    158.1959   1.1519782959e+02   4.0442502503e+01    0.3813805    0.1945584  77.69  0.001777404    2.183    0.542
       399 -10.2910      7.4549    165.9768   1.1672673325e+02   3.8789367102e+01    0.2790143    0.2072721  34.17 0.0005809522    1.503    0.335
       400  -9.9676      8.2476    161.9789   1.1616049183e+02   3.9698498917e+01    0.2652851    0.1727306  64.41  0.001432992    1.526    0.345
       401 -10.2734     15.1401    165.0459   1.1465815149e+02   3.8381357571e+01    0.2534382    0.2383783   6.21 0.0002807342    1.333    0.250
       402  -9.9190     11.6554    163.7911   1.1544421691e+02   3.8982063355e+01    0.3785453    0.1488788 -75.91  0.001505298    2.216    0.549
       403 -10.2457     34.5175    150.1697   1.0759064303e+02   4.0255868370e+01    0.4223616    0.2291817 -40.01  0.001706536    2.221    0.550
       404  -8.6815    111.9731     15.2539   4.6255142694e+01   5.3767917716e+01    0.1840361    0.1446526  57.90 0.0007272672    1.091    0.084
       405 -11.0531     40.0326    161.5297   1.0755641665e+02   3.6804219150e+01    0.4129455    0.2621622  53.08   0.00123511    1.641    0.390
       406 -11.4711     35.7914    158.5990   1.0835104034e+02   3.8001458317e+01    0.4972714    0.3927913  32.90  0.002346734    1.387    0.279
       407 -12.1140     29.8122    153.9923   1.0943634542e+02   3.9770793870e+01     0.615534    0.4923622  65.97  0.002621493    1.263    0.208
       408  -8.1981    128.2987     14.6482   4.2940083054e+01   5.0046833976e+01    0.1302986    0.0920516 -70.22 0.0006542392    1.692    0.409
       409 -10.3911     24.3722    162.9105   1.1199202768e+02   3.8072523679e+01    0.3376915    0.2104038   9.84  0.001706125    2.203    0.546
       410 -10.2807      1.9619    155.5230   1.1721799950e+02   4.1737462441e+01    0.4986026    0.1433365 -73.26  0.001968913    2.776    0.640
       411  -9.5364    249.0368    153.9491   5.7220500404e+01   2.3512879990e+00    0.2023367    0.1633305 -29.11 0.0005345604    1.057    0.054
       412  -8.6673     88.2794     13.7917   5.1268881678e+01   5.9132442669e+01    0.1902165   0.09470385  48.15 0.0007550963    1.664    0.399
       413 -10.0816     20.0246    151.0867   1.1183677126e+02   4.1408445037e+01    0.3535302    0.2045926 -48.58  0.001246415    1.763    0.433
       414 -11.2044     12.6398    150.7741   1.1386208750e+02   4.2102013621e+01    0.4557461    0.2845205   3.95  0.002393583    2.221    0.550
       415  -8.7818     45.7538    151.4459   1.0452203732e+02   3.8695768379e+01    0.1661118    0.1388962   4.33 0.0002747061    1.461    0.315
       416  -9.1143     63.0453    149.0252   9.9078262833e+01   3.7113236150e+01    0.2088113    0.1943197 -86.48  0.001184962    1.035    0.034
       417 -10.3986      4.1663    146.2619   1.1574200408e+02   4.3842020130e+01    0.4117189    0.1981596  61.04  0.001909735    2.432    0.589
       418 -10.4254     13.4791    145.4885   1.1304137344e+02   4.3342997899e+01    0.3192101      0.20434 -82.20 0.0008978132    1.404    0.288
       419 -10.3562     15.9832    142.7579   1.1200256209e+02   4.3820389606e+01    0.2465963      0.20994 -79.76 0.0003252537    1.023    0.023
       420  -8.9749     37.9718    143.4446   1.0561420905e+02   4.1589562273e+01    0.1871495    0.1368976  28.06 0.0003547952    1.519    0.342
       421 -10.0514     22.2211    139.9179   1.0981253509e+02   4.4003750601e+01    0.3713583    0.1483655 -53.43  0.001586023    2.211    0.548
       422  -9.5094      1.7204    139.4813   1.1573987377e+02   4.5663443506e+01     0.354531    0.1703278  80.57  0.001597449    2.426    0.588
       423 -10.6322      2.8095    134.0546   1.1484644451e+02   4.6918964030e+01    0.3502955    0.2649223 -84.12  0.001507818    1.161    0.139
       424  -9.9120      7.9648    133.2052   1.1322144489e+02   4.6783880104e+01    0.2780784    0.2020876 -18.55  0.001214955    1.719    0.418
       425 -10.3912     44.3857    130.2604   1.0149482676e+02   4.4205029533e+01    0.3401843    0.2820684 -16.92  0.001404147    1.397    0.284
       426  -9.5010     41.1642    133.8757   1.0312839170e+02   4.3657344040e+01    0.2499738    0.1812593 -78.83 0.0006461781    1.375    0.273
       427  -8.3640     84.6803     14.2867   5.2427604481e+01   5.9840547164e+01    0.1779517    0.1399656  64.46  0.001088577    1.358    0.264
       428  -9.1246    230.7155    137.0257   5.6654080585e+01   8.2823498112e+00    0.1923985    0.1579509 -35.54 0.0005237456    1.074    0.069
       429 -10.1285     34.6037    136.1624   1.0552768360e+02   4.3776427846e+01    0.4175963    0.2529689 -41.20  0.001323612    1.775    0.437
       430 -10.2881     14.8394    135.5222   1.1144781567e+02   4.5706761671e+01    0.2858402    0.2179494  58.96  0.001458765    1.416    0.294
       431 -10.3710     61.1319    131.1565   9.6368853634e+01   4.1881957178e+01    0.4732959    0.2443956  27.68 0.0007605963    2.146    0.534
       432  -8.6415    248.7802    133.9781   5.3313486194e+01   5.7293904777e+00    0.1759332   0.08975481 -39.58 0.0004838002    1.638    0.390
       433  -9.8849     28.8498    132.1304   1.0669111876e+02   4.5351156365e+01    0.2091171    0.1903788 -78.91 0.0003663931    1.056    0.053
       434  -9.2822     20.5017    131.1458   1.0913951860e+02   4.6337234052e+01    0.2001357     0.114506 -68.41  0.001002078    1.500    0.333
       435 -10.0032     18.4196    127.0449   1.0920939088e+02   4.7524517950e+01    0.4732904    0.1599609 -51.41  0.001899843    2.545    0.607
       436  -9.9027     88.5077    127.7870   8.7172209991e+01   3.8489550878e+01    0.2625127    0.2468181  46.92 0.0002448319    1.094    0.086
       437 -10.1669     34.1417    126.2254   1.0407304441e+02   4.6312653732e+01    0.3652343    0.1899212 -69.44  0.001655804    1.814    0.449
       438  -9.3175     12.7357    126.9056   1.1097082529e+02   4.7994343099e+01    0.1864748    0.1452004 -72.15 0.0005870575    1.099    0.090
       439  -8.9903     55.5170    125.9445   9.7127529277e+01   4.3930216445e+01     0.229281    0.1320529 -59.38  0.001034617    1.598    0.374
       440 -10.3065     41.4419    138.1569   1.0374417206e+02   4.2547676049e+01    0.3079636    0.2452404  50.10 0.0008962032    1.345    0.256
       441  -9.3507     59.6746    124.9799   9.5595557271e+01   4.3620102390e+01    0.2096658    0.1771908 -61.96 0.0007590495    1.118    0.106
       442 -10.0305     61.8031    121.0154   9.4078605887e+01   4.4308624036e+01    0.2772747    0.2268858 -64.76 0.0004164302    1.194    0.163
