#   1 NUMBER                 Running object number                                     
#   2 MAG_AUTO               Kron-like elliptical aperture magnitude                    [mag]
#   3 X_IMAGE                Object position along x                                    [pixel]
#   4 Y_IMAGE                Object position along y                                    [pixel]
#   5 X_WORLD                Barycenter position along world x axis                     [deg]
#   6 Y_WORLD                Barycenter position along world y axis                     [deg]
#   7 A_WORLD                Profile RMS along major axis (world units)                 [deg]
#   8 B_WORLD                Profile RMS along minor axis (world units)                 [deg]
#   9 THETA_WORLD            Position angle (CCW/world-x)                               [deg]
#  10 FWHM_WORLD             FWHM assuming a gaussian core                              [deg]
#  11 ELONGATION             A_IMAGE/B_IMAGE                                           
#  12 ELLIPTICITY            1 - B_IMAGE/A_IMAGE                                       
         1 -15.7780    177.8885     99.3710   2.0682280712e+01   2.5745884125e+01     5.228801     1.416514 -37.35  0.009791215    3.714    0.731
         2  99.0000    137.2884    127.5287   3.6599995636e+01   2.8787992329e+01     11.17798     4.381891 -35.91   0.03420807    3.398    0.706
         3 -16.0859    244.0718     30.4122   3.5706488230e+02   2.2354856363e+01     4.201783       2.0465 -77.23   0.02279189    2.283    0.562
         4 -17.9221    239.4659    104.5051   1.2608961924e+01   1.3107385921e+01     7.453035     3.484266 -33.60    0.0296666    1.885    0.470
         5 -15.7851    247.7943     47.2908   1.5558727970e-01   1.9632360327e+01     2.611005     1.434309  70.16    0.0100283    2.063    0.515
         6 -11.5059    179.7009     40.2169   5.1389674590e+00   3.4627543328e+01    0.4040241    0.1748731 -39.05  0.001401086    2.111    0.526
         7 -12.5718    147.9666     35.5395   8.2609907249e+00   4.2942894227e+01    0.4558761    0.2273601 -16.44  0.001748608    3.196    0.687
         8  -9.7791    239.4729     10.4385   3.5338517988e+02   2.5433259434e+01    0.1121307   0.08488059 -61.84  0.000144175    1.029    0.028
         9 -12.0671    249.1949    247.5493   3.6799895772e+01  -8.2060591433e+00    0.3359566     0.204106 -15.01  0.002456767    1.248    0.199
        10 -11.0883    240.0209    250.2162   3.8664713131e+01  -7.6420558507e+00    0.1752401    0.1113857  30.79 0.0008598627    1.867    0.464
        11 -12.2610    192.4140    194.7087   3.8182155842e+01   5.7912163047e+00    0.8710494    0.4660748 -60.74  0.002934738    5.537    0.819
        12  -9.8448    160.4990    197.9780   4.5413250628e+01   1.0011621121e+01    0.1711199    0.1260396 -76.87 0.0008095385    2.483    0.597
        13 -10.9959    220.3212    193.7884   3.2871501174e+01   2.0827677514e+00    0.2007612    0.1954919 -56.06 0.0007866363    1.617    0.382
        14 -10.0689    157.4701    193.4330   4.5298784949e+01   1.1334763155e+01    0.2130519    0.1360552 -58.43 0.0005715701    2.116    0.527
        15 -11.7446    247.5396    185.3688   2.6972548588e+01  -1.0738855162e-01    0.1957262    0.1787811 -23.52 0.0005422935    1.430    0.301
        16 -10.6830    195.0902    226.0561   4.2923043628e+01   4.9935385509e-01    0.2689236    0.1529963  35.82   0.00150637    1.808    0.447
        17 -12.2886    235.6728    218.0299   3.4395045630e+01  -3.2043873737e+00    0.4516962    0.3078336  55.96  0.002224527    4.442    0.775
        18 -11.7207    218.1877    210.3875   3.6109701805e+01  -9.8259101324e-02    0.2179431    0.1901133  14.19 0.0004191314    1.346    0.257
        19 -11.6780    241.9514    207.6133   3.1658594957e+01  -2.5156979707e+00    0.2110456    0.1881398   7.40 0.0009388906    1.457    0.314
        20 -15.1896    233.0500     96.7783   1.1793345889e+01   1.5367119562e+01     1.205108    0.4807059 -41.56  0.003103516    2.037    0.509
        21 -13.1083    190.3925    153.4937   3.0627812801e+01   1.3339762653e+01      0.66971    0.5632191 -41.71  0.003883099    1.205    0.170
        22  -9.4387    110.4333    167.4618   5.2314324620e+01   2.4709668147e+01    0.1497569    0.1423556  35.05 0.0001041187    1.023    0.022
        23 -13.0604    234.1474    184.6535   2.8931746192e+01   1.6532774479e+00    0.4356915    0.3132441  19.53  0.002850187    1.412    0.292
        24 -10.6426     61.1141    148.1542   6.3745546081e+01   3.7314531328e+01    0.4975308    0.2917862 -32.51  0.001860974    2.324    0.570
        25 -13.1301     67.7457    144.3287   6.0946745839e+01   3.7380443239e+01    0.8912187    0.6224341  68.45  0.003597158    1.700    0.412
        26  -9.6616    150.8469    180.7750   4.4534862791e+01   1.4883169244e+01    0.1749717    0.1637836  56.22 0.0003126231    1.273    0.215
        27 -10.5987    155.9197    140.3221   3.5057259511e+01   2.2292480533e+01    0.2569137    0.2034498 -54.63 0.0006663278    1.364    0.267
        28 -11.7437    148.4488    139.5487   3.6641811632e+01   2.3927074666e+01    0.2953903    0.2906748 -53.07 0.0008322533    1.081    0.075
        29 -13.1357     59.3707    123.1023   5.9868724991e+01   4.4177675737e+01     2.444927     1.247297  39.28  0.009852923    1.940    0.485
        30 -14.2204     39.1132    125.0434   6.7617163629e+01   4.6200423238e+01      1.16393    0.9753499 -39.25  0.002710218    1.247    0.198
        31 -14.1951     30.9784    126.4217   7.0807199749e+01   4.6669215200e+01      1.13401    0.8057137  -5.10  0.001452478    1.715    0.417
        32 -13.1524      2.1605    131.5704   8.1597173678e+01   4.7492537772e+01    0.8515075     0.256745 -77.52  0.002505682    2.884    0.653
        33 -10.9330    201.9599    136.9418   2.5005090586e+01   1.4279708890e+01    0.3128804    0.1759306 -46.40 0.0009123278    1.742    0.426
        34 -13.8608     11.7603    129.7158   7.8108448720e+01   4.7377562503e+01     1.315289    0.5607588  87.45   0.00505357    2.676    0.626
        35 -13.7823    159.6084    101.1987   2.4743486499e+01   2.9406923767e+01     1.263852    0.5853792 -49.73  0.002791111    2.311    0.567
        36 -12.6490    211.9792    130.4060   2.1924198783e+01   1.3650374111e+01     0.449674    0.3591313   4.87  0.001900611    1.453    0.312
        37 -13.7433     46.9340    126.1535   6.4945170567e+01   4.4999889368e+01    0.8034083    0.5433827 -62.02  0.001983465    1.411    0.291
        38 -11.3516    185.6023    171.2178   3.5145563648e+01   1.0924221747e+01    0.7664551    0.3332708 -55.29  0.002529649    4.345    0.770
        39 -14.8780    199.1213    102.9117   1.7898761185e+01   2.0729690290e+01     1.794385    0.6551455  49.79  0.006964008    2.990    0.666
        40 -12.6739    149.9733    109.4305   2.8996519237e+01   2.9910374512e+01    0.3943142    0.3599311  27.54 0.0007737854    1.158    0.136
        41 -11.2940    116.5133    113.4167   3.8703638208e+01   3.6298049568e+01    0.3780841    0.2868552  32.33 0.0009724355    1.374    0.272
        42 -15.7997    218.3618    100.2809   1.4451739267e+01   1.7466511270e+01     1.935202     1.383186 -41.44   0.01119782    1.198    0.166
        43 -13.0782    126.4826    106.0912   3.3981446640e+01   3.5784885137e+01    0.8822418    0.5256752 -66.16   0.00323909    2.539    0.606
        44 -11.7383    112.8637    105.6550   3.7706655944e+01   3.8832209781e+01    0.3618948    0.2727291 -43.52  0.001544147    1.348    0.258
        45 -10.0156    107.9587    107.4926   3.9672011621e+01   3.9447525962e+01    0.2392832    0.1547836  41.50 0.0005135411    1.526    0.345
        46 -11.9643    143.6781    101.1420   2.8293281808e+01   3.2986892901e+01    0.3542806    0.3046505  67.15 0.0008450425    1.235    0.190
        47 -10.3200    113.3017     94.9690   3.4586102621e+01   4.1099132527e+01    0.2223955    0.2025897 -40.52 0.0004293158    1.121    0.108
        48 -11.6113    199.9800     88.4276   1.4383921268e+01   2.2967222419e+01    0.2681696    0.1678522 -51.73 0.0007091067    1.536    0.349
        49 -10.9526    157.4749     88.4598   2.1819379942e+01   3.2282407171e+01    0.2605589    0.2314932 -43.76 0.0006042584    1.108    0.097
        50 -13.3183    193.0592     71.6862   1.1359385818e+01   2.7092019785e+01     1.009525    0.5184194 -26.80  0.003916995    2.371    0.578
        51 -13.9116    192.5513    164.7016   3.2489068078e+01   1.0957205177e+01    0.8550705    0.5203858 -46.37  0.001706142    1.711    0.415
        52 -13.0251    199.9358    164.7073   3.1089974026e+01   9.7604199902e+00    0.6032826     0.375995 -34.71  0.001941315    1.461    0.316
        53 -11.0495    204.9277     72.1688   9.8719915305e+00   2.4494813307e+01    0.2260542    0.1701106 -43.61 0.0003963008    1.183    0.155
        54 -11.3686    199.3343     64.6355   8.8012187048e+00   2.6801353311e+01    0.3139338    0.1810665 -63.73  0.001157813    1.960    0.490
        55 -10.6066    238.4579    204.3359   3.1667033359e+01  -1.6720145212e+00    0.2369332    0.1497997 -12.36  0.001287447    1.385    0.278
        56 -10.4350    198.3205     53.9121   6.3378176372e+00   2.8560521888e+01    0.1829533     0.151818 -48.55 0.0003652404    1.114    0.102
        57 -10.8919    141.0546     51.1902   1.4311644060e+01   4.2506226555e+01    0.2190491    0.1920344  44.59 0.0004690755    1.226    0.185
        58 -12.8920    187.3651     44.6552   5.3518271493e+00   3.2271428875e+01    0.4328641    0.3622962   9.68 0.0009497244    1.701    0.412
        59 -11.5057    170.8098     47.9330   8.3844696062e+00   3.5690037299e+01    0.2033682    0.1914134  23.95  0.001221557    1.316    0.240
        60 -10.8048    158.5978     44.2197   9.1632728799e+00   3.9158371648e+01    0.1811487    0.1374277 -20.75 0.0004440094    1.597    0.374
        61 -11.7525    189.4495     38.1483   3.4710403232e+00   3.2645278433e+01    0.3818913    0.2518085 -17.61  0.001414465    2.044    0.511
        62 -11.8104    232.4231    206.8203   3.3073605486e+01  -1.3104509257e+00    0.2942141    0.2318596  21.39  0.001440227    1.381    0.276
        63 -11.4872    133.0169     39.8082   1.2242172569e+01   4.6142731727e+01    0.2554405    0.2085432 -39.41 0.0009841548    1.299    0.230
        64 -12.0694    204.5060    199.2936   3.6684568627e+01   3.3496596124e+00    0.4428408    0.2749956  16.23  0.002465829    1.612    0.380
        65 -11.2812    169.9872     40.2337   6.3935435223e+00   3.6927622126e+01    0.1905241    0.1638446 -88.69 0.0003045468    1.059    0.056
        66 -12.3909    178.1244    168.1753   3.6075182097e+01   1.2723945054e+01    0.6986485    0.3896134 -34.01  0.002668519    1.785    0.440
