#   1 NUMBER                 Running object number                                     
#   2 MAG_AUTO               Kron-like elliptical aperture magnitude                    [mag]
#   3 X_IMAGE                Object position along x                                    [pixel]
#   4 Y_IMAGE                Object position along y                                    [pixel]
#   5 X_WORLD                Barycenter position along world x axis                     [deg]
#   6 Y_WORLD                Barycenter position along world y axis                     [deg]
#   7 A_WORLD                Profile RMS along major axis (world units)                 [deg]
#   8 B_WORLD                Profile RMS along minor axis (world units)                 [deg]
#   9 THETA_WORLD            Position angle (CCW/world-x)                               [deg]
#  10 FWHM_WORLD             FWHM assuming a gaussian core                              [deg]
#  11 ELONGATION             A_IMAGE/B_IMAGE                                           
#  12 ELLIPTICITY            1 - B_IMAGE/A_IMAGE                                       
         1 -13.0648    180.8905     56.8466   4.4866992789e+01   3.2991805723e+01     1.359807    0.9285641  35.33  0.004538787    1.976    0.494
         2 -13.6925    196.5824     44.0395   3.9503353778e+01   3.1224392157e+01    0.9550539    0.9176416  51.54  0.004360196    1.278    0.218
         3 -13.4433    224.7781     14.1467   3.0113459474e+01   2.8812464204e+01    0.8466687    0.6929976 -65.21   0.00412371    1.109    0.098
         4 -11.5507     40.9467      6.8007   6.3279710910e+01   6.9179260574e+01    0.3384329    0.1552801 -22.78  0.001761871    2.284    0.562
         5 -12.3565     62.3007      3.0215   5.3165862836e+01   6.5815896000e+01    0.5968592    0.2661812  51.30  0.003046905    1.924    0.480
         6 -10.9668    249.5040    234.2592   7.1012536656e+01  -9.8571028178e+00    0.2689722    0.1261742 -28.91  0.001464492    1.842    0.457
         7 -11.9377    248.4379    245.1479   7.3014503138e+01  -1.1219545815e+01    0.4472359    0.2927391  33.85  0.002910088    1.856    0.461
         8 -18.3078     12.4975    235.9414   1.2060297885e+02   2.1634203438e+01     8.114776     6.414324 -61.25   0.04857084    1.538    0.350
         9 -10.6800    192.7094    194.8765   7.4615660733e+01   4.3997082507e+00    0.9053305    0.4510656 -61.44  0.002726318    5.389    0.814
        10  -9.6239    167.2052    225.5813   8.5554908955e+01   2.6831109734e+00    0.2352901    0.1779916 -38.15 0.0005653972    1.381    0.276
        11 -18.8333      2.7755    102.4332   1.1110991395e+02   5.4458135899e+01     17.20282    0.5262119 -70.45   0.02496982   19.771    0.949
        12  -9.3991     59.2912    196.7715   1.0690717573e+02   2.5331433946e+01    0.1786917    0.1538714  67.82 0.0006262912    1.075    0.070
        13  -9.5408     83.0866    194.7657   1.0065122892e+02   2.2563026045e+01    0.3024096    0.1939272  24.53  0.001027419    1.745    0.427
        14  -8.9257     57.3323    211.0246   1.0897049339e+02   2.2191695991e+01    0.2311306    0.1519892  47.28 0.0008519772    1.400    0.286
        15 -11.5586     51.8476    190.6056   1.0805089305e+02   2.7764158424e+01    0.5988796    0.3066186 -50.55  0.001367542    2.108    0.526
        16  -9.8146     51.6497    182.2829   1.0710524173e+02   2.9860315446e+01    0.2582178    0.2050942  74.34  0.001052851    1.225    0.184
        17 -10.0889     54.6379    184.3155   1.0657870056e+02   2.8986885505e+01    0.2506501     0.167887  49.36 0.0008706787    1.475    0.322
        18  -9.8009     33.2635    190.3453   1.1265736101e+02   2.9921182637e+01    0.2108477    0.1849252  15.16   0.00130263    1.413    0.292
        19  -8.5265    185.0103    189.2325   7.5140024257e+01   6.7660838553e+00    0.1755104     0.115592  33.58 0.0002199766    1.529    0.346
        20  -9.6514     76.4133    184.3297   1.0087419958e+02   2.6087994125e+01    0.2456695    0.2237204 -83.51 0.0005476037    1.054    0.051
        21 -10.5793     84.1454    185.0299   9.8944932971e+01   2.4787799823e+01    0.5797192    0.4149945 -87.76  0.002802773    1.602    0.376
        22  -9.7933     79.3861    182.1653   9.9766282257e+01   2.6199887418e+01    0.3518284    0.2356993 -78.76  0.001234157    1.639    0.390
        23  -9.8698     39.0895    185.9165   1.1075323591e+02   3.0391279163e+01    0.3157679    0.2349256 -38.49  0.001728715    1.661    0.398
        24  -9.8485     73.8864    206.7409   1.0452293798e+02   2.1014887939e+01    0.2701476    0.1799917 -88.67 0.0008669052    1.683    0.406
        25 -10.2776    145.2802    182.8593   8.2946229979e+01   1.5074259900e+01    0.2593552    0.2037337  46.82 0.0006307302    1.338    0.253
        26  -9.8975     88.2098    178.7398   9.6874547897e+01   2.5737321726e+01    0.2208119    0.1912909  71.71 0.0005169476    1.190    0.160
        27  -8.3150     41.2586    178.2484   1.0934132795e+02   3.2073052579e+01    0.1238308   0.09861164 -43.82 0.0002489728    1.425    0.298
        28  -9.3477     77.1317    231.2106   1.0657707899e+02   1.5086483848e+01    0.4527815    0.1829156 -52.31  0.001924296    2.800    0.643
        29  -9.6534     91.1393    175.9643   9.5627081177e+01   2.5977176491e+01    0.2408915     0.195309  78.97 0.0007306444    1.367    0.268
        30  -9.3286     32.7233    174.9754   1.1120935170e+02   3.3800062721e+01    0.3448276     0.132111 -65.48  0.001034916    2.219    0.549
        31 -11.9199    230.4221    171.6043   6.2774523289e+01   2.6674401609e+00    0.6162488    0.4670474  85.70  0.003039341    2.694    0.629
        32 -10.0954    179.7070    174.1062   7.3239590864e+01   1.0745509863e+01    0.2475608    0.2047126  48.39  0.001009955    1.375    0.273
        33 -10.4018    137.7026    172.9401   8.2857899843e+01   1.8705572066e+01    0.2213567    0.1992389 -49.11 0.0008418752    1.122    0.109
        34 -12.3620    245.8826    167.4885   5.9361794896e+01   1.0511571318e+00    0.6206247    0.3852356 -44.10  0.003399068    1.485    0.327
        35  -9.3174    186.4845    164.4676   6.9759925342e+01   1.1497255401e+01    0.2907938     0.176872 -45.26 0.0007257751    1.581    0.367
        36 -10.1833    186.6358    168.2090   7.0520569541e+01   1.0705203103e+01    0.3236607    0.2114924 -30.26  0.001507427    1.546    0.353
        37  -9.4687    191.6742    166.0084   6.9002190490e+01   1.0240867908e+01    0.2150772    0.1747118 -35.79 0.0006207145    1.140    0.123
        38 -11.3188    133.8658    145.6421   7.7990391936e+01   2.5857105537e+01     1.438159    0.3617781 -54.83  0.003052341    6.549    0.847
        39  -9.6603    111.9255    150.1896   8.4944279142e+01   2.8918995251e+01    0.5170733    0.3102671  72.68  0.001697588    3.379    0.704
        40 -11.7143     93.0287    148.7006   9.0028207521e+01   3.2586941023e+01    0.7222354    0.5533335 -17.02    0.0033519    1.633    0.388
        41  -9.4565    174.4822    148.8421   6.8923328291e+01   1.7052779216e+01    0.2605638     0.219575 -50.30 0.0005442125    1.195    0.163
        42  -8.9091    179.5181    141.5253   6.6162569681e+01   1.7600843591e+01     0.151313      0.14217 -38.63  7.03497e-05    1.034    0.033
        43 -11.0314    106.5059    134.0240   8.2868126138e+01   3.3912778194e+01    0.7842807    0.4620345 -37.79   0.00201734    1.853    0.460
        44  -9.8449    105.5069    130.4926   8.2328308459e+01   3.4965143160e+01    0.5752522    0.3804232 -68.58  0.002383255    1.880    0.468
        45 -11.7355     93.1494    135.1990   8.7105250939e+01   3.5991291701e+01    0.3102379    0.2780023 -37.84 0.0003752937    1.104    0.095
        46  -9.0173    148.1850    132.2279   7.1167506384e+01   2.6054666009e+01    0.2120804    0.1850296 -80.40 0.0003863127    1.337    0.252
        47 -10.1080    135.6322    128.4389   7.3430205336e+01   2.9521011892e+01    0.4202535     0.237381 -54.62  0.001638711    1.910    0.476
        48  -9.8642    113.3573    127.8468   7.9404613707e+01   3.4124706157e+01     0.296365    0.2506181  -0.32 0.0005369528    1.360    0.265
        49 -10.1610    100.6213    123.4821   8.2091281390e+01   3.7576612349e+01    0.2957444    0.2497276  -8.13  0.000782445    1.342    0.255
        50  -9.7357    118.4461    122.6987   7.6671341322e+01   3.4350969399e+01    0.2737194    0.1985786  14.17  0.001172751    1.773    0.436
        51  -9.4696    135.0000    120.3819   7.1566150207e+01   3.1487703872e+01    0.3529049   0.08851694 -45.95 0.0009297951    3.895    0.743
        52  -9.0598    232.2594    116.9921   5.1111747111e+01   1.2137850203e+01    0.1906842    0.1522221 -42.01 0.0002104328    1.067    0.063
        53  -9.3228    109.0368    117.3161   7.8017262393e+01   3.7468486017e+01     0.211502    0.1977658  38.48 0.0002705902    1.100    0.091
        54  -9.7491    205.4191    110.3526   5.3916324955e+01   1.8517996913e+01     0.268397    0.2429956  31.69 0.0009207226    1.273    0.214
        55 -10.6360    117.2999    109.2643   7.3485382004e+01   3.7677096556e+01    0.4549277    0.2735859  62.50  0.001700615    2.455    0.593
        56  -8.7176    160.5018    107.9619   6.2140817574e+01   2.8623970735e+01    0.2186826    0.1286171 -63.33 0.0007123968    2.426    0.588
        57  -9.6291    134.4235    106.2031   6.7978775093e+01   3.4733309114e+01    0.3702612    0.1422467 -51.51  0.001150256    3.057    0.673
        58 -10.6322    119.0521    104.4203   7.1664482658e+01   3.8392676254e+01    0.3285824     0.240833 -43.23  0.001375107    1.344    0.256
        59 -11.7649     44.2590     91.8363   9.3435079954e+01   5.3707950645e+01    0.4332723    0.2799059 -40.71  0.002183417    1.400    0.286
        60 -11.2200     49.1239     76.1129   8.7215314648e+01   5.6673321749e+01    0.5288469    0.2182715 -58.19  0.001993576    2.856    0.650
        61  -9.0955    184.4996     77.4650   4.9534287556e+01   2.8898692908e+01    0.1417082    0.1320767 -69.92 3.215754e-05    1.009    0.009
        62  -9.4628     54.9387    206.4183   1.0904999950e+02   2.3568395931e+01    0.2810294    0.1587146  63.61  0.001240872    1.909    0.476
        63 -10.3006     87.1786    205.4721   1.0111370121e+02   1.9422686780e+01    0.3580804    0.2204981 -47.87 0.0005535979    1.789    0.441
        64 -10.3464    150.6744    250.1248   9.2829534938e+01   7.8577249504e-01    0.1782264    0.1576625   3.70  0.001162294    1.111    0.100
        65 -12.8171    202.0143     38.7420   3.7606332918e+01   3.0715639886e+01    0.5525996    0.4691129 -67.03  0.001139838    1.053    0.050
        66  -8.8420     64.3354     52.6561   7.3277143281e+01   5.9041110490e+01    0.1835868    0.1639669  78.25  0.001036824    1.673    0.402
        67 -10.2054     56.0339     49.3449   7.5361966041e+01   6.0926902233e+01    0.3472894    0.2023312  45.31  0.001333064    2.054    0.513
        68 -10.5336     31.2845     42.1898   8.3681903135e+01   6.5452598580e+01    0.3611521    0.1362317  38.77  0.001498409    3.316    0.698
        69 -10.6972     75.3326    247.8463   1.0864803413e+02   1.1900467074e+01    0.4372365    0.1384373 -57.92  0.001818134    3.333    0.700
        70 -11.6800     71.2298    240.7081   1.0883703267e+02   1.3884080952e+01    0.2050636    0.1812345 -83.90 0.0004055586    1.194    0.163
        71 -10.2803     60.2414     21.1253   6.2091297029e+01   6.4351327331e+01    0.2193874    0.1756452  17.96 0.0005892151    1.046    0.044
        72  -9.5266    189.4850     14.9256   3.3399231264e+01   3.6314755508e+01     0.171313    0.1158788 -37.90 0.0005385847    1.555    0.357
        73 -10.6157    161.9833    202.1178   8.2650426622e+01   8.0628654255e+00    0.3279667    0.1868625  19.66  0.001381752    2.138    0.532
