#   1 NUMBER                 Running object number                                     
#   2 MAG_AUTO               Kron-like elliptical aperture magnitude                    [mag]
#   3 X_IMAGE                Object position along x                                    [pixel]
#   4 Y_IMAGE                Object position along y                                    [pixel]
#   5 X_WORLD                Barycenter position along world x axis                     [deg]
#   6 Y_WORLD                Barycenter position along world y axis                     [deg]
#   7 A_WORLD                Profile RMS along major axis (world units)                 [deg]
#   8 B_WORLD                Profile RMS along minor axis (world units)                 [deg]
#   9 THETA_WORLD            Position angle (CCW/world-x)                               [deg]
#  10 FWHM_WORLD             FWHM assuming a gaussian core                              [deg]
#  11 ELONGATION             A_IMAGE/B_IMAGE                                           
#  12 ELLIPTICITY            1 - B_IMAGE/A_IMAGE                                       
         1 -10.2636     99.2191     22.8704   6.2239585882e+01   5.7021982468e+01    0.4767458    0.2320283 -20.45  0.002079131    2.267    0.559
         2 -10.2331    102.4925     13.4794   5.7490997590e+01   5.7342961314e+01    0.2451665    0.2284604 -50.24 0.0005441866    1.301    0.231
         3 -10.7873    149.5889     18.1810   4.9479037767e+01   4.5564156956e+01    0.3489679     0.311547 -50.25 0.0009215295    1.202    0.168
         4 -10.7968    111.2649     18.6333   5.7407396285e+01   5.4820932349e+01    0.4098086    0.2801086  35.28  0.001753599    1.398    0.285
         5  -9.9619     43.2861     15.0245   7.8550993898e+01   6.8060696074e+01    0.3054452    0.1533469 -36.21  0.001430499    1.884    0.469
         6 -11.0819     22.0562     15.0938   8.8811653751e+01   7.0579055004e+01    0.5302627    0.2710098 -29.98    0.0030253    1.661    0.398
         7 -10.3566      6.9239      3.1799   9.1264557187e+01   7.3754006884e+01    0.2274817    0.1742812  -1.12 0.0008669854    1.231    0.188
         8 -10.2650     10.3721     15.1981   9.5052590379e+01   7.1594058110e+01    0.2964117    0.1596192 -43.65 0.0006839515    1.515    0.340
         9  -9.4556      8.0232     12.0488   9.4932257769e+01   7.2288412831e+01     0.196436    0.1245697 -39.33  0.000369438    1.272    0.214
        10 -11.4246     11.6271      7.0331   9.0512594413e+01   7.2782928602e+01    0.4500569    0.2999659 -40.86  0.003076707    1.445    0.308
        11 -10.5585     19.3353     10.9136   8.8220923180e+01   7.1487248824e+01    0.2036301    0.1559794 -11.92 0.0004198874    1.061    0.058
        12 -10.2255     15.9514      8.4905   8.8841927866e+01   7.2174662024e+01    0.2043522    0.1548461 -26.06 0.0005143257    1.146    0.128
        13 -10.9806    182.3543     13.3531   4.3271796527e+01   3.7751575853e+01    0.5811746    0.2834426  61.47   0.00264485    1.840    0.456
        14  -9.5915     67.1736     13.1102   6.8018606677e+01   6.4505627370e+01    0.2533006    0.1792604  21.29 0.0009856907    1.288    0.224
        15 -10.5548     58.2510     13.2131   7.1405800900e+01   6.6025055298e+01    0.3656851    0.2152038  25.53  0.001214454    1.669    0.401
        16 -10.0683    123.4898     11.5291   5.1958613366e+01   5.2671874541e+01    0.2704949    0.2112108  42.14 0.0008357498    1.169    0.144
        17 -10.3548    210.2271      9.2176   3.9179498270e+01   3.1284982142e+01    0.4184308    0.1864654 -44.84  0.001635169    2.073    0.518
        18 -10.0703    212.7126      5.9581   3.8141068775e+01   3.1026316904e+01    0.2190153    0.1653397  72.58  0.001298461    1.257    0.205
        19  -9.7952    249.4190     10.2513   3.6206480750e+01   2.2194570275e+01    0.2144573    0.1367714  66.06 0.0009678293    1.657    0.396
        20  -9.8238    193.1574     10.0390   4.1110798629e+01   3.5384281199e+01    0.2508066    0.1807946  79.44  0.001389699    1.266    0.210
        21  -9.9188    120.1443     12.6983   5.3093279548e+01   5.3357628881e+01    0.3031103    0.2345885 -49.62  0.001293577    1.535    0.348
        22 -10.2295     47.7638      8.7616   7.3453094586e+01   6.8224345415e+01    0.2825918    0.1679767  -1.67  0.001228954    1.806    0.446
        23 -11.3102    238.3369      7.4309   3.6399088709e+01   2.4937647204e+01    0.4034379    0.1987099 -38.21  0.002085769    1.810    0.447
        24 -10.5473    221.3236      8.3202   3.7966343202e+01   2.8739621233e+01    0.2019833    0.1556978 -89.69 0.0007918793    1.164    0.141
        25  -9.4819    187.7540      8.1629   4.1188038245e+01   3.6920726100e+01    0.1841256     0.148571  47.91 0.0006370135    1.349    0.259
        26  -9.1261     38.0770      4.7505   7.5648900074e+01   7.0112275220e+01    0.1573853    0.1361266  27.03 0.0002644007    1.432    0.301
        27  -8.5527     78.5191      7.4675   6.1563588415e+01   6.2979175134e+01    0.1321465    0.1049024  21.38 9.168088e-05    1.082    0.076
        28 -10.4433     25.3893      6.1273   8.2600151926e+01   7.1533760273e+01     0.376139     0.154571 -34.29  0.001946893    2.100    0.524
        29  -9.5703     22.1528      3.1878   8.2719693179e+01   7.2293358210e+01     0.211792    0.1947069 -31.02 0.0007782564    1.654    0.396
        30 -10.0532    229.5233      8.4995   3.7327823333e+01   2.6817399969e+01    0.2315046     0.108044 -88.93  0.001036107    2.336    0.572
        31  -8.6039    158.5112      6.5549   4.4339425351e+01   4.4448904310e+01     0.135895    0.1204644  86.51 0.0001260907    1.080    0.074
        32  -8.9766    108.1689      6.1373   5.3127250833e+01   5.6756838668e+01    0.1690642    0.1560403 -63.02 0.0007488147    1.316    0.240
        33  -9.5079    127.0375      5.4391   4.9009134292e+01   5.2367161116e+01    0.2076397     0.118328  62.56  0.000645667    1.562    0.360
        34  -9.3729     30.3176      4.1868   7.9065686934e+01   7.1202158706e+01     0.267498    0.1169731 -24.29  0.001347838    2.232    0.552
        35 -10.1611     17.0481      3.5489   8.5680521875e+01   7.2782469523e+01    0.2523559    0.1929173 -33.28   0.00168396    1.397    0.284
        36  -8.7917    175.3846      3.4838   4.1265915621e+01   4.0469289282e+01    0.1326625    0.1160921 -80.31 -9.565998e-05    1.085    0.078
        37  -9.5596     90.1734      3.2061   5.6275805583e+01   6.0985124964e+01    0.1544024    0.1510727 -69.06 0.0003312982    1.304    0.233
        38  -9.8934     51.5656      2.4984   6.8616726933e+01   6.8340533215e+01    0.4692846    0.1162317  41.91  0.001824033    3.587    0.721
        39 -10.7702    243.9349      1.6240   3.4724562495e+01   2.4321039846e+01     0.455772    0.1319896  79.62  0.001734635    3.676    0.728
        40 -10.5661    230.1131      2.2074   3.5833986225e+01   2.7345771171e+01    0.2872222    0.1318474  72.40  0.001408571    2.019    0.505
        41  -9.4298    104.2922      2.1468   5.2367766244e+01   5.7975982784e+01    0.2788329    0.1566755 -88.52  0.001103331    3.516    0.716
        42  -9.0788     40.0000      8.0100   7.6487635392e+01   6.9441915230e+01     0.154243    0.1325826 -24.59 0.0004743422    1.390    0.280
        43  -8.8281    137.4969      1.4380   4.5780442782e+01   5.0141696052e+01    0.1323854    0.1186159  72.65 0.0001407931    1.077    0.072
        44  -9.7593     85.0358      1.3623   5.6833107909e+01   6.2220904570e+01    0.1776618    0.1097371  54.53 0.0009665269    1.522    0.343
        45  -8.8952     94.4789    102.4474   9.1068599438e+01   4.3369532667e+01     0.148905     0.140661 -53.54 0.0001829782    1.023    0.022
        46  -9.9569    220.1308    100.3111   6.1235213447e+01   1.5818655779e+01    0.3285304    0.2433022  61.87  0.001097104    1.511    0.338
        47 -10.7748     53.6954     98.9657   1.0304873007e+02   5.0263707044e+01     0.437833    0.2751059 -45.14  0.002226032    1.476    0.322
        48  -8.9812      1.2335    100.6146   1.2008565718e+02   5.4312583127e+01    0.1201442   0.07521573  83.73 0.0003650821    1.633    0.388
        49 -10.3927     69.2910     97.0888   9.7540351483e+01   4.8658125687e+01    0.3491678    0.2269947 -55.02 0.0009370442    1.389    0.280
        50  -9.2787     18.7445     97.9890   1.1422383450e+02   5.3831373776e+01    0.1804165    0.1333548 -66.98 0.0003785751    1.086    0.079
        51  -9.4369     15.9924     95.4623   1.1469321919e+02   5.4617486825e+01    0.2052492    0.1495193  72.09 0.0007092734    1.599    0.375
        52  -9.6845    191.5113     96.9710   6.5461744054e+01   2.3030049007e+01    0.2391617    0.1477835 -37.23 0.0007564544    1.557    0.358
        53  -9.2300    148.0462     96.2410   7.4672460013e+01   3.3538686075e+01    0.2016592     0.133748  47.66 0.0003255656    1.530    0.346
        54  -9.5890     80.0305     95.0327   9.3566048401e+01   4.7512151635e+01    0.2313973    0.2103563 -40.44 0.0008106165    1.036    0.034
        55  -9.7660     37.8694     93.7121   1.0713599383e+02   5.3221398893e+01    0.2161565    0.1479098 -52.98 0.0002295263    1.224    0.183
        56  -9.4809      1.2010     93.9922   1.1921259434e+02   5.5842665696e+01    0.2837152   0.08705983 -67.07 0.0003986623    2.273    0.560
        57  -9.7595      1.5046     90.5244   1.1862475857e+02   5.6623538897e+01     0.160695     0.136059 -40.61 0.0005145014    1.285    0.221
        58  -9.2403    132.7160     93.4484   7.7727554728e+01   3.7623571020e+01    0.2153951    0.1499116  35.16 0.0009170491    1.567    0.362
        59  -9.9539     89.1477     92.2491   8.9928025155e+01   4.6629050669e+01    0.2709452    0.2317447 -27.97 0.0006134854    1.185    0.156
        60  -8.7125      9.6002     93.2553   1.1641140413e+02   5.5543915268e+01    0.1172535   0.08215506  65.82 0.0005145758    1.706    0.414
        61  -9.6523    230.9763     90.8893   5.7203036009e+01   1.5010685528e+01    0.2239987    0.1961597 -49.23 0.0006299963    1.071    0.066
        62 -11.2935    180.0456     88.4968   6.5391457837e+01   2.7354409153e+01    0.3812378    0.2844826 -32.21  0.001783721    1.347    0.257
        63 -11.7081    174.4500     82.5466   6.4836223601e+01   2.9812221033e+01    0.5551447    0.4198951 -34.40  0.001897599    1.315    0.240
        64 -10.7679    171.5967     89.5393   6.7418812099e+01   2.9218957968e+01     0.396584    0.3762429 -39.57  0.001792634    1.035    0.034
        65  -8.9719    219.5789     89.7611   5.8674074985e+01   1.7744618822e+01     0.213482    0.1260761 -44.74 0.0008428813    1.593    0.372
        66  -9.6073    109.0000     89.0057   8.2976742486e+01   4.3620477100e+01    0.2613495   0.08420492 -44.94 -4.350598e-05    2.982    0.665
        67  -9.0976     16.1476     89.0263   1.1353899944e+02   5.6103991131e+01     0.227583   0.09764885 -46.47  0.001094639    2.054    0.513
        68 -10.6391    131.7106     86.7638   7.6007181379e+01   3.9224919281e+01    0.3182372    0.2631969 -28.75 0.0007965597    1.236    0.191
        69 -10.2958    120.8712     87.7318   7.9218891545e+01   4.1417829045e+01    0.2992008    0.2511879 -71.31 0.0003422567    1.402    0.287
        70 -10.1014    124.9235     85.7479   7.7508599443e+01   4.0945669601e+01    0.2805988    0.2615509  89.79 0.0004655163    1.194    0.162
        71 -10.3982    162.3389     86.3339   6.8494998022e+01   3.2077680513e+01    0.3094081    0.2791088 -77.41  0.001235035    1.204    0.170
        72  -8.6851     72.7100     87.2839   9.3839946941e+01   5.0410918244e+01    0.1338493     0.111277  87.36 0.0002127708    1.532    0.347
        73  -9.4875    239.7687     85.5777   5.4654229312e+01   1.3965441012e+01    0.2700836    0.1935388 -68.37 0.0009041459    1.643    0.391
        74  -9.0387     51.9327     91.5255   1.0191119419e+02   5.2221791731e+01    0.1741247    0.1365122  29.16 0.0003519012    1.462    0.316
        75 -10.4018    166.8877     83.2815   6.6621133219e+01   3.1537395869e+01    0.2873185    0.2108556 -47.50  0.001184479    1.374    0.272
        76  -9.7950    136.3166     84.0435   7.3992690904e+01   3.8718161003e+01     0.329199    0.2202228  69.54  0.001351333    2.007    0.502
        77 -10.2940     75.9717     82.5224   9.1401841738e+01   5.0971565663e+01    0.3436321    0.2288158 -54.65  0.001677169    1.468    0.319
        78  -9.3349     66.0244     84.3546   9.5277519610e+01   5.2044543568e+01    0.1812772    0.1731676 -16.08  0.001091034    1.102    0.093
        79 -10.1466     46.0074     83.9890   1.0212081240e+02   5.4636167222e+01    0.1997838    0.1683896 -49.72            0    1.008    0.008
        80 -11.8933    155.1941     80.1430   6.8264565789e+01   3.4980244215e+01    0.7226943     0.451648  78.34  0.002695849    2.543    0.607
        81 -10.8390      6.9289     80.2913   1.1516169527e+02   5.8670881109e+01    0.3036255    0.2509367 -50.25  0.001194868    1.133    0.117
        82 -10.2659      5.1884     75.2472   1.1487605183e+02   5.9900464496e+01    0.3513208    0.1165177 -54.19  0.001664646    2.091    0.522
        83  -9.6366     55.2749     80.2028   9.7868604631e+01   5.4405429539e+01     0.289853    0.1541044 -44.74  0.001358619    1.661    0.398
        84 -11.0545    104.7668     78.2236   8.0923081068e+01   4.6731042875e+01    0.4626028    0.3387323 -10.58  0.001070516    1.730    0.422
        85  -9.1833     96.5880     79.3019   8.3761887716e+01   4.8097824598e+01    0.2775528    0.1379519 -49.20  0.001030591    2.019    0.505
        86  -8.9800     80.4674     80.5539   8.9325659175e+01   5.0679431398e+01    0.2322728    0.1395505  23.28 0.0006155295    2.101    0.524
        87 -10.0590    217.4749     76.9875   5.5742150142e+01   2.0345969252e+01    0.3284724    0.2559577 -57.47  0.001697187    1.282    0.220
        88  -9.5751     49.4609     77.0276   9.9083993652e+01   5.5816040122e+01    0.2091914     0.117419 -54.93   0.00045153    1.563    0.360
        89  -9.5217     99.4631     76.4231   8.1962748813e+01   4.8143960568e+01    0.1471306    0.1395408 -20.76 8.383224e-05    1.011    0.011
        90 -10.5868     77.4249     75.1520   8.8693772843e+01   5.2333448843e+01     0.439589    0.2161301  29.36   0.00118187    2.460    0.593
        91  -9.7293     21.0900     75.4883   1.0911440493e+02   5.8847882377e+01    0.2029994    0.1552773 -83.47  0.001093142    1.457    0.314
        92  -9.5712    172.8678     74.3932   6.2794080643e+01   3.1654259012e+01    0.2607217    0.1798797 -31.30 0.0008402815    1.483    0.326
        93 -11.1658    158.2938     73.7320   6.5638598716e+01   3.5389830040e+01    0.3658058    0.2812286 -15.08 0.0007173175    1.518    0.341
        94 -10.1737    159.0751     58.8010   6.0867503114e+01   3.7728929053e+01    0.3519137    0.2653247 -17.03  0.001670877    1.513    0.339
        95 -11.4507    163.2791     66.3794   6.2343283869e+01   3.5425845372e+01    0.4819437    0.3906863 -44.78  0.001822199    1.237    0.192
        96 -11.4895    163.5439     59.7269   6.0251071269e+01   3.6454877469e+01    0.5091401    0.3491641   9.93  0.001702016    2.172    0.540
        97 -11.2317    152.4629     73.4802   6.6858815358e+01   3.6868336357e+01    0.3892061    0.2981215 -29.09 0.0008624974    1.350    0.259
        98 -10.4930    137.3023     73.3400   7.0418936112e+01   4.0542398524e+01    0.3095988    0.2309908  -0.63  0.001376278    1.756    0.431
        99  -9.6327     54.9587     74.0305   9.6252501675e+01   5.5809809831e+01     0.221734    0.1447813 -26.13  0.000654746    1.703    0.413
       100 -11.0194    143.7842     80.8143   7.1148316922e+01   3.7598467030e+01     0.370688    0.2608705  52.08 0.0007994542    1.442    0.307
       101  -9.0752    207.9826     74.0000   5.6432525376e+01   2.3078752688e+01     0.231161   0.08461176  59.17 0.0005280689    2.858    0.650
       102 -10.0458    163.5318     73.0672   6.4314078332e+01   3.4210307175e+01    0.2916751    0.2235785  81.01  0.001115077    1.559    0.359
       103  -9.6630    238.1374     72.1475   5.1638991113e+01   1.6422830034e+01    0.2101275    0.1919826  -9.62 0.0007097978    1.256    0.204
       104 -10.0216    110.1680     70.6908   7.6886182972e+01   4.7121385147e+01    0.2649514    0.1998398 -45.93  0.001292437    1.344    0.256
       105 -10.1906     64.5310     70.5572   9.1756933411e+01   5.5269904761e+01    0.4008767    0.2317089  46.10   0.00187449    2.133    0.531
       106  -9.4251     58.2764     71.0118   9.4155632553e+01   5.6033680665e+01    0.1976054    0.1637462 -39.60 0.0007491014    1.051    0.048
       107  -8.7927     38.5490     71.4746   1.0161251600e+02   5.8227277283e+01    0.1335284    0.1072548 -41.90 0.0001955013    1.057    0.054
       108  -9.8069     17.6182     70.4148   1.0928397566e+02   6.0227506815e+01    0.3248034    0.1519147 -54.87  0.001528976    1.609    0.379
       109  -9.2262     14.8677     67.8549   1.0975782403e+02   6.0976729908e+01    0.1799223    0.1281721 -43.57 0.0003094178    1.187    0.157
       110  -9.8058    230.6685     70.1481   5.2134737556e+01   1.8396104858e+01    0.2422813    0.1893359  87.47  0.001143816    1.418    0.295
       111  -9.7484     97.0452     69.2370   8.0369085988e+01   5.0053996596e+01    0.2511235    0.1940781 -36.86 0.0005338411    1.233    0.189
       112 -11.3270    142.6208     68.2756   6.7512288244e+01   4.0192161198e+01    0.3777102    0.2768129 -14.25  0.001151619    1.634    0.388
       113  -9.0734     27.7901     68.7243   1.0499039692e+02   5.9823318043e+01     0.259586    0.1069312 -31.89  0.001033088    3.195    0.687
       114  -9.7553     89.0187     66.9351   8.2162878645e+01   5.2017162373e+01    0.3858579     0.271336 -72.72  0.001031152    2.343    0.573
       115 -11.7000    151.7764     64.0159   6.4060512652e+01   3.8690870226e+01    0.5303618    0.3054697 -43.85  0.002217629    1.779    0.438
       116  -9.4301    210.7142     64.4266   5.3482056484e+01   2.3946999646e+01    0.2704157    0.1446665  68.09  0.001131321    2.073    0.518
       117 -10.0500    202.3567     63.8192   5.4587056164e+01   2.6072634515e+01    0.3183183    0.1947784  50.67  0.001436191    1.719    0.418
       118 -10.1577     45.1021     63.0992   9.6703239347e+01   5.9329181271e+01    0.2795621    0.2194732  33.18 0.0009541201    1.485    0.326
       119 -10.5549    133.7866     62.1674   6.7670045120e+01   4.3374488048e+01    0.4203081    0.2678135  54.02  0.001868492    1.584    0.369
       120  -9.9991    108.9070     62.4545   7.4472461306e+01   4.8932175886e+01    0.3309159    0.1840926 -42.54   0.00141111    1.801    0.445
       121  -9.4699     32.6044     63.3340   1.0167231264e+02   6.0565657914e+01    0.1834627    0.1500836  88.00  0.001111033    1.659    0.397
       122 -10.3333      2.1269     62.3533   1.1351931710e+02   6.2894013831e+01    0.2164062     0.151089 -59.64 0.0004857954    1.103    0.093
       123 -10.8228      5.8311     58.8808   1.1128877487e+02   6.3456166637e+01    0.2908957    0.1813872 -34.66  0.001131133    1.482    0.325
       124 -10.4518    172.0859     61.8411   5.9230902899e+01   3.3957740872e+01    0.2704584    0.2171328 -36.21  0.000578297    1.246    0.198
       125  -9.2137    219.7106     61.6060   5.1469538043e+01   2.2235078780e+01     0.252065    0.1320741  58.84  0.000829348    1.968    0.492
       126  -8.8825    120.6262     61.1258   7.0724935387e+01   4.6603777556e+01    0.2138274    0.1398785 -23.10 0.0008422165    1.707    0.414
       127 -10.0376     96.6811     59.3456   7.7082963848e+01   5.2001718734e+01    0.3113242    0.2308582 -43.96  0.001196668    1.375    0.272
       128 -10.6154     96.1583     55.8153   7.5984498538e+01   5.2740782796e+01    0.4426875    0.3091582  -6.01  0.002083743    1.779    0.438
       129  -8.6767    102.3073     59.6929   7.5471773094e+01   5.0807882730e+01    0.1406476    0.1180961 -77.24 0.0007018934    1.610    0.379
       130  -8.5336     50.4834     59.5810   9.3502320495e+01   5.9419838023e+01    0.1330011    0.1127046 -29.81 0.0001372802    1.020    0.020
       131  -9.9885    179.1929     58.1931   5.6845937088e+01   3.2738098962e+01    0.2130857    0.1722266 -67.60 0.0005117475    1.329    0.248
       132 -10.5502    145.5157     56.7500   6.3118001344e+01   4.1438186922e+01    0.3690408    0.2405984  19.55  0.001109001    2.203    0.546
       133 -10.6167    199.3549     56.6065   5.3081260116e+01   2.7920831832e+01    0.4561189    0.2040924  40.86  0.001573922    3.218    0.689
       134  -9.2033    183.3505     57.3042   5.5862737840e+01   3.1824437991e+01    0.1543678     0.113933  28.23 0.0007040904    1.702    0.412
       135  -9.8258    237.3595     55.7502   4.7778592844e+01   1.9038272050e+01    0.2639798     0.162488 -24.69 0.0009169789    1.803    0.445
       136  -9.0375     69.1735     56.6986   8.5465876852e+01   5.7374322110e+01    0.2776973   0.09557917 -45.99  0.001017869    2.751    0.636
       137 -10.1048     60.5264     56.8923   8.8744474376e+01   5.8625321119e+01    0.2162164    0.1849611  16.84 0.0004536789    1.226    0.184
       138  -9.6031    125.3249     56.5749   6.7922246819e+01   4.6308356057e+01    0.2708341    0.1466514  56.30 0.0006601432    1.954    0.488
       139  -9.3459    105.1522     56.1454   7.3360752764e+01   5.0847580775e+01    0.2116821    0.1852955   9.43 0.0002521251    1.142    0.124
       140  -8.8176     78.3785     55.8408   8.1879011542e+01   5.6027092464e+01    0.1968171    0.1202774 -30.32 0.0005906859    1.623    0.384
       141  -8.9007     26.0206     56.0601   1.0225754832e+02   6.2681617581e+01    0.1444601    0.1207288 -33.56  0.000437651    1.077    0.071
       142  -9.1217    221.9674     55.3063   4.9562908171e+01   2.2639911473e+01     0.193693    0.1758356 -85.50  0.000398732    1.088    0.081
       143 -11.5855    173.8339     52.2077   5.6020040028e+01   3.5012526713e+01     0.631827    0.2891473 -30.05   0.00242132    2.291    0.563
       144 -10.1598    206.0000     54.0016   5.1393591418e+01   2.6670645396e+01    0.2801586    0.1850327 -40.88   0.00103881    1.430    0.301
       145 -10.2404    203.4979     51.5635   5.1094785090e+01   2.7642506875e+01    0.2503448    0.2131266  63.80 0.0006100758    1.194    0.162
       146 -10.5271    163.6278     52.7795   5.8084468419e+01   3.7520374099e+01    0.3207736    0.2848328 -13.29 0.0007628414    1.225    0.184
       147  -8.7945     86.3317     54.6417   7.8734587176e+01   5.4830729674e+01    0.1393926    0.1145719 -77.02 0.0007042284    1.796    0.443
       148 -10.0075     36.2093     53.6398   9.7296056854e+01   6.2233736163e+01    0.2521027    0.2036894 -57.30  0.001022292    1.316    0.240
       149 -10.4879    137.9917     51.8060   6.3190354986e+01   4.4066232306e+01    0.3985329    0.2886345 -70.80   0.00180649    1.881    0.468
       150  -9.1817    117.1446     52.6429   6.8710904418e+01   4.8828708498e+01     0.207219    0.1813875  36.25 0.0006545351    1.114    0.102
       151  -8.7929     81.3054     53.3432   7.9956784189e+01   5.5974200184e+01    0.1465168    0.1033099  -5.18 0.0007041662    1.687    0.407
       152  -9.2417     18.5923     50.8249   1.0386877411e+02   6.4348001857e+01    0.1761281    0.1293446 -50.41 0.0004848818    1.128    0.113
       153  -9.4089     14.9655     51.5153   1.0562098847e+02   6.4461173223e+01     0.189613    0.1365892  -6.11 0.0004047006    1.533    0.348
       154  -9.9002    237.8155     50.1955   4.6392892816e+01   1.9725513427e+01    0.2179458    0.1933899  83.93 0.0006174799    1.165    0.142
       155 -10.5289    149.2283     50.4871   6.0261375153e+01   4.1497095473e+01    0.3944977    0.2525094 -81.93  0.001548697    2.535    0.606
       156  -9.9960    125.8963     48.9696   6.5128854873e+01   4.7401473593e+01    0.4945369     0.245333 -40.43   0.00201066    2.080    0.519
       157 -10.4135    106.6968     51.0066   7.1050890003e+01   5.1392653354e+01    0.2416486    0.2068155  55.58 0.0003010179    1.281    0.219
       158  -8.9082     55.2943     50.3348   8.8436162054e+01   6.0614758573e+01    0.1363902    0.1181748 -25.92 0.0003830643    1.047    0.045
       159 -10.4875     58.7248     47.7851   8.6153152992e+01   6.0611393003e+01    0.2630049    0.2158812  11.20 0.0005978911    1.223    0.182
       160 -10.6929     46.8638     48.0719   9.1002191321e+01   6.2134155732e+01    0.3873523    0.3013474  49.58 0.0009968033    1.779    0.438
       161  -8.9644    213.5297     49.4298   4.9151219202e+01   2.5500157210e+01    0.1389903    0.1309857 -70.80 5.518942e-05    1.049    0.046
       162  -9.7212     84.4666     47.5624   7.6714329556e+01   5.6414437282e+01    0.2906195     0.130098 -37.09  0.001202555    2.146    0.534
       163  -8.9141      6.2533     48.2908   1.0851309086e+02   6.5657725506e+01    0.1195438   0.06465331 -40.82            0    1.483    0.326
       164 -10.4274    139.9560     46.3451   6.0895130412e+01   4.4415891330e+01    0.3812371    0.2881225 -12.65  0.001330103    1.498    0.332
       165  -9.2280    143.5102     42.5000   5.8821081670e+01   4.4093167436e+01    0.2361985     0.232986  -9.13  0.001353716    1.047    0.045
       166 -10.8096    167.4779     43.1100   5.4375469003e+01   3.7948789652e+01    0.3674312    0.2913626  26.63 0.0007243155    1.474    0.322
       167  -9.4503    158.5542     44.8440   5.6559617844e+01   3.9977296009e+01    0.2686417     0.198861  37.90  0.001307073    1.450    0.310
       168 -10.4836    150.8775     45.2195   5.8194839704e+01   4.1863105494e+01    0.3672056     0.205213  62.18  0.001559912    1.795    0.443
       169  -8.9714    122.2998     48.7028   6.5948239415e+01   4.8281639806e+01    0.2036188    0.1216551  51.78 0.0005904047    1.640    0.390
       170  -9.3759    108.9551     44.0000   6.7816725771e+01   5.2018992357e+01    0.2396825   0.07953953  51.49 0.0008071809    2.975    0.664
       171  -9.6753    216.4551     42.1256   4.6889788494e+01   2.5811098243e+01    0.2865103    0.1752841 -84.52  0.001278003    1.939    0.484
       172  -9.4784    205.6784     41.2953   4.8033772854e+01   2.8546256184e+01    0.3296154    0.1911109  50.21 0.0007259182    1.871    0.465
       173  -9.9380     63.6606     41.0985   8.1656829154e+01   6.1058838589e+01    0.2133281    0.1857437 -13.62 0.0005418302    1.037    0.035
       174  -9.3782     56.2093     41.4808   8.4723956418e+01   6.2102278814e+01    0.2589419    0.1830423  55.46 0.0009352604    2.203    0.546
       175  -9.6379    196.7197     41.2577   4.9234858621e+01   3.0776672033e+01     0.244999    0.1954778  64.94 0.0007530385    1.234    0.189
       176 -10.2703    177.9707     39.7285   5.1591659432e+01   3.5730894612e+01    0.2564502    0.2135918 -33.40 0.0009345788    1.243    0.195
       177  -8.7183     92.5174     40.5691   7.1380321487e+01   5.5995823683e+01    0.1382414    0.1272636   5.81 0.0001904037    1.039    0.038
       178 -10.5902     32.4085     37.2654   9.3209332525e+01   6.5778957182e+01    0.5221515    0.1750086 -40.54  0.002243366    2.517    0.603
       179  -9.4544      3.2490     39.6033   1.0746680280e+02   6.7573902386e+01    0.2341688    0.1337593  22.64  0.001141438    2.121    0.529
       180 -10.0661    161.5675     37.8910   5.3792519514e+01   4.0167737230e+01    0.2693987    0.2222816  55.87 0.0003226354    1.161    0.138
       181  -9.7656    149.3778     37.0068   5.5784905641e+01   4.3376940107e+01    0.4007647    0.1955441 -14.58  0.001447116    3.021    0.669
       182  -8.8470    122.4051     38.5030   6.2242540725e+01   4.9765404398e+01    0.1410415    0.1351421  19.10 0.0001516791    1.030    0.030
       183 -10.4380     81.8952     26.2761   6.8921983477e+01   6.0133853360e+01    0.3097275    0.2550288  41.30  0.001076174    1.248    0.199
       184  -9.0894     75.1501     37.8082   7.6081025533e+01   5.9694901116e+01    0.1832112    0.1721113 -15.84 0.0003610708    1.181    0.154
       185  -9.6815     82.4151     35.9494   7.2809754415e+01   5.8659918852e+01    0.3248417    0.1972885 -31.80  0.001381062    1.593    0.372
       186  -9.0551     77.6476     35.2703   7.4159797984e+01   5.9642673689e+01    0.2047939    0.1277542 -35.99 0.0006703579    1.577    0.366
       187 -10.7022     78.3741     31.2226   7.2215803870e+01   6.0110116881e+01    0.2662303    0.2548467 -24.50 0.0008388443    1.257    0.204
       188 -10.4300    185.3305     32.2000   4.8283745717e+01   3.4835177200e+01    0.3393298    0.2664973  11.10  0.001578267    1.655    0.396
       189 -10.1481    127.4509     36.6957   6.0375110016e+01   4.8818259525e+01    0.3074981    0.2573041  64.70   0.00131362    1.243    0.196
       190  -8.9682     94.5883     36.8403   6.9263011637e+01   5.6137275260e+01    0.1972332     0.122758 -42.86 0.0009395201    1.789    0.441
       191  -9.1829     68.9544     37.0586   7.8022059660e+01   6.0874863268e+01     0.216773    0.1475343  -0.48  0.001120998    1.664    0.399
       192  -9.4051     27.7283     36.3860   9.5005314636e+01   6.6403485126e+01    0.1891415    0.1383644 -44.89  0.001203391    1.248    0.199
       193  -8.7498     62.6123     36.1951   8.0066656309e+01   6.2038494814e+01    0.1752934    0.1105855 -25.97 0.0001990327    1.495    0.331
       194  -9.4424     47.7295     35.9802   8.6003299317e+01   6.4215192349e+01     0.184922    0.1441146 -65.21  0.001043624    2.024    0.506
       195  -8.8108    106.9839     35.0442   6.4955348209e+01   5.3757769822e+01     0.165528    0.1499891  26.63 0.0003068356    1.029    0.028
       196  -8.9172    191.4742     34.5091   4.8081507433e+01   3.2986653408e+01    0.1409647    0.1315774 -86.17  0.000165454    1.018    0.017
       197  -9.0774    166.7100     34.0510   5.1701315565e+01   3.9354264593e+01     0.194454    0.1877756 -24.59 0.0005111138    1.111    0.100
       198 -10.7624    238.7293     22.4910   3.9785635997e+01   2.3129309836e+01    0.3288143    0.2416785  78.99  0.001349577    1.335    0.251
       199 -11.0466    236.9129     31.3855   4.2021756882e+01   2.2441807448e+01    0.4810895    0.3907131  67.46   0.00292556    1.316    0.240
       200 -10.1929    237.2163     27.0294   4.0973323803e+01   2.2917870266e+01    0.2631793    0.2370281  72.66 0.0009799084    1.233    0.189
       201  -9.5079    205.1539     32.9587   4.5877561301e+01   2.9770649616e+01    0.2429579    0.1307404 -55.37 0.0008534606    1.955    0.488
       202  -9.0139    114.6144     32.8103   6.2074464348e+01   5.2345360088e+01    0.1901717    0.1270848 -39.14 0.0005570227    1.608    0.378
       203  -9.7674    221.9596     31.3735   4.3540927845e+01   2.5906808710e+01    0.3228703    0.2038555 -88.83  0.001128207    1.678    0.404
       204  -9.5301    194.4777     32.4935   4.7112942484e+01   3.2487520101e+01    0.1412976    0.1287286 -79.46  2.78164e-05    1.014    0.014
       205  -8.9136    156.6503     32.6735   5.3002437224e+01   4.2095651695e+01     0.155149    0.1036739  32.38 0.0007048835    1.757    0.431
       206  -9.1878     58.2355     31.9972   8.0018418634e+01   6.3386011977e+01    0.1748708    0.0974604 -35.42 0.0008876554    1.650    0.394
       207  -9.6074    125.4697     29.8102   5.8328307460e+01   5.0187987689e+01    0.2184817    0.1954861 -28.78  0.001246569    1.181    0.153
       208  -8.7367     65.4655     29.9514   7.6327365226e+01   6.2554915709e+01    0.1757296    0.1079931 -53.50 0.0008094492    2.577    0.612
       209 -10.4328    181.7264     27.4391   4.7414762184e+01   3.6336162713e+01    0.6777673    0.3174805  34.93  0.002353264    3.615    0.723
       210  -8.8919    110.6699     29.3220   6.1748830821e+01   5.3695382796e+01     0.137326    0.1101064 -69.34 0.0007049248    1.695    0.410
       211  -9.9434     47.3537     28.4472   8.2985719189e+01   6.5511296355e+01    0.2235579    0.1870735 -22.34 0.0006413504    1.129    0.114
       212  -9.1642    215.7624     28.0125   4.3366187284e+01   2.7805302295e+01    0.2089796    0.1559604  19.04  0.001077128    1.962    0.490
       213  -9.3288    193.7143     27.2899   4.5770547614e+01   3.3322246270e+01    0.2724074    0.1731222   7.63  0.001175897    2.604    0.616
       214 -10.1332     16.4023     27.1673   9.6892205729e+01   6.9065189268e+01    0.2972297    0.1908717 -43.31  0.001902301    1.274    0.215
       215  -9.0825    206.2007     26.1560   4.3954941402e+01   3.0356307513e+01    0.2024506    0.1468769 -67.19  0.001079643    1.350    0.259
       216  -9.0193    120.8728     26.1896   5.8043257476e+01   5.1722439398e+01    0.1976961    0.1510493  28.91 0.0004370584    1.316    0.240
       217 -10.6023     30.6457     23.3129   8.8303298975e+01   6.8378066484e+01    0.3838403    0.2275237 -32.57  0.001829771    1.400    0.286
       218 -10.0302    228.4114     23.8385   4.1046734681e+01   2.5323561767e+01     0.350722    0.2039417 -66.75  0.001456836    1.756    0.431
       219 -12.2293     76.8157    219.4755   1.1515912648e+02   1.9414121030e+01    0.6341689    0.5086125  65.54  0.003246456    1.009    0.009
       220  -9.7615    105.2111     17.5834   5.8484564360e+01   5.6306261509e+01    0.3072752    0.1949293  52.44  0.001459761    1.453    0.312
       221  -9.8534    101.0624     16.6893   5.9188421064e+01   5.7322893723e+01    0.2172252    0.1950912  23.87 0.0003938935    1.028    0.027
       222 -12.1900     69.2695    218.6937   1.1657270174e+02   2.0608107514e+01    0.6162199    0.4260541  88.90  0.002499005    1.375    0.273
       223 -10.7039      2.2287     22.0693   1.0222615226e+02   7.0953793410e+01     0.277226    0.1743093 -46.66  0.001147155    1.247    0.198
       224 -10.5120    179.2127     23.0473   4.6482067702e+01   3.7490778534e+01    0.2459563    0.2157182  68.65  0.000547811    1.081    0.075
       225 -10.7834    143.4464     21.0728   5.1534936576e+01   4.6797302006e+01    0.5810325    0.3477137  64.91  0.002766738    1.576    0.365
       226 -10.5327     60.2521    209.4473   1.1749805258e+02   2.3673596616e+01    0.3539571    0.1588669  52.87  0.001772486    1.972    0.493
       227  -8.9691    200.4675     22.5046   4.3647487509e+01   3.2204173170e+01    0.1361262    0.1237672 -84.41 0.0003245949    1.027    0.026
       228 -10.3288    164.6161     22.0271   4.8295645340e+01   4.1329351150e+01    0.3246056    0.1984574  68.89 0.0008505668    1.541    0.351
       229  -9.3963      8.0830     22.2789   9.9224679519e+01   7.0548729715e+01    0.1529565    0.1219812 -25.43 0.0004754419    1.102    0.092
       230  -9.6268    131.6517     20.3672   5.3556314556e+01   4.9793797796e+01     0.311818    0.2183325 -63.36  0.001535195    1.852    0.460
       231  -9.0970     89.3867     20.7938   6.4205676887e+01   5.9338621986e+01    0.2300957    0.1243275 -11.92 0.0004705273    2.206    0.547
       232  -9.9956     87.2231     17.7193   6.3526136052e+01   6.0140376433e+01     0.313491    0.2478445  43.93    0.0018583    1.224    0.183
       233  -9.5416    222.5384     19.6357   4.0591660333e+01   2.7194411531e+01     0.240666    0.1987357  79.48  0.001205568    1.173    0.148
       234  -9.1894    124.0160    205.9753   1.0378284559e+02   1.4755589035e+01    0.1773126     0.154224   7.26  0.001046994    1.456    0.313
       235 -10.3162     69.5776     19.1510   6.9982425388e+01   6.3342425261e+01    0.2285787    0.1929916   7.62 0.0006035889    1.010    0.010
       236  -9.6092     34.7302     14.4323   8.2202614294e+01   6.9264458332e+01    0.1954975    0.1408861  22.61 0.0009144064    1.386    0.278
       237 -11.1530     38.4953     17.7384   8.2038989032e+01   6.8312146477e+01    0.3625958    0.2129351  27.92 0.0001947117    1.718    0.418
       238  -8.7393      1.0000    184.9585   1.2747523786e+02   3.5178077059e+01    0.1848026   0.05044728 -78.58 0.0008008558    2.931    0.659
       239  -9.0546    154.6525     17.5328   4.8431586061e+01   4.4351705332e+01    0.2151874    0.1334332 -22.96  0.000641826    1.779    0.438
       240  -9.4421     28.8191     18.1767   8.6856443314e+01   6.9393611631e+01    0.1655518    0.1110665 -16.18  0.000398141    1.293    0.226
       241 -10.5877      2.6142    153.0812   1.2497820813e+02   4.2080519233e+01    0.2692796    0.1930941 -55.93  0.001199836    1.522    0.343
       242 -10.5052    248.9471    144.3707   6.6827506048e+01   2.5981943713e+00    0.3138744    0.1695747 -34.18  0.001502121    1.634    0.388
       243 -10.4586    246.7145    135.7341   6.5277984885e+01   4.3927268104e+00    0.3074231    0.2008574  -8.07  0.001473488    1.891    0.471
       244 -11.5303    224.6241    134.6492   6.8737641499e+01   8.8635809706e+00     0.560527     0.358495  48.42   0.00269443    1.697    0.411
       245  -9.2011    185.1429    134.1673   7.6244674810e+01   1.7325388092e+01    0.2032294    0.1809677 -69.72 0.0002382281    1.290    0.225
       246  -8.4160     44.3077    132.2858   1.1206876106e+02   4.3273813341e+01     0.129163   0.09286731 -42.16 0.0001917586    1.569    0.363
       247  -8.6793    241.3048    129.7472   6.4796161827e+01   6.3979777463e+00    0.1278387    0.1068938 -65.46 0.0002019409    1.507    0.337
       248  -9.5569     32.8713    127.9278   1.1459847508e+02   4.5494420485e+01    0.2537544    0.1416714 -60.85 0.0007188152    1.496    0.332
       249 -10.5950     30.9225    122.8074   1.1440852114e+02   4.6911401187e+01    0.4394673    0.1658872 -71.43  0.001073591    2.361    0.577
       250 -10.1564    240.5590    134.6440   6.6027578456e+01   5.7311392426e+00    0.2356263    0.2123794  12.82 0.0007122165    1.145    0.127
       251 -11.4254    229.9520    123.4715   6.5211351253e+01   9.7140692604e+00    0.5883478    0.5150612 -41.31  0.003328444    1.119    0.106
       252 -10.1362     37.6522    125.8515   1.1295160931e+02   4.5530544061e+01     0.198016    0.1760977 -27.82 0.0008374781    1.374    0.272
       253  -9.4659     12.9197    123.0265   1.1948085580e+02   4.8328603765e+01    0.1865384    0.1442636 -75.78 0.0003261052    1.016    0.015
       254  -9.4311    250.5811    120.3037   6.1207420995e+01   6.1610006674e+00    0.2641577      0.11507 -38.25  0.001113832    1.983    0.496
       255  -9.3420     69.8625    118.2773   1.0220294962e+02   4.3513885703e+01    0.2618352      0.18253 -73.43  0.001300623    1.476    0.322
       256  -8.9802     93.2643     10.3569   5.8586393689e+01   5.9665352642e+01    0.1752841     0.119406  63.57 0.0003996201    1.639    0.390
       257  -9.7099     98.3956    117.3524   9.3663236229e+01   3.9184089773e+01     0.248678    0.2282157  25.90 0.0006454298    1.194    0.162
       258  -9.9202     58.1423    117.6205   1.0555772007e+02   4.5231814584e+01    0.2512492    0.1914369 -30.14  0.001349929    1.563    0.360
       259  -8.9195    209.5153    117.5073   6.7359317462e+01   1.5117286531e+01    0.1500858    0.1406783 -34.65 -6.76431e-05    1.028    0.027
       260 -10.8338     26.6216    116.1301   1.1466366414e+02   4.8898030319e+01    0.4575761    0.2089319  21.33  0.002158264    2.829    0.647
       261  -8.5771     87.2862    116.6880   9.6718490476e+01   4.1241938315e+01    0.1464296    0.1131343  85.49 0.0003192509    1.578    0.366
       262 -10.8375     11.5409    114.6503   1.1883773209e+02   5.0404963357e+01    0.2390044    0.1925278 -52.53  0.000763811    1.256    0.204
       263  -9.6378    202.9867    116.0000   6.8199744279e+01   1.6845470116e+01    0.2442909   0.08739265  51.01 0.0005760288    2.943    0.660
       264 -10.3887    191.9607    114.6030   6.9985402910e+01   1.9607731009e+01    0.2980083    0.2368257 -42.62 0.0005615261    1.220    0.180
       265  -9.6554     38.8291    114.8314   1.1083295130e+02   4.8081329811e+01    0.1812841    0.1438285  72.74  0.001032263    1.370    0.270
       266  -9.9515      2.0606    113.4183   1.2138833035e+02   5.1291183816e+01    0.3102066    0.1725209 -87.76  0.001293193    1.617    0.381
       267  -9.5399    175.6809    112.3967   7.2785103102e+01   2.3799169461e+01    0.2490426    0.1924909 -77.66 0.0007911617    1.701    0.412
       268  -8.9981     49.9099    111.8547   1.0693039071e+02   4.7616046733e+01    0.1839572     0.148715 -89.56 0.0004777797    1.291    0.225
       269  -9.4799     90.9758    111.3316   9.4365129117e+01   4.1900887954e+01    0.2007987    0.1939088 -46.42 0.0005269765    1.051    0.048
       270  -8.6111    128.2833    109.3435   8.3350225474e+01   3.5164085411e+01     0.158635    0.1242618 -10.30 0.0007015149    1.638    0.390
       271 -10.3651     18.5314    109.0848   1.1602163821e+02   5.1225394258e+01     0.312445    0.1169213  47.04  0.001314249    3.397    0.706
       272 -10.7971      7.2714    108.0181   1.1923082428e+02   5.2241847149e+01     0.199797    0.1856132 -33.72 0.0001866411    1.320    0.243
       273  -8.8416     27.4840    107.9769   1.1312814418e+02   5.0777149085e+01    0.1869705    0.0983302  87.11 0.0008103752    2.578    0.612
       274  -9.5856    240.9008    106.5250   5.9474954531e+01   1.0325002657e+01    0.2302629    0.1835428 -53.81  0.001157496    1.295    0.228
       275 -10.4084     79.8805    103.4419   9.5777651065e+01   4.5579074870e+01     0.335869    0.2739546 -13.77  0.001222937    1.471    0.320
       276 -10.5703     17.5803    103.7484   1.1551012243e+02   5.2558582629e+01    0.2775934    0.1566616 -44.18  0.001245304    1.758    0.431
       277 -10.5156      8.3490    102.0774   1.1810968906e+02   5.3565920177e+01     0.316308    0.1736658 -82.32  0.001030568    1.674    0.403
       278  -9.2638    123.4986    103.0597   8.2923253875e+01   3.7567869922e+01     0.235704    0.1508021 -45.32 0.0005006054    1.519    0.341
       279 -10.1609    108.5818    102.9233   8.7053952743e+01   4.0632298474e+01    0.3640763     0.242104  28.53 0.0006835611    1.784    0.439
