#   1 NUMBER                 Running object number                                     
#   2 MAG_AUTO               Kron-like elliptical aperture magnitude                    [mag]
#   3 X_IMAGE                Object position along x                                    [pixel]
#   4 Y_IMAGE                Object position along y                                    [pixel]
#   5 X_WORLD                Barycenter position along world x axis                     [deg]
#   6 Y_WORLD                Barycenter position along world y axis                     [deg]
#   7 A_WORLD                Profile RMS along major axis (world units)                 [deg]
#   8 B_WORLD                Profile RMS along minor axis (world units)                 [deg]
#   9 THETA_WORLD            Position angle (CCW/world-x)                               [deg]
#  10 FWHM_WORLD             FWHM assuming a gaussian core                              [deg]
#  11 ELONGATION             A_IMAGE/B_IMAGE                                           
#  12 ELLIPTICITY            1 - B_IMAGE/A_IMAGE                                       
         1 -13.3391    194.9901     30.5285   6.7794256516e+01   3.2987675198e+01     1.133527     1.048873  85.57  0.005654268    1.095    0.087
         2 -13.7980    210.2259     12.2802   6.1597235932e+01   3.1463602719e+01      1.35122     0.994579  40.06  0.007820027    1.807    0.447
         3 -11.6886      2.4081     10.7707   1.1489335935e+02   7.1065523665e+01    0.6988577   0.09006959 -44.16  0.002658992    4.978    0.799
         4 -11.5525     50.7159    234.9321   1.4226675421e+02   1.9899504319e+01    0.3321635    0.1897138  86.86  0.001050315    1.616    0.381
         5 -11.3401    249.3090    242.4328   1.0563043990e+02  -1.3414970564e+01    0.2486748    0.1821641 -40.52  0.001299774    1.739    0.425
         6 -11.5820    141.0799    249.6570   1.2696605367e+02   3.1748357863e+00    0.5334452    0.1455187  39.86  0.001919739    3.331    0.700
         7  -9.9075     66.5014    249.9869   1.4075233304e+02   1.4853290878e+01    0.1800267    0.1268621  59.23 0.0004604041    1.138    0.121
         8 -11.4556     46.7693    248.3058   1.4401715179e+02   1.7817046948e+01    0.4013918     0.264631  72.37  0.001768528    1.167    0.143
         9 -13.0291     32.9334    246.8478   1.4622733798e+02   1.9809391472e+01    0.8610766    0.6099138  38.84  0.005995967    1.769    0.435
        10 -13.7639      8.7133    244.2245   1.4996683881e+02   2.3023999689e+01     1.872795    0.9985682 -88.06   0.01263778    1.476    0.323
        11 -15.5166     10.7885    156.6090   1.4298024578e+02   4.1289776907e+01     10.84875      4.64637  73.42   0.04658683    3.269    0.694
        12 -13.7213      9.1676    207.1461   1.4759869150e+02   3.0352602443e+01     1.057689    0.7453339  89.65    0.0037494    1.068    0.064
        13 -11.4671    124.6616    250.3064   1.3015930533e+02   5.8199643041e+00    0.5195202    0.1260396  40.78  0.001808027    3.654    0.726
        14 -14.0300     40.6721    222.5210   1.4304483357e+02   2.3687356566e+01    0.8187585    0.6591154  78.96  0.002455894    1.111    0.100
        15 -10.9623     81.6161    248.9096   1.3796748539e+02   1.2875939819e+01    0.3206038    0.1427082  59.02  0.001575256    2.106    0.525
        16 -10.5362     79.1466    218.2663   1.3523020913e+02   1.9331744026e+01    0.2531315    0.1429579  80.03    0.0012265    2.049    0.512
        17  -9.1034    152.6728    213.0056   1.1925844124e+02   7.7824938580e+00    0.1787482    0.1727675 -88.79 0.0003392874    1.109    0.098
        18 -12.7638     34.6536    230.5982   1.4477137906e+02   2.2771564066e+01    0.3191792    0.2435906 -77.71 0.0007543944    1.330    0.248
        19  -9.7840    192.2354    193.3582   1.0745501910e+02   3.9496235708e+00    0.5180364     0.253176 -64.14  0.001343402    6.706    0.851
        20 -11.5527     61.3420    197.0963   1.3644136675e+02   2.6499703630e+01    0.3110392    0.2308557 -54.65 0.0005714836    1.553    0.356
        21 -11.8627     67.4725    189.0146   1.3413404664e+02   2.7480825235e+01    0.2933252    0.2398377 -59.77 0.0005208089    1.331    0.249
        22 -10.9941     77.5126    176.5416   1.3013848649e+02   2.8914294918e+01    0.2516139    0.2211537 -79.94  0.001503097    1.073    0.068
        23 -13.2279     64.3397    174.3793   1.3288084906e+02   3.1312556056e+01    0.5056476     0.282633 -45.79  0.001617173    2.207    0.547
        24 -11.9039     85.2348    167.3190   1.2685939427e+02   2.9906779050e+01    0.6281152    0.5962843 -85.64  0.003781434    1.124    0.110
        25  -9.9199     97.8808    151.5385   1.2088035201e+02   3.1594101769e+01    0.2809543    0.2694036 -75.85 0.0007894208    1.079    0.073
        26 -12.1435     86.3848    150.6952   1.2365324992e+02   3.3701719251e+01    0.2999723    0.2494909 -47.48 0.0005521273    1.262    0.208
        27 -12.3909     67.5540    143.8656   1.2728123599e+02   3.8144767466e+01    0.7055197    0.4861175  70.57  0.003059306    1.703    0.413
        28  -9.1692    101.0406    147.2336   1.1921728501e+02   3.2073456590e+01     0.220806    0.1974326 -22.19 0.0009214694    1.350    0.260
        29  -8.5056    192.2856    144.2641   9.6956906725e+01   1.3698954729e+01    0.1466401    0.1209516   6.32 0.0001835566    1.491    0.329
        30 -10.5146     88.6994    249.1694   1.3670948249e+02   1.1764183813e+01    0.2284531    0.1341299  69.82 0.0008436423    1.672    0.402
        31  -9.6815    109.6212    136.7528   1.1476362959e+02   3.3006732529e+01     0.354258    0.2515563 -21.47  0.001536635    2.053    0.513
        32 -11.7400     56.9873    131.2637   1.2782920266e+02   4.2535764637e+01    0.8780918    0.3690018 -75.02  0.002922073    3.839    0.739
        33 -10.2817    163.0156    249.3012   1.2273134335e+02  -5.0876451843e-01    0.1942459    0.1446451  42.86  0.001179969    1.117    0.105
        34  -8.9888    106.8274    123.5420   1.1246648854e+02   3.6614967835e+01    0.2011804    0.1494972  41.67 0.0004375586    1.411    0.291
        35 -10.5218     96.7608    134.0391   1.1757348218e+02   3.5961249745e+01    0.2722606    0.2283389 -36.61 0.0004010264    1.292    0.226
        36 -10.4182    168.0437    113.0778   9.4545181452e+01   2.5740645111e+01    0.3622095    0.2877644 -84.53  0.001345753    1.522    0.343
        37  -9.1056    203.4836    111.5249   8.6897643378e+01   1.7702127866e+01    0.1509085    0.1464897 -49.52 2.761729e-05    1.051    0.049
        38 -11.9832    240.2695    248.6863   1.0827860818e+02  -1.2901082517e+01    0.4565884    0.2076936  43.58  0.002317657    2.283    0.562
        39 -12.1555     99.9999    247.3455   1.3444032949e+02   1.0351453399e+01    0.4391461      0.35571  68.72  0.002930043    1.048    0.046
