#   1 NUMBER                 Running object number                                     
#   2 MAG_AUTO               Kron-like elliptical aperture magnitude                    [mag]
#   3 X_IMAGE                Object position along x                                    [pixel]
#   4 Y_IMAGE                Object position along y                                    [pixel]
#   5 X_WORLD                Barycenter position along world x axis                     [deg]
#   6 Y_WORLD                Barycenter position along world y axis                     [deg]
#   7 A_WORLD                Profile RMS along major axis (world units)                 [deg]
#   8 B_WORLD                Profile RMS along minor axis (world units)                 [deg]
#   9 THETA_WORLD            Position angle (CCW/world-x)                               [deg]
#  10 FWHM_WORLD             FWHM assuming a gaussian core                              [deg]
#  11 ELONGATION             A_IMAGE/B_IMAGE                                           
#  12 ELLIPTICITY            1 - B_IMAGE/A_IMAGE                                       
         1 -12.9271    238.1611     68.4910   7.2472564358e+01   1.7208847839e+01      3.64147    0.7821717 -49.78  0.008230265    7.453    0.866
         2 -13.0635    248.6869    129.5724   8.4811715680e+01   4.5349618793e+00     5.065897    0.5632161 -40.88    0.0112411    7.073    0.859
         3 -12.5844    245.5707    160.3965   9.2054825850e+01  -2.4466701559e-01     2.569098    0.5872709 -44.04   0.00732244    4.712    0.788
         4 -12.4588    246.4047    144.8901   8.8561678777e+01   2.2906029468e+00     4.055796    0.8466029 -47.37   0.00757665   10.815    0.908
         5 -14.3029    246.0439     55.1928   6.8498170336e+01   1.7486087712e+01     5.670615     1.397859 -49.17   0.01749366    4.278    0.766
         6 -13.9116    247.8899     17.1841   6.0199093242e+01   2.2211874931e+01     2.558966     1.426696 -49.29   0.01421601    1.584    0.369
         7  -8.6477     80.3185     12.8372   8.6674506954e+01   6.0728390791e+01    0.2269964   0.09352393 -34.09  0.001067395    2.621    0.619
         8  -8.5921    160.4769      8.9885   6.8180925178e+01   4.3738151121e+01    0.1812493    0.1317731 -24.08 0.0009983983    1.599    0.375
         9  -8.7911    117.5303      8.9872   7.5854195825e+01   5.3651527428e+01     0.170908    0.1239726 -16.11 0.0003927816    1.522    0.343
        10 -10.3548    110.7454      4.9566   7.5904228902e+01   5.5458321667e+01    0.2607997    0.2064552 -44.82  0.001631527    1.583    0.368
        11  -9.7927     32.0349      5.1857   1.0047934439e+02   6.8743086159e+01    0.1780932    0.1241082 -12.80 0.0003690429    1.146    0.127
        12 -10.6578     98.4956      3.3426   7.8123697124e+01   5.8127598879e+01      0.44617    0.2387232  37.58   0.00240741    1.650    0.394
        13  -9.2803      4.1300      4.3391   1.1267417887e+02   7.1530651931e+01    0.1930935    0.1492751  46.46  0.001370432    2.741    0.635
        14 -10.2071     50.8299      3.6387   9.2461280061e+01   6.6440498242e+01    0.2020097    0.1526009   2.01 0.0002501178    1.069    0.064
        15  -8.2748    153.2661      3.3647   6.7639125294e+01   4.5962952673e+01    0.1305822   0.08615597  35.73 0.0005966756    1.650    0.394
        16  -9.8236     59.0214      1.5960   8.8697891462e+01   6.5398026527e+01    0.1606312    0.1340728  21.27 0.0004078916    1.178    0.151
        17  -9.4043     14.9792      1.9853   1.0650517901e+02   7.0914714950e+01    0.1583051    0.1110556  -9.71  0.001214182    1.027    0.026
        18  -9.6831     67.5195      1.4208   8.5866693375e+01   6.4031931617e+01    0.2197661   0.09886006  47.86 0.0006536841    2.043    0.511
        19  -9.5618    206.4532    237.3611   1.1412404616e+02  -5.7403785136e+00    0.2578187    0.1764775  66.32  0.001304914    2.475    0.596
        20 -10.2010    194.0224    249.6113   1.1838082733e+02  -5.4358037046e+00    0.3620665    0.2198773  49.58  0.002013924    1.641    0.391
        21  -8.5634    184.3158    250.3364   1.2029039317e+02  -3.9215770946e+00    0.1246324   0.08868485  12.74  0.000704771    1.696    0.410
        22  -9.5362    168.0537    250.0176   1.2327712389e+02  -1.1264996002e+00    0.1900225    0.1545776  37.47 0.0003326663    1.067    0.063
        23  -9.2267    229.6968    236.5258   1.0970216714e+02  -9.4132994298e+00    0.2288082    0.1850019 -83.26  0.001297786    2.511    0.602
        24 -12.5881    234.7374    214.0067   1.0476438725e+02  -7.0185355145e+00     2.714203     1.534921 -61.76  0.008856854    6.285    0.841
        25 -11.9481    231.1938    185.8289   9.9941344965e+01  -1.9305694768e+00     4.119231    0.4882459 -37.72  0.008012227   10.633    0.906
        26 -12.4647    246.7060    209.5663   1.0177676392e+02  -8.3160729156e+00     1.901748    0.5740945 -43.71  0.006786015    4.134    0.758
        27 -10.8971    241.1705    209.0272   1.0266414259e+02  -7.3374363699e+00     0.487231    0.3839795 -65.34   0.00205716    2.127    0.530
        28 -11.8290    236.5151    191.2429   1.0005225744e+02  -3.7760418588e+00     2.137916    0.3610361 -40.10  0.005797965    5.771    0.827
        29 -10.3095    225.6354    248.3358   1.1240528340e+02  -1.0346056416e+01    0.4173676    0.2180098  38.69  0.002177906    1.652    0.395
        30  -9.5901    225.0505    243.6844   1.1174766131e+02  -9.6442929258e+00    0.2174023      0.20803 -51.34  0.001547803    1.492    0.330
        31 -10.5079    218.4360    247.2540   1.1352998684e+02  -9.0763636741e+00    0.3918653    0.2877926 -36.79  0.002389222    1.594    0.373
        32  -9.6139    210.0527    248.0739   1.1518963104e+02  -7.8462062662e+00    0.2745856    0.2030066  71.55  0.001514739    2.434    0.589
        33 -10.8031    175.8866    247.0066   1.2137538773e+02  -1.9969994259e+00    0.5655471    0.2488593 -50.40  0.002638836    2.888    0.654
        34  -9.7035    223.5601    227.3266   1.0922955434e+02  -7.1287911670e+00    0.2913134    0.2235778 -38.28  0.001074104    1.482    0.325
        35 -13.0273    244.7701    185.0772   9.7328131703e+01  -4.2211000326e+00     2.976405    0.9455122 -46.86  0.009538993    4.439    0.775
        36 -11.7864    238.7424    160.3759   9.3245228619e+01   1.0424126245e+00     1.549326     0.594021 -51.59  0.004811196    4.274    0.766
        37  -8.8845    229.2442    228.4676   1.0838602002e+02  -8.2219467093e+00    0.1838226    0.1567763 -59.80 0.0008016964    1.755    0.430
        38  -9.8951    217.1065    223.7265   1.0979607575e+02  -5.5144809045e+00    0.3665369    0.2626959 -58.85  0.001565463    2.127    0.530
        39  -9.1456    211.7650    227.7229   1.1149922320e+02  -5.2081635675e+00    0.2335715    0.1761792 -46.23  0.001294328    1.610    0.379
        40  -9.4953    198.8345    227.0569   1.1384348965e+02  -2.8706104878e+00    0.2449247    0.1761604 -44.81  0.001270181    1.612    0.380
        41  -8.9211    190.5910    226.7866   1.1538794461e+02  -1.3728595314e+00    0.1703002    0.1271568 -55.94 0.0009528003    1.700    0.412
        42  -9.5200    206.5479    225.4568   1.1209466337e+02  -3.9656177148e+00    0.2583098    0.2438568 -39.99  0.001325383    1.277    0.217
        43  -9.0029    225.8102    213.3614   1.0629033821e+02  -5.4187627030e+00    0.2182809    0.1851268 -45.44 0.0007690175    1.434    0.303
        44  -9.6453    227.8302    222.0155   1.0749676126e+02  -7.0593381701e+00     0.307037    0.2222021  53.25  0.001740888    1.752    0.429
        45  -9.6889    227.5334    217.4761   1.0672796926e+02  -6.3357689619e+00    0.2770831     0.179522 -36.79   0.00101426    1.625    0.385
        46 -10.0860    193.1923    219.6023   1.1365640294e+02  -6.6191014530e-01    0.2859205    0.2370865 -74.91  0.001565219    1.678    0.404
        47  -9.0987    219.6940    217.7027   1.0823075993e+02  -5.0388136016e+00    0.2980952    0.1756761 -50.85  0.001457218    2.291    0.564
        48 -10.2127    216.8688    212.2442   1.0776479647e+02  -3.6943115661e+00     0.391481     0.284335 -53.56  0.002133002    1.807    0.447
        49  -8.4900    205.3189    217.6944   1.1096521771e+02  -2.5239669906e+00    0.1245482    0.1049576  72.58 0.0004792036    1.632    0.387
        50  -9.8339    178.9548    204.0314   1.1374114828e+02   4.7146716981e+00    0.2404123    0.2102871 -41.08  0.001146696    1.236    0.191
        51 -10.8073    173.0754    203.8129   1.1490910880e+02   5.8806238918e+00    0.6068591    0.2850802 -40.94  0.002531779    2.401    0.584
        52 -11.3164    176.8141    210.3593   1.1530557638e+02   3.9641141651e+00    0.5666006    0.3433095 -53.60  0.002327263    1.949    0.487
        53  -8.2810    208.4710    212.4942   1.0941774618e+02  -2.2436757682e+00    0.1329335    0.1201276  22.61 2.650654e-05    1.042    0.041
        54  -8.2784    212.2878    211.6427   1.0852758314e+02  -2.7872786747e+00    0.1241776    0.1078697 -89.60 0.0003679883    1.680    0.405
        55  -9.5453    224.6264    207.9028   1.0549064359e+02  -4.3637524002e+00    0.3419961    0.2297806 -58.28   0.00169034    2.307    0.567
        56  -9.2654    206.0575    207.1614   1.0890100066e+02  -9.2352359141e-01    0.3753051    0.1689316 -26.11  0.001325912    3.694    0.729
        57  -8.8731    182.6287    207.1858   1.1356343484e+02   3.4408400334e+00    0.1856897    0.1300372 -32.64 0.0006489892    1.618    0.382
        58  -9.3678    217.3848    204.8333   1.0627852509e+02  -2.5900243359e+00    0.2342329     0.164818 -27.07   0.00126187    1.472    0.321
        59  -8.5944    202.4699    205.5060   1.0929414082e+02   1.7394021534e-02    0.1362467    0.1245134  22.52 0.0008098184    1.019    0.019
        60  -9.4145    212.1169    203.2505   1.0698893045e+02  -1.3746855814e+00    0.3343354    0.2291491 -79.45   0.00136507    3.454    0.710
        61  -9.1332    186.5344    203.0307   1.1201491860e+02   3.4504872307e+00    0.2063971    0.1384981 -44.94  0.001034687    1.613    0.380
        62  -9.9866    222.8354    201.3462   1.0457676006e+02  -2.9952084309e+00    0.3839486    0.2715182  65.52  0.001890196    2.231    0.552
        63  -9.2922    215.5224    197.8220   1.0528815780e+02  -1.0846105547e+00    0.2980681    0.1314808 -42.38   0.00120082    2.370    0.578
        64  -9.9622    176.2500    197.9136   1.1317614532e+02   6.3818363907e+00    0.3306886    0.1944452 -48.92  0.001151882    1.854    0.461
        65 -10.0139    170.1629    197.2992   1.1433124954e+02   7.6849061723e+00     0.312448    0.1969103 -48.33  0.001491276    1.709    0.415
        66 -10.3328    184.3515    194.3487   1.1083024026e+02   5.4755762070e+00    0.6199812     0.180651 -40.78  0.001959607    3.886    0.743
        67  -9.0342    219.5747    194.4389   1.0384916562e+02  -1.2571086881e+00       0.2476    0.1289708 -43.39  0.001114451    2.027    0.507
        68  -8.7839      1.3509    195.2135   1.4893645397e+02   3.3497586079e+01    0.1621646   0.07796179 -87.36 0.0009451416    1.650    0.394
        69  -8.3765    198.6447    191.3234   1.0733527405e+02   3.2496330440e+00    0.1415088    0.1138726  82.54  0.000704616    1.764    0.433
        70  -9.6563    179.4373    189.3814   1.1089374460e+02   7.3930598828e+00    0.4284866    0.1787478 -34.24  0.001452597    3.382    0.704
        71  -9.2620    172.3862    191.2245   1.1272829517e+02   8.4324390051e+00    0.2005462    0.1374654 -58.15 0.0009511237    1.695    0.410
        72  -8.3182    193.2935    188.6156   1.0788335055e+02   4.7953240818e+00    0.1429638    0.1146538 -85.95 0.0007016301    1.761    0.432
        73  -9.6989    183.5581    182.2851   1.0863088340e+02   7.9492270339e+00    0.3582364    0.1428282 -42.03  0.001307691    2.635    0.621
        74  -9.1351    190.5723    179.3006   1.0656674512e+02   7.1103936908e+00    0.2830759    0.1408532 -47.93  0.001142473    2.153    0.536
        75  -9.5632    229.0785    165.9455   9.6189031470e+01   1.9141474201e+00    0.3400232    0.1991343 -34.56  0.001034739    1.655    0.396
        76  -9.7127    223.4184    173.6865   9.8888769145e+01   1.6282281111e+00    0.4009782    0.2202938 -51.76  0.001188559    2.246    0.555
        77  -9.4380    227.5661    171.3290   9.7614062851e+01   1.2492644444e+00    0.3657441    0.1753097 -48.81  0.001318237    2.423    0.587
        78  -8.7016    225.7878    179.0355   9.9557993224e+01   2.3360586861e-01      0.26416    0.1908609 -32.76 0.0009087957    1.345    0.256
        79  -8.7359    227.4895    175.5325   9.8511233103e+01   5.2391750028e-01    0.2282814    0.1788273 -21.10 0.0006419532    1.265    0.210
        80  -8.7145    218.9840    178.3020   1.0069689271e+02   1.6602919919e+00    0.1952543    0.1833423  13.01 0.0006851765    1.042    0.041
        81  -8.5784    197.5952    176.7973   1.0461049863e+02   6.1696659834e+00    0.2048793    0.1370953 -52.47 0.0009482572    1.682    0.405
        82  -9.0206    210.5862    175.3651   1.0171388157e+02   3.8349595746e+00    0.2781673    0.1349474 -44.92  0.001135525    2.130    0.530
        83 -10.4086    199.5682    164.7568   1.0165389064e+02   8.0874451264e+00    0.4470691    0.2540932 -49.13   0.00134729    1.881    0.468
        84  -9.7921    218.6635    168.1486   9.8618714444e+01   3.5585159156e+00    0.4621702    0.2603227 -40.64  0.002074279    1.738    0.424
        85  -9.2619    204.9429    168.8312   1.0144872772e+02   6.1947336111e+00    0.3413563    0.1947288 -56.04  0.001388327    2.285    0.562
        86 -10.0721    178.8046    168.8456   1.0686758796e+02   1.1617864618e+01    0.4219525    0.1907115 -49.80  0.001568821    2.392    0.582
        87  -9.6955    191.6012    164.9624   1.0333493131e+02   9.7138828015e+00    0.4265784    0.1433594 -40.23   0.00137609    3.107    0.678
        88  -9.8438    212.6442    162.6243   9.8588806930e+01   5.7966506788e+00    0.4622632    0.2406761 -40.75  0.001950743    1.881    0.468
        89 -10.0154    204.8019    161.3770   9.9863289632e+01   7.6527550775e+00    0.4452641    0.2752143 -49.62  0.001982573    1.727    0.421
        90  -9.1403    221.2663    161.5713   9.6704836476e+01   4.2467738140e+00    0.2714511    0.1874387 -38.83 0.0008097108    1.398    0.285
        91  -9.9633    226.8607    157.9565   9.4871101058e+01   3.7902184397e+00    0.6009924    0.1948933 -44.94  0.001992576    3.187    0.686
        92  -9.6830    228.3504    150.4283   9.2940069512e+01   4.8670855673e+00     0.545212    0.2370354 -31.22  0.001993691    2.632    0.620
        93  -9.8575    197.1790    157.2095   1.0048458999e+02   1.0074229485e+01    0.5009244     0.241315 -42.69  0.001964346    2.059    0.514
        94  -9.5581    221.5283    153.8034   9.4949924206e+01   5.6317166800e+00    0.6141681    0.1885822 -43.31  0.001989783    3.181    0.686
        95 -10.0800    223.1668    146.6724   9.3052322522e+01   6.6237139420e+00    0.4650368    0.3226159 -30.70   0.00187217    1.440    0.306
        96  -9.5572    224.1021    140.2235   9.1421330735e+01   7.6334298457e+00    0.3247103    0.2041667 -39.66 0.0008371805    1.501    0.334
        97  -9.4489    225.2403    133.5825   8.9695825610e+01   8.6334642536e+00    0.2886099    0.2429517 -36.42  0.000914128    1.121    0.108
        98  -9.5173    215.1028    148.6997   9.5025673618e+01   7.9269831383e+00    0.3936405    0.2369178 -45.39  0.001305426    1.644    0.392
        99 -10.5384    217.8069    137.9487   9.2061980457e+01   9.3997108021e+00    0.6526452     0.452246 -65.52  0.002924487    1.904    0.475
       100  -9.2695    217.8437    132.5823   9.0811818796e+01   1.0412485032e+01    0.4148046    0.2344068 -46.09  0.001409247    1.731    0.422
       101 -10.3629    219.7043    127.8851   8.9373594252e+01   1.0897330545e+01    0.7549143    0.4041952 -59.77  0.002758531    2.758    0.637
       102 -10.0162    214.3442    142.5615   9.3774903783e+01   9.2614060012e+00    0.4462106    0.2847798 -52.85  0.001244432    1.714    0.417
       103  -8.9676    216.1313    156.6035   9.6593697237e+01   6.2152719453e+00    0.2597313    0.1916936 -47.81 0.0008656502    1.389    0.280
       104  -9.8822    205.7912    154.7725   9.8205347632e+01   8.7242896256e+00    0.3462067    0.1880154 -46.90  0.001299648    1.884    0.469
       105  -8.7965    187.4538    155.9779   1.0222975565e+02   1.2406727825e+01    0.2360102    0.1483112 -41.53 0.0008276619    1.595    0.373
       106  -9.8177    207.5821    145.2271   9.5692467252e+01   1.0200045712e+01    0.3770236    0.1352975 -44.44  0.001226273    2.755    0.637
       107  -8.5563    211.4697    155.4940   9.7248978641e+01   7.3921542399e+00    0.2140592    0.1369257 -48.98 8.996132e-05    1.636    0.389
       108  -9.3767    211.5627    151.7105   9.6385699550e+01   8.0970598541e+00    0.3275705    0.1394237 -41.19   0.00101034    2.276    0.561
       109  -8.9435    202.4505    151.5192   9.8141664777e+01   1.0071638376e+01    0.3017443    0.1448425 -41.16 0.0009018978    2.045    0.511
       110  -8.7418    196.6083    150.1953   9.9025355658e+01   1.1594094858e+01    0.2204596    0.1423048 -31.73 0.0008784455    1.670    0.401
       111  -8.9917     41.2312    148.7769   1.3584399763e+02   3.9983189939e+01    0.1681802     0.131276 -53.28 0.0004081377    1.307    0.235
       112  -9.1637    191.2207    148.2622   9.9696406321e+01   1.3157886139e+01    0.2482679    0.1163866 -51.17 0.0008299861    2.406    0.584
       113  -8.7683    200.4782    145.5043   9.7167540830e+01   1.1687244486e+01    0.2747343    0.1371052 -51.24  0.001027519    2.252    0.556
       114  -8.4045    119.5658    146.5180   1.1581547386e+02   2.8730794820e+01    0.1501896    0.1423935 -74.57 0.0001138597    1.016    0.016
       115 -10.0965    155.5406    143.7498   1.0652016513e+02   2.1957290033e+01    0.4610787    0.1521295 -45.29  0.001428962    3.030    0.670
       116  -9.9675    229.8677    140.9297   9.0541246576e+01   6.3023265327e+00     0.445955    0.2123634 -40.45  0.001417832    1.959    0.490
       117  -8.9439    181.5806    141.8482   1.0025003381e+02   1.6609797343e+01    0.2281423    0.1437208 -54.54 0.0009484474    1.741    0.426
       118  -9.1759    238.9354    140.5345   8.8866751997e+01   4.5310070565e+00     0.265321    0.1823459 -49.62 0.0008101969    1.481    0.325
       119  -9.3416    208.4253    137.9785   9.3853702483e+01   1.1429836903e+01    0.2872544    0.2122877 -55.19  0.001147746    1.451    0.311
       120  -8.8420    192.5247    137.0244   9.6809456084e+01   1.5150351765e+01    0.2411761    0.1495259 -41.96  0.001029131    1.582    0.368
       121  -9.4683    234.2098    135.6071   8.8575875673e+01   6.3822803315e+00    0.3041921    0.2227684 -65.53  0.001112048    1.717    0.417
       122  -8.5919    187.6028    135.7771   9.7536635597e+01   1.6512408321e+01    0.2235085     0.143043 -51.72 0.0009468877    1.637    0.389
       123  -9.5160    155.9657    135.7636   1.0454958487e+02   2.3618697672e+01       0.2948    0.2007695 -59.40  0.001271906    1.623    0.384
       124  -9.4389    205.9026    131.2266   9.2756078576e+01   1.3307281548e+01    0.2844941    0.2082486 -62.96  0.001244881    1.605    0.377
       125  -9.3535    160.3876    131.2522   1.0243721747e+02   2.3617857219e+01    0.2270076    0.1462442 -54.14 0.0007205684    1.637    0.389
       126  -9.4889    154.9561    130.4497   1.0350523718e+02   2.5004350767e+01    0.3184907    0.2170952 -59.78  0.001351526    1.636    0.389
       127  -8.9497    233.5485    128.5650   8.7089158912e+01   7.8045614907e+00    0.2992429    0.1330496 -39.76 0.0009287428    2.070    0.517
       128  -9.4600    234.9232    123.5191   8.5701095579e+01   8.4340997635e+00    0.3240357    0.1989289 -40.95 0.0009181863    1.496    0.332
       129  -8.7650    212.3610    129.1905   9.1039267109e+01   1.2265053158e+01    0.2232863    0.1315165 -49.33  0.000740552    1.732    0.423
       130  -9.8826    199.9531    127.2452   9.2970340795e+01   1.5432099781e+01    0.4794807    0.3129815 -61.27  0.002023295    1.888    0.470
       131  -9.3646    227.5115    125.5951   8.7448655665e+01   9.6326914600e+00    0.3000419    0.2187703 -50.25  0.001043626    1.353    0.261
       132 -10.3800    180.0110    124.3326   9.6366207549e+01   2.0602415663e+01    0.5509953    0.3278586 -46.69  0.002288789    1.671    0.402
       133  -9.1927    188.0118    123.5168   9.4479406446e+01   1.8918611719e+01    0.3146799    0.2104788 -56.63 0.0009991996    1.654    0.395
       134  -8.9769    218.4768    144.4684   9.3428243238e+01   8.0193700323e+00    0.2419633    0.2151556 -25.16   0.00103744    1.103    0.093
       135  -8.8004    194.2101    121.2379   9.2653132404e+01   1.7942132251e+01    0.2543165    0.1115838 -49.13 0.0008717772    2.440    0.590
       136  -9.8360    157.4108    120.6730   1.0050214870e+02   2.6566038014e+01    0.3163223    0.1478284 -48.63  0.001135008    2.188    0.543
       137 -10.0056    230.7074     90.5977   7.8696360469e+01   1.5229976481e+01    0.5597438     0.284095 -27.83  0.002193037    2.455    0.593
       138  -9.8341    225.9074     87.8060   7.8773194168e+01   1.6806258227e+01    0.5373084    0.3374862 -76.50  0.002274644    2.236    0.553
       139 -10.2958    234.7833     79.2831   7.5434974256e+01   1.6223742461e+01    0.9733791    0.4514855 -42.00  0.004114967    1.954    0.488
       140  -9.9426    230.8326    116.4619   8.4756453316e+01   1.0593497671e+01    0.7435765    0.1986714 -43.08   0.00227582    3.437    0.709
       141 -11.1031    228.9989    104.9507   8.2359994037e+01   1.3081052020e+01    0.9762751    0.5088717 -30.71   0.00397048    2.122    0.529
       142 -10.0960    225.1512     81.6802   7.7420045248e+01   1.8027806770e+01    0.6489779    0.4351369  71.84  0.003130464    1.628    0.386
       143  -9.4218    216.6353     99.1974   8.3043959480e+01   1.6929901486e+01    0.3490947    0.2325979 -37.64 0.0009060969    1.459    0.314
       144  -9.5724    228.8221     95.5587   8.0164838377e+01   1.4790896451e+01    0.3483145    0.2352623  49.28  0.001187801    1.611    0.379
       145  -8.5531    215.5548     94.0716   8.1972402732e+01   1.8105375624e+01    0.3332133    0.2254676 -47.06 0.0008511684    1.407    0.290
       146  -9.9032    224.9898     98.8925   8.1574843046e+01   1.5067954878e+01     0.457423    0.2573815 -40.36   0.00175606    1.661    0.398
       147  -9.8669    224.1703     92.5779   8.0192793392e+01   1.6373988668e+01    0.6193707     0.321721 -54.45  0.002498085    2.137    0.532
       148  -9.7714    217.9507     89.8615   8.0541791930e+01   1.8292535424e+01    0.4424408    0.3249239 -35.87  0.001239949    1.361    0.265
       149  -9.4982    217.9928     84.9809   7.9340152866e+01   1.9133909461e+01    0.3004768      0.23712 -48.13 0.0008248856    1.196    0.164
       150 -10.2431    222.3548    104.2274   8.3290406465e+01   1.4704798979e+01    0.5600493     0.276028 -51.11  0.001669697    2.154    0.536
       151 -10.2776    220.7092     95.7881   8.1530504719e+01   1.6601775316e+01      1.33755    0.2081522 -38.37  0.003159379    5.765    0.827
       152 -10.3494    181.9274    116.3710   9.3967454043e+01   2.1782549773e+01     0.598712    0.3882602 -60.02  0.002492073    1.834    0.455
       153  -8.6200    140.3125    118.6463   1.0409400286e+02   3.0810039972e+01    0.1628148     0.123676 -84.29 0.0005457037    1.731    0.422
       154 -10.5605    229.9069     83.0084   7.7021114755e+01   1.6709038444e+01    0.7611124    0.3511073 -37.38  0.003116123    2.068    0.516
       155  -8.9406    134.0000    115.9264   1.0497680224e+02   3.2763926019e+01    0.2598484   0.08685979 -45.64 0.0008005742    2.930    0.659
       156  -8.7973    219.6733    114.8638   8.6299341102e+01   1.3350540781e+01     0.229818    0.1245383 -47.39 0.0009453662    1.806    0.446
       157 -10.0011    234.5434    111.6923   8.3034920259e+01   1.0652789624e+01    0.3267442    0.2289456  82.87  0.001521705    1.929    0.482
       158  -8.6409    144.0000    111.9633   1.0146159501e+02   3.1444121056e+01    0.2609395   0.08797301 -43.89 0.0008001004    2.926    0.658
       159  -8.8518    176.5194    110.5038   9.3617850395e+01   2.4240675607e+01    0.2898155    0.1393341 -51.16  0.001028046    2.308    0.567
       160  -8.5968    201.2103    109.9520   8.8486453647e+01   1.8519641174e+01    0.2113427    0.1197824 -40.84 0.0004911753    1.704    0.413
       161  -9.3633    182.9270    108.6748   9.1797476268e+01   2.3087974270e+01    0.3700067    0.2213145 -41.16  0.001083519    1.645    0.392
       162  -8.4450    218.4902    109.5176   8.5225529161e+01   1.4611167660e+01    0.1494408    0.1405189 -54.25 0.0006576645    1.002    0.002
       163  -8.8083    160.5875    108.3612   9.6585119377e+01   2.8419869721e+01    0.3090725    0.1471213 -46.48  0.001129144    2.115    0.527
       164  -9.5373    185.6305    114.9885   9.2845504677e+01   2.1191611456e+01    0.4086776    0.2049038 -45.30  0.001560455    1.969    0.492
       165  -8.3861    196.3381    107.6477   8.8845992332e+01   2.0109033088e+01    0.1651646    0.1189556 -75.02 0.0007044056    1.797    0.444
       166  -8.6239    205.5073    105.0198   8.6454343384e+01   1.8449799043e+01    0.2369196    0.1455037 -40.44  0.001025581    1.569    0.363
       167  -8.2541    213.3212    104.6721   8.4958265228e+01   1.6693709994e+01    0.1576526    0.1141548 -72.11 0.0004344786    1.688    0.408
       168  -8.9402    140.5167    103.0055   9.9931376841e+01   3.4106923300e+01    0.2436971    0.1510242 -43.53 0.0009284031    1.593    0.372
       169 -10.0355    185.0818    101.9196   8.9610838715e+01   2.3896030816e+01    0.2466878    0.2060664 -68.81 0.0007161367    1.287    0.223
       170  -9.2758    150.0000    102.0201   9.7360663580e+01   3.2168181165e+01    0.2647766   0.08808549 -41.86 0.0008085725    2.985    0.665
       171  -9.3117    160.3249    100.3270   9.4500922236e+01   3.0111160706e+01     0.398782     0.134346 -45.07  0.001233884    3.002    0.667
       172  -8.3260    209.0000    100.0096   8.4576486200e+01   1.8562938672e+01    0.2470962   0.08332497 -38.44  0.000790838    2.863    0.651
       173  -8.8422    166.6618    100.2027   9.3049742968e+01   2.8637431361e+01    0.2240484    0.1456395 -32.26 0.0005539045    1.672    0.402
       174  -9.4658    188.3766     92.7846   8.6573443019e+01   2.4834180359e+01    0.4320765    0.1989213 -44.14  0.001534104    2.138    0.532
       175  -8.7350    202.5186     98.0166   8.5249243827e+01   2.0463730806e+01    0.2353084    0.1457534 -40.30 0.0007664933    1.565    0.361
       176  -8.8312    195.5603     97.7559   8.6481120427e+01   2.2174505093e+01    0.2205396      0.13883 -50.02 0.0008570885    1.607    0.378
       177  -9.0306    183.4700     96.4659   8.8510970783e+01   2.5329087691e+01     0.292017    0.1334312 -49.28  0.001033358    2.366    0.577
       178  -9.0169    235.1463     95.6294   7.9199107929e+01   1.3363947650e+01    0.2586151    0.1770462 -49.99 0.0008467895    1.366    0.268
       179  -8.9221    177.2298     93.2251   8.8923072152e+01   2.7452062713e+01     0.281041    0.1943697 -37.13  0.001266171    1.467    0.318
       180  -9.0135    164.5069     93.5711   9.1729314543e+01   3.0447228878e+01    0.3249726     0.152717 -39.38  0.001202239    2.135    0.532
       181  -7.8875    196.6943     91.6673   8.4704132209e+01   2.3028452581e+01    0.1518994    0.1221434  12.46 0.0007038917    1.663    0.399
       182  -8.7209    236.4943     90.0442   7.7694599126e+01   1.4028032449e+01    0.2211297    0.1313785 -39.67  0.001022228    1.558    0.358
       183  -8.6932    157.5977     90.2113   9.2345187336e+01   3.2737081425e+01    0.2242787      0.14904 -28.20 0.0009588074    1.714    0.417
       184  -9.6452    175.3613     88.0017   8.7900832775e+01   2.8883454350e+01    0.2246187    0.1928103 -46.49 0.0007265331    1.160    0.138
       185  -9.7469    206.0271     85.0699   8.1351895646e+01   2.1962871622e+01    0.4019183    0.2156807 -40.69   0.00131787    1.793    0.442
       186  -8.8222    187.6391     86.8587   8.5156280628e+01   2.6101693907e+01    0.2217688    0.1815578 -75.58 0.0008982491    1.339    0.253
       187  -8.9530    170.6459     83.5377   8.7656030047e+01   3.0850111338e+01    0.2694891    0.1438828 -38.58  0.001076961    1.884    0.469
       188  -9.1356    200.3175     83.0016   8.1818299345e+01   2.3704141862e+01    0.2939044    0.2054124 -31.19 0.0008473065    1.536    0.349
       189  -9.8093    200.9941     77.6672   8.0328297694e+01   2.4463642936e+01     0.358184     0.227443 -44.68 0.0009721578    1.532    0.347
       190  -8.7706    192.9766     82.7643   8.3076886493e+01   2.5532396494e+01    0.2093025    0.2016338 -83.42 0.0009990035    1.021    0.020
       191  -9.2305    151.4968    249.5170   1.2630624472e+02   1.7672501373e+00    0.1263764    0.1043434  46.45 0.0001139883    1.023    0.022
       192  -8.6922    159.0000     81.9382   8.9707902315e+01   3.3954134729e+01    0.2523212    0.0869856 -38.14 0.0008012551    2.934    0.659
       193  -8.8220    210.0253     81.2696   7.9720063262e+01   2.1664680219e+01    0.2063593    0.1845638 -66.61 0.0006121884    1.064    0.060
       194  -8.6874    214.7797     79.9844   7.8625687666e+01   2.0750321504e+01    0.1971289    0.1160062 -38.28 0.0008672494    1.655    0.396
       195  -8.5326    180.0000     79.9900   8.4795857089e+01   2.9201419324e+01    0.2463577    0.0861341 -37.12 0.0007940884    2.885    0.653
       196  -9.2010    166.7455     77.7464   8.6859069517e+01   3.2839207425e+01    0.3581909    0.1828601 -31.32  0.001377388    2.204    0.546
       197  -8.8883    183.7040     77.4505   8.3395068387e+01   2.8736948265e+01    0.2771558     0.171755 -48.26 0.0009174002    1.646    0.392
       198  -9.2707    174.4817     77.5038   8.5207639396e+01   3.0992587807e+01    0.3052656    0.1481504 -38.09 0.0009518111    2.072    0.517
       199  -8.8772    211.2460     76.2390   7.8261441416e+01   2.2227498672e+01    0.2589295    0.1746904 -36.91 0.0007566165    1.484    0.326
       200  -8.7180    223.4584     75.9760   7.6302608205e+01   1.9376998424e+01    0.3108121    0.1370796 -36.35 0.0007725057    2.223    0.550
       201 -10.5821    226.6003     72.5626   7.5022087373e+01   1.9204954336e+01    0.6804383    0.2254223 -50.25  0.002192435    3.463    0.711
       202 -10.3816    221.9926     70.7612   7.5260558354e+01   2.0576038219e+01    0.3183771    0.1894053 -43.26 0.0009465651    1.580    0.367
       203 -11.1383    223.3708     66.7461   7.4092813303e+01   2.0896469845e+01    0.5205767     0.417176 -10.12  0.001835547    1.686    0.407
       204  -9.4439    163.3170     71.2154   8.5726691268e+01   3.4808336560e+01    0.4097802    0.1981341 -37.10  0.001453517    2.106    0.525
       205  -8.7948    219.4708     74.5273   7.6552454007e+01   2.0554109798e+01    0.1445481    0.1335079 -70.56 0.0001730065    1.017    0.017
       206  -9.1995    213.8112     69.7574   7.6244088990e+01   2.2683478617e+01    0.2722524     0.150181 -53.33 0.0008003917    1.889    0.471
       207  -8.8006    189.0000     78.0242   8.2557614906e+01   2.7336013139e+01    0.2483182   0.08501583 -36.73 0.0008012699    2.934    0.659
       208  -8.7399    187.4880     68.4753   8.0281619055e+01   2.9321955109e+01    0.2689686     0.125002 -46.91  0.001025848    2.236    0.553
       209  -9.7261    193.5846     67.7327   7.9014253430e+01   2.7939242603e+01    0.2712732    0.1459673 -32.45  0.000951757    1.998    0.500
       210  -8.3447    210.4848     71.4941   7.7195204932e+01   2.3199179602e+01    0.1471306    0.1346536 -74.76  6.58561e-06    1.015    0.014
       211  -8.5650    197.3295     64.1693   7.7448611689e+01   2.7591512097e+01    0.2140769     0.123054 -46.14 0.0009356073    1.727    0.421
       212  -8.8915    194.0000     76.9242   8.1359872764e+01   2.6299121279e+01     0.241428   0.08423908 -36.60 0.0007919067    2.870    0.652
       213  -9.5895    217.4537     58.0289   7.2823026474e+01   2.3658436954e+01    0.3561406    0.1604799 -33.87  0.001231218    2.305    0.566
       214  -9.2632    187.3006     62.5438   7.8720914071e+01   3.0325799408e+01    0.2855452     0.180038 -33.52 0.0009234739    1.673    0.402
       215  -9.1482    157.8713     61.9999   8.4198779162e+01   3.7654602228e+01    0.3163896     0.187525 -39.15  0.001402471    1.728    0.421
       216  -9.0351    203.0838     66.6145   7.7140919578e+01   2.5789266220e+01    0.2691239    0.1843461 -49.21 0.0009484594    1.433    0.302
       217  -8.7522    182.4895     61.9583   7.9413273764e+01   3.1610022685e+01    0.2190761    0.1447287 -36.94 0.0006571177    1.554    0.357
       218  -8.5841    206.4033     58.7936   7.4630090955e+01   2.6209875447e+01    0.1961292    0.1403723 -22.12 0.0008091242    1.721    0.419
       219  -8.5476     32.7028     57.7306   1.1970393609e+02   6.0667821087e+01    0.1196855   0.07541195 -25.45            0    1.520    0.342
       220  -9.4223    192.1781     55.0869   7.5907980385e+01   3.0269701402e+01    0.2829263    0.1879861 -55.70  0.001345576    1.588    0.370
       221  -9.0348    152.7717     52.0371   8.2305261100e+01   4.0421528079e+01    0.1898084    0.1202076 -33.96 0.0008790676    1.657    0.397
       222  -9.8097    214.1263     49.5796   7.1222629684e+01   2.5714305142e+01    0.6267282    0.2418229 -33.14  0.002399045    2.730    0.634
       223  -8.7485    185.5011     53.0159   7.6459081126e+01   3.2233201354e+01    0.2134659    0.1421964 -35.99  0.000754941    1.561    0.359
       224  -8.0880    178.6528     50.3365   7.6896007113e+01   3.4325116041e+01    0.1550063    0.1064826 -72.72 0.0007048015    1.778    0.438
       225  -8.6506     35.6574     43.7276   1.1419209754e+02   6.2866339657e+01     0.164147   0.09740953 -49.43  0.000945449    1.700    0.412
       226  -8.9590    215.7026    234.5985   1.1193948739e+02  -6.8805965643e+00    0.1887706    0.1622553 -66.44 0.0009311255    1.742    0.426
       227  -8.6510      6.0105     38.7655   1.2434224314e+02   6.6116252462e+01    0.1204459   0.08386924   5.58 0.0003838228    1.564    0.361
       228  -9.0183    240.2869    231.7090   1.0696266881e+02  -1.0416454319e+01    0.2066929    0.1410252 -42.31  0.001223089    1.801    0.445
       229  -9.0260    138.1394     37.0579   8.0760310685e+01   4.5956425876e+01    0.2052059    0.1716565  28.37            0    1.216    0.178
       230  -8.3395     79.7016     34.3053   9.5159062928e+01   5.8283124257e+01    0.1121199    0.1029462 -66.88  0.000242487    1.589    0.371
       231  -8.7485    110.9871     33.4915   8.5929138633e+01   5.2422917638e+01    0.2114201    0.1230109  50.98   0.00104276    1.620    0.383
       232  -8.0137     26.6605     33.7400   1.1427538862e+02   6.5376384313e+01    0.1154851   0.07031792 -15.68 0.0001820485    1.585    0.369
       233  -9.0518     61.7635     32.4113   1.0042714932e+02   6.1387564762e+01    0.1677798    0.1037936  24.15 0.0006298323    1.605    0.377
       234  -9.4150     56.4235     30.8383   1.0172474367e+02   6.2369345926e+01    0.3598393    0.1525082 -20.40   0.00138848    3.720    0.731
       235  -8.2892    179.3102     37.6748   7.3296590916e+01   3.5909241240e+01    0.1460092    0.1017493 -70.94 0.0007039086    1.656    0.396
       236  -8.5090    174.6514     28.3360   7.1459286176e+01   3.8225936537e+01    0.1468997   0.09822531 -71.65 0.0007047411    1.781    0.438
       237  -9.3390    136.7693     25.0639   7.7214659358e+01   4.7713095562e+01    0.2539991    0.1761758 -13.31 0.0002523338    1.681    0.405
       238  -8.5804     68.4448     23.4735   9.4656591374e+01   6.1547597737e+01     0.123438    0.1002313   5.45 0.0001388648    1.021    0.021
       239 -10.1091     84.3578     21.5333   8.8882100148e+01   5.9061965329e+01    0.2456794    0.1981704  41.56  0.001569873    1.252    0.201
       240  -9.2528     73.7157     20.6843   9.1828733721e+01   6.1019287825e+01     0.125575   0.08161753  10.96   0.00020007    1.582    0.368
       241  -8.7081    155.6743     16.5320   7.1126758153e+01   4.4152310341e+01    0.2212839     0.124733 -26.53  0.001088435    2.004    0.501
       242  -9.2310     31.0292     16.6535   1.0587983171e+02   6.7440358496e+01    0.1805976    0.1339564 -28.94 0.0003924542    1.300    0.231
       243  -9.4108     29.8660     13.0647   1.0485276776e+02   6.8034293314e+01    0.1652332    0.1226067  -7.82 0.0004432208    1.017    0.017
       244  -8.9715      2.4336     15.8239   1.1813513897e+02   7.0037181842e+01     0.147528   0.06873224 -35.66 0.0003639296    1.587    0.370
       245  -8.4682     23.5038     15.5981   1.0862715521e+02   6.8355884315e+01    0.1103843   0.08117954 -11.84 7.634015e-05    1.027    0.027
       246  -8.9259    242.7818    248.5980   1.0940739280e+02  -1.2960335645e+01     0.159673   0.09766751  42.13 0.0009463202    1.676    0.403
       247  -9.3059    225.4475    231.9404   1.0968718496e+02  -8.0980970195e+00    0.2143271    0.1922942 -60.62    0.0010913    1.623    0.384
       248  -8.5759     34.3199     10.3220   1.0181787392e+02   6.7872382239e+01    0.1168383   0.06901862  -2.18 0.0005956239    1.671    0.402
       249  -8.9606    232.6607    247.5202   1.1101555195e+02  -1.1318209347e+01    0.1777177    0.1467987 -52.42  0.001050647    1.847    0.459
       250  -9.8560    250.2439    245.4348   1.0757797120e+02  -1.3654875495e+01    0.2504165    0.1552112 -26.21  0.001046392    1.625    0.385
       251  -9.5169    248.3002    240.3996   1.0705819441e+02  -1.2751602704e+01    0.2279978    0.1877236 -32.41 0.0009636116    1.483    0.326
       252  -8.8080    237.6699    245.3016   1.0975811348e+02  -1.1792982880e+01    0.1555248     0.143593  73.59  0.001071619    1.777    0.437
       253  -8.6338     94.2995    244.3267   1.3629049995e+02   1.2042917300e+01    0.1034726   0.09810682  -1.39 0.0003307394    1.636    0.389
       254 -10.6060    240.2666    240.8158   1.0854165330e+02  -1.1611402082e+01    0.3832151    0.3164459  63.66   0.00238389    2.020    0.505
       255  -9.1721    237.6340    236.3230   1.0823975894e+02  -1.0623962087e+01    0.2317903    0.1591606  52.82  0.001324791    2.008    0.502
       256  -9.6932    214.3652    241.4939   1.1333607771e+02  -7.6372728656e+00    0.2410978    0.1848249  62.94 0.0009326241    1.912    0.477
       257 -10.5632    191.8333    237.1751   1.1685029627e+02  -3.2260388636e+00    0.6671653    0.4016965  69.93  0.002633842    4.027    0.752
       258  -8.4922    105.6725    240.6452   1.3379275074e+02   1.0936905707e+01    0.1123448   0.09992366  -1.61 0.0007046048    1.774    0.436
