#   1 NUMBER                 Running object number                                     
#   2 MAG_AUTO               Kron-like elliptical aperture magnitude                    [mag]
#   3 X_IMAGE                Object position along x                                    [pixel]
#   4 Y_IMAGE                Object position along y                                    [pixel]
#   5 X_WORLD                Barycenter position along world x axis                     [deg]
#   6 Y_WORLD                Barycenter position along world y axis                     [deg]
#   7 A_WORLD                Profile RMS along major axis (world units)                 [deg]
#   8 B_WORLD                Profile RMS along minor axis (world units)                 [deg]
#   9 THETA_WORLD            Position angle (CCW/world-x)                               [deg]
#  10 FWHM_WORLD             FWHM assuming a gaussian core                              [deg]
#  11 ELONGATION             A_IMAGE/B_IMAGE                                           
#  12 ELLIPTICITY            1 - B_IMAGE/A_IMAGE                                       
         1 -13.9092    177.9922     29.5286   1.6138047165e+01   3.6405251885e+01    0.9922097    0.9018704 -81.36  0.004209832    1.060    0.056
         2 -11.2299    120.1642      9.0087   1.7357653136e+01   5.3737755902e+01    0.4121868    0.3452049  27.26  0.001714667    1.250    0.200
         3 -11.1119    181.0184      6.4925   8.6751310141e+00   3.8133082592e+01    0.2126079    0.1280503  77.45  0.001036909    1.602    0.376
         4 -10.8728     38.1021    243.1040   9.0146435469e+01   2.0619631799e+01    0.1955981    0.1507977  84.75 0.0008499098    1.299    0.230
         5 -12.5350    244.9557    248.0123   5.4522295719e+01  -7.1722900404e+00    0.7948401    0.3382021  28.48  0.004905133    1.908    0.476
         6 -15.2761     41.0799    152.9437   8.2659924405e+01   3.8762908592e+01     1.892761     1.036281 -65.83  0.007184551    1.682    0.405
         7 -19.3379     66.5228    210.0668   8.2410023145e+01   2.3203688030e+01     5.830586     5.151722  28.32   0.02608431    1.416    0.294
         8 -13.0023    177.1347    217.1291   6.1272863230e+01   5.5543259730e+00     0.650537    0.3942937 -25.65  0.002655855    2.010    0.502
         9  -9.9554     12.2803    196.1265   9.2692018626e+01   3.2143232744e+01    0.1922724    0.1045111 -54.21  0.001079924    2.521    0.603
        10 -10.4780     17.1592    192.4178   9.1476863844e+01   3.2442319078e+01    0.1775524    0.1263685  87.43 0.0002810015    1.201    0.167
        11 -10.2953    118.5852    191.9354   6.9229051698e+01   1.9078966203e+01    0.1705545    0.1477181 -77.47 0.0007356363    1.270    0.213
        12 -12.0336    162.5018    218.9844   6.4256403503e+01   7.5238393971e+00    0.4795526    0.2601505 -53.30   0.00255984    2.484    0.597
        13 -10.2584    152.7406    223.0163   6.6649839892e+01   8.4136211695e+00    0.2240608    0.1955286  23.04 0.0008623751    1.100    0.091
        14 -11.1414    154.0979    218.1219   6.5724761787e+01   8.9439165786e+00    0.6984888    0.2877524  38.78  0.002692149    2.035    0.509
        15 -11.0109     22.5282    185.1867   8.9883083827e+01   3.3440430383e+01    0.1917096    0.1594613  72.84 0.0005446247    1.115    0.103
        16 -10.3140     17.7030    184.8692   9.0921573191e+01   3.3985050527e+01    0.3127776    0.2346342 -23.83  0.001385013    2.347    0.574
        17 -10.5676    122.2175    183.0866   6.7122226822e+01   2.0187952395e+01    0.3506231    0.2294486  22.43 0.0009162742    1.928    0.481
        18 -10.3608    127.1906    182.7512   6.5979128622e+01   1.9415090408e+01    0.2006776    0.1758264  85.49 0.0004970731    1.255    0.203
        19 -10.8540     22.8049    156.9899   8.7740080461e+01   3.9735953611e+01    0.2239824    0.1719145  46.23  0.000453707    1.321    0.243
        20 -10.8741     18.5898    154.5530   8.8602933053e+01   4.0704069128e+01    0.2432739    0.1876341 -50.71 0.0007161025    1.605    0.377
        21 -10.9340    207.9977    218.0116   5.5948111111e+01   8.5911510364e-01    0.2095637    0.1500533 -25.81 0.0007303379    1.462    0.316
        22 -13.1122    186.5433    146.2786   4.6566689513e+01   1.5228196142e+01    0.4437306    0.3731695 -61.04  0.002447274    1.458    0.314
        23 -11.1415    208.2955    213.4777   5.5178913324e+01   1.3839586912e+00    0.2579029     0.109198 -37.46  0.001305537    2.569    0.611
        24 -10.1699     22.9168    139.2231   8.6082973676e+01   4.3955501738e+01    0.2029666    0.1753375 -25.59 0.0007851272    1.593    0.372
        25 -11.5915     11.4348    144.6189   8.9659326140e+01   4.3674894864e+01    0.3777737    0.2342869 -44.87  0.001113937    2.111    0.526
        26 -10.7456     14.6320    135.5356   8.8024024198e+01   4.5586285177e+01    0.3266952    0.1277819  57.29  0.001413159    2.659    0.624
        27 -10.7479      5.0484    218.3375   9.5063675687e+01   2.8451705611e+01    0.1458216    0.1108276  85.05  0.001127014    1.247    0.198
        28 -12.8309    160.6006    129.0602   4.7937642123e+01   2.3693131755e+01    0.4708119    0.3426102 -42.27  0.002102817    1.357    0.263
        29 -10.8149    165.6672    228.0635   6.4929535284e+01   5.7475806942e+00    0.2185742    0.1853374 -88.47  0.001317571    1.798    0.444
        30  -9.3280     17.4897    130.5182   8.6734494751e+01   4.6564887103e+01    0.1286687    0.1052965 -84.09 0.0002471743    1.061    0.057
        31 -10.3134     19.2197    213.4228   9.2159898441e+01   2.8018431332e+01    0.1754632    0.1704202  57.96 0.0007880678    1.491    0.329
        32 -10.5843    125.5712    211.7008   7.0458192929e+01   1.4398122760e+01     0.182372    0.1597889 -49.55 0.0004078536    1.348    0.258
        33 -16.7214     68.3641    138.2624   7.3262409942e+01   3.8782466778e+01      4.06564     2.407369 -63.10   0.01566925    1.583    0.368
        34 -11.6207     35.1869    118.1299   7.9891976077e+01   4.7951021956e+01    0.2737225    0.2018252 -75.19 0.0009852194    1.164    0.141
        35 -10.8317     78.8425    250.5857   8.3317197592e+01   1.4537031515e+01    0.1560383    0.0824753  40.53 0.0009739489    1.462    0.316
        36 -11.8569    168.0465    113.5991   4.2543052337e+01   2.5081524693e+01    0.4515935    0.3509471 -79.48  0.001487059    1.714    0.417
        37 -11.5261      5.9161    112.6714   8.8404094988e+01   5.1847287827e+01    0.3763337    0.2092096  32.40  0.002072808    1.999    0.500
        38 -10.1651    147.4965    207.3524   6.5479971643e+01   1.1679008516e+01    0.2908691    0.1262777 -50.02  0.001032907    2.710    0.631
        39 -11.1022     28.1296    106.1479   8.0355940864e+01   5.1667965572e+01    0.2662227    0.2209456  -8.93 0.0008317275    1.590    0.371
        40 -10.8705    113.7808    236.1855   7.5596327281e+01   1.2118157409e+01    0.1589045     0.123345  56.96 0.0005091885    1.195    0.163
        41 -12.2144     11.5527    206.5906   9.3337482056e+01   3.0105115216e+01    0.4081486    0.2942857  25.06  0.002561731    1.805    0.446
        42  -9.6877    113.5826    225.9357   7.4537849962e+01   1.3796945506e+01    0.1461592    0.1130499 -46.90 0.0009635952    1.626    0.385
        43 -11.7912     36.4599     96.7170   7.5855165593e+01   5.3193808417e+01    0.3550472    0.2435742 -69.42  0.001905477    1.263    0.208
        44  -9.2760    126.4206    229.9591   7.2518327508e+01   1.1277383607e+01    0.2175124    0.1049456 -44.32  0.001130577    2.717    0.632
        45 -11.5159     44.6677     93.5611   7.2296255749e+01   5.3049855575e+01     0.448153       0.2524  -1.51  0.001677012    3.772    0.735
        46 -12.4427    105.0786     81.2318   4.8797094944e+01   4.5799466564e+01    0.4332702    0.3818208  23.25  0.001636433    1.278    0.217
        47  -9.8718     11.0717    231.0143   9.4436013735e+01   2.5550178598e+01      0.12225    0.1077053  66.71 0.0003689047    1.359    0.264
        48 -12.6995    152.1720     69.1094   3.3125930727e+01   3.7129782116e+01    0.6891312    0.4892145  62.93  0.002529982    1.491    0.329
        49 -13.5605    163.1524     56.6818   2.7038521531e+01   3.6429585762e+01     1.082763    0.9672464 -14.41  0.003437242    1.206    0.171
        50 -12.4269    168.3011     48.1193   2.3424633712e+01   3.6410212266e+01    0.5122057     0.470685 -28.91 0.0008262254    1.109    0.098
        51  -9.9882     92.7339    248.7281   8.0663409471e+01   1.3034098623e+01    0.1360852   0.09525938  35.23 0.0003184346    1.317    0.240
        52 -11.7054     87.1591    246.4565   8.1491013954e+01   1.4118411520e+01    0.1770191    0.1410917  48.06 0.0005364369    1.091    0.083
