#   1 NUMBER                 Running object number                                     
#   2 MAG_AUTO               Kron-like elliptical aperture magnitude                    [mag]
#   3 X_IMAGE                Object position along x                                    [pixel]
#   4 Y_IMAGE                Object position along y                                    [pixel]
#   5 X_WORLD                Barycenter position along world x axis                     [deg]
#   6 Y_WORLD                Barycenter position along world y axis                     [deg]
#   7 A_WORLD                Profile RMS along major axis (world units)                 [deg]
#   8 B_WORLD                Profile RMS along minor axis (world units)                 [deg]
#   9 THETA_WORLD            Position angle (CCW/world-x)                               [deg]
#  10 FWHM_WORLD             FWHM assuming a gaussian core                              [deg]
#  11 ELONGATION             A_IMAGE/B_IMAGE                                           
#  12 ELLIPTICITY            1 - B_IMAGE/A_IMAGE                                       
         1 -11.9126    235.7045     24.4580   3.5050729765e+02   2.6445788022e+01    0.6973611    0.4339092 -68.24  0.004599327    1.466    0.318
         2 -10.8156     32.9426     15.3368   2.7076172555e+01   7.3009842129e+01    0.2221081    0.1812478 -41.65  0.001108384    1.379    0.275
         3  -8.4166    227.4994      9.5191   3.4774148851e+02   2.9527294130e+01    0.1152603   0.08487235 -54.62 0.0008103799    1.005    0.005
         4  -9.5696     24.6764      6.6762   2.6562426092e+01   7.5696014416e+01    0.1324931   0.08935739   8.46 0.0007047571    1.684    0.406
         5 -10.4056    134.2748    238.5658   4.9797045053e+01   8.0184656204e+00    0.2959455   0.08495591 -46.67  0.001229605    3.671    0.728
         6 -10.6893    100.6563    247.7124   5.7980317096e+01   1.0350531914e+01    0.5296407    0.2597235 -68.72  0.002695659    2.973    0.664
         7 -10.2592     49.5199    248.2005   6.9206680881e+01   1.5724218002e+01    0.3232065    0.1478769  38.15  0.001760867    1.653    0.395
         8 -15.9817      3.2071    236.9005   7.8844569529e+01   2.2069037854e+01     1.842969    0.3946354  51.83  0.007698386    3.198    0.687
         9 -17.7715      4.4384    223.0630   7.8164023999e+01   2.4785637756e+01     11.13396     3.206844 -80.22   0.01200756    3.485    0.713
        10 -10.2090    102.7243    238.4187   5.6590084876e+01   1.1726338437e+01    0.2838413    0.1656575 -52.10  0.001237235    1.976    0.494
        11  -8.5444     71.7628    222.8142   6.2177991964e+01   1.8274033037e+01    0.2030979    0.1163832 -27.51 0.0009305165    2.717    0.632
        12 -10.5328     88.6456    222.0519   5.8083102201e+01   1.6450553678e+01    0.2791271     0.171861  30.64  0.001524817    1.384    0.278
        13 -10.3305    105.9043    213.8207   5.3045779919e+01   1.5937905751e+01    0.2960486    0.1902834 -50.60  0.001115361    1.704    0.413
        14 -10.0480    104.0334    233.1890   5.5739848081e+01   1.2508979029e+01    0.2027091    0.1698847 -12.78 0.0004403742    1.281    0.220
        15 -10.5538     46.0844    238.5703   6.9378834999e+01   1.7886912051e+01    0.1990317    0.1744792 -85.05  0.000454134    1.305    0.234
        16  -8.9695    210.4178    199.0227   2.9222947601e+01   5.1316687191e+00    0.2007373    0.1374369   5.75 0.0007286171    1.370    0.270
        17  -9.7463     68.4306    193.2080   6.0010601146e+01   2.5086766537e+01    0.2416692    0.2000782  53.27 0.0005847578    1.156    0.135
        18  -7.9407     58.6963    237.7506   6.6460227461e+01   1.6753590149e+01    0.1277644   0.09677554  43.05 0.0001930046    1.110    0.099
        19  -9.0568     55.7037    235.6637   6.6993319360e+01   1.7470291328e+01    0.1947213    0.1076348  15.93 0.0008386283    1.923    0.480
        20  -9.9581     53.6705    231.1781   6.7141148636e+01   1.8566239607e+01    0.3909765    0.1825377 -80.91  0.001433406    2.670    0.625
        21 -10.4764    172.3376    174.4420   3.1925497789e+01   1.4183739804e+01    0.4467765    0.2907222 -22.98  0.001961281    1.580    0.367
        22  -9.7719    105.2622    172.0203   4.7166463056e+01   2.4954330366e+01    0.1982046    0.1868839 -42.26 0.0004504838    1.090    0.083
        23 -12.0215    114.1753    230.5189   5.3172793844e+01   1.1778089992e+01    0.5684868    0.2747263 -60.52  0.002797757    2.626    0.619
        24  -9.9514     79.1144    164.0102   5.3166105868e+01   3.0703819307e+01    0.2834931    0.1906694  -8.33  0.001230725    2.119    0.528
        25 -11.9405     68.4710    134.6589   5.1535796963e+01   3.9781292929e+01    0.6780856     0.368174  50.91  0.002697186    2.071    0.517
        26  -9.8836     77.4780    144.0077   5.0325572293e+01   3.6010620946e+01    0.2980022     0.234985  37.04 0.0004079891    1.256    0.204
        27 -10.4458     77.5518    150.5125   5.1444793484e+01   3.4330068223e+01    0.4685479    0.2977128  62.21  0.001205464    1.943    0.485
        28  -9.7645     82.3268    149.9583   4.9889471280e+01   3.3761846460e+01    0.2659653    0.2554673   2.02 0.0004464991    1.091    0.084
        29 -13.0626     69.6247    144.6304   5.2929992402e+01   3.6993406895e+01     1.202324    0.7740505  71.38  0.002457561    2.013    0.503
        30 -11.1471     74.0096    156.9236   5.3579373673e+01   3.3202381114e+01    0.4914783    0.3905942 -24.16   0.00155208    1.487    0.328
        31  -9.7109     60.9562    158.4998   5.7811837598e+01   3.4545974096e+01    0.2301241    0.1895364 -72.37 0.0004882595    1.215    0.177
        32  -9.8714     51.8757    156.8694   6.0423370559e+01   3.6089513829e+01    0.2424577    0.2170376  83.10   0.00134598    1.084    0.078
        33  -9.5101    134.3024    148.5147   3.5266604147e+01   2.5492405529e+01      0.26387    0.1289303 -48.43  0.001038215    2.002    0.501
        34 -11.2674     53.5836    146.9668   5.8512846365e+01   3.8502648203e+01    0.4093683    0.3574814  32.06 0.0006052257    1.164    0.141
        35  -9.9799    108.9017    145.4516   4.1276112696e+01   3.0581651704e+01    0.3025135    0.2776938  48.17 0.0007012435    1.120    0.107
        36 -10.5192     87.7766    145.7835   4.7476805019e+01   3.3975612697e+01      0.33477    0.2755612 -15.01  0.000633411    1.425    0.298
        37 -10.1276     47.2631    144.8396   6.0304290537e+01   3.9829381861e+01    0.3478012    0.2767133 -63.48  0.001377339    1.228    0.186
        38 -10.1248     36.6033    142.8833   6.3644429887e+01   4.1528353464e+01    0.3145578    0.2352057 -84.43 0.0008717192    1.300    0.231
        39  -9.6327    129.9891    142.6282   3.5092378299e+01   2.7542686864e+01    0.2042809    0.1848347  33.19 0.0005735559    1.128    0.114
        40 -11.1937    104.4705    131.9184   3.9660313565e+01   3.4596525575e+01     0.577136    0.4196859  -0.67  0.001605499    1.907    0.476
        41 -11.4388     43.0501    130.4550   5.9671195419e+01   4.4222942219e+01    0.5101607     0.356685  53.40  0.002439948    1.481    0.325
        42  -9.3658    222.1372    129.5678   1.4400783310e+01   1.4267164701e+01    0.3829804    0.1177718 -47.53  0.001324323    4.027    0.752
        43 -11.1921     69.6297    160.6684   5.5476509248e+01   3.2851632470e+01    0.4692453    0.3569381  46.39  0.001085069    1.284    0.221
        44 -10.3921     90.4340    131.6702   4.3832934155e+01   3.7095913195e+01    0.2958027    0.2670463 -43.12 0.0004825779    1.117    0.104
        45 -10.2877     45.6894    124.9073   5.7820643738e+01   4.5435603217e+01    0.2530281    0.2149451   1.19 0.0008911917    1.341    0.255
        46  -9.2948     99.0687    121.1395   3.8794367496e+01   3.8190172538e+01    0.2380404    0.2069111 -11.70 0.0006919272    1.311    0.237
        47 -11.9367     33.0843    100.3414   5.8450023060e+01   5.3584555511e+01    0.6356921    0.3130237 -63.53  0.002623193    1.836    0.455
        48 -11.7497     33.0000    114.9440   6.1040677266e+01   4.9578521471e+01     0.857991    0.2092421 -71.21  0.002377071    4.170    0.760
        49  -8.9028    107.8338    116.1394   3.4958702123e+01   3.7745339080e+01    0.2058531    0.1810409 -15.53            0    1.269    0.212
        50 -10.2525     42.2468    228.0107   6.9597875689e+01   2.0371520818e+01    0.4357033    0.2159132 -73.47  0.002061016    2.235    0.553
        51 -10.8066     43.9607    232.5053   6.9484055446e+01   1.9292454134e+01    0.2420658    0.1798204 -81.25 0.0008608921    1.505    0.336
        52 -10.3153     47.2205    229.2485   6.8512979204e+01   1.9618908925e+01    0.2636094    0.2063265  51.33 0.0007942606    1.122    0.109
        53  -8.2862     72.0248    233.0000   6.3024614718e+01   1.6229817131e+01    0.2087715   0.06033709  26.93 0.0007985985    2.916    0.657
        54 -11.3530    127.5125    227.7882   4.9901795079e+01   1.0641374125e+01      0.44027    0.1442582 -53.07  0.001838897    3.426    0.708
        55 -12.2310    109.9366    225.8939   5.3580076694e+01   1.3132472909e+01    0.6909401    0.4313549  -6.93  0.003521652    2.130    0.530
        56  -9.9029    108.4359    234.1313   5.4861019571e+01   1.1818816855e+01    0.3215609    0.1653739 -32.67  0.001409517    2.642    0.621
        57 -11.2107    185.6357     64.7197   4.5868610935e+00   3.1107922059e+01    0.4000686     0.318239 -42.84  0.001093372    1.112    0.101
        58  -9.1311     83.9161     65.0155   2.7269496467e+01   5.4103085932e+01    0.2781166    0.2116738  64.26  0.001327988    1.500    0.333
        59 -12.6382    202.8241     52.3496   3.5945667210e+02   2.9321356335e+01    0.9594857    0.7952086  15.78  0.004631646    1.732    0.423
        60 -11.8390    208.8638     48.4139   3.5791061628e+02   2.8639034252e+01    0.6336454    0.4030885 -21.82  0.001938762    1.831    0.454
        61  -8.1381     59.2697    229.3420   6.5694506953e+01   1.8340706508e+01    0.1158383   0.09122003 -25.17 0.0002787344    1.608    0.378
        62 -10.6835    135.4765    227.5113   4.8144799059e+01   9.7171091620e+00    0.2639512     0.105198  29.05  0.001210535    2.165    0.538
        63 -10.5253     96.8539    226.2927   5.6621294321e+01   1.4644123680e+01    0.2171786    0.1369268  41.78  0.001206948    1.471    0.320
        64 -11.3884    232.4837     30.3250   3.5195570520e+02   2.6368640622e+01     0.578844    0.2887361 -65.49   0.00324893    1.981    0.495
        65 -10.6906    125.4387    244.2578   5.2324960685e+01   8.1137413934e+00    0.3521234    0.1146056 -54.03  0.001548794    3.623    0.724
        66  -8.7846     60.7447     21.5514   1.6821867178e+01   6.6611327083e+01    0.1918791      0.12899  64.76 0.0009511441    1.672    0.402
        67 -10.4792     75.9800    244.5998   6.3106620123e+01   1.3626005135e+01    0.1768934    0.1732662 -83.11 0.0004705364    1.235    0.190
        68  -8.3267     69.6398    243.2428   6.4408489864e+01   1.4558063980e+01     0.126633   0.07024906  45.54 0.0003038577    1.598    0.374
