#   1 NUMBER                 Running object number                                     
#   2 MAG_AUTO               Kron-like elliptical aperture magnitude                    [mag]
#   3 X_IMAGE                Object position along x                                    [pixel]
#   4 Y_IMAGE                Object position along y                                    [pixel]
#   5 X_WORLD                Barycenter position along world x axis                     [deg]
#   6 Y_WORLD                Barycenter position along world y axis                     [deg]
#   7 A_WORLD                Profile RMS along major axis (world units)                 [deg]
#   8 B_WORLD                Profile RMS along minor axis (world units)                 [deg]
#   9 THETA_WORLD            Position angle (CCW/world-x)                               [deg]
#  10 FWHM_WORLD             FWHM assuming a gaussian core                              [deg]
#  11 ELONGATION             A_IMAGE/B_IMAGE                                           
#  12 ELLIPTICITY            1 - B_IMAGE/A_IMAGE                                       
         1 -19.0290    219.9568    128.7256   4.1950959780e+01   1.0280224920e+01     7.289582     5.283573  49.73   0.02085724    1.413    0.292
         2 -14.7511    223.5996     11.7064   1.2498084733e+01   2.7712588006e+01      4.95509     1.939084  73.53     0.020588    2.381    0.580
         3  -9.4281    116.0260     12.5042   2.9181533104e+01   5.4734486482e+01    0.2605225    0.2101283  41.03  0.001403978    1.113    0.102
         4 -10.4048    120.1551      9.3036   2.7026055695e+01   5.4105451523e+01    0.4733184    0.3405464  49.27  0.001589556    1.221    0.181
         5 -10.9622    208.8704    225.3975   6.3097969603e+01  -3.2703852211e+00    0.5387063    0.1649595  46.84  0.002047178    3.251    0.692
         6 -14.3041    227.2931    244.5081   6.2811116579e+01  -8.6372197987e+00     4.599707     1.078611  41.47   0.01797208    3.494    0.714
         7 -10.7081    242.7618    227.8279   5.7493652927e+01  -9.0340114861e+00     0.472966    0.2689763  37.93  0.001512503    1.536    0.349
         8 -10.2383    107.9042    242.2971   8.4199054228e+01   1.1196014093e+01    0.2006495    0.1693865  81.90 0.0004227987    1.227    0.185
         9 -11.4012    107.4771    128.6880   6.7411220304e+01   3.4962717532e+01    0.6734913    0.4346011 -66.33  0.002622214    1.652    0.395
        10  -9.3666    101.1435    127.6397   6.8873614692e+01   3.6361090035e+01    0.2513523    0.2182157 -37.29 0.0008950083    1.316    0.240
        11  -8.4152     41.1703    129.1855   8.5375720118e+01   4.4502896843e+01      0.16987    0.1280788  82.59  0.000362463    1.261    0.207
        12 -10.4625     61.9271    114.3661   7.7143066512e+01   4.5555974928e+01    0.2685095    0.2145236 -62.90 0.0003033006    1.113    0.102
        13 -13.4382     53.3329     99.9096   7.6855240992e+01   4.9983096628e+01     1.458523     1.184696  45.81  0.007651808    1.375    0.273
        14 -11.8582     77.3085    103.0169   7.0216378359e+01   4.6048321898e+01    0.6833104    0.5223864 -21.06  0.003107394    1.701    0.412
        15 -10.9038     97.2388    105.8880   6.5037535777e+01   4.2103041471e+01    0.5767757    0.2514719 -56.77  0.001643912    2.366    0.577
        16 -12.6195     26.0472     93.6103   8.4177607783e+01   5.4115688098e+01    0.4635765    0.2729309  36.38  0.001215833    1.976    0.494
        17 -12.2379      4.7162     87.7577   8.9930571139e+01   5.6857936449e+01    0.9277712    0.5315028 -73.15   0.00471727    1.395    0.283
        18 -12.3460     69.9889    102.3612   7.2276419205e+01   4.7267979108e+01     0.840331     0.671717 -31.48  0.001300359    1.422    0.297
        19  -9.0858    141.8780     86.8890   4.7761179304e+01   3.6908620294e+01     0.228107    0.2095245  18.17 0.0003743683    1.203    0.168
        20 -12.6626     83.1319    107.7478   6.9569971831e+01   4.4052075853e+01     1.154267    0.7872066 -43.58  0.003336326    1.502    0.334
        21  -9.2534    136.7082    199.4905   7.3216630130e+01   1.4058294551e+01    0.2322533    0.1867373 -62.54  0.000659187    1.387    0.279
        22  -8.7769    184.1882    213.1490   6.5770690389e+01   2.8726718097e+00    0.1743477    0.1423571  57.81 0.0003817069    1.311    0.237
        23 -10.1425    132.0660     75.0201   4.6752105261e+01   4.1528608601e+01    0.2253601    0.2220643  18.49 0.0003461574    1.034    0.033
        24  -9.4721    211.6992     71.8044   2.9309800087e+01   2.2219980054e+01    0.4135768    0.2272641  49.69  0.001320732    1.918    0.479
        25  -9.2639    168.0188    191.2863   6.5341076740e+01   9.6552321584e+00    0.2310158    0.1989288 -65.63 0.0001620135    1.342    0.255
        26  -8.5250    220.1077    190.8241   5.4991912843e+01  -2.1464610902e-01    0.1833959    0.1436258  30.30 0.0005325699    1.151    0.131
        27 -10.4891    129.9410     64.0221   4.3871612359e+01   4.4070489579e+01    0.3143735    0.2520386 -14.34 0.0009843865    1.445    0.308
        28  -9.2157    226.9052     67.0618   2.5803596354e+01   1.9260615345e+01    0.2033474     0.187417 -73.14 0.0003478642    1.020    0.019
        29  -9.5885    206.3353     64.5805   2.8271202430e+01   2.4746369912e+01    0.6053208    0.3396207 -57.99  0.002457573    2.073    0.518
        30  -9.0817    181.0282     65.0415   3.2802276861e+01   3.1162814012e+01    0.2384629    0.2164969 -83.09 0.0004294569    1.090    0.083
        31  -9.3653    102.8102     63.1605   5.1207779636e+01   5.0085910383e+01    0.2069825    0.1953192 -66.00  0.000385412    1.170    0.145
        32  -9.0122    222.6761    188.1536   5.4011111021e+01  -2.7360874767e-01    0.3506213    0.1701916  44.30  0.001606982    1.952    0.488
        33  -9.1072    217.6711    208.0670   5.8574629376e+01  -2.3453657425e+00    0.2049075    0.1535307  40.82 0.0005343799    1.246    0.197
        34 -10.1071    130.7608    187.9934   7.2713253382e+01   1.7432314931e+01    0.3042674    0.2237121  89.22 0.0007906287    1.586    0.369
        35 -11.6138    179.2736     52.7381   2.9577288007e+01   3.3605421506e+01    0.4399996    0.3082672  42.34 0.0005054953    1.565    0.361
        36 -14.8125    190.3144    153.6677   5.3344530565e+01   1.2140822837e+01     1.029728    0.8711954  87.42  0.003997653    1.452    0.311
        37  -9.3126    116.9830     55.0128   4.4384433859e+01   4.8585527533e+01    0.2292393    0.1735318  12.59 0.0005975649    1.621    0.383
        38  -9.4224     87.7765    168.5369   7.9441619545e+01   2.9120798639e+01    0.2341661     0.202878 -66.15 0.0003747723    1.233    0.189
        39  -9.3773     59.6727    207.0957   8.9942462138e+01   2.4904059819e+01    0.1701102    0.1299634  88.84 0.0005589675    1.158    0.136
        40 -11.7092     68.0303    144.3158   8.0623046189e+01   3.7666892307e+01    0.6868271    0.4290785  80.68   0.00245125    1.839    0.456
        41  -9.1679    224.2734    213.5218   5.8320081263e+01  -4.2421026389e+00    0.2452785    0.1075674  40.21 0.0006799203    1.990    0.497
        42 -10.1026    183.7632     44.5660   2.6426406292e+01   3.3662668741e+01    0.4003606    0.2644672  52.93   0.00100475    1.485    0.327
        43  -9.2387    174.7102     43.1122   2.7557100730e+01   3.6240595029e+01     0.294492    0.1999389  56.79 0.0006256388    1.389    0.280
        44 -10.2201    195.6350     38.6413   2.2883132000e+01   3.1408556837e+01    0.5911396    0.2488824  48.68  0.002191186    2.609    0.617
        45  -9.2373    155.9533     39.8121   3.0064143820e+01   4.1577019459e+01     0.240049     0.184087  37.12 0.0009869945    1.401    0.286
        46  -9.4829    150.7114     39.0144   3.0871698633e+01   4.3026786396e+01    0.1950905    0.1913258 -40.11 0.0002728308    1.087    0.080
        47  -9.0115    100.9786    139.9834   7.1398814121e+01   3.3503177296e+01    0.3436086    0.1806331 -55.52  0.001374964    1.851    0.460
        48  -8.6044     59.0171    231.4617   9.2080936295e+01   2.0261125577e+01    0.1646077    0.1222125  77.24 0.0002904569    1.105    0.095
        49  -9.7869    173.3323     32.1996   2.4527442911e+01   3.8108413660e+01    0.4885757    0.2191602  49.86   0.00160474    2.201    0.546
        50  -9.7973    206.3164     34.3890   2.0232515288e+01   2.9232272172e+01     0.505027    0.1511168  58.87  0.001740614    2.949    0.661
        51  -9.3517    189.1864     36.8530   2.3352269160e+01   3.3335080151e+01    0.2307044    0.1909718 -74.05 0.0009323955    1.196    0.164
        52 -11.6846    198.8895     27.1960   1.9286612824e+01   3.2085567654e+01     0.765264    0.3684192  55.33  0.002605742    2.006    0.502
        53 -10.4990    177.0400     34.2438   2.4523214234e+01   3.6866914128e+01    0.5579046    0.2562721  44.51  0.001828651    2.513    0.602
        54  -7.6841    137.6435     15.7241   2.5689102293e+01   4.9224940967e+01    0.1486018   0.09326736  38.03 0.0004504176    1.652    0.395
        55  -8.8733    132.1245    230.3724   7.8338335244e+01   9.2631849691e+00     0.173757    0.1614417  61.23 0.0003317889    1.196    0.164
