#   1 NUMBER                 Running object number                                     
#   2 MAG_AUTO               Kron-like elliptical aperture magnitude                    [mag]
#   3 X_IMAGE                Object position along x                                    [pixel]
#   4 Y_IMAGE                Object position along y                                    [pixel]
#   5 X_WORLD                Barycenter position along world x axis                     [deg]
#   6 Y_WORLD                Barycenter position along world y axis                     [deg]
#   7 A_WORLD                Profile RMS along major axis (world units)                 [deg]
#   8 B_WORLD                Profile RMS along minor axis (world units)                 [deg]
#   9 THETA_WORLD            Position angle (CCW/world-x)                               [deg]
#  10 FWHM_WORLD             FWHM assuming a gaussian core                              [deg]
#  11 ELONGATION             A_IMAGE/B_IMAGE                                           
#  12 ELLIPTICITY            1 - B_IMAGE/A_IMAGE                                       
         1 -13.0146    156.9441     85.3101   5.5352977239e+01   3.3538324669e+01     1.596627    0.8733606 -51.04  0.006713133    1.926    0.481
         2 -11.3211     21.0293     15.3127   7.5367064170e+01   7.0765426435e+01    0.5446244    0.3094584  -7.35  0.003069931    1.917    0.478
         3 -10.8814     14.5818     22.8113   8.2317535171e+01   7.0382461128e+01     0.364336    0.1830521 -22.00  0.001934885    2.057    0.514
         4 -11.3967     99.6103     22.7366   4.9070040582e+01   5.5969326281e+01    0.5715772     0.312289  34.13  0.002758091    2.024    0.506
         5 -11.5908    193.1838     25.1171   3.4528076469e+01   3.4120482478e+01    0.4469045    0.1604754 -43.55  0.002010091    2.511    0.602
         6 -12.1946    128.8142     18.9568   4.1703728587e+01   4.9699393709e+01    0.2914374    0.2189227  43.49 0.0003323497    1.348    0.258
         7 -12.2568    165.0231     22.9996   3.7330097344e+01   4.0784225062e+01    0.4209595    0.2638246  87.96            0    1.581    0.367
         8 -10.8749     60.8936     14.0045   5.7043181571e+01   6.4777234990e+01    0.4113316    0.3228809 -79.62  0.002365247    2.369    0.578
         9 -10.0586     32.5204      1.4572   6.2588673305e+01   7.0828892460e+01    0.2342828    0.0963732  43.39  0.001209197    2.197    0.545
        10 -10.1521     15.0746     13.8236   7.7941304667e+01   7.1643990955e+01    0.2315067    0.1538011 -19.51 0.0009720303    1.289    0.224
        11 -10.5186     15.9315      5.5846   7.3338131824e+01   7.2620585345e+01    0.3612631    0.2590622 -26.22   0.00255785    1.401    0.286
        12 -10.8581     12.1990      2.2288   7.3719923754e+01   7.3459539816e+01    0.2590635    0.1574475  -0.72  0.001350538    1.505    0.335
        13 -11.5618     21.7424      5.5506   7.0121916392e+01   7.1906293350e+01     0.520362    0.3625385 -39.96  0.002661961    1.925    0.481
        14 -11.2013     27.1154      2.8804   6.5946437687e+01   7.1476076891e+01    0.2796655    0.2078289  42.25  0.001912515    1.620    0.383
        15 -12.2323      4.6730     18.2879   8.6053168969e+01   7.1978078507e+01    0.4331822    0.3664058  55.07  0.002985601    2.200    0.545
        16 -10.9160      9.6096     15.9656   8.2094688815e+01   7.1892756036e+01     0.300971    0.1720623 -11.50  0.001097698    1.687    0.407
        17 -10.8581     33.4360     16.4849   6.9608124266e+01   6.8999431885e+01    0.4260085    0.2138349  18.90  0.001620953    2.258    0.557
        18  99.0000     43.7755      8.6867   6.1214434287e+01   6.8317222809e+01    0.7161251    0.5320423 -63.52  0.003966211    2.998    0.666
        19 -10.7407     47.8443     15.5095   6.2721005830e+01   6.6903227260e+01    0.5565418    0.2946052  -2.89  0.002608293    2.776    0.640
        20 -11.2942     39.8059     11.1201   6.4101754382e+01   6.8690625801e+01     0.355818    0.2581293  62.57  0.001882135    2.456    0.593
        21 -11.4217     40.0850     15.6180   6.6112547719e+01   6.8127799642e+01    0.2920356    0.2219868  26.08 0.0006098458    1.146    0.128
        22 -10.5803     70.5756     13.7162   5.3672480961e+01   6.2960670967e+01    0.2822571    0.1860393   6.46  0.001333963    1.736    0.424
        23 -11.1950     77.7678     11.0238   5.0395261972e+01   6.1775369999e+01    0.5205261     0.181481  53.70  0.001821461    2.344    0.573
        24 -10.5031    118.2801     10.8392   4.1031775297e+01   5.2910186318e+01    0.3775748    0.1636198 -32.63  0.001797738    2.547    0.607
        25 -12.3515    128.5959     11.3172   3.9393197204e+01   5.0482493189e+01    0.4004093     0.276127 -83.65 0.0005039885    1.615    0.381
        26 -10.9178    157.2173     11.9337   3.5439058500e+01   4.3750651864e+01    0.2529303    0.1492023 -48.02  0.001097103    1.766    0.434
        27 -10.2434    100.3668     12.4335   4.5201620639e+01   5.6817850907e+01    0.1929294    0.1211513 -23.72 0.0005902063    1.849    0.459
        28 -11.6536      8.7881      9.0791   7.9293388465e+01   7.2946731535e+01    0.4410701    0.2549003  17.85  0.001736789    1.534    0.348
        29 -10.6982    233.8271     10.8574   2.8111995268e+01   2.7231398587e+01    0.1688016    0.1011143 -65.40  0.001081977    1.341    0.254
        30 -10.8167    177.2689     10.5177   3.2784004419e+01   3.9283705100e+01    0.2731473    0.1440677  56.65   0.00145187    1.886    0.470
        31 -10.1912    138.1358     10.9144   3.7775645484e+01   4.8296900713e+01    0.1920808    0.1510881 -81.54 0.0004433208    1.277    0.217
        32 -10.8231    240.9766      9.7049   2.7431099966e+01   2.5977170219e+01    0.1577151    0.1118806 -77.49 0.0004073758    1.102    0.092
        33 -10.8081    164.1096      9.1477   3.3886231262e+01   4.2424776816e+01    0.2239129    0.1785498 -76.74 0.0004211088    1.152    0.132
        34 -10.4587    164.5505      5.5002   3.2913427326e+01   4.2666042323e+01    0.2287333    0.1689029 -64.23 0.0006108923    1.315    0.240
        35 -11.3544    146.1447      7.1046   3.5564434903e+01   4.6775715649e+01    0.4411782    0.2662777  52.22  0.002478476    1.597    0.374
        36 -11.5874    148.5694      2.2332   3.3918029455e+01   4.6636673057e+01    0.3915687     0.252312  73.96  0.001367938    1.286    0.223
        37 -12.7583    213.6609      5.6764   2.8524577885e+01   3.1857041895e+01    0.7225972    0.3851789 -74.85  0.004175721    1.702    0.413
        38 -11.2910    190.4213      6.9958   3.0696425765e+01   3.6697594204e+01    0.4185555    0.3093659 -70.15  0.002771193    1.170    0.145
        39 -11.3316    194.7615      2.1044   2.9245804733e+01   3.6230040011e+01    0.4233822    0.1784947  84.15  0.002077516    2.225    0.551
        40 -10.8739    156.0580      6.4228   3.4127793796e+01   4.4537410258e+01    0.2026373    0.1710884  25.49 0.0007352766    1.557    0.358
        41 -10.2633     72.9931      5.9813   4.9696290031e+01   6.3190598505e+01     0.274526    0.2095192 -70.06  0.001639862    2.057    0.514
        42 -10.2597     74.4919      2.3616   4.7760765139e+01   6.3183484107e+01    0.2341835    0.1801769  80.34 0.0009326181    1.669    0.401
        43 -12.0101    233.2385      5.5894   2.7164247317e+01   2.7919780333e+01    0.2981093    0.1419696  58.42  0.001662502    2.538    0.606
        44 -11.4062    179.0409      4.1894   3.1108015745e+01   3.9500588149e+01    0.2212948    0.1763862 -85.06 0.0002740788    1.027    0.026
        45 -10.8833     98.4377      3.9138   4.2562268683e+01   5.7965537427e+01    0.3117828    0.2280904  51.27  0.001248683    1.130    0.115
        46 -10.8828     67.9603      3.8039   5.0267092473e+01   6.4375902370e+01    0.2320465    0.1784842  42.38  0.001001476    1.067    0.063
        47  -9.7446     61.7383      5.2358   5.2872077001e+01   6.5457457933e+01    0.1620437    0.1107166  29.48 0.0003949472    1.273    0.214
        48 -11.2076    203.1710      3.2026   2.8809368819e+01   3.4314572045e+01    0.3646168    0.2668843  64.18   0.00245859    1.471    0.320
        49 -10.3531    126.3708      2.8763   3.7162747267e+01   5.1719235936e+01    0.2234793    0.1652097  26.23 0.0004861217    1.648    0.393
        50 -11.0733    243.0332      2.9808   2.6092848170e+01   2.6316786242e+01    0.1756086    0.1263907 -69.63 0.0007934555    1.013    0.013
        51  -9.5487     81.6389      5.8472   4.7254286742e+01   6.1426929906e+01    0.1552576    0.1098779 -33.04 0.0006007742    1.684    0.406
        52  -9.6201    118.2096      3.6439   3.8723823140e+01   5.3533213338e+01    0.1754431   0.09198621  58.64 0.0003296848    1.536    0.349
        53 -10.7056     90.3816      6.7518   4.5420320310e+01   5.9495002435e+01    0.4700727    0.1659469  53.26   0.00211796    2.163    0.538
        54 -10.1148    230.5263      1.5020   2.6572629263e+01   2.8881780994e+01    0.1109124   0.08516287 -75.74 -1.352809e-05    1.063    0.059
        55  -9.3511     82.3597      1.2375   4.5238533873e+01   6.1640744339e+01     0.128364     0.070168  41.06   0.00060018    1.588    0.370
        56 -12.3996     36.7998    164.6722   1.0710746459e+02   3.6184146445e+01    0.9665087    0.5734649 -74.87  0.004663563    1.563    0.360
        57 -11.6203     89.0433    249.4290   1.0408586901e+02   9.5332424793e+00    0.3211696     0.245097  39.46 0.0007731722    1.137    0.121
        58 -10.2206     72.4799    250.1600   1.0771134669e+02   1.1644749255e+01    0.2166514    0.1696607  14.32 0.0009733937    1.598    0.374
        59 -11.8067      5.2181    236.0687   1.2056920221e+02   2.2351847824e+01    0.5462729     0.373244  51.27  0.003640634    1.251    0.201
        60 -13.1610     19.2141    237.3975   1.1784303658e+02   2.0675426158e+01     1.496236    0.4649125  55.19  0.006316259    2.953    0.661
        61 -13.2276      6.0278    245.2607   1.2087631125e+02   2.0361613517e+01    0.9346391    0.5436124  36.20  0.005056036    1.654    0.395
        62 -12.6346     22.0467    249.0408   1.1797864170e+02   1.7953017101e+01    0.8802336    0.2444279  33.74  0.003843712    3.019    0.669
        63 -11.1552     17.2435    247.3931   1.1882302658e+02   1.8796079453e+01    0.2769967    0.1698871  45.19 0.0009572934    1.382    0.276
        64 -13.0708     49.8705    161.6537   1.0296969971e+02   3.5475825775e+01    0.4736621     0.353545  76.42 0.0007152729    1.425    0.298
        65  -9.2945    177.2749    168.6834   7.0777137216e+01   1.2107947182e+01    0.1401635    0.1179345 -81.24 0.0002220906    1.566    0.361
        66 -11.3179     44.5588    162.7220   1.0464733505e+02   3.5826593807e+01     0.403278    0.2337162 -67.60   0.00131087    1.572    0.364
        67 -10.1820      4.6938    168.9753   1.1625657094e+02   3.8004831610e+01    0.1848504    0.1425213 -84.48 0.0005971765    1.076    0.070
        68  -9.3011     99.4291    164.5728   8.9322418667e+01   2.7424174457e+01    0.1501935    0.1474274 -81.57 9.969632e-05    1.007    0.007
        69  -8.9535    200.5188    162.5144   6.4724152460e+01   9.1625957124e+00    0.1420204    0.1293577 -34.58 0.0002609778    1.054    0.051
        70  -9.7082      9.1846    162.3602   1.1447991351e+02   3.9319319585e+01     0.179858    0.1080028  40.20 0.0009511599    1.745    0.427
        71 -12.8686     21.0204    157.5531   1.1070632441e+02   3.9561989426e+01    0.6320437     0.467881   7.80 0.0008541411    1.711    0.416
        72  -9.5306    216.2166    155.1800   6.0290776089e+01   7.8373639629e+00    0.1793102    0.1532802 -59.00 0.0003124591    1.306    0.234
        73 -10.3110     11.1909    153.4525   1.1303953551e+02   4.1421923987e+01     0.291317    0.1655502  36.36  0.001499549    1.882    0.469
        74  -9.9704    177.1515    150.7024   6.6957729114e+01   1.5918152446e+01    0.2362186     0.195275  71.37  0.001185362    1.507    0.337
        75 -10.2323    207.0581    146.6694   6.0157096807e+01   1.1079667693e+01    0.1872011    0.1821726   1.37 0.0005521893    1.116    0.104
        76  -9.5315     41.1524    146.1603   1.0324321792e+02   4.0525873343e+01    0.1880712     0.154422  69.78 0.0002428645    1.283    0.221
        77  -9.4460     19.3622    146.1650   1.0983826776e+02   4.2631953815e+01    0.1966086    0.1137607 -84.49 0.0005037547    1.694    0.410
        78 -10.0132    220.2807    143.9628   5.7261313137e+01   9.2315481165e+00    0.2003136    0.1587457 -39.51 0.0006235061    1.097    0.088
        79  -9.8004     10.3783    144.4080   1.1229381241e+02   4.3786025055e+01    0.2344423     0.116753  -8.57 0.0009631548    3.338    0.700
        80 -10.3265     54.3935    138.2540   9.7786026891e+01   4.1019346173e+01    0.2928846    0.1249842 -58.58  0.001131258    2.077    0.518
        81 -10.8688     17.2800    137.5563   1.0938048493e+02   4.5012030792e+01    0.3621218    0.2246465  53.05   0.00184132    1.817    0.450
        82  -9.7906     20.8569    135.1351   1.0793911444e+02   4.5342809941e+01    0.2048484    0.1525107 -70.35 0.0009820771    1.164    0.141
        83 -10.8460      9.1417    136.7690   1.1178449037e+02   4.5817639739e+01    0.2611537    0.1548349 -68.09 0.0006910424    1.393    0.282
        84 -10.4342      2.4676    136.7517   1.1380415966e+02   4.6260451426e+01    0.3267746     0.102007 -71.03  0.001288173    2.514    0.602
        85  -9.6151    122.7656    135.0212   7.6530578412e+01   3.0397591851e+01    0.2104954    0.1304705 -49.99 0.0004921143    1.589    0.370
        86  -9.8766    249.2886    134.0638   5.0781562862e+01   6.1500548958e+00    0.1851215    0.1402017 -41.69 0.0005212689    1.072    0.067
        87 -10.9247     54.4313    132.7171   9.6745090555e+01   4.2448638016e+01     0.366359    0.2558224  45.65  0.001138309    1.557    0.358
        88 -11.3816     35.9455    130.9718   1.0245680435e+02   4.5020157370e+01    0.4809707    0.2588193 -44.63  0.002162471    1.845    0.458
        89 -11.0382     73.7909    129.2491   8.9786024976e+01   4.0615656358e+01    0.3336409    0.3030652 -59.93 0.0008989535    1.060    0.057
        90 -11.0790     24.2335    126.0408   1.0551119805e+02   4.7386118468e+01     0.254459    0.2076572  32.77 0.0007694353    1.380    0.275
        91 -11.5131     17.8995    125.6552   1.0754221190e+02   4.8001556362e+01    0.6879514    0.2262795 -44.25  0.002499092    3.166    0.684
        92 -11.0356     10.8881    123.1237   1.0948821221e+02   4.9151971041e+01    0.3254084    0.2843228 -70.93  0.001217171    1.046    0.044
        93  -9.6908    220.1601    124.2049   5.3112397201e+01   1.2903437546e+01    0.1888081    0.1490322 -62.08 0.0005166336    1.314    0.239
        94  -9.4717      2.6998    122.7022   1.1210493931e+02   4.9773065079e+01    0.1344997   0.07992413 -46.09 0.0002305698    1.577    0.366
        95 -10.6101     72.7050    117.7918   8.7550540692e+01   4.3653967024e+01    0.4106829    0.2163412 -70.40  0.001378006    2.698    0.629
        96  -9.8619      1.4213    118.9698   1.1205494349e+02   5.0774865919e+01    0.1970817     0.106475 -71.26 0.0003401579    1.530    0.346
        97 -10.0904     13.9692    125.7687   1.0884553969e+02   4.8267462406e+01     0.210792    0.1816961 -72.83 0.0008940691    1.047    0.044
        98  -9.6757    179.1716    116.2172   5.8614106568e+01   2.2635019273e+01     0.204505    0.1719357 -74.36 0.0006362003    1.300    0.231
        99  -9.7256     85.5746    116.4873   8.3035753587e+01   4.1862256461e+01    0.1537036    0.1438648 -32.43 9.972265e-05    1.048    0.046
       100  -9.7966    214.0276    115.4926   5.2211821753e+01   1.5659003802e+01    0.1872052     0.138991  53.02 0.0004610033    1.516    0.340
       101 -11.1357    249.4737    112.4287   4.6489828542e+01   9.7745410107e+00    0.2510644    0.1852655 -57.27 0.0006292047    1.255    0.203
       102 -10.1519     94.8943    112.3595   7.9043655430e+01   4.1179644310e+01    0.2660051    0.2154275 -61.31  0.001087365    1.304    0.233
       103 -11.1262     15.3682    116.7696   1.0705583521e+02   5.0433636239e+01    0.4578863    0.2312511 -50.34   0.00162251    1.707    0.414
       104 -11.6921     37.1026    110.5414   9.8294047922e+01   5.0082980827e+01    0.4415396    0.3275232  60.86  0.001601272    1.676    0.403
       105 -10.5709     37.0445    103.2349   9.6781524829e+01   5.1884737045e+01    0.3314866    0.2737787  83.38  0.001841868    1.467    0.318
       106 -11.6401     55.1260    109.3822   9.1610515576e+01   4.8249464796e+01    0.4820539    0.2657824 -47.65  0.001438958    1.666    0.400
       107 -12.2279     14.4427    109.2915   1.0618536105e+02   5.2360472313e+01     0.506597    0.3274122   8.87  0.002726473    1.826    0.452
       108 -10.7856      1.9834    107.6098   1.1033623356e+02   5.3543632668e+01    0.4542324    0.1344029 -64.30  0.001836781    2.444    0.591
       109  -9.1103     82.6557    108.2822   8.1906726429e+01   4.4326843956e+01    0.1512135    0.1194765  71.46 0.0007013726    1.638    0.389
       110  -9.5555     70.4164    108.2355   8.6005267188e+01   4.6337415774e+01    0.2114241    0.1420078 -63.59 0.0009566772    1.618    0.382
       111 -11.4735     23.7884    106.1762   1.0226215803e+02   5.2409377363e+01    0.3278921    0.2931856  55.30  0.001245691    1.302    0.232
       112  -9.9112    243.5517    104.4993   4.5664370211e+01   1.2114490728e+01    0.1298742    0.1058234 -50.11 0.0001211129    1.006    0.006
       113 -10.8687    120.0540    101.3899   6.8683242811e+01   3.8613849816e+01      0.64267    0.3082374 -29.67  0.002054684    3.307    0.698
       114  -9.6607     31.6720    103.6951   9.8869875284e+01   5.2310087112e+01    0.1465714   0.09157149 -33.37 0.0007035591    1.651    0.394
       115  -9.9049     25.9611    102.2997   1.0070946002e+02   5.3172200625e+01    0.1915655    0.1750254  89.99  0.000333975    1.226    0.185
       116 -10.9660     19.2848    101.0436   1.0295987673e+02   5.4024514928e+01    0.2859573    0.1684524 -31.56 0.0002769451    1.777    0.437
       117  -9.3009     23.9968     99.2058   1.0082694126e+02   5.4089834790e+01    0.3507756    0.1795071  29.69  0.001448593    2.137    0.532
       118 -11.5204    143.5728     98.2779   6.1807323430e+01   3.4093604891e+01    0.6948099    0.4362719  49.07  0.003067691    1.599    0.375
       119 -11.1463     62.2973     98.7881   8.6444199170e+01   4.9794502316e+01     0.364815    0.3033826   6.64 0.0009678347    1.278    0.217
       120 -10.6074     66.5335     98.4395   8.4837704859e+01   4.9245417141e+01    0.2492023    0.2121981 -13.38 0.0006811925    1.216    0.178
       121 -10.0694     51.0629     99.1958   9.0647395315e+01   5.1232051380e+01    0.2123373    0.1774269 -24.51 0.0003817018    1.184    0.155
       122 -12.3765    226.6506    245.2681   7.5019937767e+01  -8.9272266397e+00    0.6349186    0.3206558  -8.87  0.003003671    2.708    0.631
       123 -11.3635     10.9771     90.6177   1.0415702676e+02   5.7102493303e+01    0.3821448    0.3250792  57.41 0.0008878083    1.452    0.311
       124 -10.0107      5.3194     97.9814   1.0764378227e+02   5.5692781098e+01    0.1849824     0.150603 -53.58 0.0006937453    1.021    0.020
       125  -9.1734    250.3077     95.6843   4.3083518244e+01   1.2375655043e+01    0.1289618   0.08179456 -63.87 0.0005356412    1.630    0.386
       126 -11.0472     37.2740     94.6343   9.4749230416e+01   5.3921479056e+01    0.2678692    0.2325853 -58.64 0.0002542832    1.142    0.125
       127 -10.1112     21.1460     92.6662   1.0057833616e+02   5.5885734349e+01     0.472019   0.06063455 -58.42  0.001408558    4.241    0.764
       128 -10.7140     25.3453     91.3219   9.8639189219e+01   5.5851988234e+01     0.290738    0.2053597 -55.05 0.0009545529    1.236    0.191
       129 -11.2145     22.2535     87.0114   9.8909556173e+01   5.7119187299e+01    0.2873414    0.2608335 -34.80 0.0007817672    1.075    0.069
       130  -9.6255      1.2097     95.9839   1.0885696501e+02   5.6389777940e+01    0.1729084   0.08672837 -67.91 0.0004769161    1.669    0.401
       131  -9.2936    113.4362     93.4740   6.8318774600e+01   4.1686694548e+01    0.1510202    0.1460838  -0.72 0.0001312988    1.046    0.044
       132  -9.3593     31.3616     93.1686   9.6697727603e+01   5.4865659116e+01    0.1869271    0.1219195 -69.24  0.000449361    1.632    0.387
       133 -10.8683     57.4812     90.2512   8.5932792339e+01   5.2444794884e+01    0.4179426    0.2961135  17.87  0.001935919    1.522    0.343
       134  -9.4944     46.5250     92.5251   9.0681353093e+01   5.3361561622e+01    0.1391867    0.1281307 -37.40 3.753791e-05    1.044    0.043
       135 -10.5592     97.0104     89.4442   7.2051240908e+01   4.5885323236e+01    0.3202769    0.1918197  41.61  0.001397549    1.664    0.399
       136  -9.9283     83.0471     88.7277   7.6377384740e+01   4.8670572698e+01    0.2023843     0.186488   8.77  0.000531222    1.070    0.065
       137 -10.8477     78.6021     88.0075   7.7681849171e+01   4.9611364210e+01    0.3618473    0.2498097 -58.40  0.001704114    1.650    0.394
       138 -10.7287      6.4943     82.6210   1.0439009002e+02   5.9233681746e+01    0.3778701    0.2115871 -30.27  0.001996153    1.753    0.429
       139 -10.5401     65.0871     87.5039   8.2345437640e+01   5.1937695522e+01    0.2839403    0.2315542  -2.14 0.0008860717    1.297    0.229
       140 -10.8353     66.3292     83.6406   8.0765669054e+01   5.2583589440e+01    0.3239301    0.2517568  35.67  0.001712786    1.331    0.249
       141 -10.4964     62.4289     82.9305   8.2002229909e+01   5.3338067677e+01    0.2513587    0.2007877  26.39 0.0002966835    1.269    0.212
       142 -10.0902    173.4118     83.7261   5.1713631446e+01   3.0052664546e+01    0.2608943    0.1331481 -43.40 0.0009302058    1.884    0.469
       143  -9.6676    120.9826     86.7350   6.4291342481e+01   4.1423311193e+01    0.2083093    0.1954674  43.50 0.0005466169    1.050    0.048
       144  -9.8777     46.4953     87.5158   8.9388292981e+01   5.4512900097e+01     0.138306    0.1270981 -32.95 5.763567e-05    1.047    0.045
       145 -10.5930     74.1830     82.1267   7.7475582747e+01   5.1618860017e+01    0.3200065    0.1892328 -34.49  0.001422139    1.783    0.439
       146 -11.1863     30.6379     81.8775   9.4264992753e+01   5.7537557193e+01    0.3379453    0.2620793  -5.94 0.0009030652    1.327    0.247
       147 -11.2180      4.4966     85.5131   1.0576085595e+02   5.8679030563e+01    0.6054738    0.1240265 -56.09  0.002279493    2.930    0.659
       148  -9.5293     42.2966     82.6419   8.9734462733e+01   5.6112008035e+01    0.1319051    0.1085445  77.84 0.0007033684    1.702    0.413
       149 -10.6895     15.0388     59.9342   9.5206206044e+01   6.3620886109e+01    0.2151872    0.1608894 -12.32  0.000353494    1.259    0.206
       150 -11.6317      6.7106     41.3760   9.3665556066e+01   6.7868583834e+01    0.9003829    0.1275216 -46.24  0.001589171    3.971    0.748
       151 -12.9861     10.0408     74.9631   1.0127109157e+02   6.0749195055e+01     1.450585    0.6109583  31.95    0.0067398    2.723    0.633
       152 -14.0933     16.6651     67.4802   9.6526071452e+01   6.1914777961e+01    0.5579686    0.4267058 -36.28  0.001686229    1.087    0.080
       153 -11.6637     10.0388     63.4240   9.8472579887e+01   6.3252202436e+01    0.4866509    0.3792045  85.78  0.002229184    1.857    0.462
       154 -11.8216     12.7823     51.6377   9.3842419506e+01   6.5461002406e+01    0.8375329    0.4936124   1.91  0.004155835    1.766    0.434
       155 -10.6682     11.0354     44.7104   9.2522080593e+01   6.6927636690e+01    0.3239061    0.2037941 -51.94  0.001205017    1.523    0.343
       156 -11.9141      6.1922     67.9426   1.0133681691e+02   6.2526911488e+01    0.1905609    0.1579983 -30.26  0.000326364    1.081    0.075
       157 -13.0012      3.1964     63.1497   1.0155450129e+02   6.3725479201e+01    0.7220727    0.3329861 -63.69  0.002624549    2.016    0.504
       158  -9.1017    112.3169     79.7296   6.4600720542e+01   4.4664152487e+01    0.1444953    0.1179987  85.54 0.0001618921    1.559    0.358
       159 -10.0860     61.6297     73.3812   7.9396378307e+01   5.5455793696e+01    0.3483132    0.1173783 -43.73  0.001247264    2.855    0.650
       160 -10.8765     60.9956     78.1805   8.1122916583e+01   5.4563459056e+01    0.5309132    0.3523808  74.34  0.002075586    3.399    0.706
       161 -11.1791     51.6517     62.7427   7.9888928105e+01   5.9035083304e+01    0.4054212    0.3479633  66.30  0.002336139    1.675    0.403
       162 -10.8111     54.0224     74.3325   8.2649700951e+01   5.6383923627e+01    0.3271496    0.2384627  39.61  0.001149013    1.509    0.337
       163 -12.1986     50.3013     68.6581   8.2369126257e+01   5.8060783711e+01    0.4301923    0.3237937 -36.90 0.0008177873    1.234    0.190
       164 -12.7810     44.6771     75.1933   8.6663751247e+01   5.7444017239e+01    0.2739681    0.2598029  -2.44 0.0004550489    1.133    0.117
       165 -10.9535     36.9301     69.2025   8.8119571943e+01   5.9623825689e+01     0.540033    0.3062924  57.44  0.002105304    3.837    0.739
       166 -10.7442     74.8436     75.2995   7.5127593554e+01   5.2900330621e+01    0.3195434    0.2394706  12.94  0.001269083    1.467    0.318
       167  -9.1836     70.2589     76.6757   7.7210246101e+01   5.3403381458e+01    0.1317816    0.1146725 -86.66 0.0006945531    1.553    0.356
       168 -10.7561    163.8927     88.8931   5.4872714165e+01   3.1288532914e+01     0.299297    0.2749853  22.30 0.0008209652    1.270    0.213
       169 -10.5829    207.5215     73.4297   4.3804253764e+01   2.4251794513e+01    0.2194594    0.1947856 -66.41 0.0002039676    1.040    0.039
       170  -9.9237    137.4008     73.8064   5.6446402084e+01   4.0114645330e+01    0.1933389     0.142364 -25.09 0.0001031919    1.592    0.372
       171 -10.9320    105.3189     73.8940   6.4814720821e+01   4.7254046014e+01    0.4132263    0.2046764  51.14  0.001661344    2.075    0.518
       172 -10.5921     93.9810     73.9691   6.8279843034e+01   4.9573805667e+01    0.2212413    0.2080409   8.75 0.0003715452    1.025    0.025
       173  -9.9861    110.0795     73.1200   6.3209996888e+01   4.6377984911e+01      0.21492    0.1911127  13.95            0    1.192    0.161
       174 -12.1555    166.5001     84.0133   5.3092338802e+01   3.1578675574e+01    0.7425435    0.4960211  63.88   0.00252393    1.561    0.359
       175 -11.5089     77.7291     70.0207   7.2411831847e+01   5.3417622349e+01    0.4272502    0.2564238  38.41  0.001270394    1.635    0.388
       176 -10.8997    167.8277     69.9005   4.9171441745e+01   3.3689884579e+01    0.2194236    0.1915515  68.27 0.0003150626    1.116    0.104
       177 -12.2240    122.4883     64.0488   5.7112845926e+01   4.5196610445e+01    0.5269713    0.3311676 -53.87 0.0003403148    1.883    0.469
       178 -10.0071    103.9008     67.6847   6.3266978143e+01   4.8675285328e+01    0.2006203    0.1788219  48.14 0.0004505957    1.105    0.095
       179 -11.8513     43.8378     38.1500   7.4216006701e+01   6.4449527871e+01    0.5337347    0.2813501  45.40  0.002588379    2.358    0.576
       180 -11.7164     35.2993     42.3262   7.9734553660e+01   6.4912421608e+01    0.6380681      0.32263  10.40  0.002820115    2.702    0.630
       181 -11.0833     29.0219     66.0292   9.0612326202e+01   6.1125865462e+01    0.3401158     0.293455 -80.75            0    1.568    0.362
       182 -11.3270     32.9106     64.0094   8.8286533113e+01   6.1135571679e+01    0.4929519    0.3109299  46.05  0.002153379    2.164    0.538
       183 -13.3057     37.2499     49.9790   8.1669120419e+01   6.3329046703e+01     1.075147    0.6789572 -20.90  0.005798892    1.613    0.380
       184 -11.3655     26.8074     55.9498   8.8505018613e+01   6.3376849033e+01    0.4187003     0.217094 -45.79 0.0004176358    1.698    0.411
       185 -11.8967     26.9346     49.7604   8.6381794485e+01   6.4544980330e+01    0.4650771    0.3954471 -56.84  0.001975695    1.474    0.321
       186 -11.2713     94.4491     66.2019   6.5629872334e+01   5.0903414687e+01    0.4773305    0.3034261  25.34 0.0008648262    1.885    0.469
       187 -10.3727     42.5424     68.5103   8.5531389623e+01   5.9102516316e+01    0.2365734    0.2022586 -14.82 0.0006715536    1.050    0.048
       188 -10.7104    153.1533     63.8588   5.0290612691e+01   3.8094961306e+01    0.3002514     0.185049  53.98 0.0006540783    1.561    0.359
       189 -11.6511     14.3607     97.4515   1.0414243221e+02   5.5251716224e+01    0.3333293    0.2147779 -72.87  0.001779938    1.519    0.342
       190 -10.5031     76.4437     63.5751   7.0718807843e+01   5.4846674177e+01    0.2958967    0.2463614   4.05  0.001652893    1.212    0.175
       191 -10.3789    202.0331     61.2494   4.1769013842e+01   2.7321406410e+01    0.2150912    0.1755198 -54.70 0.0005091565    1.126    0.112
       192 -10.9486     84.1629     62.0451   6.7555082319e+01   5.3673717274e+01    0.3855414    0.2166189  28.14  0.001661703    2.083    0.520
       193  -9.2795    113.4484     61.4711   5.8629212438e+01   4.7653645477e+01    0.1413271    0.1350025  57.87 0.0008071092    1.054    0.051
       194  -8.8575    183.3306     60.2811   4.4174835589e+01   3.1636153418e+01    0.1295298     0.105518  34.09  0.000440075    1.606    0.377
       195  -9.3443     98.2650     60.3044   6.2520672355e+01   5.1130139397e+01      0.13882    0.1071995   9.35 0.0006931343    1.526    0.345
       196 -10.4490     69.2867     59.9062   7.2041703584e+01   5.6774435246e+01    0.2666566    0.1798516 -21.18  0.001333146    1.641    0.391
       197  -9.7162     65.3053     60.2933   7.3665217059e+01   5.7380328116e+01    0.1391407    0.1002791  -1.97  0.000699559    1.578    0.366
       198 -11.6590     58.4342     58.8774   7.5836126224e+01   5.8746081642e+01    0.6243774    0.3845234 -11.69  0.002865628    2.173    0.540
       199 -10.7021     55.6239     53.8081   7.5167827652e+01   6.0090211805e+01    0.2974642    0.2199266  -1.59  0.001649334    1.403    0.287
       200 -10.5842    147.4474     57.3245   4.9577360447e+01   4.0453415489e+01    0.3616172    0.2235121 -61.89  0.001635921    2.002    0.500
       201  -9.7533    124.4853     58.0677   5.4782604014e+01   4.5701332610e+01    0.1969622    0.1417427 -36.29 0.0003396296    1.479    0.324
       202 -11.1265     75.1855     56.0811   6.8571162236e+01   5.6389183561e+01    0.2210807    0.2048723   0.40 0.0003101156    1.055    0.052
       203 -12.8786    105.3947     52.6087   5.7916111036e+01   5.0830812014e+01    0.4068596    0.3170839  44.08 0.0005079257    1.190    0.160
       204 -10.1461    131.1401     41.9662   4.8339212079e+01   4.6475790787e+01    0.2722851    0.2098495 -59.23 0.0009433446    1.454    0.312
       205 -10.2147    133.1334     53.6534   5.1464522061e+01   4.4368329289e+01    0.2878424    0.2646582 -11.28  0.001680368    1.235    0.191
       206 -11.6759    128.9297     49.2314   5.1038995993e+01   4.5993236269e+01    0.4928017    0.4015788  -4.91  0.002011779    1.520    0.342
       207  -9.7704    120.1837     52.5459   5.4089262743e+01   4.7529365025e+01     0.263724    0.1799318  33.24 0.0008055031    1.648    0.393
       208 -10.5631     87.7817     51.7385   6.2815846771e+01   5.4671012673e+01    0.2926489    0.1796138 -35.01  0.001272068    1.716    0.417
       209  -9.8026    237.4152     51.6977   3.5739046465e+01   2.1415036909e+01    0.2329146   0.09352764 -43.54  0.001124179    2.052    0.513
       210 -10.2183    168.7486     51.8520   4.4301359068e+01   3.6247479128e+01    0.2470637    0.1663624 -61.37 0.0007669517    1.559    0.358
       211 -10.4817     78.7818     47.1196   6.4104621744e+01   5.7158036902e+01    0.2102231    0.1851171 -20.90 0.0003787935    1.170    0.145
       212 -10.6244     45.6719     49.9566   7.7932433887e+01   6.2226337346e+01    0.3457731    0.2226276 -20.76  0.001835221    1.614    0.381
       213 -10.9730    199.9361     49.5989   3.9364668608e+01   2.9473601761e+01    0.2294676    0.1895536 -68.72 0.0003360375    1.055    0.052
       214 -10.4317     53.1651     49.9341   7.4760515018e+01   6.1138675547e+01    0.2343487    0.1793146  11.98 0.0005725158    1.241    0.194
       215  -9.4581    205.8198     48.6424   3.8440930599e+01   2.8325225653e+01    0.1669367     0.109193  84.96 0.0001170093    1.524    0.344
       216 -10.0310     77.7932     50.6163   6.5711799055e+01   5.6801134301e+01    0.2653728    0.2196869  48.41  0.001297589    1.283    0.221
       217  -9.7497    230.7975     55.5625   3.7176297766e+01   2.2166404976e+01    0.1705644    0.1063526  89.48 0.0009465853    1.703    0.413
       218  -9.3741    142.2977     40.6975   4.5777522195e+01   4.4014465259e+01    0.1893104    0.1070516  61.89 0.0003521583    1.608    0.378
       219 -10.4570    142.9054     45.3451   4.7015930792e+01   4.3251373977e+01    0.2648181    0.2123648 -77.81 0.0004452387    1.343    0.256
       220 -10.3783    139.1351     43.1599   4.7099302529e+01   4.4436661647e+01    0.2326154    0.2170221 -11.88 0.0007046303    1.245    0.197
       221 -10.4116    112.3083     46.1484   5.3960397717e+01   5.0243038213e+01    0.3491232    0.1710184  49.24  0.001088357    1.846    0.458
       222 -10.7257     83.7634     45.3075   6.1800313347e+01   5.6455149512e+01    0.3338845    0.2285423  74.13  0.001542761    2.445    0.591
       223 -10.6879    100.4973     36.1197   5.3593996670e+01   5.4209814376e+01    0.2639013    0.2277709 -80.82  0.001249002    1.439    0.305
       224 -10.9246     95.4596     43.6018   5.7622446566e+01   5.4292277692e+01    0.3852538    0.2303848  -8.57 0.0009852344    2.558    0.609
       225 -10.7848     91.1020     41.9493   5.8311178927e+01   5.5440600409e+01    0.4660217    0.2595706 -50.12   0.00209874    2.426    0.588
       226 -11.4254     72.5114     42.9898   6.4734067525e+01   5.8966355827e+01    0.3335077    0.2907248 -76.77  0.001128836    1.675    0.403
       227 -11.3291     67.1215     41.5367   6.6122943043e+01   6.0165968230e+01    0.5514206     0.270811  35.69  0.002545427    1.952    0.488
       228 -11.0372     70.1200     36.4598   6.3070777561e+01   6.0348896291e+01    0.5220106    0.2357732 -26.18  0.001726554    2.671    0.626
       229 -11.0071     81.2233     35.2728   5.8885593139e+01   5.8364712800e+01    0.6605917    0.2627334 -45.06  0.002557012    3.448    0.710
       230 -11.7045     74.5833     36.2493   6.1441087182e+01   5.9535316326e+01    0.4627019    0.2932829  18.82  0.001796265    1.848    0.459
       231 -10.8515     23.8078     41.3384   8.4894612104e+01   6.6395705801e+01    0.6417952    0.4017453  53.61  0.003074185    3.273    0.694
       232  -9.9579     18.4450     42.5199   8.8008280180e+01   6.6708992032e+01    0.2154351    0.1565948 -28.37 0.0005938426    1.144    0.126
       233 -12.8278     27.7107     38.0520   8.1719532620e+01   6.6538420216e+01    0.5278146    0.3280661 -10.83  0.001324532    1.667    0.400
       234 -11.7442     24.4852     34.9857   8.2123214867e+01   6.7408948861e+01    0.3372782    0.2132633   5.35 0.0008913521    1.555    0.357
       235 -10.1202    148.5017     40.9643   4.4734772042e+01   4.2512060789e+01    0.3019924     0.114685 -40.02  0.001212311    2.667    0.625
       236 -11.4796     52.8908     40.7492   7.1374700777e+01   6.2681883053e+01    0.4095267    0.2636325  37.80  0.001131329    1.520    0.342
       237 -12.9472     57.5404     34.6094   6.7040880716e+01   6.2838829082e+01    0.3260798     0.278408  -4.18 0.0004111383    1.097    0.089
       238 -10.5889    152.6375     39.0433   4.3486303185e+01   4.1782296804e+01    0.2362371    0.1973172  85.27 0.0005237491    1.123    0.109
       239 -10.0334    107.2216     42.6484   5.4085261354e+01   5.1866050347e+01    0.2528477    0.1542181  46.12 0.0007921166    1.496    0.332
       240 -11.0796    225.2625     38.2244   3.4173262092e+01   2.5648868744e+01    0.2230736     0.173591 -80.39 0.0003410004    1.101    0.092
       241  -9.5761     85.8736     38.8606   5.8771513499e+01   5.6944546321e+01    0.1622328    0.1497019  59.72            0    1.223    0.182
       242  -9.9726      1.5690     37.8487   9.5245830553e+01   6.8861124832e+01    0.1861295    0.1067418 -38.11 0.0006309781    1.375    0.273
       243  -9.6164    172.0059     36.1748   3.9771751314e+01   3.7599174170e+01    0.2164843    0.1281469  45.74 0.0009811312    2.011    0.503
       244  -9.7021    134.4695     35.9804   4.5855735993e+01   4.6460681980e+01    0.1939429    0.1346331 -32.28  0.001035449    1.603    0.376
       245 -11.1741      8.0446     33.4657   9.0198966907e+01   6.9201883682e+01    0.4208975    0.3097613 -54.75  0.002760167    1.598    0.374
       246 -10.5518      1.4821     25.8998   9.1051358809e+01   7.0983767778e+01    0.2271765    0.0939251 -39.95 0.0003895822    1.929    0.482
       247  -9.8064     12.7498     33.5850   8.7695596480e+01   6.8795506075e+01    0.1863779    0.1343479  36.51 0.0006928866    1.818    0.450
       248 -11.3055     17.3791     31.1752   8.4283965821e+01   6.8774367858e+01    0.3554623    0.2103919  20.12  0.002118798    1.619    0.382
       249 -12.4480    232.6393    245.0770   7.3910136517e+01  -9.6023600127e+00    0.5120381    0.2225662 -31.47  0.002669117    2.123    0.529
       250 -11.7046     22.6789     25.6462   7.9185165296e+01   6.9091685868e+01    0.3240345    0.2382079 -12.34  0.001081285    1.135    0.119
       251 -10.4370     24.3866     21.1774   7.6315981859e+01   6.9550438866e+01    0.2702104    0.1906707 -48.87  0.001603996    1.984    0.496
       252 -11.1689      7.8275     25.0350   8.7055503479e+01   7.0644702435e+01    0.4709924    0.1507356  21.66   0.00214403    3.095    0.677
       253 -12.0552     36.9970    243.7791   1.1462803302e+02   1.7377067827e+01    0.6764489    0.3182662 -87.77  0.002928193    2.325    0.570
       254 -10.2110    108.6217     34.3142   5.0909123941e+01   5.2634399238e+01    0.2165079    0.1937763  84.46 0.0004776904    1.236    0.191
       255  -9.9957     93.7818     34.6977   5.4918957992e+01   5.5840583829e+01    0.2159035    0.1428968  41.81  0.000980754    1.364    0.267
       256  -9.4135    201.5316     34.4558   3.5748618944e+01   3.1142777529e+01    0.1268475    0.1047691 -77.81 5.850708e-05    1.003    0.003
       257  -9.2428     84.6919     34.7243   5.7596157360e+01   5.7735144617e+01     0.134197   0.09194329  24.21 0.0002532038    1.551    0.355
       258 -11.2163    221.7361     32.1766   3.3259220892e+01   2.7143856672e+01    0.2177438    0.1655846 -69.19 0.0003009077    1.064    0.060
       259 -10.0203    205.7546     32.2712   3.4821061774e+01   3.0500271990e+01     0.150232    0.1375419  70.16 0.0003142052    1.309    0.236
       260  -9.7387    189.6559     32.2689   3.6576076479e+01   3.4048661799e+01    0.1333057   0.08357329 -74.17 0.0006988673    1.611    0.379
       261 -10.1423    166.6028     32.2079   3.9504807351e+01   3.9348320659e+01    0.1635718    0.1291833 -17.52 0.0006154484    1.647    0.393
       262 -10.0415     44.2659     31.0423   7.1107685023e+01   6.5458876856e+01    0.2348942    0.1460711 -21.88 0.0009507011    1.625    0.385
       263 -12.6837    101.0894     28.7158   5.0830482450e+01   5.4979462489e+01       0.5337    0.3457568  53.30 0.0009452523    1.353    0.261
       264 -10.4544     90.2032     20.5875   5.0690849216e+01   5.8236417343e+01    0.4590902    0.2160855  63.03  0.002056428    2.288    0.563
       265 -10.5123    250.0096    246.6977   7.1152671640e+01  -1.1750551021e+01    0.1625978    0.1179111  -1.91 0.0008869887    1.080    0.074
       266 -10.4044     94.0013     22.3250   5.0337125329e+01   5.7237168030e+01    0.2867015    0.2138498  68.23 0.0009217184    1.431    0.301
       267 -10.0618     48.7522     31.2561   6.9256552500e+01   6.4743051330e+01    0.2498902    0.1874492   6.02  0.001531788    1.234    0.189
       268 -10.6946     50.2811     27.7413   6.7126591553e+01   6.4985614632e+01    0.2770679    0.1645066  16.96  0.001364793    1.855    0.461
       269 -10.9274    111.4817     27.6111   4.7970555028e+01   5.2778546086e+01    0.3724884    0.2304164 -10.08  0.001122039    2.200    0.545
       270 -10.3519    237.3380     29.3844   3.1379645226e+01   2.4370718234e+01    0.1538854    0.1372465  47.45  0.001099078    1.673    0.402
       271 -11.1267     69.6271     26.7355   5.9366125870e+01   6.1707861064e+01    0.4663542    0.2704785  23.82  0.001705272    1.944    0.486
       272 -10.9048     60.0624     27.2159   6.3016529952e+01   6.3400869461e+01    0.2221036    0.1765962 -34.10  0.001385562    1.444    0.307
       273  -9.1651    234.3326     27.3028   3.1216272668e+01   2.5215138663e+01     0.101372   0.08908951  49.97 0.0002451231    1.656    0.396
       274 -10.1254     72.7456    245.4190   1.0720129596e+02   1.2568429615e+01    0.2488977    0.1722002  34.18  0.001085496    1.353    0.261
       275 -10.8422    132.5930     25.6384   4.3072850256e+01   4.8111006784e+01    0.2694354    0.2301817  41.01  0.001072944    1.236    0.191
       276 -13.1759     74.7923    237.5840   1.0596759609e+02   1.3920044011e+01    0.8188543    0.6646095  69.29  0.005050539    1.172    0.147
       277 -10.5171    128.2915     26.6752   4.4187712111e+01   4.9003680416e+01    0.2229545    0.1668047  73.65 0.0002369363    1.268    0.211
       278 -10.7362    128.8026     23.4210   4.3084090436e+01   4.9238787285e+01    0.3195967    0.2285486  63.19  0.001296129    1.215    0.177
       279 -10.3680    214.3678     25.8400   3.2613693652e+01   2.9453651375e+01    0.2077345    0.1527786  76.85  0.000536092    1.290    0.225
       280 -10.1751    204.0519     26.0174   3.3622898779e+01   3.1631239464e+01      0.20969    0.1184432 -66.01 0.0007493899    1.703    0.413
       281  -9.4513    143.9947     26.2293   4.1290512046e+01   4.5362323910e+01    0.1891034    0.1298715 -62.18 0.0006386415    1.619    0.382
       282 -10.7537     88.8065    241.4706   1.0327468608e+02   1.1164933921e+01    0.2455036    0.1592776 -43.71  0.001293769    1.936    0.483
       283 -10.6839    185.6605     22.8835   3.4821439960e+01   3.6062238345e+01    0.2291672    0.1561292  87.00 0.0006013766    1.313    0.238
       284  -9.8647    106.6296     23.0938   4.7531128187e+01   5.4369364805e+01    0.1918107    0.1580967 -55.00 0.0005019857    1.442    0.306
       285  -9.9448     85.2987     22.9297   5.2936672245e+01   5.9020102325e+01    0.2912612    0.1812945  67.55  0.001479025    1.956    0.489
       286 -10.1078    109.5399    242.9082   9.8847970741e+01   7.8823285226e+00    0.2525706    0.1519045  48.31 0.0006091006    1.581    0.367
       287 -10.9998     59.1104     21.6137   6.0999484698e+01   6.4257897039e+01    0.2902907    0.1908098 -17.62 0.0009389176    1.609    0.378
       288  -9.5741    226.3196     22.0404   3.0823398821e+01   2.7445068467e+01    0.1602614    0.1256392 -71.57 0.0005137714    1.025    0.024
       289 -10.5402     67.3908     21.4379   5.7954144125e+01   6.2755277922e+01    0.3347761    0.1646004  52.10  0.001127956    1.982    0.495
       290  -9.8689    120.3993     20.3757   4.3712925824e+01   5.1510218571e+01    0.2830963     0.111412 -34.12  0.001234941    2.733    0.634
       291  -9.8474    195.2031    238.8238   7.9955248220e+01  -3.9266808362e+00    0.1833255    0.1308552  -6.25  0.001077508    1.355    0.262
       292 -10.9195    244.2846    237.1465   7.0566071443e+01  -9.8174121983e+00    0.2077643    0.1594134 -17.57  0.001176931    1.122    0.109
       293 -11.4492     29.8235    232.9891   1.1535203824e+02   2.0485547060e+01     0.338887     0.241173 -74.91  0.002113561    1.393    0.282
       294 -10.3890    159.7253    236.0075   8.6854581369e+01   1.6602995188e+00    0.1799895    0.1630718  -2.93 0.0004229828    1.087    0.080
       295  -9.7090    177.3218    235.3254   8.3025631736e+01  -8.1927940550e-01    0.1362741   0.09178735  -4.42 0.0007047402    1.683    0.406
       296  -9.4567    221.4687    234.5411   7.4204131604e+01  -6.7122462278e+00    0.1250515   0.09675343  -5.34 0.0001782648    1.049    0.047
       297 -10.6518     86.5133    233.4710   1.0288563255e+02   1.3157607581e+01    0.2546004   0.09474465  43.44  0.001027441    2.346    0.574
       298 -10.1267     38.2219    232.8323   1.1355040312e+02   1.9570232901e+01    0.1846285    0.1404596  68.66 0.0004897132    1.120    0.107
       299 -10.8272    159.5208     23.5059   3.8204021833e+01   4.2012774112e+01    0.3033928    0.2291011 -61.70  0.001287738    1.334    0.250
       300  -9.9771    139.4847     19.5437   4.0082915601e+01   4.7140709786e+01    0.2436094    0.1620544  57.88  0.001119305    1.328    0.247
       301 -10.1672     23.9627    232.5486   1.1655311510e+02   2.1216777966e+01    0.2063665    0.1515404 -65.84 0.0006332483    1.483    0.326
       302  -9.7019    152.2077    229.7978   8.7525400966e+01   3.9527195744e+00    0.2202245    0.1442057  67.77 0.0009544421    2.822    0.646
       303  -9.3970     98.3100    242.3148   1.0126488617e+02   9.6361075110e+00     0.125133    0.1008361  -9.34 0.0003308724    1.633    0.387
       304 -11.1411      4.5889    226.6178   1.2019271554e+02   2.4440514144e+01    0.3072833     0.181939  59.01  0.001859721    1.403    0.287
       305 -11.0979    120.8440    226.3389   9.4082611953e+01   9.5213574086e+00    0.2228894    0.1937473 -81.33 0.0008590201    1.336    0.252
       306 -11.6782    238.1760     17.8347   2.9122850824e+01   2.5594022500e+01    0.2164201    0.1564988 -67.29  0.000259637    1.052    0.050
       307 -11.1697    108.0518     17.6618   4.5342525084e+01   5.4604388003e+01    0.3158889    0.2063446  40.41  0.001754545    1.480    0.324
       308  -9.1283     54.4902     18.9622   6.1609636404e+01   6.5380395187e+01    0.1451027    0.1048782 -54.15 0.0008046695    2.285    0.562
       309  -9.8007     82.3776     17.8866   5.1814308761e+01   6.0160801129e+01    0.1684024    0.1438673  19.04 0.0004506785    1.145    0.127
       310 -10.0224    194.9779     16.9723   3.2504631197e+01   3.4647829963e+01    0.1799186    0.1460667 -83.47 -0.003769674    1.015    0.015
       311 -10.0481     75.0183     16.3027   5.3357337234e+01   6.1820729290e+01    0.3742986    0.1649141  50.58  0.001282897    1.918    0.479
       312  -9.2627    190.3316    226.3391   7.8866444700e+01  -1.1585108693e+00    0.1396432   0.09138489  -6.09 0.0007051791    1.743    0.426
       313  -9.8711     65.9810    226.3271   1.0678643107e+02   1.7548749996e+01    0.1872839    0.1562199  46.47  0.000626834    1.109    0.098
       314 -10.5474     21.1842    221.7840   1.1640648445e+02   2.3886266569e+01    0.2469039    0.1216477  82.72 0.0009550566    2.051    0.512
       315  -9.4559    170.0158    229.0241   8.3544435993e+01   1.3761469818e+00    0.1606233    0.1419468   3.18 0.0004142304    1.030    0.030
       316  -9.5323     25.6712     14.6820   7.2618226467e+01   7.0275924225e+01    0.1233674   0.07496056   1.06 0.0007046796    1.683    0.406
       317  -9.2677    176.3277    219.3108   8.0578927685e+01   2.1905265038e+00    0.1410524   0.09762475  -4.81 0.0007041005    1.663    0.399
       318 -11.1635     10.0855    217.3358   1.1850028192e+02   2.5985781665e+01    0.3107437    0.2048714  42.35  0.001818102    1.441    0.306
       319  -9.7666    116.3222     15.3300   4.2864667657e+01   5.2946474697e+01    0.2053206    0.1586767  45.64  0.001249876    1.215    0.177
       320  -9.7084     31.0713     12.6772   6.8932813321e+01   6.9803429029e+01    0.1602759    0.1189999  16.63 0.0005387792    1.099    0.090
       321  -9.9726     38.0161    217.5246   1.1233816052e+02   2.3022645821e+01    0.1879249    0.1186384  35.16 0.0009293871    1.561    0.359
       322 -11.4652     29.4131    215.9011   1.1415016233e+02   2.4355380327e+01    0.3035001    0.2671385 -13.71  0.001239974    1.588    0.370
       323 -11.6297    235.9279    214.3055   6.8107162263e+01  -5.4150266496e+00    0.2387584    0.1518434 -27.54  0.000523618    1.339    0.253
       324  -9.5938    136.6271    215.7105   8.8815769677e+01   9.2228972828e+00    0.1458431    0.1066665  -2.65   0.00070218    1.722    0.419
       325  -9.4008     65.6314     11.7320   5.4430548420e+01   6.4114027000e+01     0.131427   0.07588641  29.87 0.0006993363    1.662    0.398
       326  -9.7970     74.0052    215.9871   1.0376048778e+02   1.8793161192e+01    0.1670395    0.1488416  59.57 0.0005482165    1.013    0.013
       327 -10.4880     21.5528    212.7271   1.1567045869e+02   2.5914018329e+01    0.2391102    0.1149141  51.51  0.001188267    1.872    0.466
       328  -9.4613    208.5359    211.9745   7.2740301922e+01  -1.3142704191e+00    0.1930289    0.1155986 -35.50  0.001007811    1.548    0.354
       329 -10.3737     10.7935    208.5310   1.1777299381e+02   2.7933895663e+01    0.2371428    0.1767868 -48.94 0.0005815076    1.671    0.402
       330 -12.1227      5.0400    208.0475   1.1901106289e+02   2.8567319441e+01    0.5404469    0.3263996  80.60  0.003126144    1.431    0.301
       331  -9.0237    107.4776     10.5265   4.3011481660e+01   5.5397995720e+01    0.1278826    0.1055827  53.08  3.12658e-05    1.040    0.038
       332  -9.1438    188.2643    205.3330   7.5595162468e+01   2.9325749541e+00    0.1394802   0.09738754 -12.64 0.0003235842    1.579    0.367
       333 -11.2016     16.9428    193.1412   1.1520928136e+02   3.1011051206e+01    0.4152855    0.2909973  73.01  0.002422215    1.282    0.220
       334 -10.7200     19.9996    204.3074   1.1538075105e+02   2.8040233343e+01    0.2751292    0.1545481 -84.24  0.001333632    1.618    0.382
       335 -10.4058     20.1827    199.9654   1.1499356883e+02   2.9055479962e+01     0.298895    0.1265985 -60.09  0.001362567    2.265    0.558
       336 -10.8364    245.0844    202.8454   6.4492212669e+01  -4.7732897387e+00    0.3033838    0.1974854  48.61  0.001698684    2.354    0.575
       337 -10.3844    175.3768    202.6582   7.7832114397e+01   5.5141017359e+00    0.2335304    0.2045395  28.30 0.0004735382    1.147    0.128
       338 -10.7681     41.5253     19.4691   6.7248431296e+01   6.7435398709e+01    0.3143586    0.1968393  31.65  0.001221143    1.403    0.287
       339 -10.0803    244.8036    188.2382   6.1869908105e+01  -2.3774012504e+00    0.1752413    0.1244606 -15.23 0.0005273717    1.336    0.252
       340  -9.6350    212.0187    188.2381   6.7659393679e+01   2.3758712321e+00    0.1679965    0.1108744  33.16 0.0006269838    1.606    0.377
       341 -10.9147     16.7002    183.9959   1.1449636800e+02   3.3272522132e+01    0.3569781    0.2040189 -75.63  0.001357774    1.522    0.343
       342 -10.0194     14.7072    180.6537   1.1470370660e+02   3.4278900365e+01    0.1934715    0.1905845  89.79 0.0006400382    1.231    0.187
       343  -9.5099     61.6337    184.8314   1.0295460988e+02   2.8021293903e+01    0.2068287    0.1285425 -81.46 0.0009457641    1.721    0.419
       344 -10.3059    167.7794    183.6045   7.5888521891e+01   1.0686097458e+01    0.2071209    0.1353471  46.35 0.0008113814    1.664    0.399
       345  -9.7233     58.6961    182.0338   1.0336260782e+02   2.9116096947e+01    0.2042587    0.1773707 -74.10   0.00082869    1.096    0.087
       346  -9.3617      1.5511    180.5324   1.1795352866e+02   3.5395759735e+01    0.1272298     0.103408  89.41 0.0001281412    1.013    0.013
       347  -9.7646    244.4689    178.4932   6.0102014384e+01  -7.1127941595e-01    0.2387494   0.09868218 -32.12  0.001027582    2.354    0.575
       348 -10.7806     46.5376    177.7859   1.0607813447e+02   3.1713431088e+01     0.329334    0.2570329 -77.50  0.001105212    1.182    0.154
       349 -10.8333     34.0384    174.0763   1.0900059412e+02   3.4062598497e+01    0.2336118    0.1731909 -75.00 0.0003724173    1.209    0.173
       350 -10.8437     18.1595    173.3089   1.1314085726e+02   3.5807103003e+01    0.3539048    0.2043564  55.82  0.001534519    1.757    0.431
