#   1 NUMBER                 Running object number                                     
#   2 MAG_AUTO               Kron-like elliptical aperture magnitude                    [mag]
#   3 X_IMAGE                Object position along x                                    [pixel]
#   4 Y_IMAGE                Object position along y                                    [pixel]
#   5 X_WORLD                Barycenter position along world x axis                     [deg]
#   6 Y_WORLD                Barycenter position along world y axis                     [deg]
#   7 A_WORLD                Profile RMS along major axis (world units)                 [deg]
#   8 B_WORLD                Profile RMS along minor axis (world units)                 [deg]
#   9 THETA_WORLD            Position angle (CCW/world-x)                               [deg]
#  10 FWHM_WORLD             FWHM assuming a gaussian core                              [deg]
#  11 ELONGATION             A_IMAGE/B_IMAGE                                           
#  12 ELLIPTICITY            1 - B_IMAGE/A_IMAGE                                       
         1 -12.2032    239.1004     78.2300   5.9116751376e+01   1.4618193098e+01     3.859474     0.713836 -42.24   0.00993581    5.074    0.803
         2 -11.0958    202.1624     15.7794   4.7160724832e+01   3.2276815131e+01     1.415832    0.9115267 -74.59  0.006799394    1.711    0.415
         3 -12.4783    237.8676      5.9265   4.1092634948e+01   2.4488440147e+01     3.233867          nan  63.72  0.007831995    7.808    0.872
         4 -12.4817    223.2037     48.2842   5.3485882352e+01   2.2837846704e+01     1.673184     1.330351 -47.25   0.00730219    1.183    0.155
         5 -10.9914    166.7688     56.6136   6.5167575154e+01   3.6056662240e+01     2.059059     1.062149 -71.35  0.004710393    7.203    0.861
         6 -10.8532    148.9375     32.4739   6.0731730639e+01   4.4143897341e+01    0.6911319     0.445923 -39.24  0.003213513    1.612    0.380
         7  -7.8850    179.6773      5.0342   4.6719273959e+01   3.9216627519e+01    0.1806146    0.1794958 -11.18 0.0004005951    1.114    0.102
         8  -7.8847    171.7048      4.8222   4.7679075225e+01   4.1313295868e+01    0.1971216    0.1698775  47.91 0.0008569115    1.153    0.133
         9  -8.6873    138.1749      4.0311   5.2550075679e+01   4.9984364731e+01    0.2257812    0.1773062  54.90 0.0002336674    1.145    0.126
        10  -7.6352    225.0000      1.8363   4.1156477901e+01   2.8005926980e+01     0.199409   0.07287139 -25.69 0.0007855609    2.827    0.646
        11 -11.9054     43.6871    172.1880   1.2170205639e+02   3.4040992560e+01     0.876361    0.7167568  81.94  0.003620863    1.062    0.058
        12  -9.0914    227.4584    182.2711   8.5144188918e+01   6.4908050537e-01    0.2312199    0.2006881  14.27 0.0003147423    1.034    0.033
        13  -9.9795      8.4684    180.5128   1.2937867855e+02   3.5817843003e+01    0.1931011    0.1414236  80.07 0.0006338396    1.038    0.036
        14  -8.7674    227.8524    177.6872   8.4162227837e+01   1.2436467143e+00    0.2224504    0.1960978  -9.24 0.0005063048    1.115    0.103
        15  -7.4462    237.4881    177.4451   8.2406374402e+01  -4.6367981521e-01    0.1334892    0.1123069   9.00 6.767649e-05    1.016    0.016
        16  -8.5066    148.4800    176.0172   9.9543410095e+01   1.6839333115e+01    0.2295822    0.1822214  31.07 0.0003212969    1.325    0.245
        17  -9.9938    195.7086    174.2670   8.9517848512e+01   7.9053500231e+00    0.2521011    0.2310621  30.73 0.0003403135    1.055    0.053
        18  -7.7719    117.0919    174.9223   1.0614105288e+02   2.2816250529e+01     0.159254    0.1550297  34.73 0.0009842278    1.212    0.175
        19  -8.9891     81.7756    175.0380   1.1387458523e+02   2.8474730737e+01    0.1911042    0.1618991  64.92 0.0002979705    1.094    0.086
        20  -8.4119     81.3689    159.5072   1.1181042288e+02   3.1934397794e+01    0.2066588    0.1752082 -71.79 0.0003368627    1.140    0.123
        21  -8.6306    215.9893    157.6448   8.2161109491e+01   6.6268002640e+00    0.2153114    0.1870958 -18.01 0.0006847369    1.120    0.107
        22  -7.4799    201.5637    155.8239   8.4528929763e+01   9.8691562940e+00    0.1894938    0.1359697 -48.29 0.0004264413    1.581    0.367
        23  -7.4496    143.9424    153.2239   9.6199550807e+01   2.2302664543e+01    0.1824717      0.11609  46.40  0.000830468    1.512    0.339
        24 -10.3308    243.0138    145.5391   7.4679537219e+01   3.2131151987e+00    0.3125244    0.2652036 -78.27  0.001271804    1.779    0.438
        25  -7.3492    148.7719    148.9674   9.4224478369e+01   2.2207499848e+01    0.1823899    0.1229388 -46.68 0.0002451364    1.532    0.347
        26  -8.4082     70.0175    145.2299   1.1236281084e+02   3.6787688121e+01    0.3752367    0.2113188  44.37   0.00189167    1.813    0.448
        27  -8.3331     66.6709    143.0184   1.1284498722e+02   3.7748133912e+01    0.3182609    0.2055991 -88.48  0.001438658    1.632    0.387
        28  -8.1244    191.1671    139.5642   8.2951698167e+01   1.4994024911e+01    0.2557482    0.1817604 -31.34  0.001209608    1.448    0.309
        29  -8.2559    182.4842    134.4945   8.3558175993e+01   1.7861845069e+01    0.1505138    0.1464917  14.09 -5.828567e-05    1.006    0.006
        30  -7.5598    173.0168    131.4517   8.4856344536e+01   2.0561320395e+01    0.2232181    0.1483644  46.17  0.000332711    1.487    0.327
        31 -12.5739    243.5985    106.7528   6.5531833990e+01   9.1594546947e+00     3.172906    0.7090642 -33.40  0.009162417    4.054    0.753
        32 -10.1204    130.1399    237.1297   1.1192617804e+02   9.3417664138e+00    0.1928965    0.1689848  58.65  0.000286032    1.128    0.113
        33  -7.6217    132.2034    222.7926   1.0984339740e+02   1.1306135708e+01    0.1559011    0.1341694  32.99 0.0005416289    1.287    0.223
        34  -7.4860      1.8090    222.1359   1.3266084523e+02   2.8471060123e+01    0.1218765   0.09304522  89.84 0.0004214584    1.318    0.241
        35  -8.6637    240.3668    210.1171   8.8092243719e+01  -5.2445174062e+00    0.2083921    0.1510318  36.40 0.0003051083    1.309    0.236
        36  -8.0855      9.6169    129.2797   1.2509921472e+02   4.6733561178e+01    0.1609785   0.08244349 -68.22 0.0003477749    1.512    0.339
        37  -7.8867    168.0043    114.0215   8.1606553351e+01   2.5172142820e+01    0.2514116    0.1948887 -82.43 0.0008733224    1.733    0.423
        38  -8.7684    159.9450    108.0190   8.1846579651e+01   2.8249914582e+01    0.2237253    0.2197845  -1.21            0    1.027    0.026
        39  -9.9340    216.2224    103.1146   6.9138609670e+01   1.5856937738e+01    0.2973469    0.2464993 -23.68 0.0002541673    1.181    0.153
        40  -7.5477    122.7859    105.1900   9.0261887492e+01   3.7028925707e+01    0.2000626    0.1767302  -8.06 0.0002336864    1.306    0.234
        41 -10.3263    187.3187    101.0885   7.4057987206e+01   2.3086593211e+01    0.6026918    0.3168031 -32.24  0.002328251    1.967    0.492
        42  -8.4047    221.2318     99.2281   6.7274216388e+01   1.5355478677e+01     0.273252    0.2191009   2.02 0.0008981962    1.433    0.302
        43  -9.1547    150.6203     97.8328   8.1240355440e+01   3.2481869389e+01    0.3412071    0.2615942  -6.13 0.0009005477    1.694    0.410
        44  -9.0466    195.3095     94.9582   7.0820783555e+01   2.2267405960e+01    0.3659307    0.2939598 -31.63 0.0009281031    1.223    0.182
        45  -8.0029    136.4767     95.1372   8.3959839209e+01   3.6253012644e+01    0.2530037    0.2136202  86.18 0.0006121685    1.420    0.296
        46  -7.8555    226.6528     94.3465   6.5121874691e+01   1.4914321945e+01    0.1578089    0.1116657 -64.61 0.0007042594    1.807    0.447
        47  -8.0396    219.4347     92.5053   6.5835136163e+01   1.6899321553e+01    0.1501356    0.1409476 -26.77 0.0008069631    1.016    0.016
        48  -8.5804    159.9439     91.5092   7.7263629338e+01   3.1535158740e+01    0.3270966    0.2140113  24.84 0.0009506202    2.091    0.522
        49  -8.7879    163.3204     89.0636   7.5795059463e+01   3.1190898798e+01    0.3268066    0.3090159  -4.97 0.0009717138    1.092    0.084
        50  -9.1107    144.6403     86.9924   7.9558932650e+01   3.6049363773e+01    0.3492644     0.282349 -39.86 0.0008893208    1.215    0.177
        51 -10.7734    180.7331     78.6284   6.9070136042e+01   2.8789909281e+01     0.847327     0.681872 -60.39  0.001848051    1.372    0.271
        52  -8.3169    104.0257     86.1791   9.0184042145e+01   4.4865704823e+01    0.2129474    0.1962384 -48.42 0.0005859173    1.043    0.041
        53 -10.4505    160.6425     79.4247   7.3546008048e+01   3.3660717275e+01    0.4311982    0.2925549 -32.34  0.001015445    1.492    0.330
        54  -7.1558     12.4974     81.4638   1.1805279080e+02   5.7318209510e+01    0.1202687    0.0923947 -65.31 0.0008095418    1.011    0.011
        55  -9.3117    187.2429     72.4823   6.6017702166e+01   2.8201800962e+01    0.2688401    0.2595319 -29.36 0.0003489917    1.031    0.030
        56  -7.8941    135.7822     69.5032   7.6345954801e+01   4.1477782110e+01    0.2974972    0.2011113   5.28 0.0009807724    2.260    0.558
        57 -11.4338    179.5027     62.1616   6.4407198669e+01   3.1889040331e+01    0.6695101     0.449036   3.07     0.002594    2.200    0.545
        58 -10.6759      2.1680    204.5072   1.3181058262e+02   3.1671050745e+01    0.5862461    0.1674055 -80.68  0.002907705    2.874    0.652
        59 -10.8746    234.0753     40.5586   5.0119229921e+01   2.1243421259e+01    0.5475574    0.3496917  39.62  0.001460299    1.995    0.499
        60  -9.7672    197.8247     65.0600   6.1972734314e+01   2.6723171995e+01    0.3562634    0.2813574  36.13 0.0008243847    1.399    0.285
        61  -9.7955    203.8038     61.2281   5.9888316297e+01   2.5802489263e+01    0.4078046    0.2768841  39.26 0.0009967241    1.678    0.404
        62 -10.3430    118.7123     65.0775   7.9388056510e+01   4.6141751998e+01    0.2503921    0.2449664 -15.34 0.0002653418    1.049    0.046
        63  -8.2481    165.0470     64.2842   6.7937003710e+01   3.5238450484e+01    0.3767099    0.2460325  30.16  0.001561914    1.899    0.473
        64  -7.3376    130.2781     62.7118   7.5512668536e+01   4.3990419849e+01    0.1461644     0.120162 -71.20 0.0002414578    1.519    0.341
        65  -9.2377    244.8743     60.8896   5.3979437553e+01   1.5880563364e+01    0.3195313    0.2056418  87.14  0.001497546    1.984    0.496
        66  -8.4745    189.6295     50.2772   5.9023489232e+01   3.1102002133e+01    0.3152032    0.2036542 -55.59 0.0007792097    1.736    0.424
        67  -8.8460    188.0057     46.0675   5.8029370708e+01   3.2135644337e+01    0.4771343    0.2021845 -47.81  0.001558197    2.683    0.627
        68 -10.3201    148.3222     43.7265   6.4753630979e+01   4.2732401151e+01     0.694873    0.3719486  68.85  0.002681046    2.312    0.568
        69 -11.2337    136.3954     39.1700   6.5809401037e+01   4.6350674814e+01     1.084414    0.4534295  63.64  0.003732734    2.943    0.660
        70  -9.3557     11.4560    206.5133   1.3034687496e+02   3.0435076184e+01    0.1949877   0.09058724  38.57  0.001219334    2.196    0.545
        71  -7.2914    162.2382     35.3921   5.9152194621e+01   4.0340978837e+01    0.1516885    0.1112627  16.71 0.0005939715    1.655    0.396
        72  -9.8085    133.8204     30.2645   6.3154401641e+01   4.8199885710e+01     0.480218    0.1887586  44.17  0.001738103    2.562    0.610
        73  -8.3773    176.5107     22.5381   5.2591908069e+01   3.8206281450e+01    0.4459276    0.1421576 -25.75  0.001491486    3.259    0.693
        74  -8.7153    157.6923     24.2618   5.6242762662e+01   4.2919677781e+01    0.2594808    0.2014399  56.65 0.0006386315    1.210    0.173
        75  -7.6574    141.4132     16.1685   5.6401197039e+01   4.7988278482e+01    0.1755892    0.1304148 -38.00 0.0001249884    1.447    0.309
        76  -9.2819    238.5523    192.2701   8.5122974716e+01  -2.6798338546e+00    0.2573127    0.2411281 -72.89 0.0008494937    1.667    0.400
        77 -12.7058     30.2224    181.8537   1.2529637839e+02   3.3460432027e+01    0.8647037    0.7814661  22.08  0.006520149    1.672    0.402
        78  -9.1352    226.7989    187.0626   8.6196945407e+01   8.2337607845e-02    0.3155156    0.1713395  41.79  0.000961969    1.716    0.417
