#   1 NUMBER                 Running object number                                     
#   2 MAG_AUTO               Kron-like elliptical aperture magnitude                    [mag]
#   3 X_IMAGE                Object position along x                                    [pixel]
#   4 Y_IMAGE                Object position along y                                    [pixel]
#   5 X_WORLD                Barycenter position along world x axis                     [deg]
#   6 Y_WORLD                Barycenter position along world y axis                     [deg]
#   7 A_WORLD                Profile RMS along major axis (world units)                 [deg]
#   8 B_WORLD                Profile RMS along minor axis (world units)                 [deg]
#   9 THETA_WORLD            Position angle (CCW/world-x)                               [deg]
#  10 FWHM_WORLD             FWHM assuming a gaussian core                              [deg]
#  11 ELONGATION             A_IMAGE/B_IMAGE                                           
#  12 ELLIPTICITY            1 - B_IMAGE/A_IMAGE                                       
         1  -9.9445    191.1535     46.1160   4.4584455907e+01   3.1852301992e+01      4.23642     1.066836 -44.80   0.01345195    4.049    0.753
         2 -12.8978    240.3138     27.7207   3.4844973302e+01   2.3486401660e+01     2.558233    0.6417563  59.46   0.01016172    3.899    0.744
         3 -12.0683    135.7610     40.3371   5.2528098290e+01   4.5712175333e+01      1.12345    0.7166669 -82.76  0.002807754    2.660    0.624
         4 -12.6082    183.2249     83.7587   5.5763822067e+01   2.7868099970e+01     4.515062    0.7157546 -43.45   0.01023136    6.444    0.845
         5 -12.7962    162.6199     52.0116   5.0802052824e+01   3.7746398572e+01     2.479616     1.627103 -76.85   0.01109499    2.161    0.537
         6 -13.2559    241.0537     74.1479   4.4729630466e+01   1.7032022081e+01     2.986589    0.8307658 -43.08   0.01111368    2.967    0.663
         7 -12.4401    239.9005     50.5163   3.9714670656e+01   2.0651795039e+01    0.6961482    0.6612788 -56.02  0.003069421    1.185    0.156
         8 -13.1942    228.7966     58.2689   4.2656563774e+01   2.1845859338e+01     1.955106     1.117361 -39.04   0.01015115    1.570    0.363
         9 -13.6755    220.9834     79.2935   4.8523297039e+01   2.0312088952e+01     9.357117     2.554035 -50.15   0.01028959    5.777    0.827
        10 -12.3938    221.0597     37.5051   3.8813270547e+01   2.6290398359e+01     2.656463    0.8709193 -54.86  0.009092895    4.120    0.757
        11  -9.3909    120.3895      9.3244   4.5282554435e+01   5.2679303511e+01    0.2775853     0.242275  -1.06  0.000961767    1.258    0.205
        12  -8.2428    192.4024      9.7436   3.5263824167e+01   3.5819018352e+01    0.1823493    0.1335093  45.45 0.0002255333    1.592    0.372
        13  -7.3613    195.5749      8.3024   3.4598653643e+01   3.5242565215e+01     0.307243    0.1928572 -49.16  0.001722125    1.537    0.349
        14  -8.1003    151.2437      8.6605   3.9940695500e+01   4.5522369887e+01     0.253235   0.08758686 -32.74    0.0010576    2.906    0.656
        15  -7.7621    139.1281      7.1775   4.1306956218e+01   4.8507549439e+01    0.1691553    0.1410887 -67.33 0.0004102607    1.333    0.250
        16  -8.0021    213.1556      5.5390   3.2378685115e+01   3.1627425508e+01    0.1623883    0.1031006  84.22 0.0008476222    1.429    0.300
        17 -10.3524    249.1527      2.4809   2.9165474268e+01   2.4552361229e+01    0.2092962     0.170953 -54.13  0.000519042    1.178    0.151
        18  -8.9706    128.3959      2.2931   4.1475942528e+01   5.1414033670e+01    0.2083458    0.1975161  80.41 0.0006777127    1.129    0.115
        19  -8.4087    170.8825      1.7979   3.5536873604e+01   4.1514337502e+01    0.3032061    0.1389471 -82.17  0.001236796    3.072    0.675
        20  -8.1722    183.9658      1.4479   3.4068937393e+01   3.8525939642e+01    0.1776618    0.1053002  73.03 8.187169e-06    1.478    0.323
        21  -7.4102    172.6761    188.2594   8.2474272355e+01   9.4592458947e+00    0.1328443     0.113071  65.46 0.0002773899    1.553    0.356
        22  -9.1464    136.0100    249.8412   1.0014258633e+02   4.0794425740e+00    0.2309736    0.1712738 -84.63  0.001350272    2.024    0.506
        23  -9.4745    133.0090    245.9844   1.0025783881e+02   5.1701258498e+00    0.1981318    0.1376486  58.51 0.0009127629    1.683    0.406
        24  -7.3953    167.6047    188.3145   8.3597993548e+01   1.0336858939e+01    0.1442214    0.1142944  71.72 0.0007002672    1.854    0.461
        25  -7.7618    242.2300    183.4128   6.7870867922e+01  -1.1063019216e+00    0.1474844     0.122266  34.92 0.0002785071    1.449    0.310
        26  -7.4798    210.6659    181.6766   7.3312841773e+01   4.1562915235e+00    0.1461786   0.09864784  -3.26 0.0007050658    1.709    0.415
        27 -13.1454     23.4309    170.5390   1.1597241663e+02   3.5546410080e+01     1.302674    0.8805677  15.86   0.00558816    1.935    0.483
        28 -12.5204     37.9442    162.3724   1.1144760465e+02   3.6124047579e+01      1.02083    0.8857712 -83.51  0.003294037    1.010    0.010
        29  -8.7680    238.4305    175.9774   6.7051042789e+01   6.6732470480e-01     0.254205    0.1906513  56.21  0.001401757    2.031    0.508
        30  -8.0773    200.4661    173.9415   7.3748816848e+01   7.2984568850e+00    0.2150726    0.1310007 -38.38 0.0005604696    1.555    0.357
        31  -8.9176    101.0108    175.9738   9.7200593398e+01   2.4481263953e+01    0.1935558    0.1915164 -76.13  0.001130542    1.033    0.032
        32  -8.5752    216.0403    170.2583   6.9942418350e+01   5.2743354906e+00     0.185905    0.1809975 -14.73 0.0005558087    1.246    0.197
        33  -9.2543    181.8411    160.9020   7.4856363561e+01   1.3212182496e+01    0.3725505    0.2745753  45.60  0.001308535    1.471    0.320
        34  -8.7574     45.9299    177.0195   1.1118749031e+02   3.1728251150e+01    0.1893083     0.168327 -78.46            0    1.068    0.063
        35  -9.6094    231.2925    159.8025   6.4974382905e+01   4.5318569374e+00    0.3238305    0.1987042 -14.84  0.001528085    1.928    0.481
        36  -8.7689    158.0272    156.7580   7.9301146319e+01   1.8641527290e+01    0.3787521    0.2451375 -75.29  0.001388013    3.000    0.667
        37  -7.5211    216.3785    156.7856   6.7026178438e+01   7.6332681485e+00    0.1252771     0.110645  75.82 0.0003328624    1.593    0.372
        38  -7.9715    142.3221    247.2933   9.8538797645e+01   3.5783917353e+00    0.1226897   0.08985283   5.24 0.0003104674    1.613    0.380
        39 -10.7057    202.3167     72.3555   4.9599691754e+01   2.5449583075e+01    0.4892354    0.3495862  -6.76  0.002000576    1.996    0.499
        40 -10.7373    208.7797     69.0250   4.7811281367e+01   2.4540269048e+01    0.4872523    0.2626883  52.82  0.001366323    1.966    0.491
        41  -8.3900    203.7722    152.5586   6.8512206235e+01   1.0708189494e+01    0.1830446    0.1414728  53.91 0.0009311404    1.579    0.367
        42 -10.1970     54.6094    150.7203   1.0537877720e+02   3.7168096234e+01    0.2956719    0.2542697 -35.07  0.001710365    1.288    0.224
        43  -9.4282     70.2018    145.4090   1.0011196596e+02   3.6509262266e+01    0.3594199    0.2915699  44.82  0.001542682    1.309    0.236
        44  -9.7245     66.4998    144.4790   1.0100028889e+02   3.7237111072e+01    0.5639731    0.2908413 -68.64  0.002360749    2.028    0.507
        45  -8.0929     91.2069    247.3735   1.0886081667e+02   1.0874866764e+01    0.1560385    0.1440254  49.08 0.0008384408    1.126    0.112
        46  -9.5519    192.6097    143.9295   6.8804586955e+01   1.4501731952e+01    0.3246013    0.2142927  46.40 0.0008392938    1.647    0.393
        47  -8.6073    216.2246    142.3594   6.3894308066e+01   1.0285231079e+01     0.185129    0.1362842  55.59 0.0004644267    1.691    0.409
        48 -10.2676    187.4975    137.9000   6.8461677092e+01   1.6704601984e+01    0.4186588    0.2560454 -36.16 -0.0003300853    1.559    0.359
        49  -9.9083    192.6777    134.8429   6.6687247105e+01   1.6264262414e+01    0.3112453    0.2396629  43.64 0.0007060165    1.388    0.280
        50  -8.5277    158.0074    139.6982   7.5422054737e+01   2.2320932560e+01    0.2105971    0.1992722  15.30 0.0003186348    1.061    0.058
        51 -10.4447    179.1727    135.5459   6.9664141182e+01   1.8865220143e+01    0.4886778    0.3278181 -62.71  0.002084131    2.034    0.508
        52  -8.9217    161.3765    136.2466   7.3812853285e+01   2.2372174387e+01     0.289184    0.2285425 -76.29 0.0007222901    1.716    0.417
        53  -8.4357    131.0844    136.9943   8.1468800743e+01   2.8306238949e+01     0.221678    0.2151453 -27.09  0.001179703    1.013    0.013
        54  -8.7838    219.4790    134.2902   6.1505987618e+01   1.1142401716e+01    0.2653977    0.2151599 -80.19  0.001207597    1.758    0.431
        55  -9.6227    192.1432     91.1258   5.6045374106e+01   2.4578698322e+01    0.4338305    0.3007891 -22.09   0.00143443    1.655    0.396
        56  -8.3808    203.5000    244.0846   8.5962036168e+01  -4.7857700543e+00    0.1764413    0.1357459  14.55   0.00035956    1.053    0.051
        57 -11.7700    184.4284    128.9258   6.6970117518e+01   1.9111979326e+01     1.818321    0.4551188 -36.64  0.004673715    4.704    0.787
        58  -8.4545     95.7918    239.6334   1.0711879507e+02   1.1680189926e+01    0.2207518    0.1163335  55.97 0.0006249498    2.021    0.505
        59 -10.0611    134.8012    241.1086   9.9255450975e+01   5.7468526176e+00    0.3897175    0.2368783  64.99  0.001848072    2.636    0.621
        60  -9.2314    201.9437    125.9400   6.2782581878e+01   1.6103655374e+01    0.2224291    0.2016051 -37.71 0.0005562374    1.055    0.052
        61  -8.2075    152.9435    125.3234   7.3134979976e+01   2.6458701698e+01    0.2454089    0.2002831  66.24 0.0007132865    1.482    0.325
        62  -8.4677    135.4938    124.9811   7.7406329649e+01   3.0146869745e+01    0.2272511    0.1382681 -67.66 0.0008105152    2.636    0.621
        63  -8.1470    205.9713    122.0610   6.1117915466e+01   1.6015298336e+01    0.2261218    0.1725153 -66.91 0.0006261421    1.673    0.402
        64  -9.7731    161.2800    119.4638   6.9693776190e+01   2.5925572680e+01    0.7327896    0.4665744 -77.05   0.00243793    3.359    0.702
        65 -11.3494    206.2970    109.1743   5.7990529245e+01   1.8308348981e+01    0.8450155    0.5652999  -2.61  0.003611825    2.370    0.578
        66  -7.5433     87.6734    231.2757   1.0788530735e+02   1.4419155013e+01    0.1297771   0.08308337  60.22 0.0002967642    1.587    0.370
        67  -7.8440     81.5735    117.0339   9.0850171681e+01   4.1853456839e+01    0.2086504     0.131216 -79.51 0.0008045216    2.542    0.607
        68  -8.5381    167.7514    113.0509   6.6593037881e+01   2.5836176705e+01    0.3165076    0.2072103  78.24  0.001185352    2.751    0.636
        69  -8.1700    155.5336    112.1531   6.9144072070e+01   2.8678189021e+01      0.29644     0.146195 -46.59  0.001114486    2.039    0.509
        70  -8.6047    135.3210    111.4689   7.3960600387e+01   3.3150861019e+01    0.3429405     0.172126 -37.36   0.00107585    2.060    0.514
        71  -8.3374    223.5341    106.3157   5.4440338727e+01   1.5306904787e+01    0.2577787    0.1197667 -41.96 0.0007092436    1.906    0.475
        72  -7.6234     78.5198    107.5069   8.9496641063e+01   4.4596856923e+01    0.1484279    0.1367949 -38.69  8.59485e-05    1.012    0.012
        73  -9.5412    152.4420     99.7663   6.6552800482e+01   3.1868070701e+01    0.4476723    0.3603389  24.59  0.001506003    1.381    0.276
        74  -8.5494    150.9851     93.5515   6.5175549555e+01   3.3412996481e+01       0.3426    0.2090781 -54.66  0.001250086    1.937    0.484
        75  -8.3400    137.2867     96.6642   6.9393334478e+01   3.5830254898e+01     0.256127    0.2316021 -89.72 0.0007168893    1.303    0.232
        76  -9.2158    162.4934     94.0213   6.2703703625e+01   3.0726736220e+01    0.3468175    0.2881112 -18.38  0.001200533    1.296    0.229
        77  -9.9663    165.9607     92.5112   6.1544540293e+01   3.0225045122e+01    0.3653713    0.3482092  38.25  0.001069308    1.076    0.071
        78  -9.6064    146.3404     89.7299   6.5194271019e+01   3.5193307384e+01    0.3295562    0.2829898 -51.58   0.00067425    1.213    0.176
        79  -7.5867     78.2396     91.6325   8.5372670662e+01   4.8283815097e+01    0.1401917    0.1142686 -76.70 0.0006287015    1.607    0.378
        80  -8.7245    153.2907     88.1820   6.3135711693e+01   3.3915726615e+01    0.4527574    0.2170702 -51.50  0.001357292    2.541    0.606
        81 -10.3099     95.9592     88.7211   7.8789085348e+01   4.5877088157e+01    0.2487115    0.2147097 -36.59 0.0002543041    1.107    0.097
        82 -11.0243    163.1893     83.2689   5.9588488643e+01   3.2549789814e+01    0.3665804    0.2932479 -22.25 0.0006757928    1.342    0.255
        83 -11.3847    148.7608     41.8081   5.0368409855e+01   4.2450427170e+01    0.7605097    0.4368165 -37.55  0.001757497    1.797    0.443
        84 -10.2544    191.1264     78.5544   5.2996776419e+01   2.6957390193e+01     0.301452    0.2887389 -43.82 0.0003946835    1.036    0.035
        85  -8.1005      5.3419     83.3038   1.0969888582e+02   5.7828348960e+01    0.1349038   0.07036175 -40.40 0.0007040136    1.680    0.405
        86  -7.4909    167.6251     79.7239   5.7688984324e+01   3.2151499517e+01    0.1528127    0.1140072  22.00 0.0004422975    1.694    0.410
        87  -8.5339    112.6953     74.0515   6.9249668161e+01   4.5513718581e+01    0.2994747    0.1874396 -48.91  0.001160488    1.767    0.434
        88  -8.8779    151.5278     71.3312   5.8673986042e+01   3.7334576311e+01    0.2739445    0.1394577 -40.53 0.0008113277    1.957    0.489
        89  -8.1209    193.2033     69.8057   5.0392432307e+01   2.7903756400e+01     0.282263     0.142498 -49.98  0.001175644    2.088    0.521
        90  -9.7216    143.7101     67.1882   5.9178679849e+01   3.9845689226e+01     0.373392    0.3019184 -43.87  0.001118436    1.272    0.214
        91  -8.7390    117.6197     63.3221   6.4425100503e+01   4.6375814538e+01     0.263296    0.1358389 -39.63 0.0004880222    1.967    0.492
        92 -11.4758    248.0928     59.9290   4.0869643749e+01   1.7730770360e+01     1.194437    0.4704835 -42.64   0.00306644    2.077    0.519
        93 -10.3673    134.7424     60.9992   5.9347834040e+01   4.2927087325e+01    0.4465549    0.2551044 -39.06  0.001975265    1.783    0.439
        94  -9.2540    238.3279    228.2842   7.6884988445e+01  -7.2536642827e+00    0.2438562    0.1519973  39.46 0.0009650439    1.934    0.483
        95 -10.3890    150.1402     56.1604   5.4452094323e+01   4.0092281831e+01    0.4609878     0.361012 -71.27  0.002350892    1.550    0.355
        96 -11.0357    144.5894     59.4388   5.6625131287e+01   4.0892523149e+01    0.6441575    0.3635255 -41.23  0.002408986    1.818    0.450
        97 -11.2260    140.3320     58.2345   5.7196154409e+01   4.2073182039e+01      1.00751    0.4122033 -46.40  0.003608174    2.895    0.655
        98  -7.6556     72.5699     58.4657   7.6897421901e+01   5.5953719963e+01    0.1381958    0.1236004 -10.80 0.0001321842    1.047    0.044
        99 -11.8422    183.6666     68.4761   5.1634305284e+01   3.0302530719e+01    0.5917617    0.4341321  24.46  0.002886025    1.806    0.446
       100  -8.8492    202.6239    226.5204   8.3241874693e+01  -2.0530380673e+00    0.2248779    0.2142318  78.07 0.0007189016    1.649    0.394
       101  -7.8107     82.6517     51.7904   7.0994566645e+01   5.5360725604e+01    0.1971651    0.1231368 -44.28 0.0009465326    1.759    0.432
       102  -7.8176    112.4662     49.5014   6.1173712615e+01   4.9710043356e+01    0.1400475    0.1329194  22.36 0.0008091961    1.051    0.048
       103  -8.6246    249.0308     47.7179   3.8213854566e+01   1.9222541413e+01      0.16982    0.1427306 -68.02 0.0006891986    1.070    0.065
       104  -8.8732    207.6676     47.1181   4.2626294194e+01   2.7962952706e+01     0.281374    0.2224594 -18.42  0.001293535    1.521    0.342
       105  -8.8522    222.9655    128.9867   5.9708314496e+01   1.1437535725e+01    0.2162882    0.1873549 -29.89 0.0003303293    1.017    0.017
       106  -9.0774    249.5952     42.1792   3.7015916866e+01   1.9840739836e+01    0.2989429     0.109713 -32.43  0.001302737    2.720    0.632
       107  -8.7337    161.4066    128.7100   7.1977307083e+01   2.3963580073e+01    0.3093302    0.1442036 -47.33  0.001132272    2.167    0.538
       108  -7.5066     93.9829    129.0057   8.9885768783e+01   3.6962516685e+01    0.1753962    0.1606239 -47.64 0.0009307007    1.035    0.034
       109  -9.7331    106.6731     35.6192   5.7811217823e+01   5.2916501547e+01    0.2757672    0.2263402 -42.86 0.0007709895    1.402    0.287
       110 -10.5478    222.8741    220.0434   7.8250945475e+01  -3.9817369704e+00    0.3319959    0.2302373  12.26  0.001986516    1.301    0.232
       111  -9.6101    182.6339     27.6137   4.0925974312e+01   3.6159650949e+01    0.4295827    0.1956806 -43.95  0.000767768    2.180    0.541
       112  -8.8939    178.3100     24.1780   4.0583871381e+01   3.7563168389e+01    0.4590836    0.2651413  58.93  0.002357937    1.610    0.379
       113  -9.7569    145.5378     30.5315   4.7500845302e+01   4.4621573886e+01      0.48934    0.1838095 -43.11  0.001868169    3.000    0.667
       114 -10.5825    132.1696     31.5515   5.0421148456e+01   4.7652884317e+01    0.4180681    0.2319938 -20.04  0.001922652    2.116    0.527
       115  -9.6038    125.4533     31.4121   5.1802648277e+01   4.9228503494e+01    0.2973401    0.2373439 -11.07 0.0005425438    1.371    0.271
       116  -8.4187     99.5700     28.0720   5.6923092112e+01   5.5383981572e+01    0.1880265    0.1280394 -25.99 0.0005453629    1.541    0.351
       117  -8.4362    196.9124     24.9892   3.8514239830e+01   3.3163305680e+01     0.279802    0.1406133 -40.61  0.000980099    1.894    0.472
       118  -9.2530    130.8468     19.9674   4.6867558347e+01   4.9246112198e+01    0.3158346    0.1659391 -37.87  0.001476799    2.080    0.519
       119  -9.4220    228.5831     17.4231   3.3671413910e+01   2.7087801869e+01    0.2289361     0.165685 -60.64 0.0005830618    1.191    0.161
       120  -7.8800     52.0000     17.0877   6.8152220640e+01   6.5635163838e+01    0.1901353    0.0646121 -31.75 0.0007965253    2.902    0.655
       121  -9.2073    191.1305    220.9814   8.4569323196e+01   5.5198095790e-01    0.3261414    0.1683732  39.89 0.0007868541    1.912    0.477
       122  -9.0908    192.0396    216.2754   8.3569545587e+01   1.1903991161e+00    0.2516415    0.1812801 -27.71 0.0002370717    1.372    0.271
       123  -8.6124    192.4998    211.7566   8.2676145846e+01   1.8785506324e+00     0.245329    0.1873877 -11.14 0.0005964589    1.271    0.213
       124  -9.0051      6.3946    207.7972   1.2259578127e+02   2.8613820867e+01     0.156442    0.0880165 -71.28 0.0006595555    1.597    0.374
       125  -8.0615    243.9853    207.2330   7.2111203270e+01  -5.0051175781e+00     0.166097    0.1482434  61.01  0.001057596    1.983    0.496
       126 -10.0865    159.7408    206.0621   8.8571341608e+01   8.2325293490e+00    0.2567652    0.2385161 -15.16 0.0004054416    1.095    0.087
       127  -7.8067    238.3025    203.6581   7.2447154290e+01  -3.6869828181e+00    0.1109857      0.10091 -51.33 0.0007038905    1.677    0.404
       128  -7.9235    111.8581    202.8976   9.8874649607e+01   1.6712189421e+01     0.184047    0.1740931   1.20 0.0002786265    1.149    0.130
       129  -9.3397     44.0604    192.7141   1.1334311728e+02   2.8257243576e+01    0.2151315    0.1628213 -67.95 0.0003731368    1.261    0.207
       130  -8.7561    181.9997    191.2480   8.1045504879e+01   7.2723497250e+00    0.2152369    0.1848625 -23.57 0.0002571922    1.122    0.109
