#   1 NUMBER                 Running object number                                     
#   2 MAG_AUTO               Kron-like elliptical aperture magnitude                    [mag]
#   3 X_IMAGE                Object position along x                                    [pixel]
#   4 Y_IMAGE                Object position along y                                    [pixel]
#   5 X_WORLD                Barycenter position along world x axis                     [deg]
#   6 Y_WORLD                Barycenter position along world y axis                     [deg]
#   7 A_WORLD                Profile RMS along major axis (world units)                 [deg]
#   8 B_WORLD                Profile RMS along minor axis (world units)                 [deg]
#   9 THETA_WORLD            Position angle (CCW/world-x)                               [deg]
#  10 FWHM_WORLD             FWHM assuming a gaussian core                              [deg]
#  11 ELONGATION             A_IMAGE/B_IMAGE                                           
#  12 ELLIPTICITY            1 - B_IMAGE/A_IMAGE                                       
         1 -12.7454    228.0902      5.7348   3.0498390525e+01   2.8768602889e+01     1.077388    0.4485436 -68.20  0.005080965    2.704    0.630
         2 -11.3405     19.5342     14.4784   8.0512139210e+01   7.0561820743e+01    0.3852784    0.1917987 -17.74  0.002016122    2.155    0.536
         3 -12.0568     11.4195     24.8915   8.9462177469e+01   6.9723907703e+01    0.6088305    0.2690956 -24.49  0.003014575    2.341    0.573
         4 -10.6927    235.6679      2.9095   2.9412235250e+01   2.7525985392e+01    0.4988077    0.2102043 -60.83  0.002591246    2.240    0.554
         5 -11.3607     15.0277      7.4915   7.9539298470e+01   7.2004476144e+01     0.413681     0.226955   1.40  0.002393812    1.876    0.467
         6 -12.0840      5.8696     11.5841   8.6767786517e+01   7.2284569053e+01    0.7192076     0.367042 -25.57  0.004254865    1.663    0.399
         7 -11.2192      9.2337      2.2890   8.0164089709e+01   7.3283826778e+01    0.6537513     0.205142  26.23   0.00308873    3.139    0.681
         8 -10.6473     13.0999     13.1774   8.3395267304e+01   7.1402824966e+01    0.2508591    0.1427741 -15.16  0.001099575    1.606    0.377
         9  -9.3312    149.2029      9.3992   3.9406379363e+01   4.6039859934e+01    0.1865982    0.1102016  81.42 0.0009512424    1.731    0.422
        10 -11.7132     25.6638      4.2599   7.2198465781e+01   7.1165070819e+01    0.4694432    0.2926723   2.88  0.002966224    1.450    0.310
        11 -10.4739    167.0907      3.1125   3.5388462981e+01   4.2418906870e+01     0.291928    0.1756974  50.53  0.001034204    1.673    0.402
        12  -9.7276     41.1070      2.7986   6.4206866071e+01   6.9122880981e+01    0.2979523    0.1406405  20.48   0.00144513    2.441    0.590
        13  -8.4887    152.3164      1.6858   3.6767028534e+01   4.5965679194e+01    0.1268038    0.0851916 -69.56 0.0007036172    1.645    0.392
        14 -13.7945    246.6807      7.2853   2.9540097732e+01   2.4920509099e+01     2.254397     0.748233 -34.81   0.01113099    2.713    0.631
        15  -9.1873     37.9524    240.7520   1.1779957332e+02   1.8948692534e+01      0.23318    0.1221247  52.90  0.001346322    1.617    0.382
        16 -11.3396    247.9969    215.1124   7.1378639557e+01  -6.1683341398e+00    0.6005412    0.2534448 -27.98  0.002875286    2.244    0.554
        17 -11.0277    234.3513    244.2035   7.8784165535e+01  -8.4751760710e+00    0.4308366    0.2499177  -0.90  0.002478391    1.749    0.428
        18 -10.6130    249.6248    232.6910   7.4178815095e+01  -8.8002021190e+00    0.4090131    0.1925008 -25.90  0.002206918    1.934    0.483
        19 -11.1293    241.8281    237.6068   7.6364236586e+01  -8.5136063040e+00    0.6578649    0.3055833  -5.67   0.00264242    3.865    0.741
        20 -11.2192    247.8255    224.8515   7.3133066295e+01  -7.5175837520e+00    0.4913011    0.2981749  -0.04  0.002883736    1.619    0.382
        21  -9.8943    249.3703    250.0995   7.7121985582e+01  -1.1004143609e+01     0.437063    0.1541565  27.33  0.002135846    2.699    0.629
        22  -9.5474    248.8540    245.8357   7.6514314843e+01  -1.0413312445e+01    0.2469631    0.1586487 -26.37 0.0009570233    1.416    0.294
        23 -11.0152    242.9744    245.8720   7.7537179890e+01  -9.7317519155e+00    0.5969445    0.2474617 -23.55  0.002907796    2.596    0.615
        24 -10.9904    247.0611    239.7267   7.5809767231e+01  -9.4213681034e+00    0.4350363    0.2182565 -21.85  0.001922126    1.866    0.464
        25  -9.5849    233.2640    250.5924   8.0016115268e+01  -9.1771361252e+00     0.213167   0.09512448  34.20   0.00113786    2.143    0.533
        26 -10.4822    225.6429    248.7047   8.1084486895e+01  -7.9919346845e+00    0.3298256    0.2019335  -5.35  0.001974121    1.585    0.369
        27 -11.6022    212.2449    247.0404   8.3291591349e+01  -6.0448621017e+00    0.5821854    0.3077988  13.39  0.003001831    2.061    0.515
        28  -9.7766     75.2036    250.4125   1.1126252476e+02   1.2624030977e+01    0.2984329   0.09278937  36.81  0.001290787    2.623    0.619
        29 -10.2197     65.3963    249.2354   1.1309856468e+02   1.4084412311e+01    0.3964949    0.1666575  40.41  0.002024149    1.945    0.486
        30  -9.8339     50.0808    250.1864   1.1614808232e+02   1.5747871767e+01    0.3934012    0.1168814  37.98  0.001795107    2.640    0.621
        31 -10.3258     36.2398    248.6374   1.1866128183e+02   1.7605962942e+01    0.4215944    0.2003499  57.69  0.002367426    1.852    0.460
        32 -10.2755     19.9134    249.1369   1.2169388373e+02   1.9223891767e+01    0.3273551    0.1809502  51.07  0.002115262    1.449    0.310
        33 -10.2282     11.5344    249.1644   1.2319140906e+02   2.0042405707e+01    0.3524513      0.15269  48.70  0.002097573    1.802    0.445
        34  -9.5598      3.3184    250.4385   1.2468475811e+02   2.0575058976e+01     0.214691     0.147151  29.79  0.001541049    1.730    0.422
        35 -10.7821      3.3369    243.7285   1.2437879896e+02   2.1843658194e+01    0.4394321    0.2124466  70.47  0.002668283    1.771    0.435
        36 -10.3714    128.2611    240.5630   9.9233764708e+01   7.0582035270e+00    0.2617124    0.1035821  39.26  0.001144546    2.158    0.537
        37 -11.3030    194.0740    244.6456   8.6387135285e+01  -3.2369651350e+00    0.5473965    0.2581893  20.17  0.002519373    2.389    0.581
        38  -8.6764    183.4675    250.4559   8.9353374732e+01  -2.6224784974e+00    0.1257294   0.09890096  11.41 0.0008071547    1.070    0.065
        39  -9.1018     64.3224    239.6666   1.1247819093e+02   1.6066575895e+01    0.1304373   0.07630249  62.71 0.0007050225    1.705    0.413
        40  -9.9454     44.7042    237.4721   1.1623643517e+02   1.8844258852e+01    0.2846253    0.1382235  59.48  0.001492352    1.977    0.494
        41 -11.1876    231.5755    233.8840   7.7558684331e+01  -6.7229021789e+00    0.4300507    0.2548299  10.95  0.002460396    1.645    0.392
        42 -10.5651     72.5782    240.9044   1.1090901094e+02   1.4777757146e+01     0.371409    0.1604274  53.09  0.001735763    2.304    0.566
        43 -11.0421    158.8842    245.8788   9.3607835738e+01   1.6196678867e+00    0.3202491    0.1467457  32.47  0.001531438    1.900    0.474
        44  -9.8894     13.9700    232.2619   1.2184767499e+02   2.3108550344e+01    0.3348142    0.1908915  60.03  0.002107584    1.464    0.317
        45  -9.8745     60.5664    231.8277   1.1254058750e+02   1.8105269047e+01    0.2519028    0.1228722  60.49  0.001211303    2.213    0.548
        46 -10.1504      6.1275    235.9496   1.2350300943e+02   2.3103516495e+01    0.2913964    0.1681814  66.95  0.001489047    1.417    0.294
        47  -9.1899     48.4894    230.9707   1.1495601923e+02   1.9726045832e+01    0.1729927   0.08539143  76.13 0.0008094853    2.479    0.597
        48 -10.3791     25.9614    229.8528   1.1938912893e+02   2.2414888254e+01    0.2876852    0.1741396  87.48  0.001765133    1.513    0.339
        49 -10.3208      4.5177    228.4793   1.2341932328e+02   2.4742907059e+01    0.3725473    0.1837288  63.67  0.002060031    1.737    0.424
        50 -10.6672    236.6267    226.7104   7.5419168664e+01  -6.3629499581e+00    0.3538468    0.2086601  -3.64  0.001951092    1.785    0.440
        51  -9.7225     10.7598    226.1599   1.2211084409e+02   2.4650507193e+01    0.2953385    0.1453872  53.48  0.001726967    1.719    0.418
        52  -9.9855    216.9744    226.1828   7.8931745902e+01  -3.6554154746e+00    0.1985751    0.1620258 -22.35 0.0003138027    1.226    0.185
        53 -10.2494     18.5255    222.1514   1.2035186430e+02   2.4749157367e+01    0.2444009    0.1418971  62.15  0.001475312    1.502    0.334
        54 -10.1778      1.9796    221.3344   1.2352638616e+02   2.6426692433e+01    0.3193566    0.1390382 -87.94  0.001724686    2.049    0.512
        55 -10.3148    238.3868    218.1792   7.3602998376e+01  -5.3652897276e+00    0.3638762    0.1737381 -25.69  0.001812146    2.035    0.509
        56 -10.3603     11.9986    216.6686   1.2130451112e+02   2.6517150521e+01    0.3477144     0.189833  55.61  0.002073068    1.597    0.374
        57  -9.4178     56.0924    216.3357   1.1202957396e+02   2.1912148916e+01    0.2451872    0.1440065 -67.59 0.0005044749    1.679    0.404
        58  -9.3595     35.3334    217.3299   1.1656975406e+02   2.4064506329e+01    0.1146051   0.08933076 -41.18 0.0007052045    1.723    0.420
        59  -8.6901     24.3386    217.6546   1.1887485989e+02   2.5130348925e+01    0.1319077   0.06964578  64.05 0.0007048144    1.779    0.438
        60 -10.2023      2.2851    212.8272   1.2300616657e+02   2.8183309368e+01    0.2789141    0.1625739  84.30  0.001449202    1.444    0.308
        61  -9.6542    153.9733    211.1829   8.9259442848e+01   8.5578915970e+00     0.211038    0.1919743 -34.56 0.0003516846    1.170    0.146
        62  -9.2802     28.5769    211.7795   1.1755584266e+02   2.5972198914e+01    0.1710293   0.09901639  87.52 0.0009448664    1.644    0.392
        63  -9.4123    227.6583    218.6662   7.5623504064e+01  -3.9963416580e+00    0.1350474   0.08266266  -3.35 0.0007050964    1.756    0.430
        64  -9.8738    239.9827    207.2282   7.1336752355e+01  -3.9536983132e+00    0.2188796    0.1498555 -41.68  0.001282582    1.643    0.391
        65  -9.1634    246.7002    205.7195   6.9893916527e+01  -4.6287908643e+00    0.2351346    0.1246632 -26.16  0.001245743    1.682    0.406
        66 -10.9025    123.9953    206.0056   9.5201828915e+01   1.4470849678e+01    0.1945801    0.1821571  32.69            0    1.003    0.003
        67 -10.6336     12.7397    204.2550   1.2034618436e+02   2.9133726100e+01    0.3106598    0.1367972  57.32  0.001570464    2.160    0.537
        68 -10.0688    250.1209    200.9490   6.8430823557e+01  -4.3720724190e+00    0.4135161    0.1469015 -34.77  0.001826612    2.449    0.592
        69 -10.8807      3.5329    197.3845   1.2183027104e+02   3.1434665554e+01    0.3614849    0.1797169  82.54  0.001944258    1.854    0.461
        70 -10.8726    246.6385    192.0413   6.7345227782e+01  -2.5448896517e+00    0.3169537    0.1829124 -20.88  0.001684938    1.649    0.394
        71 -10.6894      3.8595    188.7591   1.2119186962e+02   3.3343894108e+01    0.3751373    0.1584954  55.77  0.001857753    2.316    0.568
        72  -9.7623    249.5737    184.6557   6.5439900040e+01  -1.8062404877e+00    0.2516828    0.1032475 -33.40  0.001139387    2.118    0.528
        73 -10.3551      2.0742    178.8710   1.2089748701e+02   3.5743142948e+01    0.3151773     0.140648  89.16   0.00153383    2.109    0.526
        74  -9.3618      1.5238    165.5204   1.2001711443e+02   3.8901097402e+01    0.1233146   0.09824984 -89.21 0.0001328139    1.031    0.030
        75  -9.5629      3.4302    154.7807   1.1863902829e+02   4.1327843300e+01    0.1866262   0.08966097 -64.74 0.0009558293    1.688    0.408
        76 -10.4292    249.6476    150.6384   5.8671935361e+01   3.6644932074e+00    0.3338116    0.0998524 -41.94  0.001244684    2.915    0.657
        77  -8.9037      2.0000    143.9934   1.1801097287e+02   4.4016111416e+01    0.2133276     0.058443 -74.19  0.000802741    2.945    0.660
        78 -11.2903    248.3332    130.8206   5.4779108014e+01   7.1528807721e+00    0.4386681    0.1355222 -40.53  0.001676498    2.683    0.627
        79 -11.0551    248.6344    119.1494   5.2290437572e+01   9.0232672287e+00    0.3390486    0.1651306 -51.88  0.001508587    2.286    0.562
        80 -11.5474    248.5777    104.3251   4.9174022468e+01   1.1434429017e+01    0.3814167    0.2196451 -44.46  0.002004045    1.477    0.323
        81  -8.1820    188.3076     97.2969   5.6984907917e+01   2.4712418862e+01      0.14321    0.1148055   8.31 0.0003062248    1.590    0.371
        82  -9.5146     92.1573     92.6541   7.9622833442e+01   4.6088040945e+01    0.2196303    0.1928248 -44.91 0.0002903553    1.145    0.127
        83 -11.2194    248.4200     75.3534   4.3090624181e+01   1.5933754926e+01    0.4345071    0.1506281 -49.83  0.001737805    2.850    0.649
        84 -10.5150    250.1322     54.8833   3.8675120473e+01   1.8514337756e+01    0.4111469   0.08602786 -44.45  0.001486139    3.606    0.723
        85 -10.4582      2.1904     40.7229   9.9889984338e+01   6.7507878813e+01     0.321491    0.1135071 -52.68  0.001571317    2.137    0.532
        86 -10.8920    169.1530    249.0538   9.1988409207e+01  -3.7786003073e-01    0.4725024    0.1662703  31.09  0.001970591    2.620    0.618
        87 -10.4124     18.4503     31.2237   8.8334804159e+01   6.8049159668e+01    0.3603983    0.1329089 -26.36  0.001367742    3.789    0.736
        88 -10.6649      1.5083     25.9241   9.5244306229e+01   7.0266003421e+01    0.4052855    0.0937254 -53.62  0.001604513    3.759    0.734
        89 -10.4666    127.5566    248.5409   1.0040453023e+02   5.7464648758e+00    0.3396697    0.1665976  52.16  0.001562679    2.427    0.588
        90  -9.5462    109.6051    249.1865   1.0417477565e+02   8.1986584901e+00    0.1554507    0.1143886 -44.90 0.0007468343    1.627    0.385
        91 -11.8622    143.6218    247.1808   9.6917869880e+01   3.6393959912e+00    0.5816078    0.2578467  30.16   0.00268345    2.099    0.523
        92 -10.8019     97.3627    244.5626   1.0617961857e+02   1.0758572836e+01    0.4221663     0.167528  38.67  0.001948941    2.098    0.523
        93 -10.8840     84.3843    244.4592   1.0884007860e+02   1.2543941060e+01     0.306122    0.1892392  51.04  0.001761488    1.445    0.308
        94  -9.9286     45.5603    245.0647   1.1663894173e+02   1.7251547240e+01    0.3764229    0.1496184  46.64   0.00192778    2.051    0.512
        95 -11.0350    178.3749    243.8828   8.9370361781e+01  -8.9491387212e-01    0.4259144    0.2261263  15.12   0.00199034    2.328    0.570
        96 -10.4233     56.9074    242.2232   1.1419027932e+02   1.6473001981e+01    0.4602912    0.1754798  52.05  0.002130156    2.456    0.593
        97 -10.4596     29.5857    240.8903   1.1941247639e+02   1.9822327749e+01    0.3942887    0.1921872  66.71  0.002167992    1.975    0.494
        98 -10.7222     15.6812    240.6684   1.2199955578e+02   2.1274663228e+01    0.5160841     0.204168  45.95  0.002859573    2.011    0.503
        99 -11.1117    225.9236    240.7445   7.9735280430e+01  -6.9497171404e+00    0.3740332    0.1998995   1.28  0.001859343    2.338    0.572
       100 -11.0767    107.5266    241.4868   1.0371191100e+02   9.9046136150e+00    0.4393418    0.1459747  45.75    0.0017377    2.870    0.652
