#   1 NUMBER                 Running object number                                     
#   2 MAG_AUTO               Kron-like elliptical aperture magnitude                    [mag]
#   3 X_IMAGE                Object position along x                                    [pixel]
#   4 Y_IMAGE                Object position along y                                    [pixel]
#   5 X_WORLD                Barycenter position along world x axis                     [deg]
#   6 Y_WORLD                Barycenter position along world y axis                     [deg]
#   7 A_WORLD                Profile RMS along major axis (world units)                 [deg]
#   8 B_WORLD                Profile RMS along minor axis (world units)                 [deg]
#   9 THETA_WORLD            Position angle (CCW/world-x)                               [deg]
#  10 FWHM_WORLD             FWHM assuming a gaussian core                              [deg]
#  11 ELONGATION             A_IMAGE/B_IMAGE                                           
#  12 ELLIPTICITY            1 - B_IMAGE/A_IMAGE                                       
         1 -14.3876     68.5849    145.1762   1.0053001143e+02   3.6785774311e+01     4.663395     2.498124  81.41  0.004845774    4.276    0.766
         2 -13.7766    228.8798     20.0298   3.4203046463e+01   2.6732508532e+01    0.9600484    0.8414077  38.07  0.002602039    1.543    0.352
         3 -13.7188    202.5857     42.4153   4.2120812574e+01   2.9731332928e+01     1.262511    0.9792368  28.91  0.004303391    1.725    0.420
         4 -13.9790    210.7913     37.2479   3.9886372740e+01   2.8562998113e+01     1.520202     1.254706 -17.84  0.007563342    1.477    0.323
         5 -12.6704    218.9982     29.4639   3.7202063223e+01   2.7729575421e+01    0.5690355    0.4419931  41.45  0.001191807    1.665    0.400
         6 -11.5607    248.5958      2.5388   2.9211187081e+01   2.4654179074e+01    0.3833368     0.227831 -84.21  0.002141967    1.529    0.346
         7 -13.2952     16.0055    215.2148   1.2116256469e+02   2.6172901817e+01    0.4539551     0.369706 -89.31  0.001690529    1.131    0.116
         8 -13.7463      5.7397    186.4166   1.2134239968e+02   3.3363762160e+01     1.713267    0.8922203  85.25  0.001905621    1.736    0.424
         9 -15.2081    117.4499    230.4125   1.0148264057e+02   1.0292477077e+01     7.751824     1.509366  33.51   0.02118332    5.709    0.825
        10  -9.4362     91.7330    215.9378   1.0522232067e+02   1.6968884478e+01    0.1762693    0.1570308  85.17 0.0004303676    1.125    0.111
        11 -10.2611    109.6801    201.9228   9.9233327765e+01   1.7262608545e+01    0.3495218    0.2351596 -44.60  0.001440739    1.631    0.387
        12 -10.8886    192.5101    194.1935   7.9417265324e+01   4.9517277574e+00    0.7441339    0.4087047 -63.89  0.002292972    5.612    0.822
        13 -12.7522     85.9411    222.6929   1.0729194988e+02   1.6385558558e+01    0.6817653    0.4425423  68.05 0.0007157323    1.722    0.419
        14 -13.4658     30.7354    204.2900   1.1734819459e+02   2.7077112085e+01    0.6388713    0.5325435 -34.22  0.001231819    1.655    0.396
        15  -8.7035    119.7458    194.3008   9.5682281805e+01   1.7301726814e+01    0.1347462    0.1076218  74.67 0.0002054089    1.502    0.334
        16  -9.7696     81.3693    182.1048   1.0309274134e+02   2.6002286516e+01    0.3115758    0.1818649  39.95 0.0006470489    1.679    0.404
        17  -9.7985    100.0018    180.8179   9.8260211419e+01   2.3510763844e+01    0.3083576    0.1927349  27.59  0.001357477    1.755    0.430
        18 -12.1086     59.3104    177.3772   1.0792516153e+02   3.0068144804e+01    0.4681701    0.2943462 -35.96  0.001584358    2.130    0.531
        19 -11.9435     64.6107    172.1545   1.0588146454e+02   3.0656776227e+01    0.3190601    0.2694752 -39.67 0.0008251668    1.337    0.252
        20 -14.6947     44.4078    249.4501   1.1804585646e+02   1.6359719393e+01     3.722543    0.7314807  30.25   0.01061737    8.014    0.875
        21 -11.8600     74.7137    162.6431   1.0180784858e+02   3.1623677387e+01    0.3638619    0.3125717  44.51 0.0004212291    1.202    0.168
        22 -12.6435     81.7450    156.4523   9.8868995915e+01   3.2139291521e+01    0.8981384    0.6301626 -34.29  0.000889867    1.667    0.400
        23 -16.0842     35.1459    187.7251   1.1489138472e+02   3.0367606905e+01     9.843021      3.87661  81.28   0.03121043    5.067    0.803
        24 -15.5435      8.5300    240.3120   1.2397587338e+02   2.1832320649e+01     2.408631     1.719894 -87.64   0.01795835    1.252    0.201
        25  -9.3803    174.8717    149.1231   7.3757455892e+01   1.6952694759e+01    0.2281137    0.2100204 -81.69 0.0007144063    1.325    0.245
        26 -10.4188    133.8322    145.9806   8.2825882801e+01   2.5716995062e+01    0.8109809    0.2087411 -53.63  0.001916229    5.498    0.818
        27  -9.2932    146.4516    172.2191   8.5287387629e+01   1.7477717856e+01    0.2004277    0.1442609 -61.77 0.0008622632    1.648    0.393
        28 -10.6442     29.1632    143.3229   1.1138561076e+02   4.1655321790e+01    0.3665225    0.2830954  -5.60  0.001820958    1.685    0.407
        29 -10.3174     96.8190    142.2060   9.1948658318e+01   3.3282665933e+01    0.3294213     0.270034   5.64 0.0008668116    1.439    0.305
        30  -9.7582    100.2696    138.9481   9.0285994585e+01   3.3496053931e+01     0.343735    0.2338877  -9.22  0.001419218    2.235    0.553
        31 -12.3368     84.8854    140.7180   9.5025766815e+01   3.5549437531e+01    0.3098941    0.2586649 -47.35 0.0003750637    1.147    0.128
        32  -9.4688    198.3427    140.3519   6.6834087830e+01   1.4073208604e+01    0.2905037    0.1599867 -55.66  0.001119924    2.443    0.591
        33 -11.5796     75.3637    136.5245   9.6946397008e+01   3.7999111371e+01     0.482616     0.292154  62.16  0.001379494    2.348    0.574
        34 -13.5048     61.7351    158.5117   1.0463215362e+02   3.4362872045e+01    0.5404039    0.3150875 -43.72  0.001471409    1.876    0.467
        35 -10.5534     41.7729    133.6026   1.0634951333e+02   4.2861077203e+01    0.2308783    0.1744692  41.62  0.001285757    1.470    0.320
        36 -10.1987     21.3101    132.2758   1.1214485839e+02   4.5044469201e+01    0.2365254    0.1709226 -38.44 0.0002345713    1.491    0.329
        37 -11.0407     17.9396    130.4577   1.1287933757e+02   4.5750340100e+01    0.3307606    0.1899818  42.58  0.001444751    1.978    0.494
        38 -10.7539    107.0928    131.0533   8.6589896810e+01   3.4202997550e+01    0.4842653    0.3420236  33.27   0.00179262    1.488    0.328
        39  -9.8741    135.9972    128.5171   7.8154292968e+01   2.9253798729e+01    0.2641836      0.20655 -42.47 0.0009431517    1.241    0.194
        40 -11.0296     95.4413    127.3436   8.9079530775e+01   3.7119817526e+01    0.3113233    0.2576335 -21.08  0.000983249    1.325    0.245
        41  -9.4594    115.7362    124.8684   8.2687381553e+01   3.4064569097e+01    0.2663917    0.1680042 -10.99 0.0009471453    2.814    0.645
        42  -9.6492    105.9190    119.6404   8.4180016363e+01   3.7111240165e+01    0.2339654    0.1955946 -34.16 0.0003051102    1.176    0.150
        43  -9.1956    168.0381    113.0763   6.6536315416e+01   2.5768654542e+01    0.2532472    0.1927689 -76.50  0.001134303    1.820    0.450
        44 -10.0747    205.1542    110.5892   5.8533237947e+01   1.8289539925e+01     0.319233    0.2480881  29.96  0.001300872    1.488    0.328
        45 -11.5240    245.9796    108.8932   5.1679777198e+01   1.0610282201e+01    0.2617612    0.1845664 -32.30  0.001462376    1.262    0.208
        46  -9.1565    134.6861    105.6737   7.2563277257e+01   3.4523079086e+01     0.160636    0.1223669  -2.32 0.0007042833    1.667    0.400
        47 -11.2237     55.1922     95.9873   9.4421825180e+01   5.0541746146e+01    0.5565703    0.2800552  53.22  0.002073873    3.427    0.708
        48 -10.8641     52.8780     90.8910   9.3954693244e+01   5.2004346822e+01    0.3412554    0.1975589 -53.25  0.001111701    1.545    0.353
        49  -8.5919    130.6831     96.2714   7.0991049005e+01   3.7336316006e+01    0.1486143    0.1243217  89.54 0.0002634698    1.561    0.359
        50 -10.1691     41.5193     92.1514   9.8331040957e+01   5.2985807229e+01    0.2136509    0.1885566   3.78 0.0003789222    1.234    0.190
        51 -10.3278    250.0077     87.9830   4.6635244452e+01   1.3206185997e+01    0.1641458    0.1303118 -43.02 0.0004579553    1.059    0.055
        52  -9.3421    161.1624     82.6153   5.9834985742e+01   3.3133701116e+01    0.2077529     0.136861  41.44 0.0004084691    1.601    0.375
        53 -10.6001     10.6980     76.4904   1.0633375882e+02   5.9079601780e+01    0.3731122    0.1642044  32.09  0.001805989    2.737    0.635
        54  -9.1067     36.1925     63.4181   9.2705579799e+01   5.9877525035e+01    0.1668212    0.1187878  33.92 0.0009415091    1.659    0.397
        55 -11.5540     13.1060     60.0913   1.0148643013e+02   6.2511273580e+01     0.321461     0.271375  81.94 0.0006008401    1.680    0.405
        56  -9.2508     39.9162     58.3293   8.9572338562e+01   6.0511593867e+01    0.1741265    0.1481572  -9.22 0.0005292343    1.106    0.096
        57  -8.6603    111.6213    218.2336   1.0112236595e+02   1.3557819771e+01    0.1370212   0.08999324  55.90 0.0003264366    1.620    0.383
        58 -13.0087     58.3139    242.5240   1.1489053953e+02   1.6034435567e+01    0.4850932    0.2966938  58.12 0.0006278215    1.439    0.305
        59  -9.3407    197.5237    223.1304   8.3663419313e+01  -7.6457263488e-01    0.1754606    0.1208547 -34.94 0.0007274313    1.491    0.329
        60 -11.2073     11.6310     52.7549   1.0013415118e+02   6.4130490476e+01    0.2092075    0.1955138   3.26  0.001001008    1.318    0.241
        61 -14.5216     10.4199    206.8047   1.2173256432e+02   2.8473518261e+01    0.8390157    0.6441748  23.83  0.003405164    1.669    0.401
        62 -10.7103    132.8208     39.8145   5.2988311483e+01   4.6467271032e+01     0.301535    0.2412671 -82.14 0.0006084641    1.567    0.362
        63 -10.5689    133.3791     32.4812   5.0476496136e+01   4.7258795675e+01    0.2542038    0.2179157 -82.94 0.0006853755    1.349    0.259
        64  -8.3921    115.4893     31.5196   5.4121903758e+01   5.1484350622e+01    0.1359079     0.124042  37.23 0.0004075692    1.022    0.022
        65  -9.6843     21.0025     56.4907   9.7070604985e+01   6.2688029069e+01    0.1676043     0.117838  16.88  0.001011762    1.562    0.360
        66  -9.8725    189.6343     15.1527   3.6892046995e+01   3.5902692877e+01     0.216013    0.1576207  89.64  0.000591172    1.286    0.222
