#   1 NUMBER                 Running object number                                     
#   2 MAG_AUTO               Kron-like elliptical aperture magnitude                    [mag]
#   3 X_IMAGE                Object position along x                                    [pixel]
#   4 Y_IMAGE                Object position along y                                    [pixel]
#   5 X_WORLD                Barycenter position along world x axis                     [deg]
#   6 Y_WORLD                Barycenter position along world y axis                     [deg]
#   7 A_WORLD                Profile RMS along major axis (world units)                 [deg]
#   8 B_WORLD                Profile RMS along minor axis (world units)                 [deg]
#   9 THETA_WORLD            Position angle (CCW/world-x)                               [deg]
#  10 FWHM_WORLD             FWHM assuming a gaussian core                              [deg]
#  11 ELONGATION             A_IMAGE/B_IMAGE                                           
#  12 ELLIPTICITY            1 - B_IMAGE/A_IMAGE                                       
         1 -11.5333     79.3890     32.2029   6.7996954294e+01   6.0905282702e+01    0.6798528    0.4641662 -68.25  0.002991598    2.265    0.559
         2 -10.2250     79.4982     25.2157   6.4635611638e+01   6.1985354831e+01     0.824616    0.5245153  86.64  0.003207992    3.073    0.675
         3 -10.4617    236.9744     27.2514   3.8989414859e+01   2.2751486370e+01    0.3807212    0.2904012  12.30  0.001733458    1.800    0.444
         4  -9.3083     22.1732     26.1193   9.3995532623e+01   7.1566092659e+01    0.6780431   0.04479136 -50.62  0.001817311    5.853    0.829
         5 -10.4725     30.3066     22.9185   8.7254022361e+01   7.1280106087e+01    0.6879258    0.2164316 -41.30  0.002527687    3.168    0.684
         6 -10.7443    101.5879     16.2961   5.3754652070e+01   5.7867089500e+01    0.5602047    0.4196852  29.57  0.001810052    1.444    0.307
         7 -11.5538    111.7934     19.2860   5.2666883048e+01   5.4891016698e+01    0.5524798    0.4545512  37.70  0.002648711    1.243    0.196
         8 -11.9696    122.2848     11.1008   4.7084463764e+01   5.3039561569e+01    0.7213008    0.4109221  66.30  0.001115201    1.622    0.383
         9 -10.5532    127.3136      4.7366   4.3645385647e+01   5.2310282367e+01     0.390775    0.2855044  57.39  0.001139746    1.285    0.222
        10 -11.0359     55.3155     17.3614   7.0397069776e+01   6.8232969355e+01    0.8333581    0.5307022  32.55  0.003163359    1.625    0.384
        11 -11.1567     56.3445     14.3226   6.8179324670e+01   6.8493126962e+01    0.7642721    0.4078672  33.59  0.003035653    2.062    0.515
        12 -11.0967    149.9397     18.5914   4.5480895852e+01   4.4849275828e+01    0.3550798     0.300732 -43.81 0.0004815187    1.180    0.152
        13 -10.4298    154.7991     15.4024   4.3698212131e+01   4.3900602901e+01    0.5282555    0.3920343  16.24  0.002141248    1.713    0.416
        14  -9.9648    157.2201      9.0542   4.1223017439e+01   4.3901215643e+01    0.5218233    0.3124639  28.44  0.002296426    2.285    0.562
        15  -9.1875     47.0402      9.6392   6.9897901654e+01   7.0950166884e+01    0.3169012    0.2570796  13.15  0.001885606    1.197    0.165
        16  -9.8605     38.4189     16.8438   7.9031836456e+01   7.1258991937e+01    0.5397949    0.3252901   0.43  0.001839925    2.644    0.622
        17  -9.3614     43.7849     15.4468   7.5168859432e+01   7.0623328335e+01    0.3542461    0.2302604  -3.81 0.0009786636    2.051    0.512
        18 -10.3419     86.5700     16.4978   5.7991026605e+01   6.1552244457e+01    0.5576111    0.2833184 -44.20  0.001550631    2.243    0.554
        19 -10.3235     25.0607      6.2139   8.1144506283e+01   7.5024651481e+01    0.4578636    0.2762367 -51.31  0.001312315    1.927    0.481
        20 -10.1749     10.7038     15.6999   9.7432309587e+01   7.4787252594e+01    0.3699731    0.3210153 -33.33   0.00251367    1.037    0.036
        21 -10.1503     22.8338     16.0822   8.8657553277e+01   7.3518144944e+01    0.3730753    0.3097282 -79.60  0.001612796    1.704    0.413
        22  -9.7554      2.2404      5.3356   9.9419037485e+01   7.7512239244e+01    0.3714378    0.2663242 -62.53  0.002361193    1.428    0.300
        23 -10.1850     17.3968      3.2068   8.4949858673e+01   7.6512604189e+01    0.3808427    0.3442097  24.16  0.002633496    1.288    0.224
        24  -8.8583      8.0579      9.2769   9.6378702591e+01   7.6301514672e+01    0.2007852    0.1342094 -40.82            0    1.260    0.206
        25  -9.9225      6.7448      2.6752   9.3778353412e+01   7.7692733457e+01    0.3151666    0.2589428  16.39  0.001274672    1.310    0.237
        26 -10.0568     19.2158     11.0088   8.8442144786e+01   7.4893882910e+01    0.2793118     0.194918 -11.02 0.0006262936    1.508    0.337
        27 -11.2554     13.4408      7.1763   9.0713894375e+01   7.6225204283e+01    0.5683168     0.421275  53.02  0.003375961    1.989    0.497
        28 -11.3758    181.5219     13.1931   3.9942084000e+01   3.7166934531e+01    0.9966367    0.3841457  47.37  0.003634311    3.283    0.695
        29  -9.7592     29.2512     17.8161   8.5261650304e+01   7.2396859236e+01    0.3432773    0.2315369 -30.89 0.0006780036    1.410    0.291
        30  -8.2825     32.8162     10.4248   7.8616392056e+01   7.3209922454e+01    0.3204708    0.1615213  23.21   0.00141409    2.566    0.610
        31  -9.8697    216.4595      7.9268   3.5648300587e+01   2.9253632330e+01    0.3396378    0.1923758 -40.16  0.001369014    1.492    0.330
        32 -10.8562    210.8006     10.7241   3.6769309365e+01   3.0279965664e+01    0.4480614    0.2948019 -43.57  0.001139941    1.314    0.239
        33 -10.2661    212.5324      6.0380   3.5420763877e+01   3.0338586739e+01    0.3215437    0.2025581 -36.06  0.001259014    1.405    0.288
        34  -9.3821     92.1907     10.1941   5.3251932054e+01   6.0924293368e+01    0.4406084    0.1750524  65.12  0.001149152    2.546    0.607
        35  -8.9163    102.1116      7.8202   4.9687872801e+01   5.8662149683e+01    0.2587567    0.2068373  14.54  0.001384298    1.381    0.276
        36  -9.9328     78.6981      7.0017   5.5458833450e+01   6.4550355538e+01       0.3848    0.3241438  38.94    0.0022143    1.105    0.095
        37  -8.5934     69.6550      7.2271   5.8606481745e+01   6.6612653885e+01     0.197035    0.1747829   6.32  0.001168524    1.102    0.093
        38  -9.0061    102.4890      1.5194   4.6632284245e+01   5.9158501639e+01    0.2193105    0.1940099  59.84 0.0006570647    1.039    0.037
        39  -9.0799    108.0002      5.9841   4.7588368278e+01   5.7315197914e+01    0.2180846    0.2034895 -89.40 0.0006956495    1.091    0.084
        40  -9.5602    106.8235      2.5720   4.6261817883e+01   5.7937375334e+01    0.4456062    0.2534407  83.04    0.0019673    1.959    0.490
        41  -8.0951     57.2764      6.7116   6.3188987297e+01   6.9348598218e+01    0.1215904    0.1049712 -64.27 0.0002331801    1.516    0.340
        42 -10.6038     90.1412      3.3378   5.0316700895e+01   6.2138611916e+01    0.3763233     0.312251 -80.42  0.001271133    1.380    0.275
        43 -10.8793     84.5912      1.3765   5.0713603784e+01   6.3698926058e+01    0.2813753    0.1479371  67.80   0.00039446    1.902    0.474
        44  -9.8606     38.4989      4.8991   7.1503433902e+01   7.3157803410e+01    0.3256899    0.1985188  42.04 0.0009791729    1.644    0.392
        45  -9.7786     40.0990      1.3966   6.8148933369e+01   7.3363172815e+01    0.3638468    0.1504147  50.78   0.00107167    2.643    0.622
        46  -8.8084    230.3392      2.1852   3.3390441192e+01   2.6722897745e+01    0.3437025    0.1216023 -59.64  0.001286683    2.828    0.646
        47  -8.7563     30.5000      2.4545   7.4782900419e+01   7.4829683164e+01    0.2544954    0.1151057 -38.25  0.001197655    2.133    0.531
        48  -8.7699    241.8840      1.6511   3.2674395208e+01   2.4336725621e+01    0.1676013     0.139873  67.03  0.000679789    1.430    0.301
        49  -8.9620    185.6819      1.9209   3.6220982892e+01   3.7203895417e+01    0.1842207    0.1573535 -49.74  0.000377622    1.099    0.090
        50  -7.9756    175.2757      4.3138   3.7819262862e+01   3.9627782904e+01    0.1319874    0.1008231  38.36  0.000222976    1.562    0.360
        51 -10.3818    186.0293     13.5192   3.9605523251e+01   3.5995597808e+01    0.3227552    0.2596779  65.19 0.0009816461    1.283    0.220
        52  -8.7360    170.5260      1.4785   3.7361577676e+01   4.1110269586e+01     0.228043    0.1305434  49.68 0.0008612552    1.922    0.480
        53  -8.2695    137.2033      1.3380   4.0915314655e+01   4.9955521195e+01    0.2009535    0.1218112  88.30 0.0003951323    1.669    0.401
        54  -9.4046     64.7016      1.4063   5.6929126820e+01   6.8369864134e+01    0.2394111    0.1275212  61.89 0.0006772598    1.956    0.489
        55  -8.6123    205.9484     21.2226   3.9964890519e+01   3.0320929505e+01     0.175026    0.1544587 -83.87            0    1.116    0.104
        56  -9.4747     49.9528    111.6900   1.0385106175e+02   4.7925621685e+01    0.2708829     0.192173 -85.92 0.0007682208    1.436    0.303
        57 -10.6126     20.9304    110.0535   1.1376478662e+02   5.1327284804e+01     0.428453    0.2327382  45.26  0.002137634    1.817    0.450
        58  -8.0444    108.2558    111.6989   8.5162277428e+01   3.8386778767e+01    0.1468307    0.1174605  85.99 -0.000275831    1.505    0.336
        59  -9.0195    128.3702    109.4117   7.9079748636e+01   3.4759497783e+01    0.2865978    0.2343534  36.89  0.001252762    1.238    0.192
        60  -9.1928     28.5838    109.7539   1.1103401063e+02   5.0734305895e+01     0.249788    0.1895482 -39.28 0.0008963717    1.530    0.346
        61  -9.8285     17.2120    103.8219   1.1438312613e+02   5.3190878784e+01    0.4940344    0.2702203 -21.03  0.002215422    2.803    0.643
        62 -11.0268      6.9777    107.8360   1.1843474559e+02   5.2888419851e+01    0.4661287    0.3034735  67.21  0.001277433    1.448    0.309
        63  -9.9764      8.7862    103.7760   1.1742966061e+02   5.3788322497e+01    0.3348668    0.2087018 -83.11  0.001509717    1.392    0.281
        64  -9.3655     11.7169    101.6672   1.1615599580e+02   5.4125741856e+01    0.2207312    0.1553144 -67.74 0.0003054798    1.274    0.215
        65  -8.4682    100.4446    109.0462   8.6814293113e+01   4.0507752776e+01    0.2203403    0.1473586 -51.57 0.0006586163    1.509    0.337
        66  -8.9867     35.0232    107.5009   1.0843101529e+02   5.0676345570e+01    0.3630018    0.1315564 -73.10  0.001360446    2.686    0.628
        67  -8.9341    122.6709    107.1732   8.0018717836e+01   3.6440534598e+01    0.2174076    0.1391586 -37.73  0.000934808    1.696    0.410
        68 -10.7429     80.3000    103.8626   9.1928845282e+01   4.5386123968e+01    0.5374096    0.3339693  33.67  0.001565229    1.691    0.409
        69  -8.4404     61.2063    106.5986   9.9009755939e+01   4.7702923709e+01    0.1822258    0.1409978  16.33 0.0002574739    1.548    0.354
        70  -8.4778     42.0000    105.9615   1.0568730880e+02   5.0315216962e+01    0.2286795   0.07371223 -67.83 0.0007947411    2.889    0.654
        71  -9.7401    108.3452    103.2376   8.3022739122e+01   4.0269181877e+01    0.4002139    0.2509165  33.99 0.0007789399    1.744    0.427
        72  -9.1602     64.8819    103.9564   9.7187649474e+01   4.7825243901e+01    0.2121486     0.185055 -41.04  0.001152702    1.243    0.196
        73  -8.7594    134.6984    102.9908   7.5793795035e+01   3.4724925355e+01     0.217535    0.2020244 -38.28 0.0006182188    1.095    0.087
        74  -8.6964     56.4958    103.0035   9.9946338213e+01   4.9256133126e+01    0.1993155    0.1799326 -78.20 0.0004577896    1.043    0.042
        75 -10.2535     53.3635     99.4084   1.0035349425e+02   5.0577252122e+01    0.4814315    0.2730767 -58.74  0.002209285    1.645    0.392
        76 -10.0596     45.1415    101.8728   1.0383863452e+02   5.0986103838e+01    0.3249151    0.2323439  61.46 0.0006020094    1.479    0.324
        77  -8.5787     94.9548    101.5152   8.6631932996e+01   4.3295854567e+01    0.2430885    0.1972758 -55.21 0.0007874127    1.233    0.189
        78  -8.1815     73.6499     99.7384   9.3206349155e+01   4.7494973641e+01    0.1442885    0.1164084 -12.84 0.0006975597    1.610    0.379
        79 -10.1260     69.1894     96.7150   9.4051376428e+01   4.8949283594e+01    0.3950752    0.2565207 -64.17 0.0009982078    1.545    0.353
        80  -9.1917    107.3084     97.6034   8.1840559240e+01   4.1737755102e+01    0.2711916    0.1928328  34.56 0.0007488548    1.501    0.334
        81 -10.3273     16.8337     95.7344   1.1355497598e+02   5.5262469767e+01    0.5751958     0.218228  43.22  0.002415164    2.668    0.625
        82  -9.7364    148.2006     96.4410   7.0772403447e+01   3.2995824151e+01    0.2744273     0.213795 -38.61 0.0005121641    1.287    0.223
        83  -9.6685    117.6543     94.7067   7.8065843172e+01   4.0184066790e+01    0.4325213    0.2967727 -87.90  0.001353011    2.359    0.576
        84  -9.7655     78.6813     95.0646   9.0334022143e+01   4.7778220215e+01    0.4007622    0.3212537   7.70  0.001977197    1.587    0.370
        85  -9.2853     39.1413     85.2456   1.0293587996e+02   5.5872853057e+01     0.219595    0.1704348 -55.14 0.0004865087    1.213    0.176
        86 -10.4583     35.4046     95.0857   1.0629241493e+02   5.3786628061e+01    0.5421113    0.2941672 -42.17  0.001172132    2.109    0.526
        87  -8.9516     37.6927     89.2868   1.0433028051e+02   5.5013109853e+01    0.2042072     0.176184  69.58            0    1.182    0.154
        88  -9.7712     34.6661     89.7030   1.0561631025e+02   5.5226661881e+01    0.3578511    0.2275775  11.85  0.001541715    1.963    0.491
        89 -11.1571    139.6857     88.9944   7.0698291907e+01   3.6392620823e+01    0.7924262    0.4259157 -24.77  0.002824698    2.722    0.633
        90 -11.8685    132.1738     86.4985   7.1835133994e+01   3.8621881311e+01    0.7164313    0.3762647  37.53 0.0005023151    2.233    0.552
        91 -11.0578    120.2419     87.7847   7.5369836232e+01   4.1074788814e+01    0.4621905    0.3683822  50.52 0.0006528584    1.249    0.199
        92 -10.3816    124.4920     85.4836   7.3537646169e+01   4.0588889778e+01    0.3956665     0.286155 -30.82  0.001319458    1.527    0.345
        93  -9.7059    132.5383     93.4434   7.3736178674e+01   3.7147712283e+01    0.2913806    0.2672047  12.33 0.0008254153    1.194    0.162
        94 -10.4787     87.7347     89.9997   8.5924615388e+01   4.7336727867e+01    0.7641408    0.4367047 -67.23  0.002089181    2.297    0.565
        95  -9.2121     81.9393     84.9007   8.6478143754e+01   4.9599048130e+01    0.2659781    0.2146673 -64.24 0.0003274321    1.272    0.214
        96 -10.1070     76.0011     83.1950   8.8105584935e+01   5.1064339936e+01    0.3436412    0.2796814 -80.66 0.0005181726    1.379    0.275
        97  -9.8652     71.1141     83.0922   8.9866757702e+01   5.1927962470e+01    0.3433967    0.2886383  54.84  0.001252063    1.242    0.195
        98  -8.3545     73.5780     92.7971   9.1539491059e+01   4.9189515936e+01     0.196732    0.1403882 -70.51 0.0004139629    1.508    0.337
        99  -8.4872     24.6834     93.1310   1.1014607088e+02   5.5297160495e+01    0.2038012   0.09982581 -62.11 0.0006742127    1.775    0.436
       100  -9.7791    126.0009     91.6784   7.4936413454e+01   3.8979865005e+01    0.2251491    0.1963242  50.92  0.001121771    1.138    0.122
       101  -8.0989     28.7303     97.7101   1.0927858635e+02   5.3773895155e+01    0.1323655   0.09380388 -44.84  0.000188031    1.508    0.337
       102  -9.3351     80.0509     80.9808   8.6013712755e+01   5.0854057652e+01    0.2167111    0.2103917 -67.76   0.00119984    1.007    0.007
       103  -8.7935     52.1686     90.7012   9.8952425136e+01   5.2915235086e+01    0.3742307    0.1662681 -54.31  0.001314542    2.072    0.517
       104  -8.8989     44.3059     91.6159   1.0218783947e+02   5.3674981016e+01    0.1513458    0.1005226  71.46 0.0007020716    1.795    0.443
       105  -9.0409     15.7499     87.8507   1.1294675923e+02   5.7334312113e+01    0.4521656    0.1244923 -71.54  0.001639621    2.989    0.665
       106  -8.7315     17.1795     82.3540   1.1155905079e+02   5.8619792311e+01    0.3264877    0.1501107  86.44  0.001319664    2.670    0.625
       107  -8.3930     62.5318     89.4748   9.4732835579e+01   5.1751017989e+01    0.1448771    0.1366992 -50.37 0.0001642054    1.076    0.071
       108  -9.1279     56.8534     89.2792   9.6832589708e+01   5.2627456539e+01    0.2255032    0.1683112  50.49 0.0006309705    1.405    0.288
       109  -8.9676     47.8762     89.0210   1.0024770463e+02   5.3889919653e+01    0.2039519      0.19175 -70.51 0.0003505268    1.024    0.023
       110  -7.9398    145.3115     88.6214   6.9258478146e+01   3.5155736698e+01    0.1622002    0.1198218 -74.35 0.0001285694    1.796    0.443
       111  -9.8444    109.3820     87.5905   7.8414100612e+01   4.3497247588e+01     0.330261    0.2590607 -71.83 0.0009686937    1.497    0.332
       112  -9.7186    102.8000     86.7126   8.0145175662e+01   4.5082760749e+01    0.3384488     0.204611 -49.08 0.0008830271    1.661    0.398
       113  -8.9684      1.3934     94.0520   1.1928094388e+02   5.6640701967e+01    0.2430886     0.100419 -73.56 0.0004712835    1.985    0.496
       114  -9.3129     28.2280     85.4594   1.0745831277e+02   5.6926701097e+01    0.2966709    0.2236325  40.91  0.001167355    1.405    0.288
       115 -10.1297    173.9801     84.9456   6.2225427145e+01   2.9102227594e+01    0.2739298    0.2122156 -25.59            0    1.326    0.246
       116 -11.1329    158.2744     84.1054   6.5105357828e+01   3.2937014940e+01     0.509161     0.329832  63.77  0.002243026    1.733    0.423
       117  -8.7894     45.9893     84.0072   9.9882409715e+01   5.5378047953e+01    0.2133194     0.197029 -69.63 0.0004524442    1.006    0.006
       118 -11.5585    154.2857     79.3128   6.4561756493e+01   3.4741984113e+01    0.8233621    0.4633905  24.61  0.002758175    3.377    0.704
       119 -10.2415      6.2888     80.6594   1.1593510806e+02   5.9735781039e+01    0.4916254    0.2746927 -44.92  0.001562606    1.830    0.454
       120  -9.0364      1.8222     73.3510   1.1699188538e+02   6.1781869932e+01    0.2303117    0.1737952   4.36 0.0008089169    1.585    0.369
       121  -9.9583    144.3595     81.2033   6.7319731547e+01   3.6775547069e+01    0.3044424    0.2449812  85.01  0.001253123    1.484    0.326
       122  -9.2869     33.9859     84.3239   1.0486655907e+02   5.6654999242e+01    0.3409585    0.1884951  55.81  0.001338588    2.155    0.536
       123 -10.1421    113.3361     81.0347   7.5293973994e+01   4.4021366990e+01    0.3412907    0.2380573  13.37  0.001123447    2.225    0.551
       124  -9.5325    108.8365     80.8300   7.6549716405e+01   4.5059074626e+01    0.2682182    0.2131842  34.50 0.0007258023    1.339    0.253
       125 -11.5280    104.9565     78.1571   7.6890866997e+01   4.6470728691e+01    0.8447496    0.5712212  -6.72  0.003246007    2.626    0.619
       126 -10.4463     98.7434     76.3230   7.8255634987e+01   4.8194122467e+01    0.3700727    0.3470749 -31.61 0.0006585949    1.101    0.092
       127  -9.8979    101.3974     68.2107   7.4755202881e+01   4.9321242280e+01    0.4100763    0.2262911 -55.61 0.0008373812    2.151    0.535
       128 -11.2696     97.4773     69.5059   7.6440974176e+01   4.9907431984e+01    0.5422324    0.4322075 -37.27  0.001112602    1.285    0.222
       129 -10.0862     54.7455     80.2774   9.5439987612e+01   5.5139726944e+01    0.4741439    0.3068621  21.28  0.002223769    1.833    0.454
       130  -9.2059     37.4229     80.7850   1.0270293571e+02   5.7181158517e+01    0.5474542    0.1623281  31.86  0.001968147    3.237    0.691
       131  -8.4756     36.2973     77.6778   1.0250099986e+02   5.8079433259e+01    0.2266402    0.1349651 -70.95 0.0002490101    1.624    0.384
       132  -8.7254     22.4175     80.9601   1.0910800370e+02   5.8567277179e+01    0.2087979    0.1175168 -71.70 0.0004318694    1.585    0.369
       133  -9.9693     45.4796     73.2744   9.7479330748e+01   5.8092105857e+01    0.3858378    0.2322939 -55.96  0.001079421    1.518    0.341
       134 -10.0680     64.4317     70.6496   8.8815922875e+01   5.5965015228e+01    0.4749108    0.2522842  43.14  0.001665258    1.964    0.491
       135 -10.1665     59.8847     66.0213   8.9233448357e+01   5.7769571100e+01    0.4513005    0.3026686 -20.57  0.001346626    2.076    0.518
       136  -9.0365     49.0274     76.9500   9.6925690717e+01   5.6734469538e+01    0.3388223    0.2074719 -39.41  0.001372884    1.796    0.443
       137 -10.0127     55.7301     73.7894   9.3289459982e+01   5.6569960912e+01    0.6963009    0.4068342 -18.78  0.002576318    3.216    0.689
       138  -7.9571     28.3760     78.2255   1.0603805478e+02   5.8735933291e+01    0.1323708   0.09577781 -28.54 0.0001653074    1.602    0.376
       139 -11.7607    137.0155     69.6023   6.5466232913e+01   4.0682474658e+01    0.6154754     0.528304 -32.60 0.0004246566    1.194    0.162
       140 -10.2776    142.5127     68.5826   6.3872316000e+01   3.9514599103e+01    0.2869487    0.2677152 -68.91 0.0004593737    1.091    0.084
       141 -11.1395     78.3007     74.8645   8.4801963781e+01   5.2578213015e+01    0.7570393    0.3890378  26.12  0.002446237    2.833    0.647
       142 -10.3921     74.6333     75.2914   8.6288864725e+01   5.3145622931e+01    0.3845486    0.2561728  49.64  0.001242122    1.599    0.374
       143 -10.5988    147.1054     62.8463   6.1041205623e+01   3.9361573688e+01    0.5528472    0.3026095 -67.02  0.001823747    3.340    0.701
       144 -11.0815    153.1871     67.3128   6.1175734569e+01   3.7092941193e+01     0.540446    0.2218053  56.37  0.001934241    2.435    0.589
       145 -10.9710    152.2692     73.4261   6.3236635572e+01   3.6268420407e+01    0.3769868     0.372557 -35.35 0.0009771042    1.028    0.028
       146 -10.0889    155.7844     69.9785   6.1461093722e+01   3.6000214956e+01    0.2810997    0.2238174 -30.54 0.0006069103    1.280    0.219
       147  -8.3882    112.6219     76.7031   7.4150175899e+01   4.5076102362e+01    0.1603291    0.1229079  12.44 0.0007023784    1.754    0.430
       148  -9.7489    129.6929     75.3396   6.9080582020e+01   4.1381088285e+01     0.339062    0.1850707  44.90  0.001351718    1.871    0.465
       149  -9.0446      4.5341     75.9496   1.1611154733e+02   6.1005049995e+01    0.2309197    0.1490696 -60.84 0.0005413591    1.349    0.259
       150  -8.7297     30.9887     72.7178   1.0372967070e+02   5.9861793822e+01    0.1754862    0.1743846  30.24 0.0006363526    1.111    0.100
       151  -9.1735    127.6876     71.5264   6.8381258541e+01   4.2585954907e+01    0.2898276    0.1410109 -39.23  0.001092838    2.064    0.515
       152  -8.2785    183.8606     70.8289   5.6576515305e+01   2.9062838376e+01    0.1986414    0.1616123 -61.76 0.0002589782    1.302    0.232
       153  -8.5779     39.1081     71.3065   9.9765392087e+01   5.9343656805e+01    0.1784874    0.1695785  27.03 0.0003828695    1.143    0.125
       154  -9.7666     17.6661     70.1773   1.0929276457e+02   6.1639419495e+01    0.3428141    0.1776791 -58.79  0.001310074    1.640    0.390
       155  -9.0555     51.7999     69.8075   9.3809761995e+01   5.8086089085e+01    0.2035466    0.1824127 -43.53 0.0004736134    1.087    0.080
       156 -10.4625    120.7626     68.2216   6.9120477662e+01   4.4867378415e+01    0.4223605    0.3212393  18.83  0.001189849    1.698    0.411
       157 -10.5604    162.9857     67.0000   5.9145757423e+01   3.4720640919e+01    0.3320564    0.2148999  68.29   0.00120661    1.710    0.415
       158  -8.5900    106.5501     68.4598   7.3253295451e+01   4.8120688777e+01    0.1505108    0.1500978  37.33 9.902228e-05    1.017    0.016
       159  -9.3721     88.9002     66.7593   7.8378916398e+01   5.2290947431e+01    0.4085746    0.3039567  70.66  0.001150384    1.702    0.412
       160  -9.1249     94.0475     64.2522   7.5767745823e+01   5.1731573012e+01    0.2857238     0.230953  35.10 0.0009580303    1.293    0.227
       161  -8.0871    194.4874     67.5750   5.4023901895e+01   2.7066362410e+01    0.1401135     0.132659 -43.68 0.0004867823    1.015    0.015
       162  -9.9000    108.5770     62.7625   7.0692267409e+01   4.8779170888e+01    0.7124468    0.3944512 -63.81  0.002436834    3.073    0.675
       163  -8.6931    111.6947     62.7051   6.9765408709e+01   4.8062889995e+01    0.2948387    0.2209954 -23.26 0.0008748276    1.537    0.349
       164  -8.8451     70.7717     66.5900   8.5004306157e+01   5.5811708031e+01    0.2091085    0.1796855  19.50 0.0005400978    1.275    0.216
       165 -10.8101     43.6912     62.9788   9.5417924995e+01   6.0801253126e+01    0.4568311    0.4433126 -79.32  0.002261823    1.075    0.070
       166  -8.3295     49.4432     65.5095   9.3574933300e+01   5.9436489709e+01     0.140689    0.1310619 -52.04 0.0001642523    1.007    0.007
       167  -8.2973     34.4171     69.4564   1.0141882255e+02   6.0316931495e+01    0.1367903    0.1225982 -58.58 0.0001683367    1.021    0.020
       168  -9.8142     32.6508     64.0503   1.0088204590e+02   6.1824890932e+01    0.2861362    0.2570082 -32.63 0.0009323604    1.138    0.121
       169  -9.6166      4.0303     65.5071   1.1493866709e+02   6.3623920114e+01    0.5639416    0.3086178  36.15  0.002955635    2.013    0.503
       170 -10.5885      4.4075     59.5066   1.1383137847e+02   6.5083094151e+01    0.3273246    0.3094847 -64.27  0.001444962    1.108    0.097
       171 -12.0314      7.8307     56.7851   1.1160836996e+02   6.5573668335e+01    0.2617866    0.2495259 -57.01 0.0002550176    1.110    0.099
       172  -8.9787    201.9563     63.2214   5.1789268610e+01   2.5975639913e+01    0.3185727    0.1911197   4.06  0.001241576    3.018    0.669
       173 -10.1429    159.5470     67.1686   5.9857856393e+01   3.5542137801e+01    0.3629665    0.1502411 -32.00  0.001284938    2.493    0.599
       174 -11.3060    172.2564     60.7001   5.5596267970e+01   3.3425296484e+01    0.5167771    0.3928349 -47.97   0.00200674    1.289    0.224
       175 -10.1821     69.6592     55.8154   8.1678549784e+01   5.8370081870e+01    0.7200957    0.4221168 -21.97  0.002730138    2.806    0.644
       176  -9.7406     71.0566     62.3194   8.3447911324e+01   5.6709332288e+01    0.4474961    0.2286878  54.43  0.001074689    2.572    0.611
       177  -8.4209     76.7467     70.4193   8.3969874063e+01   5.3869307457e+01     0.200965    0.1431345  25.00 0.0006673757    1.646    0.393
       178  -8.4634     76.4814     61.8774   8.1188541604e+01   5.5797680216e+01    0.2162245    0.1427052 -45.44 0.0005220894    1.485    0.327
       179  -8.7936    219.0049     61.5474   4.9188819557e+01   2.2420330474e+01    0.1847782    0.1329872  64.67 0.0004996083    1.537    0.350
       180  -9.3638    120.8424     60.7152   6.6553705509e+01   4.6247370623e+01    0.2983679    0.2330464   2.60 0.0005863219    1.677    0.404
       181  -8.9015     88.4519     60.5247   7.6345709993e+01   5.3682999595e+01    0.2731211    0.2576749  52.54 0.0006256603    1.075    0.070
       182 -10.7211     95.2206     56.9881   7.2765029831e+01   5.2929681574e+01    0.6957833     0.525923  12.71   0.00282442    1.745    0.427
       183  -9.2335     50.7468     59.5726   9.1134127606e+01   6.0639728186e+01      0.22394    0.1789923 -54.34 0.0003718386    1.185    0.156
       184 -11.6325    149.9214     57.1696   5.8630692952e+01   3.9584285139e+01    0.6826804    0.4184277  82.10  0.002726303    2.242    0.554
       185 -10.1956     59.2100     58.0346   8.6861617605e+01   5.9692257447e+01    0.4427453    0.3385872  18.22  0.002064649    1.497    0.332
       186  -8.7698     58.1733     53.9021   8.5839783253e+01   6.0773907343e+01    0.3152528    0.1958488  24.77  0.001385295    1.900    0.474
       187 -10.3497    199.8508     56.5491   5.0273567374e+01   2.7390328780e+01    0.6890563    0.4109874  16.48  0.002697777    3.104    0.678
       188  -9.8132    212.2089     49.5428   4.6888995392e+01   2.5491764197e+01    0.3171529    0.2193966  84.90  0.001470263    1.650    0.394
       189  -8.9789    200.8051     48.9521   4.8079669856e+01   2.8191329966e+01    0.4974306    0.2856515 -56.88  0.001800489    1.894    0.472
       190  -9.7667    206.4823     53.5284   4.8616846446e+01   2.6269942536e+01    0.2911666    0.2391866 -44.20 0.0007667476    1.103    0.093
       191  -9.8814    207.5064     50.0090   4.7556040070e+01   2.6499529567e+01    0.3031237    0.2858742 -84.87   0.00100543    1.106    0.095
       192 -10.3884    159.9750     56.9624   5.6627853268e+01   3.7070421011e+01    0.4176574    0.3322038  31.41  0.002008293    1.457    0.314
       193 -10.4918    162.5631     51.8149   5.4547378172e+01   3.7196612906e+01    0.6349131    0.2719412 -41.76   0.00239436    2.250    0.556
       194  -9.4581     34.6178     57.7163   9.8190239604e+01   6.3136198724e+01    0.2376844    0.2094084 -80.54 0.0004867532    1.194    0.162
       195  -9.0947    213.9305     57.3134   4.8710056335e+01   2.4091153972e+01    0.1854627    0.1725949 -66.50 0.0004774428    1.090    0.083
       196  -9.2321    185.1057     56.8332   5.2421686235e+01   3.0852981456e+01    0.3434233    0.2178611  48.02  0.001369628    1.708    0.414
       197  -9.1494    105.5978     56.2974   6.9259846596e+01   5.0699016771e+01    0.3380403    0.2480742  32.99  0.001150259    1.520    0.342
       198  -8.9357    223.6703     56.0700   4.7280817240e+01   2.2136323737e+01    0.2178076    0.1768365 -80.62 0.0006896814    1.354    0.261
       199 -11.0878    173.9934     52.3806   5.2821138336e+01   3.4230296582e+01    0.7261326    0.2691931 -29.03  0.002541413    2.756    0.637
       200  -9.4784    170.0220     47.9954   5.2114904114e+01   3.5857290275e+01    0.3191708    0.2129764  75.25 0.0006887457    1.611    0.379
       201 -11.0735    167.0014     43.0785   5.1059052297e+01   3.7314058777e+01    0.5334507    0.4836504  70.76  0.002657065    1.103    0.093
       202  -9.4871    112.3355     55.9379   6.7176182381e+01   4.9169935945e+01    0.2871255     0.223491  52.89  0.000549463    1.270    0.212
       203 -10.2510     80.8008     53.5679   7.6505551325e+01   5.6676613451e+01    0.7067634    0.4085654 -23.78  0.002721451    2.554    0.609
       204  -9.9181     84.7109     48.0789   7.2923890569e+01   5.6931709337e+01    0.4245516    0.3160373 -19.32  0.001594998    1.576    0.366
       205  -8.4991     26.4272     56.2828   1.0189422580e+02   6.4318852838e+01    0.1702366    0.1215568 -74.00 0.0004367677    1.406    0.289
       206  -9.4175     22.3204     55.4933   1.0379760133e+02   6.4876845960e+01    0.3524481    0.1598048 -50.05 0.0005256798    1.930    0.482
       207  -8.6471    126.0679     55.1429   6.3270796791e+01   4.5945390681e+01    0.2306735    0.2061359  18.54 0.0006224713    1.245    0.197
       208 -10.4343    136.0003     52.4501   5.9999848226e+01   4.3889262743e+01    0.4998004    0.3529854 -18.49  0.002258548    1.671    0.402
       209  -8.8175     86.0505     54.3730   7.4909470238e+01   5.5427218649e+01    0.2154585     0.190367  49.83  0.001138931    1.148    0.129
       210  -9.9891     44.1760     52.4356   9.1821713429e+01   6.3189164108e+01    0.4017564    0.3465138 -85.92 0.0006733956    1.348    0.258
       211  -9.7652     49.1871     49.5572   8.8373792221e+01   6.3124371044e+01    0.2586199    0.1998015 -30.21 0.0004413002    1.332    0.249
       212 -10.5082     45.9200     47.1451   8.9060723431e+01   6.4128280003e+01    0.3952302    0.2386876  50.06 0.0002638738    2.042    0.510
       213  -8.9477     29.2392     52.6610   9.9423298245e+01   6.4905523760e+01    0.2062164    0.1654423 -51.53 0.0003505137    1.115    0.103
       214  -8.5662    187.6038     43.2296   4.8147930749e+01   3.2115628388e+01    0.2197196    0.1329212 -32.93 0.0007777699    1.556    0.358
       215 -10.1026    186.9947     48.2324   4.9676653632e+01   3.1596161618e+01    0.5134358    0.3074121 -14.42  0.001835093    2.101    0.524
       216 -11.0069    106.6511     50.7261   6.6868334548e+01   5.1465190602e+01    0.5339329    0.3482461  70.60 0.0002699966    1.929    0.481
       217  -8.3583      1.3849     51.8171   1.1412129082e+02   6.7090995460e+01    0.1770097   0.09186032 -61.32 0.0004053032    1.556    0.357
       218  -9.7807    115.5434     50.7767   6.4401072848e+01   4.9302883571e+01    0.4835021    0.3437828  84.76   0.00139908    1.869    0.465
       219  -9.6062    149.6640     50.3547   5.6448248413e+01   4.0718318488e+01    0.3430794    0.2037858 -47.84  0.001086977    1.743    0.426
       220 -10.7955    153.2178     46.0411   5.4350602478e+01   4.0446663342e+01    0.4703016    0.3145069  53.89 0.0004140905    1.487    0.328
       221  -9.7552    126.5316     50.3712   6.1460337789e+01   4.6631585756e+01    0.3185396      0.25381  30.18 0.0001973382    1.421    0.296
       222  -9.3701    121.8627     48.8351   6.2047866937e+01   4.8060440393e+01    0.3480932    0.2518417 -73.27  0.001553735    1.778    0.437
       223  -8.9156     94.3054     51.3023   7.0911357491e+01   5.4220402631e+01    0.3320183    0.2485162  15.42  0.001532322    1.729    0.422
       224  -9.2962     95.0000     47.5396   6.9207892296e+01   5.4755918074e+01      0.50112    0.2891506 -34.53  0.002075502    1.799    0.444
       225 -10.2428     17.0492     50.4052   1.0529603381e+02   6.6520462585e+01    0.3638279    0.3222793  16.08  0.001385621    1.262    0.208
       226  -8.4989    233.6327     49.1355   4.4550750163e+01   2.0910454776e+01    0.2703806   0.08373053 -36.72  0.001081222    2.474    0.596
       227  -9.0234     67.0211     63.0105   8.5300564407e+01   5.7271137107e+01    0.2182526    0.2048546 -36.59 0.0003738186    1.044    0.042
       228  -8.4012     55.4471     50.0419   8.5628193510e+01   6.2053750387e+01    0.3039272    0.1825523 -27.16  0.000638017    2.170    0.539
       229 -10.3972     59.4340     47.1508   8.2699604387e+01   6.2006763701e+01    0.3971885    0.3109407 -24.12  0.001938485    1.372    0.271
       230 -10.5670      5.8337     48.2399   1.1099904397e+02   6.7747119195e+01    0.2797497    0.1817837 -44.22 0.0002878392    1.410    0.291
       231  -8.5476     10.9315     47.8461   1.0805149838e+02   6.7552549237e+01    0.2268556    0.1603636  43.04 0.0008118176    1.634    0.388
       232  -9.3696     25.5860     48.3969   1.0008416998e+02   6.6267032509e+01    0.2695709    0.2126789  -1.56  0.001032038    1.412    0.292
       233  -9.5936     69.3440     44.4572   7.7337350440e+01   6.0753028352e+01    0.5953753    0.2786025 -31.17   0.00216257    2.828    0.646
       234  -9.5285     34.4202     46.6500   9.4772302152e+01   6.5731619283e+01    0.3151376    0.2122798 -72.35  0.001137651    1.720    0.419
       235  -9.9483     36.2576     39.4231   9.1104755457e+01   6.7111803504e+01    0.4287978    0.2350958 -52.60  0.001367538    1.684    0.406
       236 -10.6195     33.3761     35.3044   9.1051295851e+01   6.8356477066e+01    0.4435996    0.2299017 -40.69  0.001097268    1.853    0.460
       237 -10.6974    142.4619     43.8193   5.5644860616e+01   4.3564196983e+01    0.5320202    0.4243988   2.42  0.001327333    1.546    0.353
       238  -9.4105    174.8896     44.8657   5.0408217423e+01   3.5062729667e+01    0.2125845    0.1947447  38.89 0.0004263055    1.205    0.170
       239 -10.3593    108.9848     43.7734   6.3516703074e+01   5.2093807497e+01    0.4083634    0.3157647  66.83 0.0005456362    1.363    0.266
       240  -8.8419     19.7313     43.6340   1.0190867255e+02   6.7903038816e+01    0.3159795    0.2057821  68.99  0.001576005    2.188    0.543
       241  -9.0165      1.3806     44.9682   1.1286866985e+02   6.8736201692e+01    0.1808238    0.1039969 -72.59 0.0003037914    1.501    0.334
       242  -8.9393     76.0016     44.0199   7.4494705701e+01   5.9520354651e+01    0.2152191    0.2051109   7.22  0.001218865    1.038    0.037
       243  -9.7175     55.2596     42.1630   8.2571084515e+01   6.3740857715e+01    0.3719138    0.2911977 -20.46  0.001984579    1.380    0.276
       244  -8.1437    122.3533     43.7554   6.0039984655e+01   4.8756624066e+01    0.1518134    0.1161394 -82.50  0.000693243    1.587    0.370
       245  -9.9255    204.4474     40.9466   4.5469786604e+01   2.8365895781e+01    0.3707561    0.1624071 -38.68  0.001189909    1.972    0.493
       246  -9.3296    100.3693     41.4977   6.5092844524e+01   5.4554609594e+01    0.4482665    0.2707297  47.90  0.001760303    1.619    0.382
       247  -9.3720     27.7799     41.4067   9.6578807977e+01   6.7653516463e+01    0.2660173    0.1760163 -34.95  0.000552315    1.500    0.334
       248  -9.0377    213.6586     40.9987   4.4493757409e+01   2.6238171295e+01    0.1956302    0.1603156 -35.91  0.001067237    1.121    0.108
       249  -9.1955    196.5620     39.8067   4.6058668819e+01   3.0379225983e+01    0.5283861     0.211252 -54.05  0.001890204    3.042    0.671
       250  -9.5479    149.4964     39.1296   5.2698825158e+01   4.2400871753e+01    0.5249166    0.2497497 -46.25  0.001043115    2.192    0.544
       251 -10.2843     63.5215     40.7981   7.8249978523e+01   6.2563212011e+01    0.4978197    0.3259409  53.06  0.001311584    1.762    0.432
       252  -8.9572     62.5328     36.4307   7.6748256502e+01   6.3582660027e+01    0.3680562    0.2410824  28.67  0.001037637    1.701    0.412
       253  -9.9962    106.8572     35.0114   6.0564164157e+01   5.4008075665e+01    0.2548996    0.2096024  57.67            0    1.185    0.156
       254  -9.7582    112.5083     39.0839   6.0712632000e+01   5.1972832634e+01     0.296963    0.2782763 -87.91 0.0009607595    1.109    0.098
       255  -8.6075    110.3312     36.2850   6.0158572268e+01   5.2948253733e+01    0.2157878    0.1969755   7.23 0.0002378835    1.180    0.152
       256  -8.3005     41.0035     38.9969   8.8372677400e+01   6.6575281705e+01    0.1527635    0.1399538 -29.33 0.0009192049    1.004    0.004
       257  -8.9936      2.9970     39.2946   1.1070146884e+02   7.0008069478e+01    0.2780189    0.1363151  21.46 0.0008256921    2.267    0.559
       258  -8.7085    225.9606     38.4618   4.2644968204e+01   2.3818319813e+01    0.1866545   0.09646504 -71.95 0.0008093148    2.558    0.609
       259  -8.4511    181.7490     38.0579   4.7395863159e+01   3.4239413537e+01    0.2029369    0.1673012 -42.48 0.0008900342    1.147    0.128
       260  -9.5788    161.7235     37.0947   4.9970133076e+01   3.9485006584e+01    0.3767128     0.254122 -30.09  0.001549676    1.492    0.330
       261  -8.9178    131.8380     37.8439   5.5682611490e+01   4.7203720783e+01    0.2427613    0.2008353 -77.76 0.0007066415    1.314    0.239
       262  -9.7220    127.4950     36.6746   5.6181986020e+01   4.8502342568e+01    0.3384034    0.2963457  70.46 0.0009444852    1.122    0.109
       263  -8.9753    106.8473    247.0076   1.0574864816e+02   1.2351398250e+01    0.1764503    0.1509712  -5.56   0.00133794    1.528    0.346
       264 -12.3265     75.9532    219.0274   1.0957557155e+02   2.0847988914e+01    0.9966037    0.5498911  45.22  0.005073833    1.416    0.294
       265  -9.8326     48.2985     37.0398   8.3758676228e+01   6.5906910096e+01    0.3316726    0.2414988 -67.51  0.001683056    1.780    0.438
       266  -8.9189    249.5066     37.0202   4.0334505253e+01   1.9132233304e+01    0.3007596       0.1334 -55.34  0.001413423    2.335    0.572
       267  -8.7552    247.3201     33.6888   3.9732922288e+01   1.9935209125e+01    0.1604126    0.1413088  -3.80 0.0005344804    1.356    0.262
       268  -9.8635     69.8659     36.2922   7.3565630540e+01   6.2191868204e+01    0.4497801    0.3604293  65.30  0.002353816    1.509    0.337
       269  -8.4366    118.0346     41.9867   6.0432837446e+01   5.0128945701e+01    0.1840522    0.1769905 -38.17  0.000999096    1.064    0.060
       270  -9.7325    192.5842     34.0674   4.4895991204e+01   3.2055194117e+01    0.4459377    0.2616663  44.68  0.002053311    2.043    0.511
       271  -9.1098    215.4891     34.7179   4.2670852165e+01   2.6579247329e+01    0.3208145    0.1923444 -55.95  0.001244551    1.625    0.385
       272 -10.6401    239.3711     22.3663   3.7656058736e+01   2.2780565053e+01    0.3510187    0.3040283  64.63  0.001002486    1.364    0.267
       273 -10.7698    236.7271     31.9889   4.0143322430e+01   2.2277601378e+01    0.4633328    0.3336725  68.82  0.002809928    1.553    0.356
       274  -9.8074     69.4651    217.5088   1.1083691047e+02   2.1934740176e+01    0.2061543    0.1795822  44.94 0.0006867381    1.152    0.132
       275  -8.4971     86.4617     33.9929   6.6321554959e+01   5.9034359850e+01    0.2160659    0.1417217 -36.56  0.000782011    1.540    0.351
       276  -9.9254    114.5339     32.1837   5.7424301349e+01   5.2488579405e+01    0.2666424    0.2159305  56.56 0.0002657141    1.187    0.158
       277 -10.0700    110.5019     29.0549   5.7129782251e+01   5.3956861384e+01    0.3826317    0.3043356  73.03  0.000993474    1.305    0.234
       278  -8.0126     99.3057     33.6800   6.2131300913e+01   5.6064780739e+01    0.1496999    0.1150224 -70.51 0.0001702321    1.635    0.388
       279  -8.7985     18.3542     22.3091   9.4874774718e+01   7.2742095338e+01    0.2471677    0.1585153  -9.48 0.0006198929    1.810    0.447
       280 -10.1442     15.4535     28.3867   9.9379857474e+01   7.1702286250e+01    0.4412684    0.2110758 -33.56  0.001931446    2.240    0.553
       281  -8.9106     15.3110     23.7460   9.7619085415e+01   7.2716568784e+01    0.2929145    0.1275458 -56.58  0.001192139    2.000    0.500
       282  -9.1325      7.9842     22.4960   1.0234920631e+02   7.3545727007e+01    0.2647314    0.1806722  36.56  0.001435947    1.737    0.424
       283  -8.8617     11.4662     21.4453   9.9395326562e+01   7.3521511278e+01    0.2589847    0.1181049   5.97  0.001150884    2.861    0.651
       284  -8.3173     53.0499     32.2378   7.9206457869e+01   6.6069696562e+01    0.1927796    0.1736649  13.45 0.0007897606    1.099    0.090
       285  -8.5143    221.6159     30.9527   4.1141224011e+01   2.5643465605e+01    0.1824732    0.1466883 -42.76  0.001099962    1.082    0.076
       286  -8.2766    143.5374     31.4810   5.1092051164e+01   4.4999641240e+01    0.1472646    0.1405436 -88.96 -1.13777e-06    1.003    0.003
       287  -7.8346     58.4967     31.4957   7.6267496637e+01   6.5242534552e+01    0.2985546    0.1212845  57.13 0.0008106359    5.786    0.827
       288 -10.1431     42.9704     29.2352   8.2962547623e+01   6.8275043921e+01    0.2838106    0.2228798 -41.42 0.0002216412    1.210    0.173
       289  -9.9980     47.5441     28.2781   8.0064907907e+01   6.7736552378e+01    0.2807977    0.2750219  46.01  0.000939887    1.188    0.158
       290  -8.4209    197.7576     29.9937   4.3172946358e+01   3.1285635441e+01    0.1686607    0.1520961 -62.72 0.0004408497    1.018    0.017
       291  -8.9571    201.2294     29.4005   4.2649224771e+01   3.0521165134e+01    0.2526062    0.1269485  83.61 0.0008349015    2.307    0.566
       292  -8.5029     65.2916     29.4907   7.2278174658e+01   6.4303014510e+01     0.231125    0.1640891 -57.97  0.001070336    1.794    0.443
       293  -9.5059     91.3407    214.7683   1.0588755393e+02   1.9587715408e+01    0.2720113    0.1300924  35.54 0.0009238047    1.692    0.409
       294  -9.0857    222.4964     20.0650   3.8309647351e+01   2.6650674811e+01    0.2325775    0.1993062  60.41 0.0008976408    1.348    0.258
       295  -8.6887    229.7923     29.0934   3.9991134763e+01   2.4068600290e+01    0.2078406    0.1401916 -49.76  0.001187956    1.284    0.221
       296  -9.6974    227.1992     23.3149   3.8765813699e+01   2.5265855778e+01    0.4590597    0.2231558 -55.34  0.002205247    1.973    0.493
       297  -9.7056    216.4568     27.9821   4.0830642346e+01   2.7137765950e+01    0.4175181     0.249174  57.46  0.002159657    1.849    0.459
       298 -10.5824    182.1756     27.2593   4.4107938428e+01   3.5456952070e+01    0.5804464    0.3211915  43.95   0.00164715    2.193    0.544
       299 -10.0993    178.7206     23.0169   4.3223432340e+01   3.6822130990e+01    0.2986844     0.291811  89.55 0.0008383811    1.104    0.094
       300  -8.8293      2.4909     28.4259   1.0822547455e+02   7.2541152728e+01    0.2711648    0.1063651 -68.55  0.001231038    2.237    0.553
       301  -9.8863    206.5874     26.2739   4.1273037081e+01   2.9609770144e+01    0.3166674    0.2379364 -16.53  0.001038474    1.471    0.320
       302  -9.8664    121.0912     25.9587   5.3394644368e+01   5.1636596719e+01    0.5663403     0.272534  58.01  0.002299631    1.917    0.478
       303  -8.4851    132.4756    210.9367   9.6707302410e+01   1.4379501661e+01    0.1552032    0.1254655 -55.77 0.0005642835    1.546    0.353
       304  -8.3982     54.7405     27.2426   7.5946177897e+01   6.6690387181e+01    0.2232032    0.1077185 -29.95 0.0008890567    2.464    0.594
       305  -8.4762     38.8702     27.1798   8.4244354655e+01   6.9281888508e+01     0.183713    0.1468426 -12.17 0.0007670958    1.283    0.220
       306  -9.0001    151.4985     30.0445   4.9236256696e+01   4.3078741230e+01    0.3078951    0.1725719  43.53  0.001290136    2.022    0.505
       307  -8.7206     58.5726     25.0763   7.3039443225e+01   6.6358538561e+01    0.3161274    0.1907685 -57.42  0.001379184    2.406    0.584
       308 -10.1039    164.4949     21.9732   4.4632106717e+01   4.0620481862e+01    0.3627673    0.2612322  47.84 0.0008484931    1.499    0.333
       309  -9.0750     98.6299     23.2814   5.7726069324e+01   5.7727737146e+01    0.2666181    0.2189452 -19.16 0.0009410805    1.286    0.223
       310  -9.0504      9.6552    205.3127   1.2299653393e+02   3.0659562456e+01    0.1257732   0.05531901  55.33 0.0005443987    1.709    0.415
       311  -9.6866    217.3957     22.0731   3.9222059649e+01   2.7579530563e+01    0.3349132    0.1957234  55.22  0.001183836    1.943    0.485
       312  -9.6863      1.4022    184.8065   1.2412389491e+02   3.5474619071e+01    0.3384302   0.09345643 -82.29  0.001357733    3.325    0.699
       313  -9.8715      7.2774    177.3370   1.2247344537e+02   3.6577245117e+01     0.186271    0.1711437 -88.16  0.001294134    1.284    0.221
       314  -9.9698     13.3861    174.1289   1.2084716960e+02   3.6755615461e+01    0.1856942    0.1583232  29.11 0.0006310325    1.357    0.263
       315  -9.6993      1.8175     21.9022   1.0668924026e+02   7.4034647799e+01    0.2590026    0.1689769 -63.62 0.0007570311    1.347    0.257
       316  -8.3129    184.5542     33.9556   4.5819074019e+01   3.4053643886e+01    0.1945625    0.1220725   8.25 0.0006678544    2.535    0.606
       317 -10.3398    142.1299     21.2356   4.7628523114e+01   4.6634258191e+01    0.3281411     0.288829 -36.93 0.0006234679    1.167    0.143
       318 -10.0709      7.0407    168.7911   1.2216538179e+02   3.8451291690e+01    0.2604913    0.1606182  65.04  0.001515206    1.324    0.245
       319 -10.6210      7.2952    163.6657   1.2186759935e+02   3.9567076351e+01    0.3040793    0.1509134  21.02 0.0009700757    2.272    0.560
       320 -11.2111     18.7792    158.4995   1.1858166225e+02   3.9776361469e+01    0.4221603    0.2205252  68.09  0.002206809    1.755    0.430
       321  -9.3599     26.1487    157.8469   1.1655649438e+02   3.9248576720e+01    0.1907514    0.1400631  60.84 0.0003810403    1.162    0.139
       322 -10.1420     11.7325    145.1645   1.1966822800e+02   4.3466400897e+01    0.2217337    0.2090929 -68.90            0    1.263    0.208
       323  -8.9198    130.9234     19.9613   4.9071572808e+01   4.9771562155e+01    0.2316126    0.2094815  79.62 0.0009145736    1.058    0.055
       324  -8.4428     69.6177     20.1744   6.5769788683e+01   6.4903785910e+01    0.1916237    0.1298864 -18.11 0.0004596187    1.623    0.384
       325 -11.0849      3.1607    152.5565   1.2243013240e+02   4.2393507074e+01    0.4907916    0.3158087 -42.61  0.002831636    2.105    0.525
       326 -10.4448      7.6670    155.6104   1.2137659185e+02   4.1358177665e+01    0.2840254    0.1703028   8.48  0.001014947    2.279    0.561
       327 -10.6742     11.1756    152.0635   1.2023890413e+02   4.1898828827e+01    0.3042211    0.2441839  46.62  0.001222072    1.199    0.166
       328  -9.1199    119.0153     18.7820   5.0897608817e+01   5.3063488448e+01    0.2794502    0.2074847  61.98 0.0008830999    1.266    0.210
       329  -8.5166     27.3035    154.3228   1.1597088478e+02   3.9954912274e+01    0.1205342   0.09249445 -45.71 0.0002741289    1.636    0.389
       330  -8.7899    235.9495     16.9854   3.6606291754e+01   2.4060618709e+01    0.1519224     0.124166 -49.01 0.0005783389    1.012    0.011
       331 -10.1062     21.4334    152.9172   1.1748223395e+02   4.0829732483e+01    0.2349894    0.1894152 -75.05  0.001502194    1.256    0.204
       332  -9.6521     25.3516    149.5349   1.1613442131e+02   4.1262804579e+01     0.353798    0.1054007 -65.89  0.001413019    2.971    0.663
       333 -10.6181     16.0343    132.3414   1.1749521253e+02   4.6196648396e+01      0.44413    0.1681478 -87.85  0.001826823    2.641    0.621
       334 -10.6013      3.8295    141.3370   1.2168832998e+02   4.4952552942e+01    0.4135579    0.3072713  50.11  0.002663177    1.236    0.191
       335  -9.8242      9.6609    138.8504   1.1986321885e+02   4.5121957387e+01    0.3791708    0.1599102  22.39  0.001785394    2.557    0.609
       336 -10.4342     21.7814    141.9114   1.1654588257e+02   4.3400539688e+01    0.4173611    0.2077788  62.44 0.0004134398    1.938    0.484
       337 -10.5250     16.8263    141.8202   1.1798152445e+02   4.3847858684e+01    0.3686822    0.1980463  73.22   0.00179373    1.755    0.430
       338  -9.7026     14.5148    136.9805   1.1830655860e+02   4.5195711245e+01    0.3914968    0.1089062  34.78  0.001609856    2.907    0.656
       339  -9.9414     37.1921    141.2042   1.1194044577e+02   4.2072419370e+01    0.3652937    0.2361494 -32.01  0.001582764    2.271    0.560
       340 -10.0442     29.5097    137.9976   1.1390963130e+02   4.3628453567e+01    0.2935615    0.1912256  21.58 0.0006220922    1.750    0.428
       341  -8.9004    144.1427     14.2127   4.4753876570e+01   4.6869643244e+01    0.2185375    0.1838786  45.93 0.0006727503    1.249    0.199
       342  -7.5140    162.2988     13.3184   4.2055528659e+01   4.2132844447e+01    0.1424235    0.1035455  37.37 0.0002666707    1.616    0.381
       343  -8.7078     67.4858     12.7724   6.2577409565e+01   6.6401094104e+01      0.26452    0.1478182  42.27 0.0007577717    1.730    0.422
       344  -9.7322    227.0522    134.2462   6.5014958039e+01   1.0636690814e+01    0.3054858    0.2111813  64.89  0.001628247    2.259    0.557
       345  -8.4187     45.3178    135.2617   1.0880761477e+02   4.2617457523e+01    0.1256969     0.103086 -32.29 0.0001364598    1.545    0.353
       346  -9.5506     35.9482    132.0753   1.1131826301e+02   4.4429599752e+01    0.1984929    0.1829224  79.48 0.0006280648    1.075    0.070
       347  -9.7673      3.6071    130.6004   1.2115143818e+02   4.7522889907e+01    0.3100172     0.207325 -12.25  0.001749238    2.136    0.532
       348  -9.6619      5.1702    125.4474   1.2035011971e+02   4.8666134011e+01    0.4045123    0.1728441 -82.27  0.001316026    2.034    0.508
       349  -8.5152    236.9827     10.5204   3.5005418371e+01   2.4499371422e+01    0.1672836   0.08493668  49.77 0.0008103307    2.628    0.619
       350  -9.9968      8.4804    123.9955   1.1920849788e+02   4.8797205816e+01    0.4764259    0.1530451 -61.14  0.001963183    2.816    0.645
       351 -10.5830     13.0000    124.9880   1.1785145150e+02   4.8228902316e+01    0.5536329    0.1227635 -68.74  0.001987258    3.435    0.709
       352 -10.5254     29.2855    124.9013   1.1262286097e+02   4.6868561997e+01    0.4669533    0.2878585 -40.18  0.002325676    2.056    0.514
       353 -10.6544    230.5481    123.9207   6.2291345624e+01   1.1471650704e+01    0.5762782    0.3254911 -43.25  0.002946991    1.864    0.463
       354 -10.1627     49.0907    125.2115   1.0626692621e+02   4.4649035984e+01    0.4493457    0.3102305  -1.37  0.002137784    2.143    0.533
       355  -9.7987     38.1734    125.1116   1.0977554734e+02   4.5918748984e+01    0.2969076    0.2330992 -69.18  0.001141111    1.219    0.180
       356  -9.6012     23.4246    125.0038   1.1452192816e+02   4.7378885589e+01    0.2613045     0.193948  82.97 0.0006337931    1.210    0.173
       357  -9.2793     93.9681    122.6489   9.1812950173e+01   3.8538880268e+01    0.2588109    0.2073982 -72.06 0.0004353651    1.317    0.241
       358  -8.7077     78.0473    123.0669   9.6721434306e+01   4.1113696029e+01    0.2115463    0.1943336  64.75 0.0003401096    1.036    0.035
       359  -9.1291     90.0639    122.0033   9.2841965540e+01   3.9373036864e+01     0.214676    0.2028978  70.69 0.0002916781    1.009    0.009
       360  -8.5063     73.7169    122.0079   9.7871590477e+01   4.2047619594e+01    0.1772229    0.1255321 -64.52 0.0008677491    1.402    0.287
       361  -9.0365     60.8068    120.8354   1.0178534732e+02   4.4219165122e+01     0.365131     0.228729  24.46  0.001180441    1.827    0.453
       362  -9.8142     57.4064    117.8781   1.0239143181e+02   4.5414807962e+01    0.2779634    0.2349443  69.57 0.0007148751    1.149    0.129
       363  -9.2996     69.8838    118.3540   9.8401428104e+01   4.3523784698e+01    0.2545832    0.1960346 -82.81  0.001306117    1.349    0.259
       364  -9.4833     98.5163    117.1442   8.9273415546e+01   3.8999290649e+01    0.2564352    0.2098356  29.30  0.000422444    1.307    0.235
       365 -10.3294     25.9813    116.3427   1.1274551153e+02   4.9312221715e+01    0.3530421    0.2615253  30.63  0.001540454    1.442    0.307
       366 -10.8193     11.4734    114.6036   1.1747738680e+02   5.0906172641e+01     0.254726    0.2390602 -38.85 0.0005916171    1.272    0.214
       367  -9.3538     38.8034    114.9898   1.0820154862e+02   4.8387018548e+01    0.3315347    0.1373573  45.37  0.001355911    2.395    0.582
       368  -9.3123      2.4721    113.6612   1.2042341786e+02   5.1717986354e+01     0.310615    0.1485264  71.28  0.001149993    2.018    0.505
       369  -8.8979     45.7113    112.9975   1.0552876414e+02   4.8109934761e+01    0.2011993    0.1699598 -82.45  0.001145069    1.098    0.089
       370  -9.6552     63.1056    111.3856   9.9302162422e+01   4.6240904524e+01    0.3284418    0.2001719 -40.54 0.0009414041    1.975    0.494
