#   1 NUMBER                 Running object number                                     
#   2 MAG_AUTO               Kron-like elliptical aperture magnitude                    [mag]
#   3 X_IMAGE                Object position along x                                    [pixel]
#   4 Y_IMAGE                Object position along y                                    [pixel]
#   5 X_WORLD                Barycenter position along world x axis                     [deg]
#   6 Y_WORLD                Barycenter position along world y axis                     [deg]
#   7 A_WORLD                Profile RMS along major axis (world units)                 [deg]
#   8 B_WORLD                Profile RMS along minor axis (world units)                 [deg]
#   9 THETA_WORLD            Position angle (CCW/world-x)                               [deg]
#  10 FWHM_WORLD             FWHM assuming a gaussian core                              [deg]
#  11 ELONGATION             A_IMAGE/B_IMAGE                                           
#  12 ELLIPTICITY            1 - B_IMAGE/A_IMAGE                                       
         1 -12.8483    102.4554     24.2342   8.8838766131e+01   5.5488483919e+01    0.4723187    0.3307878 -46.07  0.002171696    1.771    0.435
         2 -10.7706    155.4267     14.0277   7.3445624556e+01   4.4220857388e+01    0.3806934    0.1823519 -12.83  0.001538819    2.538    0.606
         3 -10.9929    200.0000     11.7084   6.6504554751e+01   3.3149917233e+01     0.268946   0.07744391 -23.50 0.0008993886    3.655    0.726
         4 -12.0225    107.7140     12.0258   8.2482589878e+01   5.5778280702e+01    0.1936376     0.166066   4.64 0.0005728929    1.094    0.086
         5 -11.5909    107.1851      7.8729   8.0903263629e+01   5.6313479226e+01    0.3144683     0.185892  79.74  0.001330476    2.933    0.659
         6 -11.4320    159.2228      2.4043   6.8982931176e+01   4.4337362838e+01    0.2666654    0.1833672 -18.08 0.0008693442    1.581    0.368
         7 -15.8371     26.9922    225.1692   1.4807980713e+02   2.5858129236e+01     1.045113     0.434148  58.86  0.004423642    1.961    0.490
         8 -14.3333    160.9295     68.5390   9.0116590746e+01   3.5493512985e+01      1.21725    0.6264527  49.54  0.002939581    1.906    0.475
         9 -13.3019    178.5019     74.7583   8.8345253476e+01   3.0181355673e+01     3.053377     1.952183 -35.91   0.01363039    1.539    0.350
        10 -17.7354    241.0475    125.4266   9.0244920645e+01   7.7875458968e+00     12.67053      4.87641 -33.71   0.04974832    2.387    0.581
        11 -13.2771    143.4996     99.9839   1.0332249131e+02   3.3755904546e+01    0.7222043    0.4775677   6.30  0.002820322    2.498    0.600
        12 -13.3032    135.9937    130.0040   1.1265201629e+02   2.9195356059e+01    0.8959535       0.2326 -49.86   0.00251331    4.333    0.769
        13 -13.1312    135.0572    120.8878   1.1074729352e+02   3.1274630814e+01    0.6941152    0.2237832 -47.94  0.001894351    3.190    0.687
        14 -14.5216    134.6268    107.5594   1.0752257610e+02   3.4115087606e+01     1.236412    0.4368973 -44.71  0.004154998    2.794    0.642
        15 -12.1463    154.0091    132.0498   1.0892114182e+02   2.5117732492e+01    0.2375283    0.1892456 -88.33  0.001074026    1.699    0.411
        16 -10.0325    101.5600    136.2041   1.2238865966e+02   3.4141016870e+01    0.1869597    0.1256023 -44.66 0.0004894013    1.541    0.351
        17 -12.7462    121.8030    112.9811   1.1213349480e+02   3.5550578490e+01     0.353429    0.2525502 -85.63  0.001545898    2.148    0.534
        18 -10.7305    111.8049    113.3875   1.1481949796e+02   3.7341404785e+01     0.194422    0.1388407  29.44 0.0004902875    1.587    0.370
        19 -16.3577     28.3696    213.9925   1.4717820805e+02   2.7692327466e+01     1.508299    0.5152106  54.94  0.005717173    2.461    0.594
        20 -13.9599    120.7011    101.1733   1.0940352893e+02   3.8249676822e+01    0.6552571    0.5633993  -8.16  0.003451107    1.296    0.229
        21 -10.4370    170.0316    228.1609   1.2310907107e+02   5.4302971249e+00    0.1963349    0.1167371  56.51 0.0005567079    1.946    0.486
        22 -12.3311    131.2805     96.4024   1.0537524454e+02   3.7080161780e+01    0.2923684     0.273715 -75.99 0.0004309093    1.189    0.159
        23 -11.6075    113.2930     95.0092   1.0972322136e+02   4.0970475535e+01    0.2087093    0.1877559 -39.70 0.0003933574    1.062    0.059
        24 -11.7510    202.4284     89.0381   8.7809305198e+01   2.2057400105e+01    0.4456333    0.3080279 -48.88  0.001518652    1.570    0.363
        25 -10.5106    198.5398     85.5084   8.7561440863e+01   2.3559455031e+01    0.5573698    0.3575812  -5.72  0.002282793    2.165    0.538
        26 -12.5834    136.3725     89.1709   1.0204784466e+02   3.7427280023e+01    0.3784813    0.3307958  70.68 0.0008777048    1.332    0.249
        27  99.0000    159.3638     31.7490   7.8662446601e+01   4.1248410387e+01      8.80102     5.185239  55.27    0.0401795    1.588    0.370
        28 -12.2401    142.8122     79.5133   9.7612340486e+01   3.7827629405e+01     0.281166    0.2128142 -33.75 0.0005244645    1.302    0.232
        29 -12.9717    168.5007    150.5058   1.0983770600e+02   1.8574907312e+01    0.4278993    0.2569279 -54.45  0.001876133    2.046    0.511
        30 -11.4268    192.2177    193.9801   1.1354255840e+02   6.6264670242e+00    0.6780986    0.3366636 -60.71  0.001872782    8.083    0.876
        31 -11.9601    188.6662     60.8661   8.2385365143e+01   2.9855910230e+01    0.7584656    0.6602257  44.04   0.00402123    1.151    0.131
        32 -11.1733    225.9041     62.3848   7.6912881611e+01   2.0559690222e+01    0.1889157    0.1591356  66.90 0.0006500165    1.258    0.205
        33  -9.9190    223.8718     53.9252   7.4972517066e+01   2.2213481188e+01    0.1987023    0.1536312 -69.75 0.0007002615    1.458    0.314
        34 -14.0438     68.1443    144.6529   1.3205988027e+02   3.7196323914e+01     2.779212     1.194832  62.17  0.008741153    4.385    0.772
        35 -13.7108     59.8786    172.5227   1.3760624369e+02   3.2244113123e+01    0.3911846    0.3454976 -70.42  0.001083499    1.223    0.182
        36 -12.4916    201.5960     50.4767   7.7257764666e+01   2.8122676704e+01    0.4754856    0.2600262  47.69  0.002043855    1.873    0.466
        37 -10.9464    195.4638     51.4881   7.8513899056e+01   2.9513809763e+01    0.1773682    0.1521324 -64.22 0.0001533388    1.258    0.205
        38 -10.4613     36.0899     52.2804   1.2213943005e+02   6.1040400932e+01     0.161272    0.1399096 -36.41 0.0003868055    1.090    0.082
        39 -11.6119    133.8170    146.1616   1.1664996782e+02   2.6277566207e+01    0.8929027    0.2077949 -54.05  0.002013956    7.397    0.865
        40  99.0000    213.2913     48.0779   7.4868591829e+01   2.5558655677e+01     0.405168    0.1879901  79.23  0.001374872    3.463    0.711
        41 -14.7276     66.3679    166.7623   1.3551923562e+02   3.2640165649e+01    0.8094744    0.6792966  63.36  0.003007198    1.127    0.112
        42 -14.3196     71.3057    160.4753   1.3359945427e+02   3.3335655199e+01    0.9031068    0.5309575  57.11  0.001714789    1.758    0.431
        43 -11.0941    216.1391     36.8183   7.1431729687e+01   2.6311653127e+01    0.2403885    0.1705694  44.10  0.001218843    1.526    0.345
        44  -9.3264    205.5472     36.9697   7.2876850578e+01   2.8910079347e+01    0.3604833    0.1243197  49.25  0.001252388    2.989    0.665
        45 -11.5547    143.4981    145.4713   1.1428518260e+02   2.4554305113e+01    0.2650083    0.1372669 -57.80  0.001039021    2.442    0.591
        46 -12.0399     35.8115    245.0448   1.4781048904e+02   2.1608133758e+01    0.4891289    0.1233837  53.79  0.002471006    3.008    0.668
        47 -13.4424    189.7169    148.4031   1.0496863125e+02   1.4604930738e+01     0.427177    0.3305277  80.52  0.002012999    1.964    0.491
        48 -13.1492     50.0688    236.1669   1.4501689132e+02   2.1466040805e+01    0.5314941    0.2421689  55.85  0.002788893    1.744    0.426
        49 -11.7114    163.0675    140.7565   1.0888032059e+02   2.1536271471e+01    0.2195436    0.1982573  71.58 0.0007910508    1.253    0.202
        50 -14.7775     63.2740    192.6522   1.3907176616e+02   2.7757981793e+01     1.397347    0.7970144  70.29  0.006675265    1.806    0.446
        51 -17.7258     40.4555    202.4795   1.4425259605e+02   2.8537594873e+01     2.510218     1.363482  67.19   0.01052905    1.660    0.398
