#   1 NUMBER                 Running object number                                     
#   2 MAG_AUTO               Kron-like elliptical aperture magnitude                    [mag]
#   3 X_IMAGE                Object position along x                                    [pixel]
#   4 Y_IMAGE                Object position along y                                    [pixel]
#   5 X_WORLD                Barycenter position along world x axis                     [deg]
#   6 Y_WORLD                Barycenter position along world y axis                     [deg]
#   7 A_WORLD                Profile RMS along major axis (world units)                 [deg]
#   8 B_WORLD                Profile RMS along minor axis (world units)                 [deg]
#   9 THETA_WORLD            Position angle (CCW/world-x)                               [deg]
#  10 FWHM_WORLD             FWHM assuming a gaussian core                              [deg]
#  11 ELONGATION             A_IMAGE/B_IMAGE                                           
#  12 ELLIPTICITY            1 - B_IMAGE/A_IMAGE                                       
         1 -18.7644     28.5784     82.8804   6.9303078324e+01   5.6183298730e+01     14.84635     0.843812 -66.55   0.02428587   15.943    0.937
         2 -17.7644     48.1023    207.2357   7.8680606988e+01   2.6284065653e+01      3.71026     2.091919  80.38   0.02050388    1.491    0.330
         3 -16.8052    198.9455     79.0360   2.1828365045e+01   2.3002781778e+01     3.451016     2.591854 -65.43   0.01066341    1.505    0.335
         4 -16.2809    154.0877     67.3852   2.7293724046e+01   3.6924549703e+01     3.173511     2.395574 -67.74   0.01410234    1.539    0.350
         5 -16.2338    135.8026     56.3328   2.7911616525e+01   4.3637011326e+01     4.909651      1.90353 -37.19   0.01659195    2.517    0.603
         6 -15.3849    185.9233     53.5352   1.6543337970e+01   3.0784989103e+01     1.494581     1.237053  28.68  0.005838626    1.419    0.295
         7 -13.8076    183.0555     32.3541   1.0310791316e+01   3.4743547785e+01     1.299181    0.6955088 -66.90  0.004679271    2.581    0.613
         8 -10.6603    227.4737      9.5074   3.5829251307e+02   2.5608422660e+01    0.1431126    0.1239057 -67.34 0.0002268797    1.003    0.003
         9 -13.7167    138.9270    216.6345   6.2773270647e+01   1.0706973117e+01    0.8664767    0.5316624  29.93  0.004600628    2.061    0.515
        10 -14.0240    222.5172    200.7017   4.5183681985e+01  -1.8503700100e+00     1.119625    0.8437024  55.39  0.006838874    1.619    0.382
        11 -15.1416    244.6308    244.1357   4.8470687222e+01  -1.0012395414e+01     1.091665    0.7580322   4.28  0.006662011    1.367    0.269
        12 -13.9312    227.9704    247.5878   5.1585524956e+01  -7.9091351147e+00    0.8584799    0.3789496  35.23  0.005018312    1.718    0.418
        13 -15.6625    246.9556    209.4794   4.2614564749e+01  -6.9182387304e+00     1.822581     1.145056 -38.32  0.009265854    2.043    0.511
        14 -13.2686    116.8719    231.8174   6.8478138491e+01   1.1948240573e+01    0.6559672    0.4894358  56.20  0.003574614    1.024    0.023
        15 -14.3181    115.9412    247.9740   7.0190249895e+01   9.6460975187e+00     1.049943    0.3744291  42.95  0.005025935    2.184    0.542
        16 -12.7239    116.0623    240.3137   6.9455186906e+01   1.0763669472e+01    0.3706607    0.2408659  52.60  0.001638314    1.124    0.111
        17 -14.2141     93.3171    248.1383   7.3952090778e+01   1.3004070233e+01    0.9259919    0.3586867  40.41  0.004313561    2.362    0.577
        18 -12.9059     81.6519    250.2854   7.6010885842e+01   1.4339661228e+01    0.5662209    0.1534467  44.36  0.002718764    2.662    0.624
        19 -11.2287     70.7535    249.6356   7.7714723117e+01   1.5939847503e+01    0.1730196    0.1481141  53.76  0.000863652    1.522    0.343
        20 -14.3752    179.5514    219.8541   5.5808242912e+01   3.1372195954e+00     1.038245    0.5619811  44.54    0.0047879    1.470    0.320
        21 -14.9557    152.9861    218.5500   6.0432587599e+01   7.9672857807e+00     1.223026     0.877461  48.10  0.005539551    1.101    0.092
        22 -15.3908    169.1179    206.5115   5.5758059934e+01   6.9320464612e+00     1.579727     1.404586  20.13  0.009428235    1.252    0.201
        23 -10.2261    131.5374    226.4881   6.5296663700e+01   1.0396770296e+01    0.1224564   0.09367161  54.28 -1.519833e-05    1.009    0.009
        24 -11.5965    212.1257    221.2439   5.0327459715e+01  -2.6049854218e+00    0.3014559    0.2110001 -20.37  0.001812314    1.685    0.406
        25 -10.8313     85.1460    222.2686   7.3204746498e+01   1.8431662210e+01     0.165571    0.1354033  55.93   0.00110225    1.273    0.214
        26 -11.6830    223.3036    218.9774   4.8082408093e+01  -4.1830685517e+00    0.3337793    0.1574338  46.40  0.001749857    1.942    0.485
        27 -11.0178     77.1035    218.2357   7.4298394417e+01   2.0319227891e+01    0.2743293    0.1603439  43.83  0.001429783    1.580    0.367
        28 -15.1150    103.8269    210.6269   6.8636324470e+01   1.7612243035e+01     1.058072    0.5806854  66.64  0.004393623    1.826    0.452
        29 -11.1098     81.6580    211.0648   7.2830516590e+01   2.0959284999e+01    0.3433066    0.1616751 -47.77  0.001517602    4.093    0.756
        30 -11.3420     89.0890    210.7128   7.1412669144e+01   1.9907379464e+01     0.250071    0.1442872  87.56   0.00139446    1.890    0.471
        31 -12.5683    205.3775    207.8609   4.9379210847e+01   2.2184216599e-01    0.6595914    0.3354775  52.03  0.003259294    2.077    0.518
        32 -13.6914    155.6715    242.0571   6.2853733149e+01   4.1589111158e+00     1.307752    0.4860756  53.24  0.005986203    2.635    0.620
        33 -10.6326    212.7269    250.5989   5.4433063667e+01  -5.9182841338e+00    0.2211048   0.07760097  39.52  0.001131347    2.104    0.525
        34 -12.4793    128.3697    181.0004   5.9937838469e+01   1.8924479218e+01    0.3568012    0.2082968 -59.94  0.001770979    1.903    0.474
        35 -13.5164    119.8536    177.5557   6.1207048573e+01   2.1165452730e+01    0.6016551    0.4241332 -69.89  0.002984227    1.514    0.339
        36 -13.3632    124.4848    174.4394   5.9748196007e+01   2.0940880816e+01     0.564072    0.4338102 -53.68  0.002396625    1.478    0.324
        37 -13.2621     70.1891    226.9817   7.6218588551e+01   1.9751615918e+01    0.5117676    0.3111209  85.72  0.003204622    1.529    0.346
        38 -12.6523    152.1479    177.6715   5.4483610743e+01   1.5016317400e+01    0.6684602    0.4010687  36.50  0.003193442    1.729    0.422
        39 -13.6022    141.4418    173.7052   5.6037589366e+01   1.7858696774e+01     1.210754    0.4843191  43.04  0.004794127    2.302    0.566
        40 -13.3300    208.9326    175.0432   4.2912776775e+01   4.1984407717e+00    0.9018733    0.4475062  34.39  0.003994748    2.068    0.516
        41 -13.7839    221.0247    171.5435   4.0043557071e+01   2.3836412163e+00    0.8655536    0.5916589   6.05  0.004483832    1.752    0.429
        42 -11.5131    171.5800    174.6871   5.0019343325e+01   1.1688480029e+01    0.2482756    0.2223311  65.81 0.0007191046    1.147    0.128
        43 -11.6570     62.4637    245.0905   7.8750665714e+01   1.7767923471e+01    0.1814404    0.1636726 -40.06   0.00122512    2.238    0.553
        44 -11.6412    103.4771    171.2461   6.3798894279e+01   2.5365958292e+01     0.246243    0.2030472  73.61 0.0004365607    1.029    0.028
        45 -12.8144    104.0982    235.9893   7.1106957493e+01   1.3284912861e+01    0.5294203    0.2036166  48.98  0.001730286    1.912    0.477
        46 -10.4253    110.6081    167.2614   6.1644827578e+01   2.4954971944e+01    0.1744965    0.1272988 -56.00 0.0005762529    1.509    0.337
        47 -13.2126     73.6117    163.3180   6.9329707487e+01   3.1877648034e+01    0.6451147    0.3864298  63.92   0.00341206    1.552    0.356
        48 -10.2901    101.5429    163.4516   6.3080395960e+01   2.7366565783e+01    0.1415765    0.1157724  74.62   0.00080643    1.058    0.055
        49 -11.5944     97.8702    162.9391   6.3828742122e+01   2.8107384304e+01    0.2141322    0.1737067  65.69 0.0003391329    1.077    0.072
        50 -10.8942     85.3185    157.0163   6.5822800502e+01   3.1486222269e+01    0.3027124    0.1981948 -25.09  0.001066894    4.103    0.756
        51 -10.5391     88.4864    153.4979   6.4569188774e+01   3.1767227387e+01    0.1848392     0.166958 -37.95 0.0005207816    1.536    0.349
        52 -11.0768    111.8265    150.1131   5.8546480997e+01   2.8451561613e+01    0.2294231    0.1749328  77.99 0.0005619196    1.304    0.233
        53 -11.9867    133.8538    147.2720   5.2911414580e+01   2.4770753333e+01    0.5692549    0.2052786 -56.89  0.001875024    3.327    0.699
        54 -12.8184     58.1625    139.0787   6.9788465437e+01   3.9578070191e+01    0.7346779    0.3234046  59.11  0.003133096    2.566    0.610
        55 -13.9272     68.9137    143.7110   6.7799235089e+01   3.7018617296e+01    0.7037984    0.3986797  68.80  0.002469225    1.904    0.475
        56 -11.3194     94.7603    147.4626   6.2133236003e+01   3.2091110139e+01    0.3216091    0.2093101  56.78  0.001387753    1.457    0.314
        57 -11.9023     48.4465    145.1046   7.2914196636e+01   3.9405562116e+01     0.519488    0.1712913 -59.08  0.002162362    2.789    0.641
        58 -11.7800    108.8131    145.4162   5.8422064116e+01   3.0059766157e+01    0.2721317    0.2370525 -86.70 0.0007044672    1.064    0.060
        59 -11.6460     98.1773    143.7924   6.0691604109e+01   3.2340190091e+01    0.1788065    0.1718483 -46.72 0.0004229586    1.330    0.248
        60 -12.1088     68.4539    148.4637   6.8574719980e+01   3.5984632494e+01    0.2747775     0.200183  76.12  0.000514155    1.223    0.183
        61 -12.7878     84.1050    140.7482   6.3619873338e+01   3.5402264168e+01     0.389286    0.3479872  33.06  0.001070658    1.430    0.300
        62 -11.2887     77.0208    133.8382   6.4258278264e+01   3.8133778439e+01    0.2173091    0.1614259  76.54 0.0004753925    1.288    0.224
        63 -12.2587     69.5083    134.0330   6.6201541287e+01   3.9203708188e+01    0.2698255    0.1654935  57.94   0.00120578    1.625    0.385
        64 -12.4808    106.4176    130.6893   5.6213589568e+01   3.3873596992e+01    0.4718685    0.3176815  61.95  0.002093732    1.530    0.346
        65 -12.2139     44.4846    130.6549   7.2096645211e+01   4.3245103454e+01    0.2962634     0.198484  59.89 0.0009014377    1.449    0.310
        66 -11.7358     98.6414    130.0322   5.8054488750e+01   3.5447242686e+01    0.2388035    0.2078226  46.40 0.0003829879    1.260    0.206
        67 -11.5282    132.7836    127.9976   4.9127704561e+01   2.9202162534e+01    0.2606514    0.1741673 -82.09  0.001078531    2.038    0.509
        68 -11.0201     67.4723    124.4689   6.5175538005e+01   4.1770751453e+01    0.1393583    0.1166458 -86.79 5.052716e-05    1.013    0.013
        69 -12.3731     57.3623    119.7642   6.7112037727e+01   4.4267289480e+01    0.6266794    0.1838307  51.15  0.002035916    4.426    0.774
        70 -10.9073    104.1709    119.8273   5.4529918562e+01   3.6827960093e+01    0.1934212    0.1808901 -23.52 0.0005814196    1.347    0.258
        71 -15.1661    182.9922    107.2736   3.2668437758e+01   2.1838060933e+01     1.775118     1.232933 -83.86  0.007155489    2.152    0.535
        72 -14.3964    178.7967     95.5283   3.0359666302e+01   2.5152750852e+01     1.084473    0.7402781  73.59  0.004515516    1.796    0.443
        73 -11.6555     85.5265    107.1575   5.6832364195e+01   4.3142555352e+01    0.3133041    0.1981561  54.61 0.0008984634    1.698    0.411
        74  -7.7017     68.5694    245.5048   7.7794651249e+01   1.6887196671e+01    0.1081807   0.07603778  63.21 5.514199e-05    1.062    0.059
        75 -15.4542    110.4928     79.1719   4.2254991196e+01   4.4899626512e+01     2.681734     1.388957  30.07  0.009216992    3.129    0.680
        76  99.0000    116.4115    198.2506   6.4757575343e+01   1.7778452931e+01     11.11801      3.08447  56.11   0.02879248    6.740    0.852
        77 -14.2078     95.6287    227.7290   7.1831652417e+01   1.5925397532e+01    0.8278906    0.4656419  43.65  0.004978183    1.557    0.358
        78 -13.5565    172.9641    231.7253   5.8596041796e+01   2.6641583355e+00     1.897721     0.438485  46.59  0.007019939    3.507    0.715
        79 -14.1528    193.7987    217.7057   5.2965105471e+01   9.5015290054e-01     1.131438    0.9783392  79.36  0.006914953    1.590    0.371
        80 -13.7487    206.1884     29.3406   6.1469445481e+00   2.8796083339e+01     0.715973    0.5214258  38.33  0.003396772    1.663    0.399
