#   1 NUMBER                 Running object number                                     
#   2 MAG_AUTO               Kron-like elliptical aperture magnitude                    [mag]
#   3 X_IMAGE                Object position along x                                    [pixel]
#   4 Y_IMAGE                Object position along y                                    [pixel]
#   5 X_WORLD                Barycenter position along world x axis                     [deg]
#   6 Y_WORLD                Barycenter position along world y axis                     [deg]
#   7 A_WORLD                Profile RMS along major axis (world units)                 [deg]
#   8 B_WORLD                Profile RMS along minor axis (world units)                 [deg]
#   9 THETA_WORLD            Position angle (CCW/world-x)                               [deg]
#  10 FWHM_WORLD             FWHM assuming a gaussian core                              [deg]
#  11 ELONGATION             A_IMAGE/B_IMAGE                                           
#  12 ELLIPTICITY            1 - B_IMAGE/A_IMAGE                                       
         1 -13.4370    202.2342     12.9551   6.2806164565e+01   3.3423014408e+01     1.260336     1.006937  37.87  0.007564248    1.625    0.385
         2 -13.6365    191.2832     27.8066   6.7823325469e+01   3.4367474893e+01     2.086374     1.529181  16.01   0.01066366    2.096    0.523
         3  -8.7454    231.3770     15.9842   6.0519128948e+01   2.6229724166e+01    0.2493127    0.1160604 -34.38   0.00120223    2.275    0.560
         4  -9.5916    164.9855     12.0204   6.7313309477e+01   4.2563800705e+01    0.2059161    0.1384248  42.24 0.0003704136    1.597    0.374
         5 -11.5891      5.2918      4.0797   1.1133464428e+02   7.1911528278e+01    0.5476647    0.2974094   2.00  0.003698304    1.799    0.444
         6  -8.0276    175.3308      3.2822   6.3559245767e+01   4.0895590726e+01    0.1304413   0.08434891  47.68 0.0002535943    1.609    0.378
         7 -10.3674    136.5806     38.7613   8.0446487144e+01   4.6331617979e+01    0.2475428     0.214975  45.69  0.000278894    1.066    0.062
         8 -11.1897    123.0394    248.9533   1.3042403178e+02   6.3481746023e+00    0.7922617    0.2369514  48.38  0.002794108    2.839    0.648
         9 -12.8120    176.9477    248.0113   1.2001566183e+02  -2.6967152504e+00     1.564834     0.475217  34.81  0.005292496    3.943    0.746
        10 -11.3012    134.1329    249.2195   1.2835455988e+02   4.4384088448e+00    0.3837952    0.2672412  57.06   0.00188339    1.263    0.208
        11 -12.9368    152.0252    246.9292   1.2463372257e+02   1.7663676370e+00     1.401076    0.5127994  39.66  0.005880363    2.412    0.585
        12  -8.6388     81.0000    249.4351   1.3824678576e+02   1.2917580842e+01    0.2349541   0.06422147 -64.96 0.0009326424    3.918    0.745
        13 -10.3724     62.6924    250.1162   1.4154468318e+02   1.5416452278e+01    0.3818216    0.1682594  51.70  0.002068402    1.807    0.447
        14 -14.5212    113.9991    228.8901   1.2969390422e+02   1.1609449803e+01     6.965868    0.7085699  44.05   0.01713689    6.722    0.851
        15 -10.2841     92.2182    207.1445   1.3134462659e+02   1.9731901065e+01    0.3380704    0.1775724  71.54   0.00140332    2.534    0.605
        16 -10.7408     95.6534    201.7795   1.2989098664e+02   2.0347531107e+01    0.4324099    0.2073017 -77.28  0.001694131    2.865    0.651
        17 -11.5895     95.2848    195.6847   1.2911458204e+02   2.1764187078e+01     1.074503     0.289961  41.99   0.00366009    3.389    0.705
        18  -9.7050    191.8871    193.7411   1.0779295472e+02   3.9248660258e+00    0.7001522    0.3398503 -63.44  0.001978104    5.660    0.823
        19 -13.4343     47.4169    231.9915   1.4274885878e+02   2.0983358638e+01     1.654776    0.8374652 -68.58  0.009440741    1.883    0.469
        20 -11.0362     10.2504    190.8923   1.4637636188e+02   3.3800517933e+01    0.3339241    0.2118153  56.49  0.002200006    1.485    0.327
        21 -10.1189    117.8538    240.7212   1.3041911273e+02   8.7037229138e+00    0.2042911    0.1727764 -58.93  0.001294513    1.415    0.293
        22 -13.9968     60.7086    206.2514   1.3777406444e+02   2.4627527762e+01     2.000706     1.241524  55.79  0.008348228    1.451    0.311
        23  -7.8359     74.2857    241.2893   1.3869520051e+02   1.5453176082e+01   0.09852149   0.09675789 -77.20 0.0003007502    1.534    0.348
        24 -11.3098     71.6277    180.6317   1.3228890384e+02   2.8894409260e+01    0.4569654    0.3902205  75.96  0.001818304    1.067    0.063
        25 -11.4983     75.3388    186.4086   1.3224377041e+02   2.7009621087e+01    0.4400166    0.3458888 -43.76  0.001982665    1.636    0.389
        26 -11.3300     79.3130    180.5188   1.3051717573e+02   2.7779535562e+01    0.3658575    0.2947782 -61.60 0.0005642691    1.264    0.209
        27 -10.2200      5.6366    184.6484   1.4678877438e+02   3.5574063100e+01    0.2353883     0.165862 -48.11  0.001325188    1.911    0.477
        28  -8.5344      2.9652    182.2268   1.4712555900e+02   3.6331350555e+01    0.1886439    0.1046039  72.16 0.0008409451    1.612    0.380
        29  -8.5334    201.8483    183.8281   1.0380283063e+02   3.8318831677e+00    0.1996127     0.177783  82.84  0.001089512    1.375    0.273
        30  -9.1648    104.0460    239.0002   1.3287226195e+02   1.1304496071e+01    0.1909983    0.1538258  66.72 0.0003591357    1.029    0.028
        31 -12.7596     28.4087    249.6686   1.4726902325e+02   1.9890928045e+01    0.9182459    0.3367007  38.82  0.002369205    2.814    0.645
        32  -9.4188     43.8120    173.0400   1.3761053503e+02   3.4312474462e+01    0.3181514    0.1731644  42.45  0.001493593    1.910    0.477
        33 -15.6146     12.4602    240.7777   1.4930538478e+02   2.3365539420e+01     6.473221     1.256521 -68.41    0.0188442    4.061    0.754
        34  -9.3810    230.0016    166.9745   9.4854260772e+01   1.4340106859e+00    0.2194736    0.1786547 -77.82  0.001138843    1.707    0.414
        35 -10.2273     23.0050    156.7005   1.4044788054e+02   4.0290555215e+01     0.164607    0.1420134  89.44 0.0005719691    1.128    0.113
        36  -8.8721     71.1930    237.6384   1.3891724870e+02   1.6613624544e+01    0.2016605    0.1424343  84.18 0.0007862553    1.242    0.195
        37  -9.0615    115.1800    152.3899   1.1693300601e+02   2.8332071323e+01     0.232745    0.1982982 -48.23 0.0005319075    1.217    0.179
        38 -12.2502     53.1109    217.1306   1.4037616953e+02   2.3306048000e+01    0.4311824    0.3495395 -63.62  0.001230636    1.476    0.323
        39  -9.8870    105.2468    145.1324   1.1796474018e+02   3.1899229891e+01    0.5899988    0.3218096 -37.82  0.002299901    2.392    0.582
        40 -11.5581     93.3102    145.8003   1.2118917730e+02   3.3822465896e+01    0.2939348    0.2701636 -39.98 0.0004542628    1.218    0.179
        41  -8.5293    180.9652    145.5094   9.9879397664e+01   1.5965151445e+01    0.2242865    0.2043534 -44.24  0.000357306    1.096    0.087
        42 -11.6406     30.3326    144.7424   1.3721314699e+02   4.2374441141e+01    0.4148307    0.3721277  36.16  0.002847118    1.384    0.278
        43 -10.2640    227.1713    139.1383   8.9282965307e+01   7.1498019075e+00    0.2414206    0.2294052  62.13 0.0003498437    1.133    0.117
        44  -9.4737    113.4205    135.0759   1.1366897341e+02   3.2762342666e+01    0.5280951     0.236512 -46.60  0.001964062    2.222    0.550
        45  -9.8426     38.8090    213.3363   1.4276118373e+02   2.5912430636e+01    0.2434507    0.1738731  56.01 0.0008296762    1.299    0.230
        46  -9.9663    101.0684    130.6328   1.1594962170e+02   3.6097631174e+01    0.2775236    0.2332115 -26.58  0.000601095    1.400    0.286
        47 -12.3912     35.2331    229.4010   1.4471693759e+02   2.3019142753e+01    0.7137841    0.4929593 -64.19  0.001399028    1.661    0.398
        48  -8.7998    119.2117    125.9828   1.1003515327e+02   3.3750092678e+01    0.2571192    0.1804581 -21.64  0.001081409    2.040    0.510
        49  -8.8883    109.1319    121.9606   1.1175823285e+02   3.6640473780e+01    0.2136158    0.2058054 -51.51 0.0003654828    1.046    0.044
        50  -9.1081    245.4634    120.5586   8.2048491141e+01   6.7785936497e+00    0.2346663    0.2130899 -48.18 0.0001801764    1.013    0.013
        51  -8.9063    167.6372    113.0963   9.4909837670e+01   2.5893547666e+01    0.3314022      0.24162  86.09  0.001107409    1.825    0.452
        52  -9.1745     69.7229    228.7623   1.3833159892e+02   1.8600812660e+01     0.228827    0.1803004  76.14  0.001008134    1.026    0.025
        53  -9.6070     10.7651    110.8880   1.3758821494e+02   5.1735287819e+01    0.2048946     0.162109  32.79 0.0007710743    1.583    0.368
        54 -11.6154    107.9765    206.4688   1.2790377340e+02   1.7252798509e+01    0.4523841    0.4015563  42.24   0.00270623    1.260    0.206
        55  -8.0838    154.3416     78.2940   8.8438563701e+01   3.5905269995e+01     0.154953    0.1189272  21.46 0.0004028515    1.657    0.397
        56  -8.7859    184.0644     76.0775   8.1724967184e+01   2.9007505264e+01    0.2199094    0.2029118 -74.58  0.001184069    1.046    0.044
        57  -9.6276    239.5166     64.7280   7.0348518585e+01   1.7602121726e+01    0.2333158    0.2087112 -88.43 0.0003211541    1.106    0.096
        58  -8.0940    125.4968     61.5916   9.0313000743e+01   4.5486144261e+01    0.1432585    0.1342058  32.46 3.411194e-05    1.025    0.025
        59 -10.2631     70.5646    246.5359   1.3985014175e+02   1.4984831284e+01    0.3706052    0.1835151  46.62  0.001487979    1.709    0.415
        60 -10.8569    182.6289     34.3988   7.0785405197e+01   3.5680060709e+01    0.4982532     0.355735  54.46  0.001077548    1.360    0.265
        61 -13.5695     10.5332    207.1331   1.4751673263e+02   3.0310442032e+01     1.182634     1.023272 -10.71  0.006510841    2.120    0.528
        62 -13.7871     79.2861    165.7182   1.2826655902e+02   3.1280879749e+01     2.600068    0.9301479  42.36  0.005987509    2.766    0.639
        63  -9.7990     89.5255    245.2005   1.3627815642e+02   1.2422844388e+01    0.2406891    0.1739979  68.28 0.0006317449    1.147    0.128
        64 -14.2075     68.4159    145.3251   1.2758132855e+02   3.7761546165e+01     4.630221     2.540802  71.30   0.01683974    2.859    0.650
        65 -10.1402    168.0182    208.8551   1.1552119338e+02   5.6818082775e+00    0.3914059    0.2452928 -36.67  0.001868648    1.896    0.473
