#   1 NUMBER                 Running object number                                     
#   2 MAG_AUTO               Kron-like elliptical aperture magnitude                    [mag]
#   3 X_IMAGE                Object position along x                                    [pixel]
#   4 Y_IMAGE                Object position along y                                    [pixel]
#   5 X_WORLD                Barycenter position along world x axis                     [deg]
#   6 Y_WORLD                Barycenter position along world y axis                     [deg]
#   7 A_WORLD                Profile RMS along major axis (world units)                 [deg]
#   8 B_WORLD                Profile RMS along minor axis (world units)                 [deg]
#   9 THETA_WORLD            Position angle (CCW/world-x)                               [deg]
#  10 FWHM_WORLD             FWHM assuming a gaussian core                              [deg]
#  11 ELONGATION             A_IMAGE/B_IMAGE                                           
#  12 ELLIPTICITY            1 - B_IMAGE/A_IMAGE                                       
         1 -10.7551    183.6474     25.7050   2.8991421768e+02   6.3333176373e+00   0.03262643    0.0302346  35.37  0.004000157    1.067    0.063
         2 -10.9004    193.4919     11.3900   2.8970873124e+02   6.4341466214e+00   0.04560185   0.02868407 -40.27  0.004433873    1.717    0.418
         3  -7.5754      2.4826      8.5432   2.9192993202e+02   7.6544151881e+00  0.006650275  0.006378832  45.92 0.0002720364    1.059    0.056
         4  -9.3970     70.9767    243.6445   2.9260034097e+02   4.5577362705e+00    0.0133569   0.01020307 -43.39 0.0003072152    1.340    0.254
         5  -7.5696     93.6829    250.6186   2.9237854362e+02   4.3376255725e+00  0.008996007  0.006014609  36.66 0.0004411101    1.457    0.314
         6 -10.3046     22.5529    235.4927   2.9311555891e+02   4.9502944819e+00   0.03885592   0.02799416  59.16  0.002518573    1.615    0.381
         7 -11.2748     41.7140    248.0394   2.9296978745e+02   4.6890055804e+00   0.06309345   0.02724407  35.96  0.005366632    2.183    0.542
         8  -9.8450      3.7519    249.4348   2.9342221166e+02   4.9079069546e+00   0.03152343   0.02268126  21.97  0.002396122    1.405    0.288
         9 -10.6205     10.3299    243.6952   2.9330957419e+02   4.9325526930e+00    0.0371777   0.02609854 -27.02  0.001862464    1.670    0.401
        10  -9.9086     26.9217    227.9877   2.9301767696e+02   5.0086486014e+00   0.03124066   0.01147781  31.04  0.001927792    2.542    0.607
        11 -12.7121     29.5030    242.2675   2.9307653847e+02   4.8302307802e+00    0.2378379   0.03493766 -50.36   0.01271046    5.702    0.825
        12 -10.5099     16.1495    249.9530   2.9328052525e+02   4.8253870495e+00   0.04114863   0.03234117   0.99  0.002884137    1.416    0.294
        13 -10.1955     66.1395    243.6880   2.9265714851e+02   4.5872209947e+00   0.03030369   0.01887086 -19.43  0.001623437    2.236    0.553
        14  -7.3038    108.6055    245.8125   2.9217415752e+02   4.2996805465e+00  0.009139244  0.006482824 -79.98 0.0005087657    1.681    0.405
        15 -10.1378     56.9608    238.7189   2.9273342229e+02   4.7006106189e+00   0.02147278   0.01514721 -62.27  0.001172803    1.455    0.313
        16  -9.7897      3.6554    238.2039   2.9335340058e+02   5.0362746455e+00   0.02444619   0.01655357  -8.46  0.001254826    1.918    0.479
        17  -9.2259      5.6944    233.6694   2.9330131116e+02   5.0752628904e+00    0.0267252   0.01286224 -69.49  0.002226494    2.504    0.601
        18  -9.2487    239.7642    234.1117   2.9056962228e+02   3.6168889501e+00   0.01331053  0.008642408 -12.37  0.001238917    2.108    0.526
        19  -7.8922    249.4975    231.4898   2.9043966368e+02   3.5860189831e+00    0.0066632  0.006419553  -8.92 5.802545e-06    1.037    0.036
        20  -7.0533    137.2923    229.3068   2.9173575403e+02   4.3091796841e+00  0.006852021  0.005007228 -25.55 0.0002264095    1.580    0.367
        21  -9.5744     97.0619    228.1550   2.9219868118e+02   4.5721192347e+00   0.01936586   0.01382558  13.41  0.001483116    1.518    0.341
        22  -6.9169     63.3040    228.3491   2.9259452711e+02   4.7792603646e+00  0.007128376  0.004944572 -27.43 0.0007040887    1.698    0.411
        23  -7.8182     58.1642    226.8540   2.9264528424e+02   4.8281146018e+00   0.01026278  0.008920648  62.08  0.000669834    1.245    0.197
        24  -8.2328    247.0390    224.6733   2.9042555838e+02   3.6787458058e+00   0.01201742  0.003501334  45.38 0.0007037538    4.530    0.779
        25  -7.8651    110.3739    224.2328   2.9201856093e+02   4.5340868814e+00  0.009293888  0.006487104 -75.32 0.0006804848    1.648    0.393
        26  -8.6205     48.7618    222.8312   2.9273010804e+02   4.9321190119e+00   0.01245681   0.01043678  -2.94 0.0006369315    1.290    0.225
        27  -9.6921     48.7927    218.6188   2.9270344560e+02   4.9798456156e+00   0.02839241   0.01483751  40.45  0.002526468    1.898    0.473
        28 -10.8462     53.8893    209.5984   2.9258749737e+02   5.0508841271e+00   0.04601021   0.03009139  63.21  0.004019802    1.982    0.495
        29 -11.5294     69.8896    207.2074   2.9238541800e+02   4.9789138640e+00   0.07167011   0.05422677 -55.02  0.007957403    1.326    0.246
        30  -9.9279     61.7319    220.3936   2.9256321968e+02   4.8794931631e+00   0.01721289   0.01380539 -51.31 0.0006443464    1.252    0.201
        31  -9.5493     64.9212    215.6301   2.9249616543e+02   4.9139103981e+00   0.01816793   0.01555556  37.28  0.001312473    1.153    0.133
        32  -9.7589      7.8594    213.6683   2.9315131543e+02   5.2894365460e+00    0.0549215  0.009524014  29.64  0.003100057    4.959    0.798
        33 -10.3967     11.8542    206.7957   2.9306171354e+02   5.3429311294e+00   0.03286272   0.01713999  31.88  0.002165449    1.833    0.454
        34  -8.9280     35.7691    192.8799   2.9269502287e+02   5.3532862732e+00   0.01417627  0.007746956  51.53   0.00125093    2.190    0.543
        35  -7.4451    231.2848    192.3393   2.9040635028e+02   4.1441740831e+00   0.00699323  0.004952329 -28.27  0.000331562    1.632    0.387
        36 -10.0923    190.6248    189.0346   2.9086030573e+02   4.4351052296e+00   0.01164821   0.01142526 -23.11 0.0003351118    1.023    0.022
        37  -8.7976     81.4231    188.5408   2.9213375602e+02   5.1196858587e+00   0.02132137   0.01179093 -41.72  0.001964418    1.973    0.493
        38  -9.0651     85.2964    182.5283   2.9205081053e+02   5.1640305801e+00   0.01448699    0.0141466  20.84  0.001010935    1.010    0.010
        39  -8.7732     27.8112    185.4321   2.9274161215e+02   5.4872660667e+00    0.0182752   0.01052977  68.50  0.001495279    2.851    0.649
        40  -7.5314    190.9169    174.1190   2.9076325933e+02   4.6027714945e+00  0.009800057  0.008383674  52.00            0    1.222    0.182
        41  -8.8602     91.7611    171.4434   2.9190576073e+02   5.2499614533e+00   0.01328282   0.01183135  27.45 0.0003031757    1.101    0.091
        42 -10.4331     80.7018    167.7500   2.9201202964e+02   5.3606080765e+00   0.02303858   0.01326462 -34.55  0.001719274    2.105    0.525
        43  -8.9478     96.8128    163.8613   2.9179914864e+02   5.3048108476e+00   0.02251232   0.01015894 -48.46  0.001382901    2.233    0.552
        44  -8.0535     65.8993    158.0624   2.9212460076e+02   5.5626075317e+00   0.01015153  0.009554178 -13.03 0.0005362409    1.077    0.072
        45  -7.6908     18.2165    151.1532   2.9263964966e+02   5.9365535780e+00  0.009936908  0.008611684 -14.89  0.001155761    1.229    0.186
        46  -6.8609    177.3117    149.2513   2.9076604655e+02   4.9701037849e+00  0.006613909  0.005049761 -17.10  0.000185752    1.518    0.341
        47  -9.0541     96.6510    146.8557   2.9169443593e+02   5.4991711082e+00   0.01212422   0.01058912  -1.14 0.0004754148    1.202    0.168
        48  -9.6184     68.0807    144.2688   2.9201265489e+02   5.7059336737e+00   0.02756834   0.01750777  58.15  0.002494989    1.954    0.488
        49  -6.7636    143.5147    144.5199   2.9113148359e+02   5.2343376262e+00  0.006659767  0.006417196  46.30 -3.540185e-07    1.054    0.051
        50  -9.3737    134.9583    136.2714   2.9117977675e+02   5.3813317462e+00   0.01179478  0.009666939 -63.71 0.0002893741    1.259    0.206
        51  -7.7206    103.0862    131.3597   2.9152190934e+02   5.6353566255e+00   0.01109343  0.008715815 -41.19 0.0007374809    1.310    0.236
        52  -8.2319     38.2788    129.9503   2.9227195312e+02   6.0534874764e+00   0.01489286  0.008115391  36.15 0.0008383328    1.765    0.433
        53  -7.3603     25.1391    127.1822   2.9240854420e+02   6.1663266781e+00  0.009247105  0.007663335  58.69 0.0005088944    1.316    0.240
        54  -8.5567    199.2964    124.9594   2.9035640684e+02   5.1090070962e+00   0.01097842   0.00935395  17.26 0.0002604507    1.181    0.153
        55  -8.4562    131.9716    121.2499   2.9112037740e+02   5.5706334296e+00    0.0104286  0.009418432 -53.66 0.0003743427    1.120    0.107
        56 -10.3538    245.1049    115.8851   2.8976426633e+02   4.9260812216e+00   0.01333705   0.01155054  23.70  0.000423887    1.139    0.122
        57  -7.3992     54.4764    114.2213   2.9198362647e+02   6.1319384917e+00  0.008865242  0.006598631 -81.26 0.0004647446    1.577    0.366
        58  -7.1052    174.0125    109.7104   2.9055605184e+02   5.4398811512e+00  0.007812412  0.005870394  28.14 0.0003083965    1.303    0.233
        59  -8.0776     33.4396    107.1641   2.9218586777e+02   6.3425324360e+00   0.01379899  0.007690797  44.48 0.0009500118    1.874    0.466
        60  -7.7327    190.9829    102.4901   2.9031220456e+02   5.4160508850e+00  0.009533233  0.008880733 -46.49 0.0004057149    1.083    0.077
        61  -8.5704    247.9265     96.8520   2.8961145741e+02   5.1244679574e+00   0.01502639   0.01187626  87.24  0.001442724    1.508    0.337
        62  -7.3821    194.6093     97.5412   2.9023866265e+02   5.4496200652e+00  0.006559241  0.006345089 -25.22  0.000140542    1.038    0.036
        63  -7.6571    214.9574     75.7057   2.8986331413e+02   5.5704545537e+00   0.00939355  0.008118155  22.24 0.0007290919    1.145    0.126
        64  -6.8616     20.7026     69.7283   2.9210040078e+02   6.8468734361e+00  0.006666373  0.005030359 -21.48 0.0001972256    1.524    0.344
        65  -7.7173    159.9212     59.2819   2.9040348964e+02   6.1003806500e+00   0.00921037  0.008223129  14.92 0.0002795104    1.121    0.108
        66  -8.8735    197.1135     54.3186   2.8993712422e+02   5.9246093861e+00   0.01083494   0.01011994 -68.33 0.0004033083    1.110    0.099
        67  -6.9589    156.6921     50.6926   2.9038717852e+02   6.2180138792e+00  0.006921371  0.005021145 -24.17 0.0002278369    1.612    0.380
        68  -8.7859    137.0090     45.1734   2.9058285891e+02   6.4033481989e+00   0.01051157  0.009365476 -58.11 0.0003256434    1.142    0.124
        69  -8.4013    184.0050     41.6585   2.9001063431e+02   6.1501104897e+00  0.009929505  0.008698018  29.23  0.001168861    1.118    0.105
        70  -8.4803    250.6269     39.6426   2.8921922638e+02   5.7565063641e+00   0.01239685  0.006420982 -61.52 0.0001493901    1.983    0.496
        71  -9.2081    175.0604     32.6908   2.9005874911e+02   6.3076899591e+00   0.01331448   0.01035358  36.59  0.001013177    1.261    0.207
        72  -7.1119    245.9464     29.5263   2.8921004689e+02   5.9004818461e+00   0.00977926  0.005791903  -4.19 0.0008094689    2.618    0.618
        73  -9.4158    248.5456    247.8275   2.9055325216e+02   3.4064301545e+00   0.01804559   0.01243251 -87.23     0.001795    1.883    0.469
        74  -8.2762    192.4114     27.9350   2.8982575703e+02   6.2532841003e+00    0.0105795  0.008878591  39.86 0.0004000161    1.184    0.155
        75  -8.2841    164.5470     21.2576   2.9010970265e+02   6.5030019562e+00   0.01926922  0.008928183 -41.34 0.0008276476    2.504    0.601
        76 -10.3656    145.8674     21.2050   2.9032808301e+02   6.6201195603e+00   0.01221221   0.01147446 -57.90  0.000325196    1.086    0.079
        77  -8.2326    241.4994    248.5144   2.9063971735e+02   3.4425174231e+00  0.006613854  0.006466254  28.00 2.314939e-05    1.019    0.018
        78  -7.5059    156.2382     16.0312   2.9017401863e+02   6.6141262929e+00  0.008984645   0.00845978 -53.25 0.0003172811    1.078    0.072
