#   1 NUMBER                 Running object number                                     
#   2 MAG_AUTO               Kron-like elliptical aperture magnitude                    [mag]
#   3 X_IMAGE                Object position along x                                    [pixel]
#   4 Y_IMAGE                Object position along y                                    [pixel]
#   5 X_WORLD                Barycenter position along world x axis                     [deg]
#   6 Y_WORLD                Barycenter position along world y axis                     [deg]
#   7 A_WORLD                Profile RMS along major axis (world units)                 [deg]
#   8 B_WORLD                Profile RMS along minor axis (world units)                 [deg]
#   9 THETA_WORLD            Position angle (CCW/world-x)                               [deg]
#  10 FWHM_WORLD             FWHM assuming a gaussian core                              [deg]
#  11 ELONGATION             A_IMAGE/B_IMAGE                                           
#  12 ELLIPTICITY            1 - B_IMAGE/A_IMAGE                                       
         1 -12.6062    205.4687     23.9661   4.6789076847e+01   3.0411044571e+01    0.9969586    0.8094087  18.15  0.002648472    1.500    0.333
         2 -12.3634    195.6092     35.7118   5.1494841935e+01   3.1496556663e+01     1.109516     1.032588  10.46  0.005155318    1.187    0.157
         3 -10.4421     40.1650      3.5931   7.7169167361e+01   7.1163797745e+01    0.3047488    0.1771263 -21.10  0.001695304    1.547    0.353
         4  -9.5958    229.0364      1.6663   3.8536308384e+01   2.6982461045e+01    0.5324163    0.1705458  77.00  0.002016358    3.190    0.687
         5 -10.0705     58.9928      2.9955   6.8630750206e+01   6.8156363852e+01    0.3097223    0.1121098  42.62  0.001317449    2.672    0.626
         6  -9.4046     86.2363    237.1094   1.1693137348e+02   1.6227760562e+01    0.2662157    0.1992109  68.44  0.001967457    1.157    0.136
         7 -11.0330     49.5245    233.4511   1.2302811816e+02   2.1460379201e+01    0.8781488    0.5018043 -87.24  0.003312865    1.694    0.410
         8 -11.1549     97.9579    226.1137   1.1384431772e+02   1.6416943974e+01    0.9792596     0.319518  52.08  0.004281689    2.891    0.654
         9 -13.1499    124.6423    229.9022   1.0935976662e+02   1.1896537072e+01     3.040862    0.9718294  41.06   0.01373516    2.505    0.601
        10 -12.3314    115.1931    240.7625   1.1217912155e+02   1.1626019235e+01     1.478596    0.4480034  34.65  0.005729806    4.021    0.751
        11 -12.8393     78.3356    248.2944   1.1915002243e+02   1.5496553788e+01     2.469203    0.6459741  35.27  0.009545719    4.688    0.787
        12 -11.6934     61.0721    249.0851   1.2206233032e+02   1.7526004812e+01    0.6170166    0.4116364  53.36  0.002984337    1.118    0.106
        13 -15.5988     71.4897    152.2697   1.1080867882e+02   3.4931444311e+01     28.48055      12.1258 -89.30   0.06830728    8.357    0.880
        14  -8.6366    193.8480    166.5685   8.6178788230e+01   1.0298871962e+01    0.2503997    0.1939105 -38.49  0.001000298    1.373    0.272
        15  -9.9693    164.9310    218.9300   1.0058846913e+02   7.2448021245e+00    0.3419867    0.2370023  77.10   0.00184287    2.517    0.603
        16 -10.5653     90.9978    156.6354   1.0676353387e+02   3.1063947078e+01     0.513468    0.3678955 -22.45  0.001421801    2.399    0.583
        17 -12.0572     42.7553    148.3343   1.1731024509e+02   3.9422815424e+01    0.6939381    0.5471088  85.30  0.002780474    1.052    0.049
        18  -7.6991    134.4992    149.4971   9.5241493339e+01   2.5004250166e+01    0.1433718    0.1357017  70.34 0.0008104995    1.030    0.030
        19  -8.7497     86.7611    145.6342   1.0602520893e+02   3.4207100706e+01    0.3119393    0.1915398  71.94  0.001430517    2.023    0.506
        20  -9.2996    104.1078    140.4778   1.0077289790e+02   3.2537804868e+01    0.4897702    0.2959709 -30.86  0.001997817    2.695    0.629
        21 -10.6706     91.9645    141.1802   1.0395304354e+02   3.4407175861e+01     0.265182    0.2492209 -54.21 0.0003728429    1.187    0.157
        22 -12.0373     45.9069    136.8958   1.1512846123e+02   4.1737386857e+01    0.8528711    0.4221599  67.04  0.003814877    2.475    0.596
        23  -8.4157    132.6033    138.7797   9.3474154545e+01   2.7635957452e+01    0.2121796    0.1383821 -60.12 0.0009583716    1.681    0.405
        24 -14.6068     53.7542    200.9768   1.1995915701e+02   2.6880714910e+01     5.283392     3.422485 -67.66   0.03418774    1.616    0.381
        25  -9.4075    113.0577    130.9989   9.6609035560e+01   3.3081090499e+01     0.336269    0.2432975  22.55  0.001167412    1.816    0.449
        26  -8.6634    105.8499    130.6817   9.8383390395e+01   3.4462448943e+01    0.2816675    0.2082793 -62.65  0.001419246    1.326    0.246
        27  -9.3856    100.2018    127.3303   9.9155718958e+01   3.6228906654e+01    0.2704365    0.2213267 -22.74 0.0007972227    1.590    0.371
        28  -9.9609    118.6944    125.5998   9.3993728416e+01   3.3232655498e+01    0.3942811     0.201931 -41.72  0.001568048    2.123    0.529
        29 -10.4829     72.3705    178.3160   1.1392231436e+02   2.9083569011e+01    0.4474744     0.264052 -42.02  0.002200298    2.641    0.621
        30 -13.5820     10.5911    206.7233   1.2836729455e+02   3.0407601189e+01    0.6873889    0.6421431  48.61  0.002866696    1.573    0.364
        31  -8.0806    108.9815    119.7171   9.5171989763e+01   3.6405012756e+01    0.1949148    0.1858406  69.29 0.0003347845    1.066    0.062
        32  -7.7057    109.6711    115.3124   9.3959284428e+01   3.7284469878e+01    0.1538223    0.1157845  84.81 0.0007042928    1.670    0.401
        33 -10.9160     89.8751    230.2833   1.1569963478e+02   1.6851566236e+01    0.3578686     0.244403 -80.00  0.001687341    1.609    0.378
        34  -8.3687    168.0219    112.9853   7.9184428708e+01   2.5414436820e+01    0.2604311     0.195077 -78.29   0.00114167    1.890    0.471
        35  -9.4352    135.0000    111.9800   8.6588465449e+01   3.2926264436e+01    0.4394899   0.08592666 -45.00  0.001058117    4.996    0.800
        36 -10.2564     76.8230    172.9487   1.1230321955e+02   2.9605375408e+01    0.2875632    0.2483305 -55.77 0.0009788775    1.376    0.273
        37  -8.8295    193.7857    191.7263   9.0925489823e+01   6.3976960178e+00    0.2584504    0.1816588  16.98  0.001261335    1.488    0.328
        38  -8.5734    205.6595    110.1611   7.1010542283e+01   1.7411044980e+01     0.239515    0.2128559  63.89 0.0007467014    1.286    0.222
        39  -9.9381    114.9087    109.9270   9.1239818404e+01   3.7500546021e+01     0.337146    0.1913921 -46.08  0.001421084    1.706    0.414
        40  -8.8350     87.5130    100.0319   9.6472160380e+01   4.4798787194e+01    0.3893333    0.2328367  64.85  0.001583913    2.456    0.593
        41 -10.7266     84.9615    223.7697   1.1601052824e+02   1.8627455924e+01    0.6354281    0.3189704  58.99  0.003580424    1.825    0.452
        42 -10.9535    163.3032    226.4890   1.0192104103e+02   6.4248084138e+00    0.5055281    0.2544355 -46.91   0.00277929    2.468    0.595
        43 -16.4612      5.3880    237.9319   1.3045410386e+02   2.5359082215e+01     10.84057     1.118832 -79.01   0.03785297    8.005    0.875
        44  -8.4535     72.2600    230.2942   1.1884891890e+02   1.9198550232e+01     0.154471   0.09357287  59.82 0.0005787153    1.323    0.244
        45  -8.0280     62.1242     69.4756   9.6346675053e+01   5.5793267071e+01    0.1928172    0.1407089  32.22  0.001025138    1.571    0.364
        46  -9.6571    154.4760     57.3178   6.5493364025e+01   3.9009385084e+01    0.4395863     0.299631 -81.01  0.001734598    2.156    0.536
        47  -8.3714    157.0574     51.1004   6.2859761125e+01   3.9349045856e+01    0.2516552    0.1819891 -67.10  0.001067169    1.710    0.415
        48  -9.2329     73.3465    205.2299   1.1650894893e+02   2.3558745119e+01    0.2883526    0.2020919  60.81  0.001220282    1.170    0.146
        49  -8.2673    163.7286    170.0425   9.2854191138e+01   1.5418703228e+01    0.1876437    0.1722901 -41.56  0.000455457    1.174    0.148
        50 -11.5692    185.5708     43.3210   5.5287627645e+01   3.3078957265e+01    0.6948457     0.541815  14.42  0.001601123    1.558    0.358
        51  -8.4627    172.8699    243.4798   1.0243956643e+02   2.7103179818e+00    0.2581679    0.1670233 -72.98  0.001385253    3.530    0.717
        52  -7.6532    146.4986     20.4584   5.3901004833e+01   4.6270633531e+01    0.1468487    0.1377688 -67.54 2.728912e-05    1.118    0.105
        53  -8.9704     59.1864    228.4225   1.2102214209e+02   2.1165621406e+01    0.1731646    0.1268102  83.40  0.000349979    1.239    0.193
        54  -9.4640     83.6170    231.6630   1.1693977400e+02   1.7472364225e+01    0.3583215    0.2053393  67.27  0.001395944    1.690    0.408
        55 -10.3954     64.6659    238.6011   1.2077751565e+02   1.8771431125e+01    0.3518184    0.1956551  43.72  0.001059902    1.483    0.325
        56  -9.8656     74.0865    218.9259   1.1759261225e+02   2.0939377377e+01    0.6091943    0.1604935  50.88  0.002516262    3.276    0.695
