#   1 NUMBER                 Running object number                                     
#   2 MAG_AUTO               Kron-like elliptical aperture magnitude                    [mag]
#   3 X_IMAGE                Object position along x                                    [pixel]
#   4 Y_IMAGE                Object position along y                                    [pixel]
#   5 X_WORLD                Barycenter position along world x axis                     [deg]
#   6 Y_WORLD                Barycenter position along world y axis                     [deg]
#   7 A_WORLD                Profile RMS along major axis (world units)                 [deg]
#   8 B_WORLD                Profile RMS along minor axis (world units)                 [deg]
#   9 THETA_WORLD            Position angle (CCW/world-x)                               [deg]
#  10 FWHM_WORLD             FWHM assuming a gaussian core                              [deg]
#  11 ELONGATION             A_IMAGE/B_IMAGE                                           
#  12 ELLIPTICITY            1 - B_IMAGE/A_IMAGE                                       
         1  -9.1958    181.0449     22.5391   6.8926824218e+01   3.7330190707e+01    0.3840931    0.2378913 -19.43  0.001904267    2.044    0.511
         2 -11.8467    169.2937      7.4507   6.6484395662e+01   4.1760510483e+01      1.40365    0.7737951  89.60  0.006538671    2.162    0.538
         3  -8.6714    149.9653     11.7050   7.0634282412e+01   4.5991133384e+01    0.1835763    0.1493754  62.88 0.0004466085    1.074    0.069
         4  -8.7338    125.7414      8.6991   7.4074189501e+01   5.1864196261e+01    0.1607282     0.141117  88.68 0.0005519898    1.319    0.242
         5 -10.0334    200.9940      5.3551   6.2095246476e+01   3.4332511675e+01    0.4402566    0.1846773  72.27  0.001990197    2.088    0.521
         6  -7.8002     67.2908      6.3165   8.8012612949e+01   6.3619376958e+01     0.121942   0.07419033  16.38 0.0005477951    1.596    0.374
         7 -10.3419    184.5845      2.6232   6.3261352967e+01   3.8528014867e+01    0.5704197    0.1708621  60.09  0.002295311    2.621    0.618
         8 -10.0078     11.8458      1.3366   1.0766620883e+02   7.1279430123e+01    0.1427849   0.08286671  21.53 0.0002777485    1.686    0.407
         9  -9.0825    238.6071    211.8654   1.0366138120e+02  -7.3386553053e+00    0.2629318    0.1572864  17.27  0.001312694    1.935    0.483
        10 -10.5054    243.2322    249.1672   1.0942305493e+02  -1.3095504788e+01    0.3492045    0.1896145  42.56  0.001983025    1.858    0.462
        11 -10.0642    124.0036    206.0123   1.2556127001e+02   1.4626995532e+01    0.1942284    0.1723988  67.24  0.001151197    1.004    0.004
        12  -8.8461    201.3329    204.3402   1.0929984798e+02   4.2867395753e-01    0.1440156    0.1029727   5.72 0.0007051478    1.749    0.428
        13  -9.1227    238.8498    202.8385   1.0190136227e+02  -6.0127010276e+00    0.1660933    0.1641753  54.56  0.001089396    1.345    0.256
        14  -9.5918    247.4158    198.1889   9.9464586308e+01  -6.7302763568e+00    0.4957647    0.1987723  50.93  0.001883933    3.644    0.726
        15  -7.8371    138.9985    198.9967   1.2124887467e+02   1.3332409292e+01    0.1560242    0.1450855  71.32 0.0009046166    1.033    0.032
        16  -8.4604    133.0899    199.0682   1.2252852653e+02   1.4418166294e+01    0.1768802    0.1471267  71.62 0.0009738266    1.189    0.159
        17  -8.7873    223.0390    188.0112   1.0190942449e+02  -8.0289910426e-01    0.1977547    0.1766881   6.16  0.001165744    1.041    0.039
        18  -8.6381    100.9808    175.9801   1.2585995756e+02   2.5236946462e+01    0.1606414    0.1428691 -85.83            0    1.034    0.033
        19  -9.3182     39.9465    110.9488   1.2997643059e+02   4.8863920882e+01    0.1959749    0.1632257 -58.94 0.0003490284    1.008    0.008
        20  -9.3973    211.3097     91.3310   8.2016281021e+01   1.9593833348e+01    0.3888137    0.2281692 -54.04 0.0008810638    1.812    0.448
        21  -9.1686    221.9543     90.4650   8.0038674792e+01   1.7255437114e+01    0.2709124    0.2069714 -21.94 0.0007153145    1.547    0.353
        22  -7.8104    127.7865     90.9890   9.9818566951e+01   3.9342849313e+01    0.1858859    0.1203983 -41.54 0.0008203819    1.523    0.343
        23  -8.2312    148.6720     89.7334   9.4276472576e+01   3.4921255536e+01    0.1528709    0.1204221  17.45  0.000229029    1.574    0.365
        24  -8.1450    192.3263     87.7377   8.4498930120e+01   2.4801239687e+01    0.1528539    0.1162052 -80.83 0.0002491931    1.563    0.360
        25  -8.1992    100.5619     87.4456   1.0627157475e+02   4.5484878163e+01    0.1431427    0.1344164 -26.51 0.0001274171    1.002    0.002
        26  -8.3489    210.4785     82.4734   7.9946443863e+01   2.1348638677e+01    0.1470247    0.1397021 -70.79  0.000253259    1.032    0.031
        27  -9.2359    160.7643     80.9987   8.9054619350e+01   3.3702292888e+01    0.2432779    0.2112353  57.41 0.0002941916    1.139    0.122
        28  -9.0279    216.4471     77.5180   7.7752558858e+01   2.0771497681e+01    0.1465802    0.1342372 -68.96 9.162891e-05    1.009    0.009
        29  -9.0061    246.7364     73.9415   7.2589674339e+01   1.4435763361e+01    0.1952636    0.1581736 -51.18 0.0003724457    1.101    0.092
        30  -8.7362    122.5027     74.5497   9.6354023085e+01   4.3621185486e+01    0.1452247    0.1400341   6.76 7.571922e-05    1.006    0.006
        31  -8.6427    114.4910     74.4511   9.8475553339e+01   4.5307949882e+01    0.1434235    0.1378244  -2.32 1.248779e-05    1.011    0.011
        32  -9.0840     40.2249     70.9946   1.2077831390e+02   5.7391100937e+01    0.1931297    0.1679379   1.87 0.0007945324    1.246    0.197
        33  -9.9826     13.1048     69.6474   1.2979093935e+02   5.9898963746e+01    0.2049103    0.1377543 -63.61   0.00109316    1.381    0.276
        34  -9.8301    243.0674     68.8858   7.1923678014e+01   1.6048033603e+01    0.2091516    0.1867248 -60.61 0.0005480008    1.051    0.049
        35 -11.3262    231.7251     67.5097   7.3108326888e+01   1.8831062132e+01    0.4654272     0.409082  39.28  0.001434706    1.399    0.285
        36 -11.2667    138.8202     66.2560   8.9728279274e+01   4.1460129558e+01    0.4045061    0.3771128  13.25  0.001583834    1.099    0.090
        37 -10.2738     68.8090     66.8367   1.0990264657e+02   5.4705570379e+01    0.2823249    0.1481466  45.61  0.001304837    2.361    0.577
        38  -9.9245    122.6439     66.9349   9.3967310362e+01   4.4942740458e+01    0.2892155    0.1360873 -29.70  0.001096271    2.478    0.596
        39 -10.1909     80.0089     64.8884   1.0566500121e+02   5.3360728354e+01    0.2539817    0.1732563 -38.05 0.0004324665    1.364    0.267
        40 -10.5716      7.3927     66.9510   1.3115162317e+02   6.0787446860e+01    0.3065689    0.1798876 -62.64  0.001909281    1.481    0.325
        41 -10.3387    212.7363     62.2679   7.4548754636e+01   2.4136305866e+01     0.366035    0.2186421 -46.55  0.001706178    1.610    0.379
        42  -9.6806     61.3882     63.1511   1.1123351783e+02   5.6418208568e+01    0.1744238    0.1134804 -52.21 0.0003591487    1.639    0.390
        43  -9.9194    115.9875     61.6596   9.4055677781e+01   4.7246028859e+01    0.2004547    0.1750512  39.85 0.0004391739    1.127    0.113
        44  -9.3475     84.7898     62.1828   1.0328660319e+02   5.3057932088e+01    0.1925856    0.1789039 -42.30 0.0005458249    1.212    0.175
        45  -8.1357    250.2901     61.3261   6.9350478897e+01   1.5630861550e+01    0.1219151    0.1074646  12.44  0.000358952    1.615    0.381
        46 -10.2881    220.4705     59.5792   7.2775645868e+01   2.2702461236e+01    0.2958123     0.230289 -24.01 0.0009103438    1.536    0.349
        47  -9.0954    150.3167     56.9774   8.4309861966e+01   4.0262373040e+01    0.2435984   0.09495233 -51.91 0.0007048548    4.303    0.768
        48  -9.6266     91.5161     57.0153   9.9511745560e+01   5.2774936417e+01    0.2070174    0.1271163 -36.38 0.0006991763    1.577    0.366
        49  -8.6499    245.3423     55.8142   6.8717532168e+01   1.7549151597e+01    0.1758446    0.1208904 -32.32 0.0002362887    1.577    0.366
        50 -10.2700    212.3546     55.7121   7.2980140544e+01   2.5234796240e+01    0.2685382    0.2278321 -72.37  0.000448646    1.108    0.098
        51  -8.8366    176.0000     55.9878   7.8937002593e+01   3.4143172599e+01    0.2311023   0.08349039 -33.76 0.0005382412    2.894    0.654
        52 -10.0986     84.0690     55.5214   1.0130719672e+02   5.4321712038e+01    0.2537594     0.169492 -20.94  0.000659873    1.560    0.359
        53 -10.0125    222.9904     54.2458   7.1152040531e+01   2.2912504916e+01    0.2645219    0.1549176 -53.01 0.0009911577    1.666    0.400
        54  -8.5096    155.7070     55.3468   8.2685809390e+01   3.9217260691e+01    0.1492699     0.111335 -70.30 0.0007029757    1.667    0.400
        55  -9.1248     78.3107     55.6596   1.0318512964e+02   5.5249536911e+01    0.1232922    0.1069906 -75.52 0.0007045268    1.693    0.409
        56  -9.1704     47.5078     55.5441   1.1367167311e+02   5.9527733981e+01    0.1237685     0.103179 -25.51 7.878347e-05    1.026    0.025
        57  -8.5292    186.0109     54.7671   7.6846311398e+01   3.1845461370e+01    0.1932656    0.1158634  62.12 0.0003258275    1.596    0.373
        58 -11.5230     96.9435     52.8733   9.6498873468e+01   5.2453812224e+01    0.5386341    0.3648152  66.72  0.002253142    2.320    0.569
        59  -9.6320    209.0974     50.6802   7.2196650597e+01   2.6770105169e+01    0.2593536    0.1826157 -52.47  0.001331591    1.384    0.278
        60  -9.9907     83.3027     50.5864   9.9865260726e+01   5.5257937453e+01    0.2381685    0.2158053  -2.44 0.0005567957    1.056    0.053
        61 -10.0022    213.0192     49.2716   7.1299159765e+01   2.6025743588e+01    0.2457486    0.1904418 -51.51 0.0003699996    1.240    0.194
        62  -9.5697    171.9878     49.9496   7.7968529956e+01   3.6031417431e+01    0.2058816    0.1904936  68.31            0    1.018    0.018
        63  -9.0425    178.5119     48.9656   7.6541194297e+01   3.4558119530e+01     0.228631    0.1503962  43.00  0.001075829    1.651    0.394
        64  -8.5768     22.3105     49.6641   1.2119349444e+02   6.3043374787e+01    0.1012116    0.0893267 -81.99 0.0003166316    1.682    0.405
        65 -10.6752     54.6699     47.4092   1.0840605336e+02   6.0058752438e+01    0.3137853    0.2248136  40.70  0.001895865    1.700    0.412
        66 -10.4945    125.6347     45.1106   8.6211443599e+01   4.7715262475e+01     0.371782    0.1874574 -49.80  0.001359183    2.687    0.628
        67  -9.0609     76.3762     46.2142   1.0055585959e+02   5.7095769248e+01    0.1720737    0.1140816 -42.25 0.0001363701    1.593    0.372
        68  -9.9612    113.1630     44.7965   8.9245933189e+01   5.0448034002e+01    0.2789761    0.1895226 -17.33  0.001328413    1.623    0.384
        69  -9.7034     90.1454     43.8730   9.5406397456e+01   5.5087599110e+01    0.1939133     0.182177 -31.21  0.001230936    1.235    0.190
        70  -9.3418     66.1971     43.5419   1.0300473863e+02   5.9086259033e+01    0.2481769    0.1468677  -6.84  0.001193998    2.248    0.555
        71 -10.3268    129.7758     42.4081   8.4348039055e+01   4.7164352361e+01    0.2367184    0.2166579  44.43 0.0009191331    1.040    0.038
        72  -8.2553    155.6862     42.7225   7.8926217917e+01   4.1039130190e+01    0.1433104    0.1031144  32.53 0.0002477453    1.565    0.361
        73  -8.5333    199.9829     40.0164   7.0803120451e+01   3.0496243532e+01    0.1686429    0.1521639 -85.86 0.0005720254    1.016    0.016
        74 -10.3705    152.0453     39.2137   7.8581514152e+01   4.2385857273e+01    0.3286107     0.253304  64.14  0.001629968    1.240    0.194
        75 -10.7299     97.2133     43.1198   9.3055877480e+01   5.3881576271e+01    0.4400958    0.2361229 -17.88  0.001932089    2.371    0.578
        76  -9.6756    138.5089     46.4738   8.3661250926e+01   4.4600090067e+01    0.1413637    0.1317067  40.62 8.703099e-05    1.009    0.009
        77  -9.7394    205.4456     37.1297   6.9325564523e+01   2.9548314515e+01    0.4488073    0.2600033  -1.16  0.001598896    4.277    0.766
        78 -10.8691    134.2940     38.7690   8.2145151706e+01   4.6622800026e+01    0.4833003    0.1797837  40.89   0.00169794    3.082    0.676
        79  -9.1729     95.9786     36.0054   9.0882784944e+01   5.5105250941e+01    0.1830454    0.1618396 -70.23 0.0003313116    1.592    0.372
        80  -9.5456      8.6662     35.1164   1.2212418710e+02   6.6571375483e+01    0.1561138    0.1325269  -9.30 0.0003221962    1.264    0.209
        81  -7.8072    174.2555     34.2701   7.3171117644e+01   3.7595192663e+01    0.1302627    0.1016806  35.62 -0.000275831    1.452    0.311
        82  -8.7604     27.4892     37.4792   1.1525171012e+02   6.4695712953e+01    0.1163864   0.08920437 -24.12 -6.898989e-07    1.003    0.003
        83  -8.2994    248.5047     33.5073   6.3542185776e+01   2.0000002240e+01    0.1300392    0.1077223 -72.80  0.000810614    1.010    0.010
        84 -10.3407    194.0212     30.8881   6.9298140753e+01   3.3146904427e+01    0.3564823    0.3041719  -0.38  0.002055614    1.529    0.346
        85  -8.0224     84.6777     30.7011   9.2268559104e+01   5.7891169054e+01    0.1326877   0.08780248  14.11 0.0004216839    1.625    0.385
        86  -9.6933     69.6427     26.7005   9.5525289084e+01   6.0950232252e+01    0.2043116    0.1771151   4.33 0.0002889568    1.095    0.087
        87  -8.9325     61.8463     26.5705   9.8134992787e+01   6.2170432672e+01    0.2153926    0.1052448  34.77 0.0009578762    1.988    0.497
        88 -10.3525      8.2389    246.9826   1.5092224790e+02   2.2671529083e+01    0.3256137     0.128222 -60.92  0.001808711    3.097    0.677
        89  -8.7854    195.3630     21.9260   6.6831971100e+01   3.3897513004e+01    0.1751724    0.1604352 -73.98 0.0004253099    1.101    0.092
        90  -8.6152     94.7846     21.9604   8.6066720045e+01   5.7057408358e+01    0.2008301    0.1441812 -55.40  0.001086706    2.121    0.528
        91  -7.7755    151.0000     19.9794   7.2950188212e+01   4.4913342940e+01    0.2013572   0.07766079 -26.30 0.0007362754    2.920    0.657
        92  -8.6533     61.8931     19.8751   9.5441105686e+01   6.3007828220e+01    0.1448226    0.1317344  11.35  0.000366175    1.280    0.219
        93  -8.1678     15.3959     17.5672   1.1296617236e+02   6.8815741480e+01    0.1089779   0.07779766 -20.10 4.668171e-05    1.027    0.027
        94  -7.9461    187.6507     16.7134   6.6494536425e+01   3.6362625306e+01    0.1357982   0.09125607  44.32 0.0003398181    1.659    0.397
        95  -8.0513     36.4776     16.0839   1.0340801108e+02   6.6901454453e+01    0.1663143   0.07778777 -16.95 0.0008069647    2.594    0.614
        96 -10.2318    243.8231    240.5618   1.0787055085e+02  -1.2111367632e+01    0.4028049    0.2345626  22.98  0.002309271    1.603    0.376
        97  -8.3172    144.4803     14.0408   7.2284933471e+01   4.7061994807e+01    0.1747555    0.1322686 -19.47 0.0004998878    1.512    0.339
        98  -9.8277     15.3264    248.3374   1.4991725277e+02   2.1672503463e+01    0.1436219   0.08807743 -71.95  0.001013082    1.652    0.395
        99  -8.4314    111.7002     10.3679   7.7611274527e+01   5.4782091901e+01    0.1713812    0.1002544  48.38 0.0009148924    1.447    0.309
       100 -10.2034    249.8616    219.8848   1.0314120696e+02  -1.0279981939e+01     0.608727    0.2093095 -37.34  0.002615283    2.922    0.658
       101  -7.6905     56.2319    220.2486   1.4090120628e+02   2.2234431064e+01   0.09790444   0.08598378 -72.25            0    1.388    0.280
       102  -7.8051     56.2302    215.2971   1.4042553600e+02   2.3257747898e+01    0.1048913   0.08591003 -62.79  0.000679894    1.464    0.317
       103  -7.6438    100.9899    214.7956   1.3156095340e+02   1.6744559589e+01     0.156643   0.09501474  45.27  0.000806405    1.522    0.343
