#   1 NUMBER                 Running object number                                     
#   2 MAG_AUTO               Kron-like elliptical aperture magnitude                    [mag]
#   3 X_IMAGE                Object position along x                                    [pixel]
#   4 Y_IMAGE                Object position along y                                    [pixel]
#   5 X_WORLD                Barycenter position along world x axis                     [deg]
#   6 Y_WORLD                Barycenter position along world y axis                     [deg]
#   7 A_WORLD                Profile RMS along major axis (world units)                 [deg]
#   8 B_WORLD                Profile RMS along minor axis (world units)                 [deg]
#   9 THETA_WORLD            Position angle (CCW/world-x)                               [deg]
#  10 FWHM_WORLD             FWHM assuming a gaussian core                              [deg]
#  11 ELONGATION             A_IMAGE/B_IMAGE                                           
#  12 ELLIPTICITY            1 - B_IMAGE/A_IMAGE                                       
         1 -14.4596    164.9934     39.2529   5.0045078238e+01   3.9304834396e+01     2.224615       1.1471  43.74  0.009562976    2.089    0.521
         2 -15.0670    191.2670     10.4096   3.8282074087e+01   3.6211202862e+01     3.204821     1.586057  57.85   0.01313164    1.917    0.478
         3 -12.2331     12.3468     23.6969   9.2668674038e+01   6.9737286183e+01    0.7224674    0.3300123 -27.12  0.003748875    2.035    0.508
         4 -10.9267      1.6498     24.9336   9.8736202216e+01   7.0274980731e+01    0.5850031    0.1205956 -52.70   0.00229964    3.580    0.721
         5 -11.8480     24.6697      4.0344   7.6676145099e+01   7.1408727847e+01    0.6090507    0.3276506  16.34  0.003517524    1.850    0.460
         6  -9.6760      2.0063      1.5017   8.7824260815e+01   7.4049351139e+01    0.2072874    0.1299917   6.18 0.0007955793    1.466    0.318
         7 -12.2245      6.9778     11.1581   8.9876732372e+01   7.2210011324e+01    0.8471476    0.3983606 -24.65   0.00371628    1.902    0.474
         8 -11.1847     10.1866      2.0411   8.3336513688e+01   7.3247422196e+01    0.6208391    0.1933127  25.44  0.002463353    3.476    0.712
         9 -10.8759     13.5476     12.7882   8.7066337434e+01   7.1390916002e+01    0.3280144    0.1924982 -21.09  0.001265768    1.399    0.285
        10 -11.1412     15.8100      7.0000   8.2902800966e+01   7.2010835486e+01     0.458608    0.2416258 -14.63  0.001731294    1.848    0.459
        11 -10.6415     26.1917     16.1685   8.2209672861e+01   6.9593092974e+01    0.3277956    0.1725524 -18.00  0.001763585    1.882    0.469
        12 -11.2862     19.8982     13.8623   8.4249834001e+01   7.0610133108e+01    0.4224561    0.2116658 -22.21  0.001772438    1.860    0.462
        13 -12.9815    241.3192      5.4223   3.2857794935e+01   2.5630659544e+01     1.636228    0.7137582  87.92  0.007986562    2.499    0.600
        14 -10.3144     40.7476     11.0182   7.2821615550e+01   6.8425394042e+01    0.2267139    0.1319693  20.70  0.001291048    1.641    0.391
        15 -11.2028     29.5003      9.9932   7.7477172893e+01   7.0056697882e+01    0.3766803    0.1937433  -2.44  0.001839634    2.509    0.602
        16 -10.9219     49.0820      5.8662   6.6674897327e+01   6.7752421534e+01    0.2969951    0.1613037  28.56  0.001464616    1.683    0.406
        17 -11.1991     40.7352      3.1189   6.8677652895e+01   6.9334084038e+01    0.3961524    0.2153649  17.89  0.002184056    1.834    0.455
        18 -10.3533     79.1266      2.8648   5.5073379573e+01   6.2599363478e+01    0.1795144    0.1705393  20.33 0.0008190283    1.245    0.197
        19 -10.4633     54.1379      1.7579   6.2609207125e+01   6.7326654346e+01    0.2787547    0.1487418  47.15  0.001448347    1.859    0.462
        20 -10.4240     34.2000      1.8463   7.0883396814e+01   7.0417247349e+01    0.2682433    0.1563107  36.21  0.001426953    1.701    0.412
        21 -10.0894    212.5007     84.4993   5.4935076294e+01   2.1397272132e+01    0.1445688    0.1321914 -36.04 -7.264341e-06    1.024    0.023
        22 -14.3575    232.0333    241.1170   8.5177062411e+01  -7.5983319617e+00     3.686429     1.550591  25.75   0.01812115    2.320    0.569
        23 -11.2491     44.6130    245.6391   1.2091177731e+02   1.7861376194e+01    0.3558853    0.1787772  62.91  0.001797421    1.799    0.444
        24 -13.8345      9.8402    204.4010   1.2455757673e+02   2.9536974577e+01     1.487264    0.5342954  47.32  0.007782781    2.403    0.584
        25  -8.9451    152.3010     73.3226   6.3041402617e+01   3.7218476104e+01    0.1550933    0.1174145  11.10 0.0007027147    1.630    0.387
        26 -10.2639    147.1307     67.7921   6.2474026773e+01   3.9371215835e+01    0.2273965    0.2119966 -76.80 0.0006748519    1.204    0.170
        27  -8.9875      9.4962     68.4993   1.0812175133e+02   6.1017104885e+01    0.1272375   0.09500582 -48.69 0.0008105867    1.022    0.021
        28  -9.2612      2.5057     68.4899   1.1083818286e+02   6.1390475528e+01    0.1246156   0.09238563 -52.17 -4.047355e-05    1.007    0.007
        29 -12.0179    249.0694     62.3498   4.4730958626e+01   1.7055806880e+01    0.6767037    0.4460346 -14.96  0.003491618    1.981    0.495
        30  -9.1320      7.3081     62.6684   1.0761773614e+02   6.2419109274e+01    0.1115469   0.08983661  84.42 0.0007040614    1.666    0.400
        31 -12.0366    140.7556     56.1784   6.0169289669e+01   4.2736218116e+01    0.5775011    0.3037688  57.08  0.002407904    1.977    0.494
        32  -9.6738     11.5919     57.2355   1.0445687114e+02   6.3330507340e+01    0.1891675   0.08128298 -49.33  0.000952975    1.681    0.405
        33 -11.2218      2.7361     50.4276   1.0642233742e+02   6.5261432718e+01    0.5066585    0.1490812 -52.68  0.002339492    2.190    0.543
        34 -11.2570    190.9941     47.2505   4.8291908891e+01   3.1998287986e+01    0.8104795     0.436569  10.81  0.002308512    6.003    0.833
        35  -8.5302     65.4670    250.4788   1.1757180663e+02   1.4527182219e+01    0.1131483   0.08818131  62.38 0.0008092462    1.025    0.025
        36 -10.5184     56.3597    242.6422   1.1859745919e+02   1.7048481165e+01    0.2633259     0.141015  64.71  0.001534288    1.785    0.440
        37 -11.0426     12.2180     37.7238   9.8145418430e+01   6.7216077715e+01    0.3834666    0.1736709 -34.24  0.002005226    1.847    0.459
        38 -11.2052    249.0407     44.8287   4.0799440725e+01   1.9447882904e+01    0.3229001    0.1739143 -31.30 0.0009480965    1.757    0.431
        39 -10.7308      8.2746     44.0493   1.0208370338e+02   6.6247037067e+01     0.306843     0.133389 -45.69  0.001572681    1.659    0.397
        40 -10.2012      2.3269     33.3667   1.0143692714e+02   6.8677461435e+01    0.3513591    0.1244553 -40.04  0.001652849    2.069    0.517
        41  -9.9579      5.6078     29.1938   9.8304395323e+01   6.9255563482e+01    0.2743736    0.1239135 -45.82  0.001175491    1.638    0.389
        42 -10.9711     44.7127    237.6936   1.2033587015e+02   1.9326325747e+01    0.2584834    0.1557154  76.16  0.001119317    1.534    0.348
        43 -10.5293     18.4034     30.8218   9.2570234405e+01   6.7994569654e+01    0.4094315     0.174724 -29.04  0.001955701    2.296    0.564
        44  -9.7247    240.3014     29.6486   3.8221064288e+01   2.3152391345e+01     0.136119   0.07688048 -58.82 0.0007038676    1.698    0.411
        45 -11.0508     39.6156    231.9570   1.2085066484e+02   2.0992286312e+01    0.2830212    0.1709601  81.90  0.001230665    1.520    0.342
        46 -12.4159     12.5107    229.4075   1.2552819944e+02   2.4257193998e+01     1.322615    0.4487235  71.73  0.005850113    3.508    0.715
        47 -10.6804     34.1859    226.0509   1.2142998120e+02   2.2736201739e+01     0.331906   0.07300422  44.23  0.001418459    3.297    0.697
        48 -11.5090     36.9470    249.2914   1.2247675107e+02   1.8049967501e+01    0.5902349    0.2792137  56.57  0.002478477    1.736    0.424
        49 -10.8709     43.2399    222.3801   1.1945375061e+02   2.2477810807e+01    0.2432813     0.139639 -89.97  0.001427442    1.677    0.404
        50 -11.5996     33.5325    218.4245   1.2100223124e+02   2.4334931420e+01     0.334345    0.1932379 -89.59  0.001597965    1.575    0.365
        51 -13.5335     23.8533    229.1747   1.2351537775e+02   2.3195592939e+01     1.147592    0.5335607 -86.47  0.006561092    2.003    0.501
        52 -10.3871      2.9704     40.8656   1.0355808905e+02   6.7187945433e+01    0.4075651   0.07800239 -49.39  0.001667466    2.873    0.652
        53 -10.4026     21.2726     22.8508   8.7778077531e+01   6.9081026592e+01    0.3102721    0.1752473  -4.62  0.001718704    1.931    0.482
        54 -10.7135     28.0600    212.0410   1.2158167122e+02   2.6213580908e+01    0.1849943     0.141678  76.58 0.0009903229    1.040    0.039
        55 -10.1999     34.4935     16.0251   7.8167194240e+01   6.8616392432e+01    0.2648243      0.13138  14.79  0.001274075    2.493    0.599
        56  -8.5146    232.3026    211.2570   7.9891650852e+01  -3.6127226479e+00    0.1259404   0.08225374   3.46            0    1.510    0.338
        57 -12.7798     11.1542    217.1783   1.2508332675e+02   2.6793989864e+01     1.109345    0.3788233  50.98  0.005768981    2.443    0.591
        58  -9.4128     53.4913     11.4975   6.7789873230e+01   6.6425760931e+01    0.1268171   0.09844352   6.72 0.0008104525    1.029    0.028
        59  -9.5026    216.5562     79.5314   5.3047731665e+01   2.1312112030e+01    0.1434723    0.1276618 -45.82 3.685878e-05    1.032    0.031
        60 -10.9348      3.4360    196.9554   1.2532634339e+02   3.1654861409e+01    0.3280824     0.174064  70.18  0.001556443    1.652    0.395
        61 -14.2617     11.0794    243.6731   1.2650122732e+02   2.1714131165e+01     1.918266     1.213243  63.22   0.01426626    1.198    0.165
        62 -10.9004      3.5147    188.7744   1.2479618229e+02   3.3407846117e+01     0.305269    0.1327972  66.82  0.001573946    2.259    0.557
        63  -9.6802     87.3444    187.6903   1.0635540197e+02   2.4286420432e+01    0.1427291   0.09602004  68.98 0.0007044886    1.700    0.412
        64 -11.8469     28.5499    240.4064   1.2337589014e+02   2.0573978173e+01     0.603683    0.3281989  77.28  0.002654143    1.655    0.396
