#   1 NUMBER                 Running object number                                     
#   2 MAG_AUTO               Kron-like elliptical aperture magnitude                    [mag]
#   3 X_IMAGE                Object position along x                                    [pixel]
#   4 Y_IMAGE                Object position along y                                    [pixel]
#   5 X_WORLD                Barycenter position along world x axis                     [deg]
#   6 Y_WORLD                Barycenter position along world y axis                     [deg]
#   7 A_WORLD                Profile RMS along major axis (world units)                 [deg]
#   8 B_WORLD                Profile RMS along minor axis (world units)                 [deg]
#   9 THETA_WORLD            Position angle (CCW/world-x)                               [deg]
#  10 FWHM_WORLD             FWHM assuming a gaussian core                              [deg]
#  11 ELONGATION             A_IMAGE/B_IMAGE                                           
#  12 ELLIPTICITY            1 - B_IMAGE/A_IMAGE                                       
         1 -12.9561      3.1774     62.1414   9.9604726521e+01   6.5457563604e+01     1.410776    0.4458659 -74.81  0.003019116    2.698    0.629
         2 -12.7435     26.5742     50.3923   8.3299889794e+01   6.6697045626e+01     1.965859    0.9445387 -80.71  0.006723715    3.729    0.732
         3 -13.4563     37.4363     47.8930   7.6174118054e+01   6.5976141819e+01     1.330491     1.024095 -66.02   0.00703598    1.390    0.281
         4 -11.2747     23.1986     23.1398   7.3776128482e+01   7.3290075097e+01    0.7136465    0.3265561 -30.31  0.001994373    2.961    0.662
         5 -11.4683     59.3728     21.8637   5.1795646569e+01   6.7232003735e+01    0.6691665    0.3713295  51.38  0.002490383    1.825    0.452
         6 -11.1906     61.4848     13.4738   4.5814730398e+01   6.7960674738e+01     0.616226    0.4617418  47.13  0.003299011    1.280    0.218
         7 -11.3025     55.1525     12.7404   4.8033115819e+01   6.9461795941e+01    0.3498082     0.238421 -27.50 0.0008478251    1.464    0.317
         8 -11.5751     28.4939      2.6536   5.5465443436e+01   7.6147627618e+01    0.5628336    0.3114945  39.47  0.002833042    1.775    0.437
         9 -11.0937     50.6573     16.3599   5.2502841276e+01   6.9894271495e+01    0.6173269    0.4032615 -41.46  0.002971238    1.614    0.380
        10 -11.1460     41.9474     18.7147   5.8687136675e+01   7.1209269979e+01    0.5509717    0.3001194  43.98  0.002031373    1.876    0.467
        11 -10.2771     39.4770     10.6804   5.4668992647e+01   7.2953693862e+01    0.7907714    0.6154521 -47.91  0.004431678    1.511    0.338
        12 -11.8317     19.8099      4.6467   6.3916183353e+01   7.7251568491e+01    0.8457369    0.5462621  50.26  0.004431129    2.065    0.516
        13 -11.1170     10.9228      3.0467   7.0843400543e+01   7.8724397436e+01     0.276344    0.2411347   4.88 0.0008666969    1.130    0.115
        14 -10.9832     29.6086     19.3351   6.6921418716e+01   7.3161958016e+01    0.4375852    0.2252748 -31.94 0.0008999386    2.112    0.527
        15 -10.7845     34.3346     15.6643   6.1348954601e+01   7.3071942804e+01    0.4264004    0.2817051 -19.46   0.00215772    1.673    0.402
        16 -11.2386     30.9430     12.9522   6.1747879574e+01   7.4104148538e+01    0.2782249    0.2127844 -41.50 0.0004539704    1.335    0.251
        17 -10.2293    172.5630     25.9598   2.8117276933e+01   3.8275778174e+01     0.210378    0.1859508  60.93 0.0004227525    1.210    0.174
        18 -11.8431    130.8969     20.5020   3.1692254205e+01   4.9557441717e+01    0.4800648    0.4227324  33.74  0.001550254    1.223    0.183
        19 -12.3910      3.9379     17.6100   8.6916957130e+01   7.6368956197e+01    0.5169165    0.3971122  78.47  0.001687423    1.743    0.426
        20 -12.0957      7.1790     10.2336   7.9797447751e+01   7.7710364616e+01    0.5576499     0.330743  -3.38  0.001335748    1.972    0.493
        21 -10.5113      9.7282     15.6286   8.0586173074e+01   7.6342296377e+01    0.3328517    0.1872062 -24.26  0.001279956    1.978    0.494
        22 -11.4767     18.8111     16.2089   7.3099145405e+01   7.5247775820e+01    0.6573688    0.3669049 -16.59  0.002879535    2.561    0.609
        23 -12.3279    160.0994     21.9371   2.8221870503e+01   4.1819210758e+01    0.5353348    0.4013014   6.45 0.0009737362    1.633    0.387
        24 -11.9253    128.5887     11.2031   2.8333830192e+01   5.1104894172e+01    0.4887756    0.2738793 -51.22  0.002174202    1.882    0.469
        25 -10.5335     94.0238     20.1757   3.9050195678e+01   5.9241855201e+01    0.4692158    0.2234394 -17.68  0.001437289    2.492    0.599
        26 -12.4709    237.8511     17.4943   2.0731397481e+01   2.4736647500e+01     0.310791    0.2142901 -63.09 0.0004417212    1.387    0.279
        27 -10.8596    143.9288     16.6417   2.8352355827e+01   4.6532829010e+01    0.2974666    0.2462371  31.78  0.001337877    1.362    0.266
        28 -10.3600     74.0426      6.9595   3.7446747235e+01   6.5731640379e+01    0.2921308    0.1972584   3.49  0.000497208    1.696    0.410
        29 -11.2702     71.2347     13.1416   4.2006786376e+01   6.5731520566e+01    0.4875854    0.2968277  -8.99  0.002047628    1.947    0.486
        30 -11.4008     77.8036     10.6745   3.8498372154e+01   6.4412775155e+01     0.687138    0.2029728  56.65  0.002259016    2.857    0.650
        31 -11.7294    118.2312     11.1815   2.9893484420e+01   5.3861584036e+01    0.6319848    0.3006163 -16.91  0.002575021    2.313    0.568
        32 -10.9062    155.5766     11.3793   2.5132268979e+01   4.4017399595e+01    0.5243123    0.2104288 -28.31  0.002143137    2.269    0.559
        33  -9.8413     83.9230     13.5756   3.8358077834e+01   6.2566972246e+01    0.2044613    0.1872546 -20.28 0.0002620216    1.124    0.110
        34 -10.9519     15.1153     13.6453   7.4592448838e+01   7.6198900054e+01    0.2401268    0.2079075  -4.58 0.0004975758    1.108    0.097
        35 -10.5967    138.2162     11.0588   2.6993838703e+01   4.8569539574e+01    0.3453794    0.1948099 -43.13  0.001381427    1.727    0.421
        36 -11.4419    234.6977     10.4886   1.9236655807e+01   2.5998854592e+01    0.2456654    0.1906654 -27.32 0.0005953924    1.197    0.165
        37 -12.1866    235.0493      4.5495   1.7815688829e+01   2.6456992622e+01    0.4611397    0.3330528  19.12  0.002874179    1.955    0.489
        38 -11.6762    145.7597      7.6567   2.4850132418e+01   4.6893603630e+01    0.4146111    0.3087226  -1.14   0.00155364    1.559    0.359
        39 -10.1225    176.5790     10.1365   2.2802867236e+01   3.8865661035e+01    0.2659504     0.148434  39.71  0.001213624    2.319    0.569
        40 -10.0642    107.6964     10.1351   3.1244531380e+01   5.6757546201e+01    0.1948066    0.1777256  -4.86  0.001102862    1.163    0.140
        41 -11.5475    241.2338      9.0486   1.8592141709e+01   2.4864383997e+01    0.1898118    0.1507947 -68.57 0.0006597507    1.244    0.196
        42 -10.8554    164.6924      6.4455   2.2618542891e+01   4.2138336079e+01     0.432307    0.1965318 -21.74  0.001880986    2.174    0.540
        43 -12.4377    213.5431      5.1807   1.8991433846e+01   3.0816367649e+01    0.6938568    0.3437979 -51.57  0.003629928    1.734    0.423
        44 -10.4653    202.4211      2.9122   1.8985699993e+01   3.3448613215e+01    0.5277134    0.1674647  51.20  0.001918409    4.328    0.769
        45 -10.9516    190.0734      5.9791   2.0580320360e+01   3.6010053447e+01    0.3576098    0.2935016 -46.81  0.002220192    1.066    0.062
        46  -9.7766    100.4468      6.7860   3.1017312243e+01   5.8979726450e+01    0.1964953    0.1327632   7.82 0.0005075982    1.746    0.427
        47 -10.0430    131.0714      5.6411   2.5776506307e+01   5.0936425013e+01    0.1934494    0.1660886  74.08 0.0003704269    1.113    0.101
        48  -9.8840     91.8454      6.5837   3.2684004724e+01   6.1248875470e+01    0.2116278    0.1297057  64.78 0.0008385657    1.528    0.346
        49  -9.9878     68.8126      5.3708   3.8087220210e+01   6.7171222646e+01    0.2290799    0.1744685 -30.97  0.000596531    1.369    0.270
        50  -9.6365    109.4322      5.4962   2.8803416007e+01   5.6712173437e+01    0.1398567    0.1322968  59.72 8.623433e-05    1.031    0.030
        51  -9.8649     58.7095      5.3429   4.1615282590e+01   6.9566653644e+01    0.3597503    0.1296135  61.63   0.00131655    2.907    0.656
        52 -11.2101    243.3231      2.6582   1.7039189879e+01   2.5027449222e+01     0.295472    0.1203077 -43.37  0.001472033    1.793    0.442
        53 -10.4289    178.4818      3.7139   2.0693658857e+01   3.8963552492e+01    0.2464923    0.1677945  85.35 0.0008309626    1.454    0.312
        54  -8.9582      1.2586      4.3534   8.2262437660e+01   7.9423721611e+01      0.13336    0.0753016 -34.35 0.0006521797    1.611    0.379
        55  -9.9671    125.8743      2.7945   2.5269306423e+01   5.2549602973e+01     0.216756    0.1743321  46.57 0.0006838536    1.281    0.219
        56  -9.5497     98.3968      2.8235   2.9445974837e+01   5.9857109920e+01    0.1814933    0.1336659   4.51  0.000425755    1.519    0.342
        57 -10.4355      3.4898      1.8424   7.7900265759e+01   7.9741608624e+01    0.2392041    0.1836408  62.79  0.001031176    2.055    0.513
        58 -10.0551    195.2056      1.7498   1.9068070431e+01   3.5181342970e+01    0.2103536    0.1354781 -65.41 0.0008476174    1.448    0.309
        59 -10.3750    148.8111      1.8489   2.2452906624e+01   4.6579738514e+01    0.1970526    0.1813633  47.92 0.0005000057    1.181    0.153
        60 -10.0204    150.8242      5.8348   2.3676804569e+01   4.5732500550e+01    0.1905062    0.1785788  60.71 0.0003219809    1.130    0.115
        61  -9.2197     90.7712      1.9673   3.0485265672e+01   6.1925941181e+01    0.1674787    0.1169403 -14.68            0    1.522    0.343
        62  -9.9692     74.0695      1.8626   3.4370593828e+01   6.6205651457e+01    0.2686247    0.1638706 -77.60 0.0008497073    2.362    0.577
        63 -11.0006     44.8780    162.4394   9.5887848629e+01   3.6356753252e+01    0.4857507    0.2616112 -39.32     0.002174    2.653    0.623
        64 -12.5591    226.5122    245.2859   6.7903056060e+01  -1.9481477846e-01     0.547141    0.2663839   4.73   0.00341963    2.090    0.522
        65 -12.2876    232.4921    245.3418   6.6998614602e+01  -8.0411923025e-01    0.4745352    0.1663798 -24.96  0.002696596    2.915    0.657
        66 -10.1532    109.8405    249.0273   8.9023547905e+01   1.2519505604e+01    0.1646458    0.1508552 -21.61  0.001352487    1.369    0.270
        67 -11.9363     89.1569    249.3271   9.3112985623e+01   1.4812043905e+01    0.3066294    0.1895597  28.40 0.0008797714    1.269    0.212
        68 -10.1756     72.3740    250.1382   9.6493948264e+01   1.6512551766e+01    0.1932147    0.1266895  17.63 0.0009928822    1.555    0.357
        69 -11.8364     28.1744    245.6351   1.0502184544e+02   2.1593571874e+01    0.5174415    0.2398492  65.72  0.003183828    2.116    0.527
        70 -12.3139     18.7268    237.3277   1.0661160513e+02   2.3815199937e+01    0.4644287    0.2861527  33.65  0.003286161    1.297    0.229
        71 -12.7819      6.1231    245.6575   1.0931461930e+02   2.3476047634e+01    0.5729424    0.4190133  61.31  0.003227984    1.182    0.154
        72 -10.7714     17.4904    247.4177   1.0716890072e+02   2.2243717961e+01    0.1796508    0.1478654  59.45 0.0006731625    1.195    0.163
        73 -11.9494     14.4128    245.2716   1.0770429211e+02   2.2855711813e+01    0.3515173    0.2071088 -84.59  0.001615121    1.919    0.479
        74 -11.6444     52.1662    163.1899   9.3913673803e+01   3.5365903449e+01    0.6978974    0.3980484  86.41  0.003329678    2.073    0.517
        75 -10.3776     55.4833    160.9952   9.2736484056e+01   3.5482092236e+01    0.2645875    0.1763268  66.01 0.0008812074    1.564    0.361
        76  -9.1570    210.7869    166.0128   5.7726347201e+01   1.0852802241e+01    0.1553168   0.08651412 -30.44 0.0006102215    1.639    0.390
        77  -9.7556     67.1832    165.3692   8.9996357842e+01   3.3039864302e+01    0.2034519    0.1051858  40.49 0.0009499708    1.717    0.417
        78  -9.5315    111.7867    163.9828   7.8007315944e+01   2.6908154106e+01    0.1738815    0.1116523 -52.41 0.0007366028    1.688    0.407
        79  -9.5689    221.3011    161.2773   5.5120583994e+01   9.9604150241e+00    0.1207333   0.07824271   2.27 0.0002382979    1.541    0.351
        80 -12.2948     21.0045    157.1962   1.0226028490e+02   3.9908376427e+01    0.5115781    0.4041364   8.09  0.003117455    1.520    0.342
        81  -9.3260    105.3560    153.3226   7.7823656283e+01   3.0149199846e+01    0.1455751    0.1081799  -8.75 0.0007045806    1.764    0.433
        82 -10.8161     10.2662    152.8786   1.0509502098e+02   4.1787308501e+01    0.3114263    0.1744415  32.43 0.0006360364    1.663    0.399
        83  -9.2755    222.7731    152.0476   5.3096432604e+01   1.0953869879e+01    0.1576141   0.08596469 -30.02  0.000537295    1.600    0.375
        84  -9.5523    169.9598    152.0000   6.2467033707e+01   1.9426689444e+01      0.21419   0.07258339  40.87 0.0007970395    2.905    0.656
        85  -9.7277    176.9279    149.9660   6.0665596811e+01   1.8576219170e+01    0.1870523    0.1693585  89.87 0.0007250087    1.641    0.391
        86  -9.6062     14.6443    148.2973   1.0353123872e+02   4.2552312519e+01    0.1423792   0.07602116  55.15 0.0007034726    1.698    0.411
        87 -10.4997    207.0281    146.6854   5.4545348754e+01   1.4106029964e+01    0.1785604    0.1487312   9.65 0.0007501115    1.114    0.102
        88 -10.7961      9.0401    145.5491   1.0504689088e+02   4.3634316060e+01     0.297613      0.15494 -47.60  0.001434398    2.339    0.572
        89 -10.5610    218.9662    144.3182   5.2135512690e+01   1.2561089169e+01    0.2915079     0.137151  35.83  0.001447017    2.260    0.558
        90  -9.3603    204.5302    141.5181   5.3890630476e+01   1.5252152783e+01    0.1287804    0.1093723 -10.23  4.90727e-05    1.033    0.032
        91  -9.4567    240.3220    140.3271   4.8198224955e+01   9.8884210062e+00    0.1237419   0.07761075   0.52 0.0006261232    1.688    0.408
        92 -11.0100      9.2741    136.3392   1.0441742203e+02   4.5875163823e+01    0.2483484    0.1964983 -83.82  0.000218029    1.164    0.141
        93 -10.7402      2.7930    135.8285   1.0644061728e+02   4.6426927527e+01    0.4282824    0.1373169 -74.69  0.001744017    2.705    0.630
        94  -9.4628    143.7725    137.0692   6.4978998117e+01   2.6756887231e+01    0.1807206    0.1159757 -43.48 0.0004391622    1.586    0.370
        95  -9.5764     43.3531    137.3037   9.3565071349e+01   4.2572121808e+01    0.1389361    0.1020342 -32.15 0.0007040278    1.707    0.414
        96 -10.5895    241.0675    134.2136   4.6863791653e+01   1.0540301919e+01    0.2027272    0.1410234 -23.24 0.0005338564    1.158    0.136
        97 -10.0446     21.1824    135.0715   1.0049444240e+02   4.5282292936e+01    0.2604856    0.1300117  52.52  0.001084424    1.918    0.479
        98  -9.6170    249.5210    133.5316   4.5614632004e+01   9.4033774014e+00    0.1186909   0.09058314 -14.63  0.000103418    1.006    0.006
        99 -11.2727     54.6276    132.3901   8.9248881991e+01   4.2466858308e+01    0.5422533    0.2314235  30.17  0.002188969    2.288    0.563
       100  -9.6497     79.8906    132.4608   8.1266911719e+01   3.8909200890e+01    0.2126045    0.1391958  33.37 0.0004949608    1.507    0.336
       101 -11.2588     36.9477    130.1335   9.4774654798e+01   4.5059248785e+01    0.4923254    0.2384733 -54.97  0.002170941    2.069    0.517
       102 -10.9961     73.7738    129.0273   8.2534687368e+01   4.0663181281e+01    0.3266841    0.3071639  72.31  0.001310834    1.040    0.038
       103  -9.5197     56.5364    126.5774   8.7709199695e+01   4.3677114951e+01     0.139399     0.133739  77.70 3.260195e-05    1.027    0.027
       104 -10.9508     15.6319    125.5682   1.0151885880e+02   4.8125990186e+01    0.4145532    0.2134067  23.84  0.001992106    2.012    0.503
       105 -11.3944     10.7819    123.0564   1.0297919986e+02   4.9114764179e+01     0.379922    0.2625899 -82.07   0.00176891    1.299    0.230
       106 -10.9055      2.3695    124.9611   1.0597878744e+02   4.9163056167e+01    0.4177766    0.1740907 -71.52  0.001889322    2.116    0.527
       107  -9.8072    219.8744    124.0781   4.7722643189e+01   1.5179967174e+01     0.187143    0.1547121 -32.76 0.0004912902    1.222    0.182
       108  -9.6528    243.5585    122.4847   4.4120356311e+01   1.1628728734e+01    0.1217101   0.09446567 -16.89 0.0001192963    1.013    0.013
       109 -11.0490     19.3310    121.4299   9.9854909407e+01   4.8900165959e+01    0.3339269    0.2148741 -62.19 0.0005099535    1.491    0.329
       110 -10.0490     23.7627    117.5653   9.7866163352e+01   4.9533181570e+01    0.2556919    0.1935145 -36.05  0.001393368    1.543    0.352
       111 -11.4779     15.4009    108.1959   9.9940095646e+01   5.2634908563e+01     0.431162    0.2448916  17.30  0.001538638    1.974    0.493
       112 -12.1019     15.7949    115.0817   1.0049748702e+02   5.0811936120e+01    0.5452468    0.2863254 -73.77  0.001087015    1.702    0.413
       113 -10.9595     10.0247    111.3706   1.0227853772e+02   5.2175447039e+01    0.3529735      0.25665 -26.78  0.001373427    1.677    0.404
       114 -10.0858      1.3490    118.4217   1.0593878055e+02   5.0878452696e+01    0.2278407    0.1042575 -77.11  0.001053288    1.905    0.475
       115 -10.2370     72.5611    116.4985   8.0475253904e+01   4.3916210881e+01    0.3848851    0.2172825 -82.91  0.001301813    2.762    0.638
       116  -9.8216    179.3059    115.9873   5.2609351614e+01   2.3725000213e+01    0.2020305    0.1692104 -25.35  0.001110447    1.099    0.090
       117  -9.7188     86.2618    116.0376   7.5906474220e+01   4.1799016440e+01    0.2052132    0.1916533 -60.51 0.0002977313    1.071    0.067
       118 -10.5306     52.2355    114.8529   8.7190947430e+01   4.7204343379e+01    0.4620655    0.1760395 -71.92  0.001568523    3.083    0.676
       119 -11.4841     54.8411    109.1176   8.5178646168e+01   4.8332488365e+01    0.4275025    0.2594419 -64.85 0.0005467424    1.595    0.373
       120 -10.6441     52.0626    103.6769   8.5127312453e+01   5.0096897853e+01    0.2294835    0.2121952 -55.17 0.0006459833    1.084    0.077
       121 -10.2387    213.9807    115.1136   4.6604764420e+01   1.7432053522e+01    0.1980779    0.1659673 -12.93 0.0004783614    1.042    0.041
       122  -9.9861    183.7427    114.4218   5.1416768014e+01   2.3120161732e+01    0.1897314    0.1263413  34.08 0.0009505792    1.611    0.379
       123 -11.1361    249.5195    112.0270   4.1192896691e+01   1.2008358737e+01    0.2451673    0.1707364 -25.90 0.0005461469    1.131    0.116
       124 -10.5213     94.4297    112.3126   7.2476342425e+01   4.1238497992e+01    0.2839145     0.263083  84.98 0.0009062053    1.146    0.128
       125  -8.8553    207.6855    110.7091   4.6543878886e+01   1.9184633622e+01    0.1321066   0.09452587   5.76 0.0002770857    1.592    0.372
       126  -9.4574     22.3164    110.3048   9.7549961731e+01   5.1546263978e+01    0.1399643   0.09558772 -42.40 0.0004813102    1.625    0.385
       127 -11.3769      2.3693    107.5760   1.0484279596e+02   5.3610719617e+01    0.5357948    0.2797218 -69.12  0.002643329    1.688    0.408
       128  -9.4091    104.6468    109.2995   6.8641006439e+01   4.0015817526e+01    0.1553683    0.1197479  76.65 0.0001958018    1.697    0.411
       129  -9.8456     83.0878    107.5231   7.4951077803e+01   4.4381487718e+01    0.2800155    0.2169765   2.77  0.001322372    1.669    0.401
       130 -10.6474     35.2327    108.1029   9.2334523128e+01   5.0920792821e+01    0.2172652    0.1840294 -46.04 0.0006981617    1.247    0.198
       131 -10.4147    111.7881    105.9261   6.5696198452e+01   3.9358748064e+01    0.2938017    0.2057051  41.83  0.001363783    1.432    0.302
       132 -11.6701     26.4122    104.2412   9.5174650453e+01   5.2784418856e+01    0.5423695    0.4742755 -11.16  0.002707383    1.336    0.251
       133 -10.3423     37.9102    102.8834   9.0439044783e+01   5.2002836944e+01    0.2870824    0.2220923 -85.01  0.001001299    1.269    0.212
       134  -9.4797    138.0431    103.0224   5.8028602178e+01   3.4511231351e+01    0.1697502    0.1642299  -7.86            0    1.007    0.007
       135 -11.0059    143.8906     98.7415   5.5483951828e+01   3.4076905251e+01    0.4001796    0.3375082  87.02  0.001573345    1.500    0.333
       136 -11.3704     62.0119     98.5244   8.0240074379e+01   5.0012343232e+01    0.3482574    0.2965359 -35.63  0.000905689    1.258    0.205
       137 -11.4100     66.9553     97.9729   7.8266720564e+01   4.9391426443e+01    0.2552666     0.237092  38.75            0    1.106    0.096
       138  -8.9425     48.2544    100.3306   8.5909364368e+01   5.1451525629e+01    0.1468558    0.1038634 -39.32 0.0006940637    1.558    0.358
       139  -9.6369    107.9096     99.4919   6.5077390319e+01   4.1544979421e+01    0.2172552    0.1502463  43.76 0.0003171579    1.456    0.313
       140 -11.1939     10.0274     98.6002   1.0104077093e+02   5.5514797790e+01    0.2973424    0.1756998 -80.97 0.0007058156    1.512    0.339
       141  -9.4541     95.6602     97.6704   6.8313777134e+01   4.4385821651e+01    0.1586709     0.121617  -8.66   0.00070517    1.739    0.425
       142 -10.9919     14.6880     96.8594   9.8928295581e+01   5.5665333164e+01    0.2231778     0.212309  44.20   0.00139471    1.147    0.128
       143  -9.3813      1.3658     95.7971   1.0431954382e+02   5.6728095282e+01    0.2846341    0.1149094 -78.69 0.0005965694    2.123    0.529
       144  -9.9886      2.8949     92.3391   1.0337856535e+02   5.7559227392e+01    0.3357991    0.1422883 -12.48  0.001299383    3.507    0.715
       145  -9.8669    100.9801     95.7480   6.6112783946e+01   4.3770225869e+01    0.2000682    0.1311808  41.48 0.0005845764    1.541    0.351
       146 -12.0916    166.3871     83.5537   4.6538307730e+01   3.1782337743e+01    0.7873531    0.4503053  55.57  0.002359725    1.882    0.469
       147 -11.6714    162.4968     92.0661   4.9665614514e+01   3.1219514466e+01    0.6043217    0.2386248 -34.80  0.002217229    2.427    0.588
       148 -12.1814    156.8202     84.6882   4.8714782685e+01   3.3740202584e+01    0.9788496    0.5632708 -45.55  0.004256389    1.757    0.431
       149 -10.6546     65.9693     93.1868   7.7434650703e+01   5.0737502943e+01    0.4127456    0.2084399  30.47  0.001370599    2.151    0.535
       150  -9.8766     31.3135     92.4825   9.1281737851e+01   5.5419785892e+01    0.2406764    0.1209678 -69.55  0.000535204    1.839    0.456
       151  -9.6071    227.4582     92.5098   3.9552644762e+01   1.8113696759e+01    0.1285744    0.1056261 -27.70 0.0001972659    1.037    0.036
       152 -10.2056     36.4084     91.6164   8.8962386226e+01   5.5117302762e+01    0.2457898    0.2198238  53.41 0.0006507777    1.158    0.136
       153 -12.3341     21.9242     86.1250   9.4257525595e+01   5.7951496163e+01    0.9813072    0.3344631 -69.67  0.002782754    2.559    0.609
       154 -12.1658      6.6608     73.1049   9.9423077501e+01   6.2423998751e+01    0.7377508    0.5450068  -5.14  0.004145416    1.578    0.366
       155 -10.2847      6.9287     41.4486   9.3010696553e+01   7.0530808077e+01    0.6234175    0.1762693 -58.40  0.001965587    2.564    0.610
       156 -14.1821     16.9715     67.8071   9.3244405507e+01   6.3149997926e+01    0.7949452    0.5353065  86.50  0.001347391    1.608    0.378
       157 -11.6707     13.4857     76.9365   9.6660408103e+01   6.1006868106e+01     0.474374    0.3387536  51.34  0.001309466    1.505    0.336
       158 -12.0210     36.9506    242.7653   1.0315791289e+02   2.1252587737e+01    0.4739819    0.2398538  72.35  0.001902214    2.166    0.538
       159 -12.0062     11.9687     48.2595   9.1543736390e+01   6.8510749799e+01     0.905788    0.4130376 -71.36  0.003940152    2.075    0.518
       160 -12.1162     10.7182     61.5557   9.5338712979e+01   6.5202943797e+01    0.3505366    0.2598282  50.28 5.149937e-05    1.503    0.335
       161 -11.5226     11.5715     56.8423   9.3868376891e+01   6.6361844264e+01    0.5413796    0.2640837  54.28  0.001175343    2.688    0.628
       162 -10.3327     11.3833     90.7317   9.9573033504e+01   5.7503253018e+01    0.3327285   0.09556878  23.41  0.001217332    3.361    0.703
       163 -10.4044     96.1572     89.0202   6.5675381400e+01   4.6241317494e+01    0.4161448    0.1972087  49.96  0.001529028    2.324    0.570
       164 -10.3590     83.2857     88.4599   6.9820796870e+01   4.8874770622e+01    0.2615941    0.2295495 -39.60 0.0005321348    1.146    0.127
       165 -10.7209     77.8430     88.1507   7.1664650152e+01   4.9947427078e+01    0.4382314    0.3318985  22.59  0.002090181    1.509    0.337
       166 -11.3850     66.4315     85.9474   7.5315181753e+01   5.2447805938e+01    0.6011958     0.316502 -33.83  0.002205751    2.647    0.622
       167 -10.2288    113.6102     87.3655   5.9906435238e+01   4.2935050097e+01    0.4086276    0.1944463  60.19  0.001320146    3.235    0.691
       168 -10.2306      9.4583     86.0584   9.9838691794e+01   5.8855453459e+01    0.3123334    0.1745162  60.32 0.0009300383    1.942    0.485
       169 -10.2257      7.5139     81.5951   1.0015996563e+02   6.0144511151e+01    0.3594842    0.2234592 -60.63  0.001865309    1.425    0.298
       170  -9.0103    250.3278     86.6991   3.5647698447e+01   1.4929363304e+01    0.1189572   0.07818882 -49.16 0.0006880716    1.641    0.391
       171  -9.2180    120.7054     86.6775   5.7740507332e+01   4.1519437575e+01    0.1546555    0.1216889   1.18 0.0007018303    1.616    0.381
       172 -10.3247      4.9034     86.1543   1.0188446210e+02   5.9083349784e+01    0.1813279    0.1412929 -43.18 0.0007641657    1.340    0.253
       173 -10.9752     27.0405     84.2625   9.1622237891e+01   5.7993184377e+01    0.2455605    0.2102371 -78.58 0.0002164773    1.091    0.084
       174 -11.4203     30.2530     81.7404   8.9659788507e+01   5.8345322198e+01    0.3411377    0.2633054 -55.93   0.00100527    1.201    0.167
       175 -10.6351     74.1112     81.9114   7.1198585035e+01   5.2097586975e+01    0.3509961    0.2088481 -45.95 0.0009640339    1.651    0.394
       176  -9.8788     15.8081     83.4643   9.6598696268e+01   5.9125252191e+01    0.2371469    0.1318635  23.07  0.001125819    1.941    0.485
       177 -11.4675     47.5570     88.0631   8.3497625317e+01   5.4706342570e+01    0.3759454    0.2541302  39.32 0.0003290903    1.528    0.346
       178 -10.2847     42.1053     81.9189   8.4366887993e+01   5.6977419112e+01    0.2172654    0.1867462  79.02 0.0003331449    1.242    0.195
       179 -10.0609    101.2528     80.9908   6.1582754690e+01   4.6937256971e+01     0.214124    0.1963829 -44.03            0    1.075    0.070
       180  -9.8392     92.6108     79.8164   6.3982556412e+01   4.9001957706e+01    0.2076226    0.1439864 -56.92 0.0001140221    1.548    0.354
       181  -9.3027    112.4497     79.5883   5.7801236371e+01   4.4783853040e+01    0.1501931    0.1492468 -60.49 5.114447e-05    1.022    0.022
       182  -9.9433     59.5243     79.1513   7.6142024600e+01   5.5226462464e+01     0.364128     0.215486  10.56  0.001382533    2.725    0.633
       183 -12.6888     44.5499     74.5394   8.1351748574e+01   5.8546166292e+01    0.4988491    0.2953087  51.98 0.0001806346    2.021    0.505
       184 -10.5070    183.9441     73.9521   4.0861786819e+01   2.9371584348e+01    0.4437796    0.1626993 -37.33  0.001147295    2.377    0.579
       185 -10.2755     74.9240     74.8193   6.8652595769e+01   5.3603428134e+01    0.4072642    0.2188846  26.11   0.00151589    2.527    0.604
       186 -10.6424    207.3721     73.1910   3.7366704998e+01   2.4510398919e+01    0.2086677    0.1990457 -40.99 0.0003908242    1.111    0.100
       187  -9.8089    145.5932     74.2280   4.7900719059e+01   3.8120307575e+01    0.2181341    0.1428823 -23.33   0.00095596    1.680    0.405
       188 -11.0268     54.3967     74.3097   7.6885825743e+01   5.7207505685e+01    0.4134884    0.1951528  42.47  0.001095278    2.246    0.555
       189 -10.9247     52.2010     62.0722   7.3906734838e+01   6.0495317842e+01    0.3977668    0.3224141  -0.17  0.002013686    1.440    0.305
       190 -10.8908     46.7066     60.0446   7.5824328829e+01   6.1809000814e+01    0.4301013    0.3259485 -40.17  0.001072877    1.288    0.223
       191  -9.6419     47.2247     54.9919   7.3741737034e+01   6.2919832736e+01    0.2522823    0.1946494  16.08  0.001286397    1.451    0.311
       192 -10.1461     93.4978     72.9960   6.1424148603e+01   5.0288755417e+01    0.2423362    0.1496986 -44.54  0.001034079    1.594    0.372
       193 -12.1131     50.3546     68.5095   7.6903600112e+01   5.9231325663e+01    0.5803431    0.4704129 -16.94 0.0006421356    1.412    0.292
       194 -10.0140    102.5467     72.5324   5.8382386100e+01   4.8419769339e+01     0.152158    0.1495377 -47.83 0.0001018693    1.017    0.017
       195 -12.5532    167.7330     69.5682   4.2245021820e+01   3.3691339137e+01    0.2747853    0.2505994 -25.15 0.0003235071    1.058    0.055
       196 -10.1233    122.6295     69.5791   5.1740655069e+01   4.4378075035e+01    0.3139819    0.2295078  22.44  0.000882401    1.734    0.423
       197 -10.4152     77.9895     69.7108   6.5762150527e+01   5.4172868995e+01     0.204389    0.1990674  43.48 0.0003908479    1.055    0.052
       198  -9.1977     69.2917     69.7252   6.9151633954e+01   5.5812069448e+01     0.144932    0.1187893  80.73 0.0001870143    1.519    0.342
       199 -11.8772     44.4600     38.8672   6.8386606749e+01   6.6928496450e+01    0.5091005    0.3521433 -37.58            0    1.396    0.284
       200 -10.7622    250.1198    246.1441   6.4515619080e+01  -2.5880369885e+00    0.1584095   0.09143727   3.11  0.001093415    1.253    0.202
       201 -10.8000     33.3431     32.9305   7.2010600598e+01   6.9875335666e+01    0.4071577    0.1977438  34.46  0.001391004    2.147    0.534
       202 -10.7924     23.8953     41.1701   8.1641529542e+01   6.9193639706e+01    0.4320815    0.3198848  49.65  0.001239014    1.623    0.384
       203 -11.5512     28.4904     66.0156   8.6850874636e+01   6.2592692662e+01    0.3807498    0.2477735 -54.32 0.0004941608    1.380    0.276
       204 -11.2122     32.4239     63.8600   8.4235425713e+01   6.2719088022e+01    0.3030952    0.2490448  41.37 0.0005492011    1.320    0.242
       205 -12.7887     27.5958     37.7448   7.7880155889e+01   6.9567009852e+01    0.3145221    0.2683755 -52.27 0.0003885567    1.125    0.111
       206 -11.7158     24.5101     34.5243   7.8498801339e+01   7.0659770192e+01    0.2627729    0.2242722 -22.85 0.0005234415    1.127    0.113
       207  -9.3767    220.6015     67.8002   3.4426515507e+01   2.2569840356e+01    0.1761297    0.1005209 -37.47 0.0002176196    1.471    0.320
       208 -10.0715    128.6716     67.3150   4.9479893151e+01   4.3348977461e+01    0.4077247    0.2475683  81.72  0.001473238    2.881    0.653
       209  -9.8396    105.3129     68.3333   5.6088670738e+01   4.8639422530e+01    0.1580949    0.1226163   5.27 0.0007045109    1.681    0.405
       210 -10.8336     42.8876     67.7660   8.0176009372e+01   6.0461269371e+01    0.2661559    0.2247687 -59.15  0.001443675    1.118    0.106
       211  -9.7210     98.0292    242.2080   9.0751872481e+01   1.4869363163e+01    0.1660612    0.1133713  30.78 0.0005470566    1.122    0.109
       212 -11.0020    213.3341     66.9817   3.5049996876e+01   2.4116189781e+01    0.1988362    0.1895506 -83.66 0.0002545034    1.200    0.167
       213  -9.2560    148.9681     66.9708   4.4922319651e+01   3.8529878028e+01    0.1789546    0.1633579 -34.48            0    1.055    0.052
       214 -11.3812    119.0591     65.2632   5.1177990424e+01   4.6014475166e+01    0.3817762    0.2256502 -37.78 0.0003485779    1.661    0.398
       215 -11.3750    122.9697     64.0049   4.9741423677e+01   4.5304419655e+01    0.4268142    0.2909509 -56.81 0.0003173349    1.694    0.410
       216  -9.4005     93.5151     66.5193   5.9140392793e+01   5.1635092066e+01    0.1522723    0.1487544 -15.18 3.689317e-05    1.023    0.023
       217  -9.9127     80.9412     65.5161   6.3165603210e+01   5.4500084296e+01    0.2312808    0.1505433  43.25  0.001025022    1.568    0.362
       218  -9.6699    155.8071     63.8373   4.2620293919e+01   3.7387168009e+01    0.2050853    0.1660668 -59.79 0.0003815277    1.319    0.242
       219 -10.4772    202.0850     62.1153   3.5130858255e+01   2.7077130918e+01    0.2697505     0.172298 -23.06  0.001094496    1.491    0.329
       220 -10.0088     76.9415     62.3244   6.3486243513e+01   5.5992440305e+01    0.2092877    0.1875889  35.00 0.0003137613    1.142    0.124
       221 -10.2099    113.4556     61.0174   5.1151518088e+01   4.8121094507e+01    0.2531344    0.2139924  79.93 0.0004326799    1.347    0.257
       222 -11.9330     96.4438     59.2606   5.5490804405e+01   5.2424372124e+01    0.4993141    0.3563952  61.08  0.001715313    1.561    0.359
       223 -11.1407     85.6892     59.2188   5.9080836183e+01   5.4817067683e+01    0.4448305     0.357915 -10.55  0.002161934    1.475    0.322
       224 -10.0219    169.0364     59.9328   3.9142856149e+01   3.4819225063e+01    0.2119959    0.1980257 -33.26 0.0003366027    1.024    0.023
       225 -11.0387     81.2371     55.7195   5.9306103291e+01   5.6475128125e+01    0.6244778    0.3244661 -24.65  0.002121781    3.085    0.676
       226 -10.1747    127.0551     58.9781   4.6986294013e+01   4.5180540801e+01    0.2190841    0.2163509  10.99 0.0002943962    1.034    0.033
       227 -11.1733     58.8710     58.7826   6.9652960286e+01   6.0157184878e+01    0.3866192    0.3557446  -5.38  0.001445308    1.131    0.116
       228 -10.5043     61.9355     53.7771   6.6328278929e+01   6.0719190249e+01    0.4130101    0.2199666 -40.22  0.000920702    1.891    0.471
       229 -10.2260     69.4856     57.7011   6.4669368586e+01   5.8451956573e+01     0.340964    0.2307387 -65.32  0.001492878    1.893    0.472
       230 -10.6511    147.0745     56.7676   4.1977272084e+01   4.0600495961e+01    0.2405699    0.2025067 -34.40 0.0003374473    1.148    0.129
       231 -12.3330     75.3016     54.9919   6.1260399483e+01   5.7863101029e+01    0.6075338    0.3523909 -39.73  0.002604893    1.714    0.417
       232  -9.9387     78.4716     47.0737   5.6717240202e+01   5.8755925230e+01    0.2485878    0.2084684 -15.39 0.0002917153    1.285    0.222
       233 -12.8217    105.3691     52.3635   5.0125620973e+01   5.1600070060e+01     0.440826    0.3752327  15.18 0.0004463271    1.329    0.247
       234  -9.8519    230.5586     54.6376   3.0184914772e+01   2.2230119725e+01    0.2280867    0.1085394 -23.87 0.0007430536    1.901    0.474
       235 -10.9773     88.7104     54.1806   5.6041588887e+01   5.5144859223e+01    0.3102379    0.2337626  81.30 0.0009750853    1.815    0.449
       236 -11.6660    119.7984     52.7577   4.6467825362e+01   4.8005603820e+01    0.2566962    0.2509578  16.13 0.0002568856    1.048    0.046
       237 -10.8112     52.4782     51.1846   6.9662131023e+01   6.2945481418e+01      0.44412    0.3261435 -44.79   0.00110046    1.296    0.228
       238 -10.4704     57.3218     50.8503   6.7222335021e+01   6.2184538998e+01     0.305502     0.210224 -52.03  0.001224244    1.458    0.314
       239 -11.7268    129.6138     49.1123   4.2859160502e+01   4.6131522368e+01    0.4538127    0.3763992  -9.74  0.001679111    1.339    0.253
       240 -10.0169     96.0073     52.0831   5.2809921696e+01   5.3868890930e+01    0.2156319    0.2117013  11.33   0.00117839    1.017    0.016
       241  -9.7314    181.9084     49.6814   3.4211515595e+01   3.3198117125e+01    0.1874605    0.1719817 -69.62 0.0003723753    1.110    0.099
       242  -9.9130     88.0210     50.4404   5.4744375134e+01   5.6006190006e+01    0.2350205    0.1483658  51.34  0.001030096    1.612    0.380
       243  -9.6031     69.0430     48.0290   6.0855405918e+01   6.0546825728e+01    0.1726128    0.1665782 -11.09 0.0003682572    1.007    0.007
       244 -10.0283    104.5098     46.6322   4.8075147711e+01   5.2785579373e+01    0.2649077     0.236836  64.07 0.0007800044    1.147    0.128
       245 -10.3316     58.2900     46.4746   6.4900302380e+01   6.2939193991e+01    0.3915113    0.2613915 -87.54  0.001472152    3.192    0.687
       246 -10.2833    143.0257     45.2804   3.8816960544e+01   4.3302971836e+01    0.2519385     0.204043 -33.37 0.0006529727    1.203    0.169
       247 -10.8242     91.7894     43.2235   5.0428916803e+01   5.6419920105e+01    0.6198894    0.2141853 -40.77  0.002066181    2.857    0.650
       248 -11.3548     95.9060     42.6481   4.8904300181e+01   5.5534232894e+01    0.7089376    0.3947563 -10.10  0.001942032    3.292    0.696
       249 -10.1778     85.8797     44.7691   5.3054251003e+01   5.7526087034e+01    0.3315703    0.2254046 -28.48  0.001137319    1.550    0.355
       250 -11.1209     81.5720     42.2969   5.3460934933e+01   5.8944288566e+01    0.4319549    0.2780261 -52.98  0.001318186    1.803    0.446
       251  -9.7841    151.4962     45.5058   3.7409685604e+01   4.1136406277e+01    0.1447672    0.1398036 -48.76 3.073728e-05    1.014    0.014
       252 -10.1224    113.2865     44.7256   4.4983418934e+01   5.0920513088e+01    0.3137049    0.2067944  23.90  0.001313456    2.060    0.514
       253 -11.2439     53.6770     40.8003   6.4523692862e+01   6.4947185693e+01    0.6488748      0.39485 -20.14  0.002676927    2.352    0.575
       254 -12.5529     57.6667     34.0364   5.9270899042e+01   6.5509755589e+01    0.3710465    0.3134598 -14.48 0.0004832901    1.211    0.174
       255  -9.1754    120.4770     46.5557   4.3957389756e+01   4.8828550572e+01    0.1501015    0.1443332  25.00 -0.0001088985    1.075    0.070
       256  -9.8622    187.2860     43.0178   3.1598062209e+01   3.2787251747e+01    0.1923615    0.1624971 -38.94 0.0004287937    1.066    0.062
       257 -11.6584    131.1390     41.5763   3.9754683247e+01   4.6855724066e+01    0.3236434    0.2605363 -41.55 0.0005604915    1.221    0.181
       258  -9.2788    107.2526     42.6627   4.5700803464e+01   5.2751317153e+01    0.1522425    0.1129709 -60.63 0.0002545881    1.568    0.362
       259 -10.7169    148.8935     39.7502   3.5875919073e+01   4.2567093233e+01    0.3567221    0.2250372 -33.42 0.0008032494    1.510    0.338
       260  -9.8312    120.8279     40.8935   4.1680143108e+01   4.9592244245e+01    0.2098936    0.1747274 -68.93 0.0005753248    1.316    0.240
       261 -11.1138     69.7404     37.4268   5.5685613155e+01   6.2414227537e+01    0.6041616    0.3598354  -3.49  0.002084206    3.483    0.713
       262 -11.5651     74.7176     34.7950   5.2446311398e+01   6.1782912548e+01     0.493512    0.4431038  55.28   0.00122627    1.161    0.139
       263 -11.5034    224.9574     37.7680   2.6518744311e+01   2.5227078510e+01    0.3556811    0.2257534 -55.98 0.0005104066    1.537    0.349
       264 -11.0161    226.0635     33.0530   2.5259065337e+01   2.5508473461e+01    0.2169053    0.1660505 -45.11 0.0003028318    1.104    0.095
       265 -11.0976    221.8039     31.9519   2.5306155508e+01   2.6489982273e+01    0.2412614    0.1693912 -35.39 0.0003438752    1.178    0.151
       266 -10.6649    248.9154     37.1602   2.4621199428e+01   2.0720724436e+01    0.1922553    0.1293909 -48.87  0.001232696    1.297    0.229
       267  -9.7620      1.3568     36.5058   9.5626753616e+01   7.2041018890e+01    0.3259386       0.1182 -77.75  0.001256198    2.858    0.650
       268  -9.9188    184.4120     35.7950   2.9810166818e+01   3.4317946291e+01    0.1909004    0.1278317 -11.95 0.0003726105    1.683    0.406
       269 -10.3708    110.7261     35.3205   4.1761244938e+01   5.2975383091e+01    0.2790239    0.2568219  23.63  0.000794479    1.138    0.121
       270 -11.0926     85.3992     34.4933   4.8530933207e+01   5.9368182668e+01    0.6628838    0.3606561  27.60  0.002416063    2.832    0.647
       271  -9.9808     72.6540     42.4528   5.6890594656e+01   6.0874501707e+01    0.3707003    0.2227572 -61.63 0.0008901095    2.525    0.604
       272 -12.3737      8.5818     31.6746   8.8768301401e+01   7.2798675941e+01    0.4208161    0.3524726 -70.54 0.0007901287    1.206    0.171
       273 -10.9831     17.6124     31.0519   8.1795639910e+01   7.2184807305e+01    0.4246083    0.2152863  25.31  0.001825975    2.089    0.521
       274  -9.7865    177.6260     34.1537   3.0085705385e+01   3.6123819745e+01    0.1984938    0.1287913 -12.49 0.0009508019    1.749    0.428
       275 -10.2675    205.8191     32.8577   2.6858355897e+01   2.9782167642e+01    0.1886372      0.12909 -48.65 0.0006589803    1.308    0.235
       276  -9.7303    192.6433     33.7261   2.8340759169e+01   3.2640592964e+01    0.1317803   0.09885943  33.23 0.0007003268    1.648    0.393
       277 -10.2660    122.0163     32.8193   3.8218557394e+01   5.0408653389e+01    0.4244694    0.1627109  53.52  0.001534217    2.458    0.593
       278  -9.7890    102.1769     36.7737   4.4564516950e+01   5.4922979745e+01    0.2704898    0.1568316 -67.10 0.0009686197    2.919    0.657
       279  -9.8481    166.6118     32.2180   3.0808143038e+01   3.9041627635e+01     0.199663    0.1332882 -10.97 0.0009504493    1.726    0.421
       280 -11.6027     49.9021     30.9826   6.1504755919e+01   6.7556970676e+01    0.2660702     0.244057 -48.97 0.0002742699    1.184    0.156
       281 -11.6870     49.0544     26.0294   5.9204357785e+01   6.8620259412e+01    0.2731996    0.2573361  56.11            0    1.225    0.184
       282 -10.7716    102.3591     29.3419   4.1226119374e+01   5.5939726246e+01    0.3604127    0.2841743 -76.35  0.001105905    1.498    0.333
       283 -10.8908     80.6117     28.0716   4.6979509235e+01   6.1489101043e+01    0.4796142    0.4000376   0.90  0.002531192    1.298    0.230
       284 -10.7437    238.3967     28.7493   2.3357666331e+01   2.3532590913e+01    0.1647167    0.1017719 -18.57 0.0009431507    1.579    0.367
       285 -10.3948    144.3048     27.4086   3.2226999609e+01   4.5272515374e+01    0.4755694    0.1354788 -33.15  0.001603181    2.966    0.663
       286  -9.8123     60.9175     28.4166   5.4808065025e+01   6.5846116347e+01    0.2440669    0.1853506 -42.33 0.0006888572    1.354    0.261
       287 -11.2181    197.7365     28.0640   2.6258593130e+01   3.2099104095e+01    0.3593843    0.2001703  59.36     0.001798    1.946    0.486
       288 -11.1649    193.7581     25.7537   2.5961174000e+01   3.3251780077e+01    0.2920184    0.1516286 -39.38  0.001413092    1.644    0.392
       289 -11.6289    112.7958     27.0197   3.7755918013e+01   5.3553976494e+01    0.5239107    0.3565805  52.61  0.002507348    1.430    0.301
       290 -10.5563    107.2740     27.5150   3.9214087933e+01   5.4921830850e+01    0.2442332    0.2292804 -14.10 0.0002228184    1.098    0.089
       291 -10.3213    214.4949     25.4006   2.4177497223e+01   2.8697236402e+01    0.3021392    0.1962287  14.93  0.001549937    2.256    0.557
       292 -10.7854    204.8956     26.8520   2.5312545449e+01   3.0626652088e+01    0.2300272    0.1605282 -42.81 0.0004239646    1.227    0.185
       293 -11.2270     88.7437    240.9544   9.2522348227e+01   1.6121864997e+01    0.1963372    0.1425842 -42.12  0.001377107    1.805    0.446
       294 -10.1163    195.4930    238.5016   7.2003336667e+01   3.8444600564e+00    0.1949648    0.1296613  -8.51  0.001419559    1.374    0.272
       295  -9.8374    134.5445    237.9486   8.3076816981e+01   1.1148014622e+01    0.1484267   0.08402513 -20.87 0.0008089562    2.609    0.617
       296 -12.0189     22.4453    248.7632   1.0625121266e+02   2.1596536809e+01    0.3933436    0.1977036  36.41  0.001810887    1.411    0.291
       297 -13.3131     74.5309    238.6379   9.5248899072e+01   1.8074954256e+01     0.675298    0.6486887  71.13  0.005572869    1.279    0.218
       298 -10.5224    159.9856    235.6951   7.7958983246e+01   8.3573264469e+00    0.1609957     0.113265  20.56 0.0004411869    1.083    0.077
       299 -10.9463     30.5397    234.5042   1.0410054455e+02   2.3241481088e+01    0.3260937    0.1315908  74.10  0.001684845    2.952    0.661
       300  -9.6983    177.3814    234.8332   7.4671825250e+01   6.3735703676e+00    0.1437537   0.08920475 -20.01 0.0009477622    1.708    0.415
       301  -9.5201    221.3046    234.3432   6.7204689295e+01   1.4281217498e+00     0.109697   0.06019904   1.90 0.0004043173    1.685    0.407
       302 -10.7768     86.7796    232.8839   9.2247143779e+01   1.7619486101e+01    0.2345322    0.1035803  47.44  0.001231682    2.111    0.526
       303  -9.7155     38.4989    232.4749   1.0235674567e+02   2.2839916150e+01    0.1114536   0.08417954  44.64 7.968032e-06    1.005    0.005
       304  -9.8989     24.1359    232.1096   1.0532435061e+02   2.4238055540e+01    0.1449798    0.1337099  35.43 0.0005606597    1.289    0.224
       305  -9.4870     58.5220    229.4818   9.7957081399e+01   2.1328511108e+01      0.11401   0.08894939  40.95 0.0002595919    1.014    0.014
       306 -10.7693      4.0491    226.6266   1.0929482854e+02   2.6899295963e+01    0.2500697     0.127501  76.77  0.001597759    1.852    0.460
       307  -9.9526    128.4472     26.4613   3.4454741665e+01   4.9525816779e+01    0.2291254    0.2161682 -26.75 0.0001957687    1.087    0.080
       308  -9.5168    190.5082    226.4969   7.1214618396e+01   5.8020528346e+00    0.1131709   0.08244783  10.00 -0.0001309677    1.036    0.035
       309 -10.0413     70.5974     25.6033   4.9280395016e+01   6.4185280476e+01    0.3804426    0.1479955  41.12  0.001324399    2.889    0.654
       310 -10.6603      1.7488     25.3453   9.1977005947e+01   7.4715949284e+01    0.3315641    0.1830053 -60.13  0.001128094    1.517    0.341
       311  -9.7703    113.3273    223.6572   8.5776605851e+01   1.5888653995e+01    0.1193174   0.07817667  53.06 0.0007051082    1.741    0.426
       312  -9.7876    109.8584    242.7986   8.8440796912e+01   1.3407644481e+01    0.1538119    0.1034993  42.97 0.0003998279    1.342    0.255
       313 -10.5943     15.7036    221.7532   1.0671701702e+02   2.6823948035e+01    0.2724418     0.092367  39.82  0.001457312    1.981    0.495
       314 -10.5351    124.9746    221.0083   8.3046221775e+01   1.4822327184e+01    0.2924999    0.1375536  19.82  0.001384847    2.423    0.587
       315 -11.5775     13.2312     23.3925   8.1639484283e+01   7.4328235830e+01    0.4947043    0.2612075  -7.82  0.001133251    2.664    0.625
       316 -10.6724      6.8462     24.7160   8.7478343456e+01   7.4550121044e+01    0.3186701    0.1613884   7.48  0.001508617    2.269    0.559
       317  -8.9525    219.2989     25.2900   2.3800018933e+01   2.7697351398e+01    0.1147259   0.09355772  21.78 0.0002720329    1.560    0.359
       318  -9.8022     42.3044    220.6517   1.0091250457e+02   2.4564739862e+01    0.1240844   0.06381513  54.33  0.000704117    1.697    0.411
       319  -9.6609    186.4803     22.9392   2.5804107123e+01   3.5241627045e+01    0.2022012    0.1198414 -29.36 0.0006576297    1.533    0.348
       320 -10.7587     97.2203     23.3949   3.9783739407e+01   5.8028683934e+01    0.6252226     0.177833  57.28  0.001664595    3.061    0.673
       321 -10.7638     84.4408     21.6015   4.2445565318e+01   6.1465286895e+01    0.4176385    0.2438106  45.64  0.001773526    1.679    0.404
       322  -9.2468     79.3179     22.2809   4.4411337227e+01   6.2622207471e+01    0.1492123    0.1057137  26.99 0.0005089027    1.580    0.367
       323  -9.6342    114.3606     20.8375   3.4763817004e+01   5.3883943032e+01    0.2007813    0.1388925  -6.75 0.0005725797    1.683    0.406
       324 -10.5612     66.8066     20.6962   4.8020376361e+01   6.5769139577e+01    0.2498307    0.2386728 -75.22 0.0004704363    1.199    0.166
       325  -9.3131    176.3461    219.2676   7.2731036322e+01   8.4471121826e+00    0.1177243   0.07240984   7.52 0.0004872972    1.613    0.380
       326  -9.1328    120.6363     20.7285   3.3530128848e+01   5.2242004574e+01    0.1541965    0.1021569  38.89 0.0006999806    1.659    0.397
       327 -10.8569     21.3825    220.1924   1.0544265616e+02   2.6617758986e+01    0.1912382    0.1223952  72.72  0.001286542    1.474    0.322
       328  -9.8349     38.2451    217.3766   1.0162200490e+02   2.5568155676e+01    0.1681996   0.07803687  38.36 0.0006650041    1.618    0.382
       329 -11.4898     10.1684    216.9680   1.0774725133e+02   2.8170250384e+01     0.390753    0.2087846  18.61  0.002327562    2.014    0.503
       330 -10.7159    194.9874     16.7981   2.3316748787e+01   3.3874335514e+01    0.2040742    0.1653424 -39.29 0.0003167384    1.096    0.088
       331 -10.0880    108.6695     17.1284   3.4257224924e+01   5.5792183579e+01    0.1945284     0.178829 -11.55 0.0003732459    1.140    0.123
       332 -10.4349    164.5721     13.2411   2.4856901912e+01   4.1556090315e+01    0.2122728    0.1307483 -25.20  0.001044001    1.586    0.369
       333  -9.7309     75.9664     15.6424   4.1879472714e+01   6.4289834641e+01    0.3980958    0.1434774  54.92  0.001187513    2.500    0.600
       334  -9.9947     12.5291    212.5135   1.0708978075e+02   2.8815021898e+01    0.2213598    0.1282409  74.17  0.000772018    1.602    0.376
       335 -10.7098     11.0779    207.9169   1.0725641690e+02   2.9818115716e+01    0.2406883    0.1659702  77.99 0.0008380756    1.357    0.263
       336 -11.0203     29.2226    215.5835   1.0352768300e+02   2.6764212855e+01    0.2203494    0.1765864  47.38  0.001096512    1.043    0.041
       337 -10.7378    247.7958     15.3994   1.9737258314e+01   2.3055232030e+01    0.1428748     0.103943  64.77  0.000958372    1.697    0.411
       338 -10.2633     23.9800    215.9957   1.0470369550e+02   2.7166164827e+01    0.1539796    0.1313931 -24.87 0.0004906938    1.645    0.392
       339 -10.1700    225.7500     13.9354   2.0539899216e+01   2.7471680928e+01    0.2279999    0.1240051  45.20  0.001166527    2.530    0.605
       340 -11.4129    236.0068    214.1819   6.1946483465e+01   1.8980243496e+00    0.1864372    0.1234043 -14.31 0.0007136206    1.250    0.200
       341  -9.6540    136.6196    215.6949   7.9983782543e+01   1.4121277905e+01    0.1247444   0.08158076   3.57 0.0007024666    1.782    0.439
       342 -11.1313      1.5447    211.2602   1.0945731339e+02   2.9929157370e+01     0.269676    0.1382673  76.13  0.001199259    1.784    0.439
       343 -12.1064      5.5753    208.6224   1.0850335060e+02   3.0122966008e+01    0.4201862     0.241215 -83.47  0.002451808    1.799    0.444
       344  -9.5324     96.0370     12.5225   3.4773652619e+01   5.9582379860e+01    0.1980138    0.1184884 -77.51 0.0008065787    2.339    0.573
       345  -9.8885    110.3112    212.3119   8.5135121608e+01   1.8124680057e+01    0.1184061   0.08691444  -1.57  0.000702895    1.629    0.386
       346  -9.9814     20.3301    211.7570   1.0533323819e+02   2.8293105242e+01    0.2277294    0.1244435  58.50  0.001210749    1.538    0.350
       347 -10.7028    237.3823    208.8212   6.0901462050e+01   2.3063990030e+00    0.1551575   0.07790358 -17.42 0.0009532454    1.797    0.443
       348 -10.5183    247.1773    204.0533   5.8694980876e+01   1.7121928435e+00    0.3180231    0.1727262 -41.79  0.001854941    2.991    0.666
       349 -10.9219     19.9267    200.8394   1.0495673813e+02   3.0465595415e+01     0.478518    0.1549532 -72.05  0.002225036    3.128    0.680
       350 -10.6669    175.3104    202.3027   7.0397434651e+01   1.0867236458e+01    0.2068494    0.1687102  19.79  0.000430416    1.129    0.115
       351  -9.9387    117.1326    201.5133   8.2299126274e+01   1.9056594009e+01    0.1918937    0.1055693  32.70 0.0007529378    1.531    0.347
       352  -9.0746    188.2338    205.0053   6.8429120061e+01   8.7723880285e+00     0.137129   0.08906052 -29.53 0.0006102006    1.565    0.361
       353  -9.8478     58.1698    196.0264   9.5502347086e+01   2.7599498310e+01    0.1914951    0.1305525 -37.05  0.001080214    2.001    0.500
       354 -11.5014     16.0717    192.9679   1.0552197526e+02   3.2399121516e+01     0.406923    0.2154201  25.95  0.002093353    1.773    0.436
       355 -10.2178    244.8081    188.1381   5.6408703673e+01   3.6780246325e+00    0.1581821    0.1214896  -8.22 0.0004694448    1.160    0.138
       356 -10.7246    168.3862    184.3551   6.8818224840e+01   1.4481005549e+01    0.3890699    0.2362799 -47.63  0.002104783    2.034    0.508
       357  -9.7235     61.8105    184.8191   9.3565308943e+01   2.9479316522e+01    0.1824762    0.1314768  60.24  0.001065242    1.343    0.255
       358 -11.7628     15.7931    181.7299   1.0507675368e+02   3.4798763041e+01    0.4219641    0.2088295  58.46  0.001917846    1.757    0.431
       359  -9.7689     58.7355    181.9463   9.4069064769e+01   3.0448020837e+01    0.1767033    0.1569789  58.80 0.0005755982    1.050    0.048
       360  -9.7362     23.0605    179.9460   1.0312857700e+02   3.4561014589e+01    0.3780217          nan  43.90  0.001115694    5.350    0.813
       361  -9.3114      1.6101    180.1657   1.0857938566e+02   3.6234602351e+01    0.1514209    0.0975385 -74.36 0.0005265803    1.614    0.380
       362  -9.6538    244.4815    178.0155   5.4702517960e+01   4.8454492844e+00    0.1693268   0.07655073 -11.77 0.0008099542    2.727    0.633
       363  -8.9597    222.6696    178.3425   5.8059732976e+01   7.6032169061e+00    0.1002798   0.09230614 -42.50  0.000705112    1.749    0.428
       364 -10.1167     46.9453    177.0383   9.6683850869e+01   3.2839944467e+01    0.2019764    0.1748428  53.24  0.001303004    1.009    0.009
       365 -10.6133     18.5232    173.0201   1.0392094777e+02   3.6483872066e+01    0.2528169    0.1313926  44.03  0.001104061    1.602    0.376
       366 -11.0417     35.4627    161.1289   9.8433194617e+01   3.7644233819e+01    0.4099121    0.2297246  17.63 0.0003002724    2.028    0.507
       367 -11.8048     37.2804    165.8714   9.8329683318e+01   3.6363811816e+01    0.4879898    0.4211209 -84.51  0.002756891    1.171    0.146
       368 -10.2006     33.4508    166.4350   9.9436967132e+01   3.6615896957e+01    0.1936136    0.1722945  68.25 6.033505e-05    1.048    0.046
       369  -9.3899      2.3295    187.3200   1.0862557299e+02   3.4661730464e+01    0.1065247   0.08465422 -43.05 0.0005813024    1.689    0.408
       370 -10.5901      5.1967    168.3127   1.0723127352e+02   3.8586746389e+01    0.1705013    0.1540918  -2.55  0.001181704    1.403    0.287
