#   1 NUMBER                 Running object number                                     
#   2 MAG_AUTO               Kron-like elliptical aperture magnitude                    [mag]
#   3 X_IMAGE                Object position along x                                    [pixel]
#   4 Y_IMAGE                Object position along y                                    [pixel]
#   5 X_WORLD                Barycenter position along world x axis                     [deg]
#   6 Y_WORLD                Barycenter position along world y axis                     [deg]
#   7 A_WORLD                Profile RMS along major axis (world units)                 [deg]
#   8 B_WORLD                Profile RMS along minor axis (world units)                 [deg]
#   9 THETA_WORLD            Position angle (CCW/world-x)                               [deg]
#  10 FWHM_WORLD             FWHM assuming a gaussian core                              [deg]
#  11 ELONGATION             A_IMAGE/B_IMAGE                                           
#  12 ELLIPTICITY            1 - B_IMAGE/A_IMAGE                                       
         1 -12.3747    212.2511      2.8621   5.9722089254e+01   3.2065868675e+01     1.212898    0.5391958  62.29  0.003180757    1.999    0.500
         2 -13.2109    189.0646     27.2951   6.8288277458e+01   3.4926772034e+01     1.543116       1.2867 -28.62     0.005947    1.403    0.287
         3 -12.8423    196.2426     21.0577   6.5768142461e+01   3.3908840661e+01     1.176741     0.727726 -66.65  0.004283427    1.734    0.423
         4 -12.4540    202.9913     12.6494   6.2931174035e+01   3.3223573189e+01    0.6987113     0.662469 -74.48  0.001094429    1.202    0.168
         5 -12.1810     20.8578     35.6852   1.1666745755e+02   6.5891897698e+01    0.6077393    0.2614152 -47.75  0.003316459    2.021    0.505
         6  -9.7353     47.8349      1.8236   9.1914226690e+01   6.7299188175e+01    0.2414909   0.06075048  39.44  0.001016621    3.498    0.714
         7 -10.3148    100.0791    238.2871   1.3377940053e+02   1.2192435120e+01    0.2280775    0.1654914 -89.04 0.0006587323    1.391    0.281
         8 -10.3734    248.6075    249.1677   1.0738178958e+02  -1.4046963313e+01    0.2634489    0.2064561  45.18  0.001780206    1.656    0.396
         9 -10.4369    176.6360    250.0993   1.2068318369e+02  -2.7974988677e+00    0.3266449     0.142351  40.78  0.001543168    1.910    0.476
        10 -10.2813    162.6685    249.4250   1.2323203093e+02  -3.1130135452e-01    0.3197115    0.1568921  49.44  0.001563697    1.838    0.456
        11 -11.7718    141.1426    249.4915   1.2732606091e+02   3.3539824427e+00    0.5782429    0.3468228  47.81  0.003220252    1.375    0.273
        12 -10.3285    149.0665    248.6307   1.2570879857e+02   2.1472270036e+00    0.2686595    0.2123389  51.34  0.001095816    1.071    0.066
        13 -11.9404    125.9672    245.9922   1.2976365479e+02   6.5224878436e+00    0.5865949    0.4176536  71.54   0.00347792    1.454    0.312
        14 -11.4530     94.0383    248.9491   1.3605157970e+02   1.1146625499e+01    0.5070716      0.37693  47.24  0.002266322    1.274    0.215
        15 -11.0533    100.9778    244.7883   1.3433166391e+02   1.0827271283e+01    0.2906362     0.237895  29.04  0.001844573    1.619    0.382
        16 -10.6567     82.2738    249.8585   1.3826615849e+02   1.2761073165e+01    0.4574119    0.2452568  81.06  0.002384099    2.188    0.543
        17 -10.5808     83.2756    244.1111   1.3752958902e+02   1.3685635939e+01    0.2939093    0.1806633 -69.46  0.001487103    1.693    0.409
        18 -10.1714     65.2161    249.9978   1.4128546237e+02   1.5187480029e+01    0.2739341    0.2287293  36.47  0.001914715    1.652    0.395
        19 -12.2980     57.1518    225.9278   1.4061186728e+02   2.0996947328e+01    0.8288931    0.4392256 -55.28   0.00309042    2.296    0.564
        20 -14.1159     33.4241    247.7822   1.4648638126e+02   1.9723950601e+01     3.748665     1.361948  36.87   0.01849062    3.154    0.683
        21 -13.2551     48.1359    225.9026   1.4227514274e+02   2.2184797486e+01     1.142368    0.4345998 -67.85  0.003062051    2.411    0.585
        22 -14.8941     56.7294    210.5465   1.3920118845e+02   2.4275269746e+01     7.743427     1.136067  47.12   0.01889436    5.196    0.808
        23  -9.4156    225.9748    200.7464   1.0278885329e+02  -3.5476321839e+00    0.2651092    0.1897676 -49.81 0.0008325307    1.675    0.403
        24  -9.9110    192.7563    194.4170   1.0806783293e+02   3.7486078569e+00    0.8963078    0.4285511 -63.43  0.002322303    6.872    0.854
        25 -11.0055     71.8138    190.9286   1.3381881981e+02   2.6515511479e+01    0.4203153    0.2588597 -45.78  0.001379895    2.118    0.528
        26 -10.9884     76.3105    184.2666   1.3193480695e+02   2.7379041667e+01    0.3064941    0.2356577 -51.34 0.0006027785    1.484    0.326
        27  -9.1677     47.8068    174.3423   1.3703259738e+02   3.3520402044e+01     0.323782    0.1757786  45.85  0.001691278    1.867    0.464
        28  -9.6795    126.5527    173.8767   1.1864277381e+02   2.1184685751e+01     0.323501    0.1818602  57.05  0.001337384    1.966    0.491
        29 -12.2217     89.7349    164.9501   1.2582363898e+02   2.9820118832e+01     2.445752    0.7651738  52.24  0.001092831    4.597    0.782
        30 -12.9363     68.4412    145.6334   1.2782373411e+02   3.7641797255e+01     1.582692    0.8321853  88.02  0.005623144    3.583    0.721
        31  -9.1566    163.8637    156.3904   1.0643471104e+02   1.7445520593e+01    0.2838023    0.2086787 -58.77  0.001179585    1.455    0.313
        32 -11.6258     46.0973    147.7641   1.3385462525e+02   3.9951649975e+01    0.6031699    0.2693112 -66.91  0.002762229    1.928    0.481
        33  -9.6350    102.9338    148.4801   1.1948701130e+02   3.1502407121e+01    0.3443859    0.2939093 -51.29  0.001297517    1.182    0.154
        34  -8.7764    105.5549    144.2415   1.1795107218e+02   3.2040071656e+01    0.2867188    0.1855206 -40.41 0.0009651328    1.737    0.424
        35 -11.4701     91.6034    147.9378   1.2227727436e+02   3.3570915733e+01    0.2923197    0.2680804 -33.72 0.0005582103    1.265    0.210
        36  -9.1822    134.0000    144.5316   1.1084706850e+02   2.6449545223e+01    0.4451699   0.08700499 -49.20  0.001065821    5.067    0.803
        37  -9.8892     54.7739    145.3855   1.3129381996e+02   3.9488230903e+01    0.1648744    0.1326131  15.82 0.0006500212    1.656    0.396
        38  -9.3686    112.7368    134.7004   1.1402611369e+02   3.2959231810e+01     0.328461     0.258819  -1.29  0.001021127    1.810    0.448
        39 -12.3961     58.1409    131.0634   1.2795152157e+02   4.2467483820e+01     2.351184    0.7583054 -71.36  0.005286536    8.194    0.878
        40 -13.8521     11.6015    206.8514   1.4742939454e+02   3.0279453397e+01     1.251139    0.8701501  61.11  0.005647952    1.294    0.227
        41  -9.9279    100.2886    131.7089   1.1664560598e+02   3.5944638449e+01    0.2870536    0.2341204 -25.24 0.0005361993    1.487    0.327
        42 -10.7253     44.8761    130.1173   1.3138004632e+02   4.4244136943e+01    0.2082069    0.1906918   0.10  0.001349927    1.370    0.270
        43  -9.0314    118.3945    127.7283   1.1093819228e+02   3.3483468569e+01    0.2197206    0.1391118 -40.59 0.0007343005    1.663    0.399
        44  -8.8867    108.9194    122.4923   1.1220510121e+02   3.6516571025e+01     0.207659    0.1958953 -60.45 0.0003740322    1.011    0.011
        45 -10.2024    168.2760    113.1320   9.5090473876e+01   2.5741629053e+01    0.3551015    0.2921528 -84.27  0.000734848    1.405    0.288
        46 -12.6210     72.3941    170.0369   1.3078645522e+02   3.1271816676e+01    0.5011106    0.2856666 -45.16  0.001361485    2.137    0.532
        47  -9.0874    135.0000    112.5335   1.0285840771e+02   3.3448952905e+01    0.3511049   0.08748426 -45.19 0.0009376494    3.958    0.747
        48 -10.8986     75.3830    234.4309   1.3802742322e+02   1.6726048295e+01    0.4227468    0.2078382  80.05  0.001921086    2.681    0.627
        49  -8.7691    205.3045    110.8371   8.6957915575e+01   1.7460389371e+01    0.3883086    0.1893424  38.85  0.001386881    2.711    0.631
        50 -10.6460     84.2390    172.6116   1.2839022173e+02   2.8884781163e+01    0.4195545    0.2829697  78.87 0.0006354339    1.651    0.394
        51  -8.9287    111.5144    208.4860   1.2768265722e+02   1.6293149380e+01    0.2242144    0.1222951 -48.51 0.0009209478    2.152    0.535
        52 -15.9558      6.6942    239.2713   1.5027212027e+02   2.4310167419e+01     21.37904    0.8065531 -74.53   0.05175344   12.438    0.920
        53 -10.6552     71.3384    245.0782   1.3977706190e+02   1.5249506158e+01    0.3473566    0.1888255  68.54  0.001935109    1.726    0.421
        54 -11.1287    108.4794    246.0378   1.3306858714e+02   9.3965098776e+00     0.323036    0.2582463 -56.69  0.001553155    1.540    0.350
        55 -11.1130     57.4284    239.2690   1.4174432334e+02   1.8298398248e+01     0.374095    0.2512306 -43.48  0.002123435    2.685    0.628
