#   1 NUMBER                 Running object number                                     
#   2 MAG_AUTO               Kron-like elliptical aperture magnitude                    [mag]
#   3 X_IMAGE                Object position along x                                    [pixel]
#   4 Y_IMAGE                Object position along y                                    [pixel]
#   5 X_WORLD                Barycenter position along world x axis                     [deg]
#   6 Y_WORLD                Barycenter position along world y axis                     [deg]
#   7 A_WORLD                Profile RMS along major axis (world units)                 [deg]
#   8 B_WORLD                Profile RMS along minor axis (world units)                 [deg]
#   9 THETA_WORLD            Position angle (CCW/world-x)                               [deg]
#  10 FWHM_WORLD             FWHM assuming a gaussian core                              [deg]
#  11 ELONGATION             A_IMAGE/B_IMAGE                                           
#  12 ELLIPTICITY            1 - B_IMAGE/A_IMAGE                                       
         1 -13.9999    215.9528      8.1342   3.8446146456e+01   2.9872375474e+01     2.388868     1.537144  35.42  0.009626575    2.211    0.548
         2 -13.4262    190.6804     39.5700   4.9779993883e+01   3.2404807836e+01       1.1324     1.013449 -30.05  0.003933442    1.184    0.155
         3 -12.7500    195.6347     33.7936   4.7454497348e+01   3.1906869088e+01    0.6596187    0.6376982 -10.53  0.001256609    1.171    0.146
         4 -10.8178    189.7484     14.7446   4.2914851623e+01   3.5621469245e+01    0.2818113      0.22104  89.57 0.0007654884    1.203    0.169
         5 -13.1309    175.7470     53.2798   5.6242825024e+01   3.4264876809e+01     1.935241     1.305355  28.22  0.005475868    1.914    0.477
         6 -10.6638     43.2372      2.6622   7.3350967455e+01   6.9554469512e+01    0.2383835    0.1741675  35.12  0.001556991    1.467    0.319
         7  -9.3187     55.7104    223.3813   1.2029400054e+02   2.1225167928e+01    0.1238002    0.1014142  76.21 0.0002867271    1.095    0.087
         8 -12.7076    246.7261    244.2068   8.6614933444e+01  -1.0975700346e+01      0.99224    0.5785045 -20.53  0.006305137    1.685    0.406
         9 -10.8185     37.5326    211.7929   1.2286193885e+02   2.5691050590e+01    0.1911074    0.1189668  82.55  1.34071e-05    1.383    0.277
        10 -10.3355     67.2656    204.5202   1.1628657553e+02   2.3532528232e+01    0.3329994    0.1948983 -50.97  0.001016512    2.134    0.531
        11  -8.3199     71.7707    201.6626   1.1504399551e+02   2.3521403722e+01    0.3380558    0.1906237  77.28  0.001680014    2.042    0.510
        12 -10.9240    192.9076    195.0181   8.8029759206e+01   4.2906928944e+00    0.9748958    0.5208414 -62.61  0.003043083    5.655    0.823
        13 -10.9661     57.3553    201.2146   1.1801603684e+02   2.5516529582e+01    0.3094415    0.2211888 -37.95  0.001580139    2.203    0.546
        14 -11.8828     58.7769    196.3149   1.1723658720e+02   2.6380697351e+01    0.4141277    0.2680797 -57.74  0.001711952    1.694    0.410
        15  -9.5497     64.9246    223.8400   1.1857447145e+02   1.9955340229e+01     0.150447    0.0992891 -89.58 0.0006100209    1.462    0.316
        16 -10.9836    203.0004    199.0043   8.6761922239e+01   1.8399254904e+00    0.3268449    0.2177304  35.03   0.00174881    1.362    0.266
        17 -11.7744    140.7713    196.2691   9.9287791955e+01   1.3565764702e+01    0.4819598    0.3238605  88.55  0.002167484    2.453    0.592
        18  -8.7308     44.5632    198.5730   1.2041113116e+02   2.7629895453e+01    0.1218207    0.0956093  75.60 0.0001516264    1.019    0.019
        19  -9.8391     82.0725    195.1739   1.1208418935e+02   2.3445185555e+01    0.2124888    0.1958371  83.89 0.0003716215    1.129    0.114
        20 -10.4908    152.3993    195.2875   9.6591036730e+01   1.1654623071e+01    0.4172181    0.1621768  37.31  0.001583843    2.467    0.595
        21  99.0000     43.2750    221.3376   1.2247565678e+02   2.3130783702e+01    0.1930957    0.1455405  23.90  0.001269332    1.902    0.474
        22  -8.8110    156.5112    189.9027   9.4754050505e+01   1.1929195711e+01    0.2000438    0.1415462 -47.40 0.0007677145    1.544    0.352
        23 -11.3122    149.4085    188.1286   9.5999539775e+01   1.3593113377e+01    0.3569455    0.2931821  39.10  0.001131771    1.122    0.109
        24  -8.0970     91.2983    185.2683   1.0872945594e+02   2.4218640369e+01    0.1207665    0.1075079 -16.17 0.0003156402    1.520    0.342
        25 -10.9326    150.5812    179.2751   9.4126928524e+01   1.5143789389e+01    0.4453149    0.2924434 -68.31  0.001857063    2.123    0.529
        26 -10.4598    189.3547    177.3488   8.5314250396e+01   8.0419530990e+00     0.454496     0.359953 -58.27  0.002370578    1.611    0.379
        27 -10.2524     50.3759    224.5365   1.2138851507e+02   2.1659918787e+01    0.2591327    0.1282226 -86.08  0.001414878    2.068    0.516
        28  -8.1044     81.2511    220.3184   1.1504848793e+02   1.8413531301e+01    0.1040764   0.09537355 -38.58 0.0004327452    1.530    0.346
        29  -9.3223     61.4937    219.9298   1.1889598207e+02   2.1165090457e+01    0.1571937    0.1039359 -65.51 0.0009515164    1.619    0.383
        30  -9.7515     55.7954    216.9927   1.1974988917e+02   2.2472071846e+01    0.2441933    0.1129526  78.57  0.001125582    2.699    0.630
        31  -9.8806    240.4754    169.4748   7.3816484459e+01  -5.2033405714e-02    0.1360115    0.1160424  -6.58 2.453694e-05    1.021    0.020
        32 -10.5086    230.8420    167.9636   7.5225940974e+01   1.8836142624e+00    0.3387887    0.1415231 -46.80  0.001252584    3.171    0.685
        33  -8.3242     85.9530    218.0000   1.1386520705e+02   1.8192946108e+01    0.2000899   0.06244273  38.18 0.0007929775    2.877    0.652
        34 -11.6960     96.2371    151.5334   1.0213475408e+02   3.1194575306e+01    0.6084507    0.5076236 -17.09  0.002399257    1.563    0.360
        35 -10.7758    133.7691    145.4252   9.1276109682e+01   2.5731524412e+01     1.318069    0.3075694 -53.94  0.002928354    6.424    0.844
        36  -9.6484    187.1467    151.6774   8.0277504408e+01   1.3312963617e+01    0.2606101    0.2074245 -48.51  0.001280089    1.355    0.262
        37  -9.0739    113.0790    150.8058   9.7652503159e+01   2.8444282245e+01    0.2357543    0.1977029  79.21 0.0007601649    1.296    0.228
        38  -8.4302    139.2918    150.6825   9.1048926590e+01   2.3448122510e+01    0.1523201     0.120899  84.55 0.0002662216    1.600    0.375
        39  -9.5876    174.5089    148.7616   8.2367322555e+01   1.6546249595e+01    0.3111067    0.2513776 -74.61 0.0008767011    1.639    0.390
        40  -9.5853    143.6345    145.8140   8.8919319383e+01   2.3645474393e+01    0.2224218    0.1444146 -57.97 0.0009459776    1.727    0.421
        41 -11.2842    107.9607    138.0412   9.6372379237e+01   3.2377669123e+01    0.5880274    0.4582592 -55.41  0.002944345    1.248    0.199
        42 -10.8354    105.5507    131.1371   9.5527632713e+01   3.4455243693e+01    0.4770543    0.3966188 -25.00   0.00201177    1.399    0.285
        43 -11.7631     96.0092    137.4335   9.9475475098e+01   3.4608980592e+01    0.3216158    0.2843115 -84.09 0.0003301917    1.136    0.120
        44 -10.4790    135.7354    128.0088   8.6746270059e+01   2.9270497139e+01    0.9550653    0.1499616 -49.49  0.001810931    8.044    0.876
        45 -10.4018    114.8637    128.9294   9.2485948510e+01   3.3247924218e+01    0.3659889    0.3024039  -8.85  0.000878495    1.508    0.337
        46  -9.2138    160.8032    127.9124   8.0536177016e+01   2.3859475212e+01    0.3115366    0.2178877  75.40  0.001251195    2.158    0.537
        47 -10.5795    102.4916    124.7336   9.4933906187e+01   3.6531842665e+01    0.2934204    0.2520195 -27.33 0.0005069898    1.288    0.224
        48 -10.0792    119.9821    123.5261   8.9814094071e+01   3.3513667146e+01    0.3069255    0.2120749 -33.57  0.001187395    1.617    0.382
        49  -6.2344     49.6659    216.8905   1.2092574976e+02   2.3248080285e+01    0.2976811    0.2188142  -5.26  0.001653233    2.967    0.663
        50  -9.4177    110.0452    118.0874   9.1227070680e+01   3.6711346087e+01     0.223724    0.2154205 -50.39 0.0003246744    1.006    0.006
        51  -9.9763    231.2322    113.6972   6.2824152335e+01   1.0957094356e+01     0.271373    0.2641996  12.35 0.0008032509    1.108    0.097
        52  -9.1995    167.3691    112.2536   7.4966771118e+01   2.5635433187e+01    0.3365029    0.2353949 -89.28   0.00115041    2.401    0.584
        53  -8.3973    146.3927    113.1357   8.0230517606e+01   3.0249757862e+01    0.2186304    0.1481075 -54.30 0.0004423243    1.603    0.376
        54  -9.9689    134.4432    105.7041   8.1290975929e+01   3.4514801260e+01    0.5312217    0.1518652 -47.80  0.001455278    3.727    0.732
        55 -10.9612    118.4139    110.4688   8.6936685349e+01   3.6833481140e+01    0.6377848     0.415121  60.14   0.00265673    1.941    0.485
        56  -9.6718    205.5090    110.3032   6.6523512564e+01   1.7180784593e+01    0.3137071    0.2547813  32.69 0.0008690224    1.324    0.245
        57 -10.1661    184.9289    212.4026   9.2743696317e+01   2.8418792217e+00    0.3190193    0.2123387  33.11  0.001741085    1.314    0.239
        58  -6.8221     43.0956    209.3387   1.2159826861e+02   2.5554429217e+01    0.4113247    0.1561312  67.28  0.001691661    3.375    0.704
        59  -8.4179    154.4929     82.4113   6.9504092288e+01   3.4630455493e+01    0.1565213    0.1515743  19.62 0.0001790054    1.036    0.034
        60  -8.2740    184.3508     77.3100   6.1663983612e+01   2.8180026658e+01    0.1607766    0.1199734  20.56 0.0007044562    1.717    0.418
        61  -9.0873     68.9662     71.9504   9.1480101180e+01   5.4169960816e+01    0.2053055    0.1848337 -32.77  0.001200377    1.037    0.036
        62 -10.7217     71.9129    245.3489   1.1907340419e+02   1.5062723023e+01    0.2772464    0.1568084 -73.83  0.001712737    1.904    0.475
        63  -9.0149     75.6188    247.5275   1.1858471166e+02   1.4188027518e+01    0.1110296   0.08882085  62.03 0.0002385034    1.071    0.067
        64 -19.5352     21.0472    146.5689   1.2076823404e+02   4.1775853959e+01      19.2396     4.697684 -75.36   0.06634302    3.868    0.741
        65  -9.2117    167.8858    231.1684   9.9097489394e+01   2.7601869366e+00    0.1794997    0.1521976  43.49 0.0004320396    1.148    0.129
        66 -10.5116     43.9013    205.2572   1.2110995358e+02   2.6302320803e+01    0.1778478    0.1365924 -80.88 0.0001838266    1.231    0.188
        67 -10.5022     58.9833    229.9452   1.2020579826e+02   1.9553988837e+01    0.1672378     0.128345  71.94 0.0003929678    1.056    0.053
