#   1 NUMBER                 Running object number                                     
#   2 MAG_AUTO               Kron-like elliptical aperture magnitude                    [mag]
#   3 X_IMAGE                Object position along x                                    [pixel]
#   4 Y_IMAGE                Object position along y                                    [pixel]
#   5 X_WORLD                Barycenter position along world x axis                     [deg]
#   6 Y_WORLD                Barycenter position along world y axis                     [deg]
#   7 A_WORLD                Profile RMS along major axis (world units)                 [deg]
#   8 B_WORLD                Profile RMS along minor axis (world units)                 [deg]
#   9 THETA_WORLD            Position angle (CCW/world-x)                               [deg]
#  10 FWHM_WORLD             FWHM assuming a gaussian core                              [deg]
#  11 ELONGATION             A_IMAGE/B_IMAGE                                           
#  12 ELLIPTICITY            1 - B_IMAGE/A_IMAGE                                       
         1 -17.6423    181.0108    120.6624   9.8848714151e+01   2.1301401290e+01     8.403681     3.579459  57.58   0.02806247    2.861    0.650
         2 -16.5102    144.1911     27.7225   7.8602420970e+01   4.6304284291e+01     2.149195      1.25024  61.16  0.008902568    1.625    0.385
         3 -15.4372    179.7388      5.2016   6.5567381709e+01   3.9430615936e+01     1.605225    0.4953077  62.58  0.005909961    2.627    0.619
         4 -16.5338    197.1354    229.8893   1.1710483482e+02  -1.6584569304e-01     1.390402     1.152257 -26.15  0.007170567    1.432    0.302
         5 -14.1059    191.9506    249.4891   1.2079918639e+02  -1.7840700753e+00    0.5336249    0.1988596  41.05  0.002649899    2.049    0.512
         6 -16.7385    146.1428    215.1925   1.2448005249e+02   1.0795334862e+01     3.469656     2.541957  48.59   0.02106117    1.134    0.118
         7 -19.2718     85.4077    213.6378   1.3610380102e+02   2.0920918743e+01     6.397717     3.456899 -83.16    0.0341052    2.152    0.535
         8 -12.1055    114.5948    238.1813   1.3318324474e+02   1.2210348060e+01      0.21947    0.1467874  67.72 0.0009809339    1.450    0.310
         9 -19.2078     59.1533     90.9781   1.2379791207e+02   5.1614523485e+01     20.33853    0.4084745 -57.43   0.02481997   25.794    0.961
        10 -11.5602     37.4823    214.0361   1.4509326719e+02   2.7097896604e+01    0.1468787   0.09052955 -83.31 0.0003588941    1.442    0.306
        11 -15.7039    223.6171    205.5417   1.0839796667e+02  -1.4327081194e+00     1.697005     1.241763  42.02    0.0104004    1.325    0.245
        12 -12.3846     40.8502    199.1320   1.4339479399e+02   2.9607128621e+01    0.2216136    0.1669815   0.41  0.001309982    2.851    0.649
        13 -13.0916    129.0974    190.1355   1.2428389778e+02   1.8309952297e+01    0.4911808    0.2956895  69.02  0.002279226    2.136    0.532
        14 -14.5760      2.9338    179.0047   1.4934890117e+02   3.7457771962e+01     1.274068    0.2454364 -80.37  0.004719558    4.638    0.784
        15 -14.2944     20.0395    168.5363   1.4520045777e+02   3.8126573370e+01    0.8017439    0.4455068 -54.77    0.0047071    2.121    0.528
        16 -15.4422      9.6589    178.4425   1.4800624407e+02   3.6995682922e+01     1.598914     0.335185 -66.63  0.006825021    3.663    0.727
        17  99.0000     15.6301    183.4102   1.4715561367e+02   3.5433307266e+01     1.583897    0.6738116 -49.99  0.007342328    4.041    0.753
        18 -11.8205     27.3314    184.9264   1.4495771475e+02   3.3969578380e+01    0.1649585    0.1203684  86.77  0.001075251    1.085    0.078
        19 -13.4207    124.2937    178.0137   1.2342087137e+02   2.1569511722e+01     1.045377    0.6053947  50.55  0.005056611    1.586    0.369
        20 -13.2727    132.5110    179.5144   1.2187410424e+02   1.9766082650e+01    0.6830719    0.2211035  47.19  0.002439334    2.849    0.649
        21 -18.7457     74.2706    242.9083   1.4071604056e+02   1.7301633522e+01     4.987489     1.921155  45.17   0.02717382    1.981    0.495
        22 -12.4397    179.4912    176.6114   1.1145177093e+02   1.1206743861e+01    0.2726126    0.2355881  -7.24  0.001551561    1.296    0.229
        23 -13.7955    131.8727    160.8759   1.1875228172e+02   2.3689872568e+01    0.9291981    0.5732653  62.53   0.00417533    1.868    0.465
        24 -14.1186    133.3970    150.8345   1.1646555538e+02   2.5512967445e+01    0.9951323    0.4101329  39.68  0.003657189    2.514    0.602
        25 -13.9596    140.3653    160.3055   1.1671339506e+02   2.2150519087e+01    0.4569025    0.4232254 -37.22  0.002389626    1.215    0.177
        26 -14.9382    150.0860    156.5183   1.1378196530e+02   2.0968322571e+01      1.21051    0.8914534  27.12  0.004756402    1.587    0.370
        27 -15.8601    210.7972    219.3566   1.1301729197e+02  -1.0771034673e+00     1.404255    0.9775022  61.31  0.007524474    2.105    0.525
        28 -12.6401     28.6099    153.0543   1.4195610775e+02   4.0678102943e+01    0.2855927    0.1750646 -75.52  0.001730634    1.350    0.259
        29 -12.5367     38.6178    149.9847   1.3929162705e+02   4.0346057908e+01    0.2860231    0.2018792 -68.16  0.001782708    1.285    0.222
        30 -12.7427     13.5157    244.7171   1.5070414077e+02   2.4217831402e+01    0.3670011    0.0984853 -70.06  0.001957726    3.542    0.718
        31 -17.1627    113.2224    133.6651   1.1786934588e+02   3.3185676486e+01     4.023147     1.485421  45.67   0.01434519    2.693    0.629
        32 -16.2620    224.1147    108.5988   8.7678048788e+01   1.3474912546e+01     2.212157      1.22225  73.30  0.008111902    3.115    0.679
        33 -16.8023     94.8701    104.2949   1.1614685457e+02   4.3190231016e+01      2.86778     1.876781 -83.16   0.01136176    2.283    0.562
        34 -16.0398      9.6196     84.8237   1.3870815285e+02   5.7573761947e+01    0.9648994    0.6909177 -63.13  0.005231336    1.094    0.086
        35 -14.3067    100.0412     39.6624   9.4057899634e+01   5.4990729365e+01    0.5689089    0.3291694  41.20  0.002658272    1.720    0.419
        36 -17.0354    184.4347    212.5730   1.1675507593e+02   4.4383518340e+00     2.452528     1.106808  37.10   0.01077436    1.990    0.497
        37 -13.9714      2.4992     27.1214   1.2871639521e+02   6.9963734605e+01    0.3796602    0.1745998 -49.59  0.002270382    1.551    0.355
