#   1 NUMBER                 Running object number                                     
#   2 MAG_AUTO               Kron-like elliptical aperture magnitude                    [mag]
#   3 X_IMAGE                Object position along x                                    [pixel]
#   4 Y_IMAGE                Object position along y                                    [pixel]
#   5 X_WORLD                Barycenter position along world x axis                     [deg]
#   6 Y_WORLD                Barycenter position along world y axis                     [deg]
#   7 A_WORLD                Profile RMS along major axis (world units)                 [deg]
#   8 B_WORLD                Profile RMS along minor axis (world units)                 [deg]
#   9 THETA_WORLD            Position angle (CCW/world-x)                               [deg]
#  10 FWHM_WORLD             FWHM assuming a gaussian core                              [deg]
#  11 ELONGATION             A_IMAGE/B_IMAGE                                           
#  12 ELLIPTICITY            1 - B_IMAGE/A_IMAGE                                       
         1 -15.6576      6.1321     67.1673   1.0940527440e+02   6.2142194367e+01     2.149707     1.003143 -64.28  0.008834961    1.758    0.431
         2 -13.2405     66.0870     48.8693   7.8567960009e+01   5.9725282896e+01     2.042053      1.00378 -19.52  0.007514986    3.366    0.703
         3 -15.3262    121.9332     36.9292   5.6492537038e+01   5.0320712886e+01     2.569451     1.208649  39.14  0.009578519    2.295    0.564
         4 -14.0420    188.6563     25.7186   4.1277861739e+01   3.5437923492e+01     2.020471    0.7539589 -54.39  0.007211588    3.511    0.715
         5 -13.0187    241.3489     35.3459   3.7966907164e+01   2.2296114917e+01    0.8310698    0.4363749 -83.73  0.003234304    2.296    0.564
         6 -14.6470    166.5867     29.4735   4.5388428374e+01   4.0393551885e+01     1.135979    0.9530562  72.11  0.004229847    1.101    0.092
         7 -14.9810    146.8287     30.0834   4.8909925505e+01   4.5189793990e+01     2.278365    0.9839911  70.93  0.008603485    2.716    0.632
         8 -14.5688     41.2750      6.0456   6.9953491396e+01   6.9730804659e+01     2.385865     1.112923   1.20  0.008958977    4.395    0.772
         9 -13.5719      2.7002     10.7679   9.3461325569e+01   7.3269925210e+01    0.7678157    0.4076635 -49.17  0.004708577    1.808    0.447
        10 -13.1388      8.1914      2.6576   8.6063271663e+01   7.4075924499e+01    0.5383868    0.4133657  45.72  0.002409281    2.495    0.599
        11 -16.0209     12.0387     21.9995   9.2916316989e+01   7.0742883456e+01     1.895079    0.9307752 -27.55   0.01057297    1.811    0.448
        12 -14.1677     24.9550     13.9553   8.2183682340e+01   7.0808793435e+01    0.7560551    0.3064139  29.48  0.003854542    2.457    0.593
        13 -13.3775    224.0723     20.9792   3.6349928225e+01   2.7763629550e+01     1.875141    0.8556858  45.15  0.007913467    3.411    0.707
        14 -14.3102    218.8792     15.6013   3.5588318324e+01   2.9524114479e+01     1.176696    0.7594165  32.65  0.006082201    2.515    0.602
        15 -13.6673    214.8576      9.9149   3.4632142237e+01   3.1036079098e+01     1.215964    0.5160751  48.31 0.0005382857    3.212    0.689
        16 -13.7627    187.1253     11.4261   3.7692664370e+01   3.7341939945e+01     1.427498    0.6381396 -56.59  0.006201961    2.548    0.608
        17 -15.5618     97.6032     12.2728   5.3193309355e+01   5.8601478499e+01     1.837934    0.7494822  51.21  0.006020476    2.035    0.509
        18 -12.5135     60.4411     17.5096   6.7488606670e+01   6.5333142876e+01    0.4038466    0.2212955 -26.47  0.002147217    1.797    0.444
        19 -11.8088     46.6328     13.2368   7.1199734024e+01   6.8073361711e+01    0.2790478    0.2257078  30.69  0.001521735    1.327    0.246
        20 -12.3814     71.3138     17.5780   6.3471176535e+01   6.3389792512e+01     0.377548    0.2330971 -20.82  0.001284923    1.632    0.387
        21 -11.2902     68.3634      9.7190   6.0876959646e+01   6.4793284785e+01    0.2204244    0.1447292  55.74 0.0009847926    1.743    0.426
        22 -11.5357    153.0454      8.9487   4.1253774928e+01   4.5855010798e+01    0.2061401    0.1813372  63.30  0.001035855    1.050    0.048
        23 -12.2579    118.8391      2.9746   4.4883867419e+01   5.4577627486e+01    0.4400531    0.2738659 -88.90  0.002183191    2.125    0.529
        24 -11.7566     78.0740      2.7761   5.4508903543e+01   6.3553038750e+01    0.3373376    0.2258965  37.98  0.001682977    1.244    0.196
        25 -11.1661     83.0317      1.0000   5.2285071651e+01   6.2684580496e+01    0.2835673    0.1252107  55.78  0.001360875    1.976    0.494
        26 -12.4138     61.5099      2.0056   5.9570519669e+01   6.6798929414e+01    0.3473176    0.1903534  50.73   0.00132039    1.779    0.438
        27 -11.5236    232.7758      1.7165   3.1446166248e+01   2.7944599535e+01    0.2474823    0.1438575  74.07   0.00136017    1.607    0.378
        28 -12.5973     85.2588    180.4791   1.0423080094e+02   2.6577556151e+01    0.3634587    0.2324877  78.46  0.001675957    1.971    0.493
        29 -12.7206     57.0233    246.6423   1.1742253766e+02   1.6333203415e+01    0.5140892     0.175291  35.44  0.002406769    2.629    0.620
        30 -13.6322     28.2917    246.2474   1.2267637435e+02   1.9703156868e+01    0.4546651    0.2834284  66.04  0.003115075    1.261    0.207
        31 -11.9955      2.8500    249.7784   1.2722373846e+02   2.1593773943e+01    0.2916731    0.1660601  45.52   0.00183699    1.483    0.326
        32 -13.8840      8.9412    245.6198   1.2602625955e+02   2.1781918333e+01    0.7452667    0.3626228  55.66     0.003602    1.550    0.355
        33 -11.8444     95.4962    171.0040   1.0016684879e+02   2.7246912413e+01    0.2253861    0.1380335 -58.88  0.001039732    1.614    0.380
        34 -13.3182    124.3176    166.6825   9.2037313695e+01   2.3343488661e+01    0.7030907    0.4545641 -65.81  0.003112368    1.817    0.450
        35 -11.8237     77.5045    157.0017   1.0258879747e+02   3.3370489539e+01    0.3482006    0.2588278  28.70  0.001304435    1.490    0.329
        36 -13.1184     73.8577    153.0710   1.0293092644e+02   3.4859496180e+01    0.6412577    0.4794405  27.36  0.002843957    1.501    0.334
        37 -12.2567     13.9308    159.1176   1.1956090267e+02   3.9869430395e+01    0.4669257    0.1875547 -57.68  0.002203687    2.249    0.555
        38 -11.7469    211.6691    154.6658   6.9780866716e+01   8.9690473537e+00    0.1510092    0.1070487  -1.36 -4.178374e-05    1.728    0.421
        39 -11.6673     85.9287    152.7104   9.9545494025e+01   3.3174766198e+01    0.3622683    0.1860512 -45.91  0.001488282    2.062    0.515
        40 -11.7248    103.3050    150.1115   9.4292024107e+01   3.0984426020e+01    0.3733319    0.2575777 -31.93  0.001679889    1.773    0.436
        41 -12.6767     61.0303    148.1146   1.0568742845e+02   3.7801269871e+01    0.4058661    0.2716467 -21.23  0.001406549    2.233    0.552
        42 -12.0129    244.3307    147.4619   6.2439393755e+01   4.3355347021e+00    0.2553953    0.1099991 -37.12  0.001096063    2.015    0.504
        43 -11.3523      7.0144    147.3600   1.2024857968e+02   4.3180909652e+01    0.3068912    0.1546071  76.52  0.001523914    2.090    0.522
        44 -10.7832     62.8513    138.8057   1.0361663734e+02   3.9894287498e+01    0.1935461     0.157339  84.54 0.0004599466    1.293    0.226
        45 -12.6964    246.2554    134.9216   5.9442228327e+01   6.0866042929e+00     0.354871    0.2413365 -74.07   0.00161295    2.772    0.639
        46 -10.2261     10.7045    134.3051   1.1797865980e+02   4.6070674175e+01    0.1254839   0.08202653  71.72 0.0005376463    1.582    0.368
        47 -11.8272    133.1458    127.8588   8.1228759102e+01   3.0607828729e+01    0.7314954    0.2233387 -42.87  0.002129514    3.393    0.705
        48 -12.0863     45.4618    134.8769   1.0806761086e+02   4.2921765151e+01    0.3202291    0.2936684  75.51  0.001977827    1.131    0.116
        49 -12.1895    222.2393    127.2461   6.1673831399e+01   1.1901963738e+01    0.2400559    0.1003891 -46.46 0.0008953757    2.445    0.591
        50 -13.0913     94.2574    103.6138   8.6176667708e+01   4.3719703643e+01    0.8711159    0.3846695  31.87  0.003143196    2.642    0.622
        51 -13.5712    120.3387    102.2946   7.8016582904e+01   3.8989038022e+01    0.6988924    0.3482124  37.09   0.00263467    2.172    0.540
        52 -14.2694    105.5409    122.0931   8.7480250014e+01   3.7346997693e+01     1.626493     1.135286  34.20   0.00750644    1.509    0.338
        53 -13.1918     28.6943    122.4915   1.1120887338e+02   4.7602272577e+01    0.4344811    0.2674543 -63.13  0.002332811    1.345    0.256
        54 -11.4345     59.8695    125.5573   1.0209413290e+02   4.3581327500e+01    0.2638021    0.1839205   0.17  0.001267938    1.972    0.493
        55 -11.4649    181.2200    121.3964   6.8136230256e+01   2.1618867426e+01    0.2148921    0.1485978  59.54 0.0008017287    1.683    0.406
        56 -11.9333      4.1642    119.9418   1.1827277012e+02   4.9939395434e+01    0.5124345    0.1849038  14.66  0.002261868    3.629    0.724
        57 -12.1643     78.4869    110.9797   9.3064843919e+01   4.4581684165e+01    0.2961704    0.2331078  32.08  0.001526027    1.362    0.266
        58 -12.3157     88.1155    109.4452   8.9625655751e+01   4.3410031734e+01    0.4178012    0.2813507 -60.85  0.001917594    1.559    0.359
        59 -12.5424     77.0673    117.0584   9.4936947802e+01   4.3322679315e+01    0.5057868    0.4195978  81.80  0.002636882    1.428    0.300
        60 -13.0227     84.8407    115.2372   9.2074724232e+01   4.2560038691e+01    0.7237714    0.3883098  34.99  0.002334377    1.977    0.494
        61 -15.0957     26.3452     94.0797   1.0713009529e+02   5.4690284158e+01     1.558246     1.165323   4.63  0.009290177    1.582    0.368
        62 -14.4411     18.1152    111.0827   1.1282537417e+02   5.1208005820e+01    0.8899526    0.6282704 -45.39  0.003727045    1.349    0.259
        63 -14.3154     11.0667    102.8382   1.1389817006e+02   5.3646294227e+01    0.7725322    0.6938518 -27.83  0.004789282    1.263    0.208
        64 -11.6474      1.8304    113.5521   1.1824128799e+02   5.1594730423e+01    0.2138587    0.1237966 -78.95  0.001107482    1.444    0.307
        65 -14.9048    107.0382    105.1957   8.2689915682e+01   4.0999400420e+01     1.733593     1.263008 -26.67  0.007251489    1.545    0.353
        66 -12.2454     62.0804    109.2631   9.8012066176e+01   4.7316444698e+01    0.5722512    0.3602709 -73.94   0.00261149    1.878    0.467
        67 -11.8571    176.7574    110.2636   6.6249833331e+01   2.4821141648e+01    0.3957316    0.3051458   5.32  0.001815689    1.687    0.407
        68 -12.5549     32.4003    110.3796   1.0806916289e+02   5.0259357774e+01    0.2616523    0.2244796 -81.32  0.001611549    1.159    0.137
        69 -11.0963     45.9078    109.9106   1.0351466542e+02   4.9065589882e+01    0.2206886    0.1714459 -42.59 0.0009950313    1.224    0.183
        70 -13.5332    170.9118    243.0329   9.4368482677e+01   5.7470595833e-01    0.5851973    0.4214737   9.89  0.003501334    1.462    0.316
        71 -12.1808    136.2966    103.0760   7.3886316083e+01   3.5410469600e+01    0.5802516    0.2319174  44.97   0.00197535    2.536    0.606
        72 -12.5633     42.9094     91.0838   1.0050045550e+02   5.3897638343e+01      1.13083    0.4945847 -75.66  0.003480992    4.818    0.792
        73 -12.6285     49.3102     94.5181   9.9001721217e+01   5.2399122672e+01    0.4893071    0.4126524  80.07  0.001885999    1.463    0.317
        74 -12.4710     61.2401     98.0936   9.5672729434e+01   5.0104475032e+01     0.372445    0.2978199 -84.41  0.001857513    1.531    0.347
        75 -10.8123    163.6541     97.3245   6.5647940161e+01   3.0364699259e+01    0.1613033    0.1231297 -79.08 0.0007050118    1.742    0.426
        76 -12.6418    136.5041     95.4234   7.1664889195e+01   3.6960671816e+01    0.4563036    0.3050844  52.09  0.001196159    1.567    0.362
        77 -12.3706    128.8316     96.2993   7.3956277729e+01   3.8469371325e+01     0.251072    0.2038868  67.01  0.001193055    1.453    0.312
        78 -11.5130     65.5804    126.5196   1.0052165817e+02   4.2606287833e+01     0.257693    0.2469824 -75.38  0.001518451    1.058    0.055
        79 -11.9790     90.3985     88.3447   8.3115880965e+01   4.7832205851e+01    0.4280716    0.3331299  49.96  0.001914361    1.454    0.312
        80 -13.5542    135.0441     81.5693   6.7941803703e+01   4.0035948159e+01    0.7910804    0.6737862 -30.29  0.003425175    1.185    0.156
        81 -12.8036    188.0475     84.5273   5.7208782286e+01   2.7005482979e+01    0.6944427     0.305725  41.25  0.002317645    2.892    0.654
        82 -14.3636    164.0495     71.5330   5.8244292346e+01   3.4977347033e+01     1.562908    0.8781982  52.00  0.006680713    1.751    0.429
        83 -13.7884    161.2293     80.7494   6.1509295118e+01   3.4045892238e+01    0.9094934    0.6023713  16.77  0.003636549    2.383    0.580
        84 -13.2834    238.3812     81.2783   4.8590047995e+01   1.6387622151e+01    0.6716727    0.3887681 -81.04  0.002810984    2.933    0.659
        85 -14.7240    169.5236     77.0100   5.8705839408e+01   3.2719233473e+01     1.314262    0.7135629  50.64  0.005056992    1.836    0.455
        86 -14.1003     96.3608    238.9802   1.0900201584e+02   1.2540745877e+01    0.6797461    0.4538228  50.61  0.003320924    1.279    0.218
        87 -13.1745     91.5660     58.3236   7.2933521664e+01   5.3574810856e+01    0.5470612    0.4928613 -53.11  0.002310718    1.313    0.239
        88 -13.6785     87.5369     65.3478   7.6738953207e+01   5.3047027127e+01     1.030729    0.6181985  10.18  0.004057347    2.689    0.628
        89 -12.9591     70.4976     75.7699   8.6166610682e+01   5.3820675982e+01    0.5502018    0.4215631 -25.73  0.002177399    1.275    0.215
        90 -12.3262     77.0157     73.9470   8.3250943729e+01   5.3171700957e+01    0.5621766    0.3488539 -29.20  0.001999259    1.717    0.417
        91 -13.2750     55.3684     82.0068   9.3583845209e+01   5.4560708257e+01    0.5637002     0.457961 -25.66  0.002696456    1.181    0.153
        92 -14.3981     60.9553     75.7771   8.9694819375e+01   5.5198315926e+01     1.373313     1.043182 -88.65  0.001433977    2.107    0.525
        93 -12.8735    210.5122     77.7428   5.1681030151e+01   2.2964338833e+01    0.5853263    0.3793304 -75.78  0.002628235    2.095    0.523
        94 -12.1032    114.1632     80.1890   7.3239077573e+01   4.4900156926e+01     0.395763    0.3307017 -52.66 0.0009622983    1.293    0.226
        95 -13.4619      6.1392     43.8482   1.0362701281e+02   6.7059247317e+01    0.8034543    0.3351114  12.83  0.004113538    2.707    0.631
        96 -12.3024     52.4828     98.0191   9.8703977637e+01   5.1205585896e+01    0.7944658     0.392347 -16.82   0.00246585    4.935    0.797
        97 -11.8104     41.9935     76.5112   9.7188443885e+01   5.7324746027e+01    0.2971531    0.2026448 -55.94  0.001485549    1.350    0.259
        98 -13.6655      2.1717     97.2688   1.1606219323e+02   5.5440608302e+01    0.9102662    0.2469454 -72.69  0.003493396    3.087    0.676
        99 -12.7626    214.4986     71.8111   4.9614318658e+01   2.3011853114e+01    0.3184778    0.2774446 -80.17  0.001393475    1.155    0.134
       100 -13.6013    133.2415     66.1951   6.3594714218e+01   4.3241907687e+01     0.978986    0.7459816  -1.43  0.003949145    1.625    0.385
       101 -13.7211    199.3573     69.6086   5.1342944560e+01   2.6835100002e+01    0.7170491    0.4155294  53.45  0.002295459    1.776    0.437
       102 -11.9421    199.6452     62.4185   4.9428204154e+01   2.7883685850e+01    0.3294328    0.2173002 -26.39  0.001586147    1.679    0.404
       103 -12.0495     43.3071     64.8795   9.3316973734e+01   5.9697434056e+01    0.2783996    0.1633988 -39.55 0.0005896161    1.487    0.328
       104 -12.5421     38.4811     68.0000   9.6222962033e+01   5.9546755314e+01    0.5485554    0.2693007  30.65  0.002641608    2.244    0.554
       105 -11.2364     33.9385     68.0000   9.8087505468e+01   5.9989061851e+01    0.2491329    0.1828651  -2.48 0.0008879001    1.467    0.318
       106 -11.5984     99.9960     64.7587   7.2470039681e+01   5.0758858055e+01    0.3393258    0.3043653 -20.71  0.001886993    1.079    0.074
       107 -13.8554    177.9188     57.2496   5.1533103947e+01   3.3880156086e+01    0.9110393    0.6134554 -48.33  0.003106408    1.503    0.335
       108 -12.5772     79.4949     60.7751   7.7942364402e+01   5.5343868356e+01    0.4861885    0.4034159   4.00  0.002551094    1.188    0.158
       109 -13.1288     81.2180     54.5968   7.5111993030e+01   5.6159187795e+01    0.6778647    0.4318497  31.37  0.003005365    1.584    0.369
       110 -12.3725     24.6797     60.0093   9.9756956863e+01   6.2498801096e+01    0.3770772    0.1881921 -50.45  0.001946642    1.607    0.378
       111 -14.5761    119.7202     54.5178   6.3209944725e+01   4.8280129436e+01    0.9664709    0.7356456  31.64  0.003396498    1.334    0.250
       112 -11.8644     40.1432    243.5396   1.2036038006e+02   1.8909106524e+01    0.2949798    0.1447478 -84.51  0.001679009    2.050    0.512
       113 -13.5770    139.6399     22.0072   4.7603460195e+01   4.7850542469e+01    0.9697385    0.2958634  61.98  0.003102936    2.865    0.651
       114 -10.9636     38.6452     60.2976   9.3843056658e+01   6.1150582737e+01    0.1878001    0.1584826  82.22  0.001105103    1.784    0.440
       115 -11.0455     47.3329     56.6815   8.8998746818e+01   6.0898650477e+01    0.1929652    0.1652485  81.22  0.001116705    1.828    0.453
       116 -12.4335    247.7703     54.3082   4.1469835879e+01   1.8449526421e+01    0.4836177    0.2553461 -50.72  0.002476206    1.673    0.402
       117 -12.4517    248.9087     49.1968   4.0248682566e+01   1.8918907304e+01    0.3187489    0.2836757  80.61   0.00199836    1.230    0.187
       118 -11.6907    109.9269     53.8528   6.5683599037e+01   5.0558454812e+01    0.3610216     0.217719 -29.18  0.001646114    1.737    0.424
       119 -12.7144    135.4198     50.5898   5.7983422928e+01   4.5230431094e+01    0.5597069      0.32839  33.01  0.002319649    2.048    0.512
       120 -13.5518    103.1022     50.5497   6.6498596458e+01   5.2548169926e+01    0.9041043    0.5881844 -60.41 0.0005748091    2.429    0.588
       121 -12.3226     97.8186     50.7945   6.8200962222e+01   5.3606236418e+01    0.6382344    0.3494801 -51.48  0.002634654    2.524    0.604
       122 -11.3163     22.8423     50.2129   9.7656577269e+01   6.4662371634e+01    0.2369209    0.1536621  -3.21 0.0009558912    1.639    0.390
       123 -13.1811    158.0804     44.2816   5.1272240125e+01   4.0615258893e+01    0.6965531    0.5218052  30.49  0.003262189    1.552    0.356
       124 -12.2184     24.7494    217.6976   1.2162575493e+02   2.5714481057e+01     0.494186    0.4097823  68.36  0.003609226    1.113    0.102
       125 -10.8550     55.3245     41.0750   7.9862558143e+01   6.2698784298e+01    0.1778721    0.1449012 -20.96 0.0004205935    1.092    0.084
       126 -11.5842     14.6134    224.0662   1.2395460760e+02   2.5411817216e+01    0.3667412    0.2094731  69.07  0.001477274    1.432    0.302
       127 -12.6136     75.8589     37.2958   7.0331463866e+01   5.9942645481e+01    0.3368501    0.2550673  40.28   0.00083346    1.335    0.251
       128 -12.1460     69.5466     36.4638   7.2316641416e+01   6.1181491138e+01    0.4316697     0.223959  30.70  0.001250341    1.985    0.496
       129 -13.7366     25.8433    227.3025   1.2201981589e+02   2.3638315786e+01    0.6315272    0.3508666 -63.09  0.003820714    1.949    0.487
       130 -13.4963     20.7682    225.2547   1.2286108898e+02   2.4568093132e+01    0.4218333    0.3722547  85.79  0.002639961    1.260    0.206
       131 -13.3069     66.2916    223.4119   1.1363803650e+02   1.9717064477e+01    0.7000691    0.5542302  35.43  0.004504548    1.345    0.256
       132 -14.0031     63.2763    214.7212   1.1344352644e+02   2.1919813133e+01    0.8689615    0.4527908  45.13  0.004560868    1.682    0.405
       133 -12.8232     94.6579    218.3732   1.0704646633e+02   1.6825828395e+01    0.3462392    0.2153434  44.54  0.001659796    1.415    0.293
       134 -13.2534     10.4021    211.2872   1.2405029528e+02   2.8433762445e+01    0.5307304    0.3065037  45.60  0.003382821    1.564    0.361
       135 -11.5853    185.5163    213.5109   8.6713513563e+01   3.0601772145e+00    0.1343209     0.116903  14.99 0.0008103265    1.014    0.014
       136 -12.5024     46.2469     33.6977   8.0757459574e+01   6.5185571405e+01    0.4682209    0.3094469 -19.60  0.002680826    1.410    0.291
       137 -11.0623    136.4607    211.2647   9.6843782991e+01   1.1671065288e+01    0.1743811    0.1346332 -71.45 0.0009176265    1.592    0.372
       138 -11.8299     72.3344    207.0901   1.1067139576e+02   2.2370546461e+01    0.3003839    0.2425321  61.58  0.001850463    1.095    0.087
       139 -12.3194     41.2254    206.1065   1.1738092673e+02   2.6427773664e+01    0.2367939    0.1435044  79.06  0.001329933    1.570    0.363
       140 -10.3572     32.0126     31.0000   8.6278922368e+01   6.7362177256e+01     0.180059   0.06516073  28.47 0.0005616492    2.860    0.650
       141 -12.9736     56.2915     27.4133   7.3694145560e+01   6.4691613305e+01    0.6279915    0.2807277  42.93  0.002234373    2.369    0.578
       142 -12.9382     67.9779     24.7493   6.7895709169e+01   6.3111036007e+01    0.6329214    0.3202848  43.24  0.003120607    1.890    0.471
       143 -12.3870     57.3435    203.1903   1.1359757028e+02   2.5168655394e+01    0.4845043    0.2437688 -86.40  0.002257719    2.273    0.560
       144 -11.1726     97.9164     27.1389   5.9103686756e+01   5.6930495157e+01    0.1985179    0.1863913  67.51  0.001225421    1.265    0.209
       145 -11.5897     36.1003     24.6565   8.1542571409e+01   6.7915272130e+01    0.2389899    0.1981842 -66.53   0.00145414    2.200    0.545
       146 -12.2855     46.4425     21.1166   7.5081335294e+01   6.7060995313e+01    0.3474965    0.2387347  -2.61 0.0008700591    1.367    0.268
       147 -11.0031     53.1885     20.1813   7.1700696321e+01   6.6176020742e+01    0.4029952    0.1385843  29.80  0.001449474    3.892    0.743
       148 -12.5005     17.0204    195.0048   1.2168197692e+02   3.1338809017e+01    0.9231775    0.2762573 -74.21  0.004005156    2.812    0.644
       149 -13.5694     29.9735    169.1337   1.1656180689e+02   3.6079554448e+01    0.7484831    0.4346313 -45.17  0.002561557    2.099    0.523
       150 -14.3644    217.6307     42.1597   4.1964035125e+01   2.6595044519e+01    0.9587246    0.5767119  64.07  0.003747181    1.664    0.399
       151 -13.2620     22.2257    181.2865   1.1949695911e+02   3.3960079507e+01    0.6957624    0.3694597 -57.69  0.002964323    1.901    0.474
       152 -14.7746      8.4480    183.4865   1.2273319843e+02   3.4657235204e+01     1.020391    0.9275235  69.12   0.00761306    1.234    0.189
       153 -14.7433     16.2195    175.6937   1.2041733107e+02   3.5787441839e+01     2.119092    0.6700382  51.09  0.008865534    3.169    0.684
       154 -12.7289     40.5775    195.3916   1.1658408124e+02   2.8877625598e+01    0.3711053    0.1679092 -88.34  0.001656549    2.471    0.595
       155 -13.1701    205.2061     40.4625   4.3031032122e+01   2.9682011231e+01    0.7229813     0.372441 -82.70  0.002880829    2.877    0.652
       156 -12.1047    163.9936    195.2942   8.8051666742e+01   1.0051039716e+01    0.2806531    0.1911589 -78.18  0.001191858    2.732    0.634
       157 -12.1676    201.0789    191.9005   7.9577320182e+01   4.1736575309e+00    0.3259293    0.2378455 -23.18   0.00141108    1.352    0.260
       158 -11.8262     49.0141    181.6129   1.1325616879e+02   3.1099463429e+01    0.3681723    0.2228816 -50.18  0.001905611    1.859    0.462
       159 -12.3684    198.5462    181.5421   7.8046806522e+01   6.4600999439e+00     0.272785     0.265468  80.84  0.001365366    1.322    0.244
