#   1 NUMBER                 Running object number                                     
#   2 MAG_AUTO               Kron-like elliptical aperture magnitude                    [mag]
#   3 X_IMAGE                Object position along x                                    [pixel]
#   4 Y_IMAGE                Object position along y                                    [pixel]
#   5 X_WORLD                Barycenter position along world x axis                     [deg]
#   6 Y_WORLD                Barycenter position along world y axis                     [deg]
#   7 A_WORLD                Profile RMS along major axis (world units)                 [deg]
#   8 B_WORLD                Profile RMS along minor axis (world units)                 [deg]
#   9 THETA_WORLD            Position angle (CCW/world-x)                               [deg]
#  10 FWHM_WORLD             FWHM assuming a gaussian core                              [deg]
#  11 ELONGATION             A_IMAGE/B_IMAGE                                           
#  12 ELLIPTICITY            1 - B_IMAGE/A_IMAGE                                       
         1 -12.3627     81.1779     19.1013   2.9880260892e+01   6.0618367917e+01    0.2908487    0.1997187 -47.00  0.001585718    2.028    0.507
         2 -12.3880     75.5359     14.8270   2.9886901245e+01   6.2173724009e+01    0.2403504    0.2222072 -49.55 0.0008938432    1.491    0.329
         3 -11.1558     99.2614     10.4401   2.1402898462e+01   5.7687532557e+01    0.1992783    0.1507889 -50.84    0.0006786    1.741    0.426
         4 -11.1878     55.1725     11.2293   3.5543302022e+01   6.6225079767e+01    0.1901955    0.1336304  17.04  0.000653554    1.220    0.180
         5 -12.3806     82.3973      9.0686   2.5355475675e+01   6.1371570872e+01    0.3599768    0.2010669  62.94  0.001813143    2.055    0.513
         6 -12.6105     89.7372      4.2447   2.1371226268e+01   6.0262368820e+01    0.4319591    0.2606426 -46.36  0.002132018    2.353    0.575
         7 -10.2828    152.7171      5.7090   9.9106573575e+00   4.5631045018e+01    0.1265517   0.08562154  44.24 0.0003185547    1.532    0.347
         8 -12.8466    100.9183      2.4334   1.7973991445e+01   5.7986327775e+01    0.4018115     0.185678  56.33  0.001382556    1.738    0.424
         9 -10.6601    144.4213      2.0110   9.9988814814e+00   4.7928403244e+01    0.1557721     0.127278 -21.54 0.0002901773    1.468    0.319
        10 -10.9874     46.7216    240.8226   8.8613974324e+01   1.7901963937e+01    0.2848357    0.1430522  69.71 0.0009094188    2.034    0.508
        11 -12.9195    245.3969    249.6942   4.9959527201e+01  -1.2276427167e+01    0.2386081    0.1678572  10.05 0.0005368553    1.119    0.106
        12 -11.8813    237.1508    248.9729   5.1315838438e+01  -1.1157494139e+01    0.3126502     0.208576 -24.82  0.002040609    1.425    0.298
        13 -10.9965    124.9783    249.9700   7.3673716768e+01   5.1636932950e+00    0.1892434    0.1483587   0.81  0.001117264    1.674    0.402
        14 -12.2848    114.6245    249.7574   7.5780208839e+01   6.7788016551e+00     0.241034    0.2124751  86.89 0.0007801612    1.275    0.216
        15 -11.1789    111.5220    249.4849   7.6386242747e+01   7.2960896393e+00    0.2120924    0.1598594  42.02 0.0006056643    1.109    0.098
        16 -12.4981     99.0076    248.4817   7.8839385679e+01   9.3416987561e+00    0.3435701    0.2435793 -36.57  0.001402118    2.018    0.505
        17 -11.4440     85.0201    250.5375   8.1879126760e+01   1.0969246459e+01    0.3239853    0.1047403  36.17  0.001349028    2.693    0.629
        18 -11.5445     63.4414    246.9666   8.5835961682e+01   1.4583465148e+01    0.3481061     0.250351 -15.20  0.001859187    2.886    0.653
        19 -13.0976     70.5039    247.8987   8.4524044631e+01   1.3467825303e+01    0.2504025    0.2054723  75.56 0.0006279541    1.130    0.115
        20 -12.3426     68.2994    245.3069   8.4731951005e+01   1.4264210605e+01    0.1887747    0.1864467 -48.45 0.0002304614    1.376    0.273
        21 -10.3124     66.2701    250.3197   8.5565415310e+01   1.3567819699e+01    0.1012301    0.0937097 -29.42 0.0003113708    1.564    0.360
        22 -11.0064     55.8753    250.5809   8.7594731119e+01   1.4859991072e+01     0.163791   0.09606201  42.59 0.0004232884    1.451    0.311
        23 -13.7121     37.2426    245.8291   9.0781659206e+01   1.8037430711e+01     1.002316     0.460441  47.65  0.005633686    1.736    0.424
        24 -13.5640     36.9451    226.5552   8.9466416367e+01   2.1981532453e+01    0.7785656    0.6203057  21.16  0.005023975    1.691    0.409
        25 -13.1714     49.1959    220.2424   8.6422476619e+01   2.1876998700e+01     1.028656    0.3856609  42.58  0.004742234    2.259    0.557
        26 -12.9344     26.8981    223.2185   9.1233283730e+01   2.3798573982e+01    0.5234778    0.1696828  41.25  0.002466429    2.511    0.602
        27 -13.9042     10.2282    186.7505   9.2095873382e+01   3.3508514433e+01     0.750717    0.5162234 -77.80  0.004749617    1.229    0.186
        28 -13.1512      4.4660    181.7339   9.3004800923e+01   3.5141753781e+01    0.4538199    0.2069703 -66.10  0.001853831    1.874    0.466
        29 -13.3332     28.4246    248.9649   9.2607230827e+01   1.8428786104e+01    0.8310284    0.2389089  52.87  0.003048937    2.805    0.643
        30 -15.1025     18.2489    212.2347   9.2214361392e+01   2.7048612342e+01     1.671459    0.7194862  60.51  0.008362719    2.183    0.542
        31 -16.7399     13.5169    237.5021   9.4665296156e+01   2.2253453123e+01     1.443121      1.08428 -36.74   0.00954903    2.300    0.565
        32 -16.0465      4.5254    230.7406   9.5950250151e+01   2.4485381626e+01     1.330419     0.479407 -89.06  0.006501816    2.632    0.620
        33 -10.9635     16.9085    250.7076   9.4760517782e+01   1.9334748244e+01    0.1536085   0.07028417  46.75 0.0005931013    1.717    0.418
        34 -11.0583    120.3286    249.3172   7.4553166131e+01   5.9909925441e+00    0.1223475   0.09569943   3.94 0.0005078023    1.680    0.405
        35 -12.6168    117.5567    240.5051   7.4050362566e+01   8.0298167152e+00    0.2192093    0.1832065  42.52 0.0005153907    1.028    0.027
        36 -12.5513    114.5063    240.5606   7.4702414389e+01   8.4912781236e+00    0.2328152    0.1713466  66.27 0.0006695302    1.481    0.325
        37 -12.3747    107.1267    240.1273   7.6208768617e+01   9.7039845633e+00    0.2381642     0.189581 -55.49 0.0006148797    1.460    0.315
        38 -12.8605    102.8647    237.9210   7.6849917200e+01   1.0775254288e+01     0.377363    0.2717757  16.46  0.002074558    1.791    0.442
        39 -10.6198     89.5477    241.2270   8.0012741848e+01   1.2102400785e+01    0.1450144    0.1191892 -55.23 0.0003534362    1.455    0.313
        40 -11.2867     70.8245    240.1892   8.3758459406e+01   1.4931412251e+01    0.3478877    0.2612152  28.16  0.002064718    1.532    0.347
        41 -12.7758     71.0780    234.5315   8.3168307918e+01   1.6035063160e+01    0.4121523    0.3174623 -36.02  0.001319644    1.902    0.474
        42 -12.4238     73.0996    230.0388   8.2299329944e+01   1.6680645456e+01    0.3633706    0.2320046 -88.13 0.0004382941    1.700    0.412
        43 -11.5741    148.2851    239.0769   6.7346743770e+01   3.4297107194e+00    0.2725224    0.1706129  34.26 0.0007949814    1.378    0.274
        44 -11.9259     79.2627    237.0325   8.1715031406e+01   1.4397798540e+01    0.2181415    0.1756905  48.96  0.001388344    1.098    0.089
        45 -12.5557     52.5015    236.9747   8.7171327466e+01   1.7964144075e+01     0.265128     0.206686  26.41 0.0007319732    1.591    0.371
        46 -12.8949     62.6548    233.8846   8.4847465230e+01   1.7293603277e+01    0.4685646    0.2458878  75.10 0.0008947264    2.261    0.558
        47 -11.9591     44.5116    234.7113   8.8580361590e+01   1.9402957337e+01    0.3512638    0.2162537  63.01  0.002107731    1.398    0.285
        48 -10.8835    246.7411    234.9537   4.7237357130e+01  -1.0532632740e+01    0.1451519   0.08785785 -27.00 0.0003715921    1.492    0.330
        49 -12.1303    112.0745    234.4118   7.4455280376e+01   1.0045136262e+01    0.3865456    0.1131318  36.62  0.001404668    2.986    0.665
        50 -10.9498     39.0742    233.9338   8.9594560777e+01   2.0204349294e+01    0.1918128     0.105752  66.34  0.000557414    1.646    0.393
        51 -12.0748    219.5357    230.6219   5.1493746066e+01  -6.2339726105e+00    0.2351621    0.1999224 -23.93 0.0008905923    1.294    0.227
        52 -10.6957    181.4972    231.9956   5.9298147011e+01  -6.7108264080e-01    0.1873576    0.1041979 -19.17 0.0008106348    2.637    0.621
        53 -11.6050     53.3907    231.2354   8.6510999680e+01   1.9029308343e+01    0.2406091    0.1542267 -63.62  0.001014312    1.669    0.401
        54 -12.6372    231.6392    227.8612   4.8736725541e+01  -7.5389346249e+00    0.3611953    0.2036987 -21.97  0.001532193    1.750    0.429
        55 -12.1658    130.1264    230.8463   7.0070594902e+01   7.8661875153e+00    0.2074193    0.1687021  57.20 0.0005367828    1.253    0.202
        56 -10.4515     67.7868    231.3496   8.3546188401e+01   1.7133129874e+01    0.1567451    0.1103705  32.51 0.0002749839    1.504    0.335
        57 -11.2591    194.5505    228.8089   5.6098324637e+01  -2.2026867420e+00    0.2659963    0.1700108 -15.38  0.001376041    1.811    0.448
        58 -12.0705    178.1412    228.4838   5.9418076752e+01   4.5587478634e-01    0.2269867    0.1983862  -7.12 0.0003129838    1.135    0.119
        59 -10.7773     83.2033    229.3951   8.0078298970e+01   1.5390543728e+01    0.2001303   0.09800653  46.57 0.0009579288    1.772    0.436
        60 -12.0927    112.5894    228.0678   7.3527354811e+01   1.1215737689e+01    0.2620692    0.1865947  31.68   0.00142531    1.361    0.265
        61 -12.8204    105.2942    226.9630   7.4987008048e+01   1.2580869911e+01    0.2747192    0.2664644  81.18  0.001788061    1.138    0.121
        62 -12.2408     91.2886    226.4111   7.7989287632e+01   1.4824911964e+01    0.3537598    0.1540948 -54.36  0.001574106    2.520    0.603
        63 -10.4679    138.3496    227.2873   6.7763424116e+01   7.2037116111e+00    0.1354243    0.1017543   5.07 0.0007023042    1.661    0.398
        64 -11.6183    100.2020    227.0988   7.6121712958e+01   1.3338162466e+01    0.1843031    0.1812576   9.46 0.0004085424    1.210    0.174
        65 -10.9664    222.4608    225.5065   5.0043069526e+01  -5.8914915999e+00    0.1275587    0.1047341   2.38 6.019093e-05    1.032    0.031
        66 -11.8297    116.5020    225.5082   7.2323185929e+01   1.1106654198e+01    0.2123277    0.1561253  68.29 0.0008094417    1.546    0.353
        67 -13.0355    114.5097    222.5047   7.2356101317e+01   1.2033865638e+01    0.3576935    0.1818828  39.25  0.001651471    1.736    0.424
        68 -11.8867     68.0470    224.7527   8.2840090798e+01   1.8478875432e+01     0.231286    0.1646327 -77.42 0.0003248116    1.411    0.291
        69 -12.2553     95.9838    223.2113   7.6571283328e+01   1.4784880549e+01    0.2134729    0.1815659 -78.51 0.0006016775    1.239    0.193
        70 -13.4381     78.4054    220.3303   8.0117857161e+01   1.7985069486e+01    0.5580639    0.3796779  53.51  0.002252572    1.316    0.240
        71 -11.1556    212.9895    222.3120   5.1301305562e+01  -3.9997979503e+00    0.2833161    0.1481515 -14.92  0.001201519    2.768    0.639
        72 -12.1154    160.0728    222.3411   6.2255636434e+01   4.5185133753e+00    0.3819461    0.2319291  38.50  0.001123008    1.479    0.324
        73 -12.9081    124.6707    221.6196   6.9960948582e+01   1.0563831285e+01    0.3230436    0.2293133  42.08 0.0008031374    1.254    0.203
        74 -11.9102    237.9151    220.8683   4.6342106051e+01  -7.3900519138e+00    0.2050356    0.1433454  -1.28  0.001237741    1.290    0.225
        75 -12.6209    173.2068    219.4180   5.8940986490e+01   2.8525626907e+00    0.3357379    0.2592217 -26.68 0.0008114866    1.373    0.272
        76 -12.0425     99.9356    220.3359   7.5328788560e+01   1.4781865171e+01    0.2460995    0.2053579  36.27  0.001130986    1.179    0.151
        77 -11.6783     87.5363    220.5857   7.8126732045e+01   1.6605377854e+01    0.2216216    0.1927129  56.26 0.0002445973    1.028    0.027
        78 -11.1365    246.4726    220.5080   4.4741749531e+01  -8.4993641358e+00    0.1237605   0.09777176  -5.15 3.901347e-05    1.029    0.028
        79 -11.1168    223.0743    220.2179   4.8984947182e+01  -5.1770545494e+00    0.1997642    0.1467224   5.68  0.001191333    1.225    0.184
        80 -11.0441     33.0905    220.4178   8.9781494731e+01   2.3719796760e+01    0.1623837    0.1116286  34.40 0.0009937487    1.578    0.366
        81 -11.5668    193.3741    219.1862   5.4675047442e+01  -4.2328306150e-01    0.1747189    0.1258075 -49.40   0.00073162    1.709    0.415
        82 -14.0086     11.2621    194.4596   9.2432971744e+01   3.1657309689e+01    0.9214884    0.3887444  45.50  0.004684402    2.162    0.537
        83 -12.8919    145.2215    215.6658   6.4445921011e+01   8.3042972556e+00    0.4347776      0.40824  63.93   0.00130151    1.173    0.147
        84 -13.2293    140.2555    211.1228   6.4830475530e+01   1.0063495438e+01    0.5585691    0.4285885 -70.00  0.002695351    1.615    0.381
        85 -12.2256    129.9570    217.1350   6.8109777850e+01   1.0592984357e+01    0.2305916    0.2028286 -58.38  0.000694654    1.261    0.207
        86 -11.9460     65.1049    216.6496   8.2647294795e+01   2.0620447863e+01    0.3358458    0.2394475 -61.23  0.001946775    1.495    0.331
        87 -13.0575    108.4645    215.4309   7.2744628545e+01   1.4474892172e+01    0.3268717    0.2548558 -66.54  0.001347938    1.391    0.281
        88 -13.5837     79.2556    212.6820   7.9045187440e+01   1.9528291001e+01     1.357044     0.347333  39.56  0.003468778    3.222    0.690
        89 -12.8405     85.0411    210.8776   7.7506209220e+01   1.9082645049e+01    0.6068966    0.3859972  34.22  0.002146304    1.564    0.361
        90 -10.9806    155.2030    214.8064   6.2081437427e+01   6.7636180629e+00    0.1900387    0.1557672   1.65 0.0004139843    1.330    0.248
        91 -10.9068     59.5022    214.9230   8.3700190128e+01   2.1737881515e+01    0.1807558    0.1178366 -73.14  0.000881377    1.500    0.333
        92 -12.1898     35.4564    213.9099   8.8779468257e+01   2.4868083588e+01    0.3417521    0.1794769  65.76   0.00157369    1.841    0.457
        93 -11.5775     30.9128    212.2187   8.9598381643e+01   2.5740025179e+01    0.1836959    0.1451121  78.79   0.00057788    1.030    0.030
        94 -12.5388    125.0813    212.8589   6.8569222333e+01   1.2287975558e+01    0.2399604    0.2208221 -64.27 0.0003508328    1.187    0.157
        95 -12.4192    120.4369    214.2038   6.9833821599e+01   1.2781663220e+01    0.2387498    0.1838533  65.50 0.0005169448    1.425    0.298
        96 -11.7148    247.3817    212.8559   4.3191955548e+01  -7.5145675752e+00    0.1857877    0.1543497  16.27 0.0004249916    1.249    0.200
        97 -10.6128     41.0030    213.0229   8.7529053817e+01   2.4431366845e+01    0.1489725    0.1205018  80.77 0.0003769603    1.047    0.045
        98 -10.6356     63.7842    211.3451   8.2380389631e+01   2.1968257330e+01    0.1516285    0.1226873  28.98 0.0002295788    1.420    0.296
        99 -12.0761     68.7674    207.5241   8.0831889852e+01   2.2153054591e+01    0.4360312    0.2342921  24.48  0.001388135    2.383    0.580
       100 -11.3518     63.8778    208.1125   8.2009801557e+01   2.2680437468e+01    0.2112549    0.1676171 -73.78 0.0005227413    1.241    0.194
       101 -11.4629     46.7585    210.1967   8.6031691300e+01   2.4379805464e+01    0.3269632    0.1937276 -86.27  0.001753579    1.646    0.392
       102 -13.0430    229.1626    207.1111   4.5430551086e+01  -4.0337167984e+00    0.4260492     0.295899 -37.51  0.001615991    1.467    0.318
       103 -15.1582      3.7851    211.0818   9.5031412785e+01   2.8652931585e+01    0.9091057    0.3893861 -89.66  0.004727763    2.073    0.518
       104 -11.0809     38.0568    209.2943   8.7838829304e+01   2.5596592799e+01    0.1675153    0.1382846  55.14 0.0006575249    1.168    0.144
       105 -12.2781    180.3494    207.6491   5.5340732473e+01   3.7864662863e+00     0.265825    0.1884723  35.74  0.001278041    1.325    0.245
       106 -12.7730    105.0929    206.9091   7.2319706575e+01   1.6856531012e+01    0.7126207    0.2755239  37.75   0.00278049    2.363    0.577
       107 -11.5289     36.3103    203.2686   8.7692141515e+01   2.7148364732e+01    0.1781888    0.1709389  54.24 0.0001908381    1.283    0.221
       108 -12.2904    160.0985    206.4722   5.9562963741e+01   7.5350946964e+00    0.2902259    0.2556791  40.74 0.0006320837    1.131    0.116
       109 -12.6259    145.5139    202.9758   6.2260945681e+01   1.0813009336e+01    0.5828623     0.271397 -44.58  0.002379811    2.322    0.569
       110 -12.4335    141.7642    198.6444   6.2377385180e+01   1.2383614998e+01    0.2680168     0.222265 -60.58 0.0009424448    1.344    0.256
       111 -11.2010    205.1047    206.2125   4.9929696806e+01  -1.1407096929e-01    0.1983111    0.1600928   3.89 0.0002978911    1.136    0.120
       112 -11.7897    123.8440    205.6782   6.7742054185e+01   1.4013170249e+01    0.2353233    0.1872514 -43.01 0.0007468694    1.389    0.280
       113 -11.3368     55.0743    205.5486   8.3727447267e+01   2.4402927727e+01     0.183035    0.1522491  87.32 0.0003481843    1.080    0.074
       114 -12.5856     48.7391    204.6833   8.5064806128e+01   2.5383539581e+01    0.2743421    0.2069843 -65.02   0.00068038    1.356    0.262
       115 -12.1974     33.7175    205.9821   8.8492489918e+01   2.6821471643e+01    0.2607936    0.2058075  87.74 0.0006570465    1.083    0.077
       116 -12.3099     99.3465    184.9818   7.0377758842e+01   2.2798762711e+01    0.4651121    0.2994394 -37.01  0.001725847    1.968    0.492
       117 -13.1028     94.0447    183.7613   7.1518913611e+01   2.3944961937e+01    0.5340791    0.3178841 -50.75  0.002037769    1.742    0.426
       118 -13.0423     89.5826    183.1609   7.2553206195e+01   2.4793023153e+01    0.7358091    0.2840675 -61.65  0.002428698    2.652    0.623
       119 -12.9189     90.2206    201.0699   7.5009805022e+01   2.0505362566e+01    0.7264798    0.3953653 -40.90  0.003100338    2.505    0.601
       120 -12.4490    100.0273    195.2327   7.1807520352e+01   2.0298776846e+01     0.410546    0.3303677  37.92  0.001294095    1.217    0.178
       121 -13.0178     92.8747    193.3351   7.3268793705e+01   2.1875112192e+01    0.7209046    0.4088731  58.10  0.003000197    2.004    0.501
       122 -11.3050     41.5797    205.0665   8.6693618297e+01   2.6143833797e+01    0.2526795    0.1431447  52.23  0.001350918    1.613    0.380
       123 -10.5764     60.0015    204.0065   8.2443584199e+01   2.4122505046e+01    0.2206002    0.1334127  67.98  0.000655851    1.724    0.420
       124 -11.2211    166.9530    203.0352   5.7422228118e+01   6.9990592157e+00      0.22418    0.1648857  -1.77 0.0004178795    1.638    0.390
       125 -11.6016     77.8035    200.5376   7.7886842388e+01   2.2475548374e+01     0.390796    0.1541238 -58.51  0.001592171    2.485    0.598
       126 -11.3906    212.3306    200.2913   4.7368506137e+01  -2.7668893138e-01    0.2446087    0.1642716 -59.00  0.001090383    2.381    0.580
       127 -12.7191     82.7369    195.6087   7.6056625974e+01   2.2894005590e+01    0.7340945      0.48018  78.68  0.003527546    1.820    0.451
       128 -12.8668     76.0392    179.2771   7.5414366598e+01   2.7770391143e+01     0.552153    0.3040364 -47.72  0.002451464    1.996    0.499
       129 -13.7190     70.8627    186.8062   7.7771776490e+01   2.6687872537e+01    0.8694873    0.4460346  35.69  0.002350094    1.939    0.484
       130 -11.7029    225.0435    204.0447   4.5627395488e+01  -2.9162492828e+00     0.219241     0.206046 -31.58 0.0004030924    1.361    0.265
       131 -12.2605    134.2434    198.7569   6.4161648791e+01   1.3694860291e+01    0.2565459    0.2141984  -7.83 0.0008326674    1.420    0.296
       132 -11.6287     51.1232    199.1050   8.3956061707e+01   2.6372626668e+01    0.2121465     0.179163  49.06 0.0006678582    1.193    0.162
       133 -11.3769     39.6734    197.6581   8.6425728952e+01   2.8056501791e+01    0.2997504    0.1425739  64.29 0.0007960408    2.328    0.571
       134 -11.2270      1.3742    196.5632   9.4654269647e+01   3.2032646750e+01    0.2864115   0.07553887 -71.06   0.00122048    2.930    0.659
       135 -12.9218    122.5663    196.4528   6.6550911706e+01   1.6242136220e+01    0.4443538    0.2640978  52.49  0.001749756    1.796    0.443
       136 -11.5009    120.6391    191.4491   6.6176930366e+01   1.7695230464e+01    0.2496202    0.2287064 -86.73 0.0005084561    1.152    0.132
       137 -11.0974     30.6250    196.7195   8.8374205235e+01   2.9260145625e+01    0.1817343    0.1291824 -48.65  0.001058887    1.725    0.420
       138 -12.6268     26.9315    193.2721   8.8900428748e+01   3.0437240491e+01    0.5980974    0.1469122 -66.30  0.002293333    3.228    0.690
       139 -11.1311     31.0228    188.7200   8.7560136805e+01   3.1077952868e+01    0.1682481    0.1449732  77.14 0.0002622676    1.068    0.063
       140 -11.2338    245.7648    195.7293   4.0264253689e+01  -4.6899105759e+00    0.1958269   0.09247433 -45.11 0.0008060625    2.386    0.581
       141 -13.1121    191.2706    193.8778   5.0424571510e+01   4.4455281633e+00    0.5813494    0.3448546  36.51    0.0019733    1.636    0.389
       142 -12.3922    152.1670    195.5344   5.9403584790e+01   1.1163318193e+01    0.3571301    0.2315432  33.65  0.001257102    1.481    0.325
       143 -11.0006    202.2903    195.3417   4.8425593623e+01   2.2663708066e+00    0.1448303     0.100456  -5.49 0.0006483332    1.649    0.394
       144 -11.4393    239.3002    193.3846   4.0956846837e+01  -3.3627433810e+00    0.2221197    0.1665956  -8.65 0.0005783641    1.213    0.176
       145 -11.1811    217.8964    194.0773   4.5078745414e+01  -1.1806587494e-01     0.188957    0.1823602 -23.70 0.0004779939    1.289    0.224
       146 -11.3832     69.4092    193.9250   7.9051305228e+01   2.5199671598e+01    0.1833924    0.1515804 -75.36  0.000447556    1.165    0.141
       147 -12.0182    162.9313    192.6356   5.6397083598e+01   9.7978985597e+00    0.3291025    0.2641686 -75.83  0.001373312    1.696    0.410
       148 -12.1078    158.4928    193.2400   5.7523452225e+01   1.0486107297e+01    0.3248022    0.1875441  36.00 0.0007902879    1.655    0.396
       149 -15.6469     12.7571    224.9359   9.4098674548e+01   2.4886979590e+01    0.9009323    0.5466493  67.38  0.005771883    1.341    0.254
       150 -10.1990     40.6569    191.2867   8.5574711988e+01   2.9430577506e+01    0.1378736   0.08299392  64.60 0.0007020147    1.645    0.392
       151 -11.2050    234.4976    190.5002   4.1261772729e+01  -2.1597994164e+00    0.1332973    0.1126163 -11.80 0.0008105716    1.024    0.024
       152 -12.9786    134.6864    188.9947   6.2341460424e+01   1.5742659702e+01    0.4480508    0.2766634 -36.89 0.0009015598    1.889    0.471
       153 -12.4785     50.4857    189.9748   8.3118216016e+01   2.8589655694e+01    0.2971477    0.2548414  32.49 0.0006089346    1.334    0.251
       154 -14.0766     50.7056    183.8311   8.2363729205e+01   3.0030513091e+01    0.4644864    0.3902223  83.00  0.002032907    1.057    0.054
       155 -10.9369    174.1902    188.8695   5.3142530891e+01   8.4914455710e+00     0.205082    0.1668764   0.97 0.0006429917    1.306    0.234
       156 -12.0010    109.8766    187.8649   6.8220134233e+01   2.0368433190e+01    0.2722961    0.2116354  52.98 0.0007981865    1.268    0.211
       157 -13.1256     64.8260    182.0414   7.8640838076e+01   2.8662214389e+01     0.583876    0.3308313 -57.57   0.00279431    1.713    0.416
       158 -12.5563    194.3805    187.0303   4.8420975641e+01   5.1803379518e+00    0.3240002    0.2048306  38.47 0.0009173636    1.572    0.364
       159 -13.2231    120.6883    186.5922   6.5328456600e+01   1.8788807620e+01    0.4972498    0.2740317  38.99 0.0005570463    1.731    0.422
       160 -14.1388    118.5465    180.0902   6.4707811138e+01   2.0667652921e+01     1.234055    0.5479471  59.24  0.003401138    4.860    0.794
       161 -11.7848     43.6117    186.8621   8.4417520331e+01   3.0141086919e+01    0.2240184    0.1689469  54.06 0.0003774774    1.268    0.211
       162 -11.5658    247.5208    185.7786   3.8032937249e+01  -3.3718798569e+00    0.2292882    0.1673644  25.50  0.001115263    1.423    0.297
       163 -12.1113    164.6558    185.1534   5.4560899469e+01   1.1017221529e+01    0.2591139    0.2323929  54.18 0.0004518624    1.229    0.186
       164 -11.8929     24.8198    185.8951   8.8732480415e+01   3.2367292525e+01    0.1966856    0.1856795 -85.79 0.0003432043    1.224    0.183
       165 -10.8568     28.5357    182.9741   8.7598228857e+01   3.2688222496e+01    0.1715948   0.08407483 -51.69 0.0004427701    2.254    0.556
       166 -11.6413    156.7992    185.3972   5.6420314678e+01   1.2437220776e+01    0.2131979    0.1372396  28.51 0.0009492639    1.623    0.384
       167 -10.8642    210.4588    182.5036   4.4231535130e+01   3.1806764973e+00    0.1415635    0.1247636  -8.60 6.754392e-05    1.006    0.006
       168 -11.2907    142.1782    181.5639   5.9148777773e+01   1.6006721797e+01    0.2088083    0.1414444  25.62 0.0004801205    1.618    0.382
       169 -11.9449    106.1330    180.7078   6.7954270954e+01   2.2680014547e+01    0.2838103    0.1828521 -32.47  0.001161976    2.085    0.520
       170 -10.9025     37.7328    181.3682   8.5243927342e+01   3.2110961685e+01    0.1647057    0.1272252  16.20 0.0009496146    1.684    0.406
       171 -11.2156     24.0339    181.5078   8.8518360567e+01   3.3478094660e+01    0.1738834    0.1203102  36.09  0.001024828    1.568    0.362
       172 -12.0668    166.5234    177.8194   5.2666506842e+01   1.2193035048e+01    0.2357735    0.2053305  62.47 0.0006154649    1.343    0.255
       173 -11.4928     57.6123    177.0275   7.9801758067e+01   3.0825305597e+01    0.3287142    0.2101884  84.09  0.001211936    1.725    0.420
       174 -11.0925     33.0476    177.6648   8.5991224381e+01   3.3497551499e+01    0.1810157    0.1597262 -89.97  0.001162686    1.068    0.064
       175 -13.2555    148.2378    176.3560   5.6667856296e+01   1.6011933782e+01    0.4416683    0.3203728  56.11  0.002061012    1.563    0.360
       176 -12.0020    137.3194    177.0356   5.9459167503e+01   1.7930549400e+01    0.2110923    0.2008984 -57.29 0.0006657668    1.092    0.085
       177 -12.3663     22.6658    175.7011   8.8302755191e+01   3.4989247752e+01    0.3718921    0.2539721 -66.05  0.001461767    1.332    0.249
       178 -13.4945    126.6694    166.8681   6.0129317140e+01   2.2277635437e+01    0.6563945    0.3892539  35.25  0.002780018    1.710    0.415
       179 -12.6274    126.6042    173.7685   6.1498720693e+01   2.0677567953e+01    0.4252519    0.2476421 -71.75  0.001600712    2.580    0.612
       180 -13.3897    130.1260    169.6624   5.9805816211e+01   2.0974601748e+01     0.549196     0.384809  18.82  0.002407564    1.757    0.431
       181 -12.2790    106.1902    175.9743   6.7118581179e+01   2.3796509069e+01    0.2584437     0.212829  39.94 0.0005951338    1.198    0.166
       182 -12.4056     47.9350    174.4972   8.1936001511e+01   3.2626558883e+01     0.481962     0.229964  65.73  0.001579463    2.848    0.649
       183 -12.0906      3.7198    174.5619   9.2645301617e+01   3.6864030511e+01    0.4622003     0.219831  84.32  0.002317591    1.999    0.500
       184 -11.1911    172.2727    175.3583   5.0853938744e+01   1.1603957713e+01    0.1541442    0.1137981 -10.27  0.000700145    1.649    0.394
       185 -10.1632     39.6795    175.6376   8.4141435562e+01   3.3283049666e+01     0.135645   0.09199624 -43.37 0.0007041648    1.776    0.437
       186 -13.0625     90.9213    171.5468   7.0331035790e+01   2.7395580569e+01    0.5623058    0.2386657 -50.65  0.002136626    2.361    0.576
       187 -11.9887     17.2272    166.9487   8.8793464451e+01   3.7576313632e+01    0.4378044    0.1998257  20.52  0.001701528    2.836    0.647
       188 -13.7612     33.3200    148.5813   8.2512103969e+01   4.0622323380e+01    0.4714354    0.2817349  24.70 0.0007876053    1.964    0.491
       189 -13.4552      4.1963    147.7592   9.0262899070e+01   4.3198377618e+01     0.700036    0.3075992 -80.25  0.002877296    1.951    0.488
       190 -15.3194     11.9454    138.4469   8.7208298904e+01   4.4924125421e+01     1.664607    0.8933621 -74.22  0.007965384    1.541    0.351
       191 -12.1084      2.7288    142.4929   9.0142056403e+01   4.4562171030e+01    0.2492095    0.2147289 -46.04 0.0009954816    1.310    0.237
       192 -12.9849      2.0923    131.4494   8.9188618970e+01   4.7262043229e+01    0.4532224     0.179756 -72.67 0.0005287313    1.982    0.495
       193 -13.6392     23.8686    161.2063   8.6543831373e+01   3.8385771468e+01    0.6732591    0.4189341 -47.07  0.003630352    1.764    0.433
       194 -12.2761     29.2714    172.4936   8.6378560520e+01   3.5127558056e+01    0.2833159    0.2613629  86.27  0.001045856    1.132    0.117
       195 -12.7988     24.2384    168.8541   8.7249488233e+01   3.6490553396e+01    0.4233029    0.2858167  23.10  0.002417805    1.813    0.448
       196 -13.5475     26.6872    151.2756   8.4669782273e+01   4.0574806215e+01    0.5862706    0.2901096 -67.95  0.002841786    1.687    0.407
       197 -11.3354    234.6624    171.8617   3.7500756375e+01   9.5790606243e-01    0.2205991    0.1521545 -21.70  0.000703581    1.381    0.276
       198 -12.4261    197.1459    170.2995   4.4400872224e+01   7.8828085737e+00    0.2675234    0.1905442 -26.80  0.001310272    1.414    0.293
       199 -12.0518     62.2837    170.5844   7.7720709816e+01   3.1807501859e+01    0.3062552    0.2495015  86.08  0.001712196    1.184    0.156
       200 -13.0356    152.6212    168.8087   5.4072645158e+01   1.6831122047e+01    0.3901692    0.2509857 -52.69  0.001415489    1.651    0.394
       201 -13.0062    151.6626    164.8850   5.3478449943e+01   1.7891002329e+01    0.3789601    0.2987934  27.09 0.0008534028    1.316    0.240
       202 -10.5356     48.5554    169.5463   8.1156950606e+01   3.3771137737e+01    0.1358305    0.1194722 -85.25 0.0001588117    1.012    0.012
       203 -11.9019     41.6569    168.7990   8.2842979144e+01   3.4739116415e+01    0.3419369    0.2191577  78.30   0.00174626    1.650    0.394
       204 -12.1944    106.2829    167.3053   6.5523938205e+01   2.5868197086e+01    0.2450594    0.2273098  -7.21 0.0003103034    1.213    0.176
       205 -14.0513     21.0107    152.1986   8.6299801015e+01   4.0844714582e+01    0.8888427    0.3103696 -62.83  0.003394672    2.253    0.556
       206 -12.2693     10.3956    166.8787   9.0451789186e+01   3.8156889175e+01    0.3905553     0.237954  44.32  0.002267331    1.698    0.411
       207 -13.2102      3.9981    161.0591   9.1503027445e+01   4.0026906920e+01    0.4747711    0.3296526  60.63  0.002965024    1.426    0.299
       208 -12.3290     10.6631    161.3593   8.9891484520e+01   3.9457269132e+01    0.3178597     0.207592  49.74 0.0002175304    1.583    0.368
       209 -12.3879    172.0249    166.4986   4.9044482979e+01   1.3504610743e+01     0.286594    0.2725988 -48.79  0.001560865    1.125    0.111
       210 -11.6669     62.9444    176.8049   7.8413754588e+01   3.0188548397e+01    0.2936703    0.2014644  19.30 0.0008861966    1.845    0.458
       211 -12.8077     87.8440    164.8967   7.0011684505e+01   2.9521678808e+01    0.3267615    0.2664405  31.54  0.001184319    1.303    0.233
       212 -12.5419     83.8754    163.2680   7.0802843315e+01   3.0545012325e+01    0.3513312    0.2223858 -59.86  0.001055198    1.519    0.342
       213 -12.3656     57.3836    163.9738   7.8074472002e+01   3.4082167156e+01    0.3715224    0.2249931  70.96   0.00112753    2.017    0.504
       214 -11.5862    206.0262    163.9958   4.1250608288e+01   7.4330311659e+00    0.2303642    0.1689468  -2.33 0.0005427813    1.617    0.381
       215 -12.2205     37.2718    162.8577   8.3258241226e+01   3.6675354396e+01    0.2429609    0.1905851  61.04 0.0004437884    1.278    0.217
       216 -12.9022     47.2006    161.1790   8.0412591039e+01   3.6005301856e+01    0.4169246    0.2414432  77.74  0.001872584    2.137    0.532
       217 -12.2379     16.4697    160.6356   8.8368892246e+01   3.9165517245e+01    0.3098603    0.1683423  65.72  0.001557576    1.987    0.497
       218 -13.1367    170.0169    159.5089   4.7983596844e+01   1.5387986298e+01    0.4296544     0.323119 -54.97  0.002036439    1.458    0.314
       219 -10.7792    178.5397    160.4722   4.6273278545e+01   1.3472587737e+01    0.1516977    0.1433992  -8.81 0.0001005437    1.008    0.008
       220 -11.8579     77.2103    159.8077   7.2031046544e+01   3.2414450229e+01    0.2197393    0.1895336  83.00 0.0005271932    1.171    0.146
       221 -12.8808    188.1397    158.3345   4.3710610101e+01   1.1999518125e+01    0.3566554     0.289299  25.12 0.0004575958    1.279    0.218
       222 -11.4125    105.6342    158.1453   6.3942039754e+01   2.8214549614e+01    0.2588205    0.2040563  49.99 0.0006198561    1.292    0.226
       223 -12.3284     33.0253    157.9907   8.3784929263e+01   3.8311648861e+01    0.2005151    0.1712029 -86.55 0.0003847647    1.032    0.031
       224 -12.3201     81.0154    156.4882   7.0401683848e+01   3.2676286440e+01    0.3060058    0.2113529  41.81   0.00147632    1.476    0.322
       225 -11.8925     76.9141    154.9510   7.1273778182e+01   3.3676856502e+01    0.2339088    0.2094361  40.02 0.0003570545    1.173    0.148
       226 -12.1570     56.8891    157.1417   7.7201739809e+01   3.5856014242e+01    0.2476292    0.2020564  39.60 0.0002665505    1.305    0.234
       227 -10.4044    204.6938    156.3599   3.9859292371e+01   9.1531974091e+00    0.1453454    0.1168808 -73.48 0.0007039853    1.731    0.422
       228 -11.9861    121.7175    156.0369   5.9199614183e+01   2.5781609635e+01    0.2174037    0.1992258 -53.98  0.000338497    1.091    0.084
       229 -13.9122     63.6959    154.7515   7.4938836472e+01   3.5580714155e+01    0.5269098    0.3867729  58.78   0.00271538    1.457    0.313
       230 -12.0216     51.1214    153.8690   7.8307411714e+01   3.7380452373e+01    0.2204325    0.1764896  77.94  0.001221705    1.270    0.212
       231 -11.9187     88.5006    153.0798   6.7685425500e+01   3.2359285879e+01    0.2296792    0.1430098 -58.49 0.0007155503    1.549    0.354
       232 -11.8120    249.1459    151.9426   3.0942562638e+01   1.9783215345e+00    0.1959559    0.1768247 -15.79 0.0003018791    1.094    0.086
       233 -11.9981    212.2981    153.8471   3.7823148256e+01   8.1823595567e+00    0.2313432    0.1764942 -51.35  0.001021225    1.416    0.294
       234 -12.6048    108.3455    149.2647   6.1390726835e+01   2.9905251889e+01    0.4343618    0.3568815 -19.92  0.001868873    1.442    0.306
       235 -11.1024     79.5195    151.5286   6.9926412338e+01   3.4148280091e+01    0.1471021    0.1386286 -75.39 0.0002028362    1.001    0.001
       236 -11.9109    147.1701    149.3656   5.1174646598e+01   2.2296171137e+01    0.3160308    0.2710001  81.00 0.0005251047    1.404    0.288
       237 -12.7743     84.4913    149.3499   6.8107886037e+01   3.3930039711e+01    0.2829879    0.2656196 -59.55 0.0007160206    1.040    0.038
       238 -11.5117     96.4851    148.4693   6.4536074987e+01   3.2187699551e+01    0.1507406    0.1461921 -61.80 8.163825e-05    1.020    0.019
       239 -13.1222     38.6325    154.5586   8.1841495966e+01   3.8595836906e+01    0.4016657    0.2015361  16.67  0.001744263    2.778    0.640
       240 -10.7040    138.0473    146.0127   5.2722295352e+01   2.4933104107e+01    0.1857282    0.1795753  32.17 0.0003355287    1.036    0.035
       241 -10.3846    229.3156    145.7129   3.2937038174e+01   6.5166159476e+00    0.1324765    0.1087372 -69.53 0.0002686412    1.587    0.370
       242 -12.1775    170.2889    144.6078   4.4544305786e+01   1.8523529522e+01    0.2842513    0.1993004  32.59  0.001273339    1.527    0.345
       243 -12.5627    101.7488    142.7034   6.1842490232e+01   3.2700677094e+01    0.7419938    0.3644917  58.36  0.002383888    3.380    0.704
       244 -11.5753     77.0097    148.6937   7.0120305563e+01   3.5237656792e+01    0.1968317    0.1943922 -15.42 0.0004567792    1.105    0.095
       245 -12.7237     44.5717    144.6257   7.8772489494e+01   4.0452874517e+01     0.350497    0.1936166 -25.96  0.001034063    2.994    0.666
       246 -11.2531     88.4887    144.5290   6.6018187212e+01   3.4499617072e+01     0.149982    0.1434449 -56.82 0.0008096899    1.029    0.028
       247 -10.9231    178.2216    142.3992   4.2246003755e+01   1.7320917164e+01    0.2110112    0.1475822  55.71 0.0005933412    1.630    0.386
       248 -11.9121     94.9594    140.7917   6.3378640117e+01   3.4354015120e+01    0.2853233    0.2189947 -55.32   0.00112776    1.258    0.205
       249 -13.2494     29.6728    138.9712   8.2244763542e+01   4.3361667353e+01    0.3410715    0.2435628 -64.70  0.001933051    1.191    0.160
       250 -11.8254    188.5714    138.5821   3.9125064073e+01   1.5931969144e+01     0.272807    0.2469043 -55.18 0.0007863961    1.159    0.137
       251 -11.5084     77.2838    139.0595   6.8197997728e+01   3.7622604163e+01    0.2111711     0.183542 -61.57 0.0002966909    1.084    0.077
       252 -13.6416     44.8401    138.0553   7.7669419277e+01   4.2077367290e+01    0.4342061    0.3466415 -33.10  0.001124684    1.404    0.288
       253 -13.1301     28.5049    124.4686   8.0462087897e+01   4.7068626834e+01    0.3986713    0.2770529 -45.04 -6.203228e-05    1.387    0.279
       254 -12.5832     35.2652    138.4844   8.0551725185e+01   4.2957099782e+01    0.2912253    0.2021423  16.25  0.001201711    1.774    0.436
       255 -12.7077     37.6288    135.3238   7.9379334578e+01   4.3515601761e+01    0.3802946    0.2472783  59.80  0.001303594    1.803    0.445
       256 -14.6273     35.7684    130.4912   7.9182734294e+01   4.4906668975e+01    0.8091496    0.4221574  39.06  0.003487181    2.104    0.525
       257 -12.7256     21.6720    131.2847   8.3523798472e+01   4.5951228113e+01    0.2570725    0.2189964  -5.98  0.001026329    1.444    0.307
       258 -13.7021     22.1127    127.8722   8.2918558603e+01   4.6758173157e+01    0.5799014    0.3262984 -28.49 0.0002866343    2.334    0.572
       259 -11.8019    212.6138    137.4252   3.4106276762e+01   1.1238222234e+01    0.2551871     0.207571 -42.31 0.0002385952    1.155    0.134
       260 -11.0356    223.5033    137.0774   3.2060583257e+01   9.1790912060e+00    0.2087325    0.1286846 -39.05  0.000280222    1.460    0.315
       261 -11.6137    126.9190    137.2535   5.3621381827e+01   2.9238686209e+01    0.2198966    0.2067408  31.86 0.0003449616    1.078    0.072
       262 -12.6823    119.4613    135.8094   5.5317289931e+01   3.1063977280e+01    0.4480972    0.3213234 -77.96  0.001831809    1.896    0.473
       263 -11.7368    174.4863    135.4982   4.1442501116e+01   1.9566827058e+01     0.155438     0.149036 -18.11  0.000810419    1.024    0.023
       264 -10.1784    141.4321    135.4896   4.9378894127e+01   2.6656551475e+01    0.1567902    0.1541909 -46.55 0.0003202919    1.024    0.023
       265 -12.7597     77.5720    134.2022   6.7129798537e+01   3.8798065807e+01    0.3974364    0.2529684 -21.22  0.001072531    2.364    0.577
       266 -11.8793    102.6867    134.1777   5.9687856129e+01   3.4626311272e+01    0.2214966    0.2018897  57.99   0.00114356    1.154    0.133
       267 -11.8541     85.6521    133.3112   6.4515125549e+01   3.7758406012e+01    0.3788967    0.2258714 -80.52  0.001411832    2.646    0.622
       268 -11.5111    128.0355    133.0242   5.2311763905e+01   3.0006222880e+01    0.2519765    0.1972274  80.82  0.001117511    1.686    0.407
       269 -10.5422    239.5723    136.5160   2.9232302019e+01   6.2940689738e+00    0.1383273    0.1186295 -33.91 0.0001204319    1.013    0.012
       270 -10.3090    230.2872    130.6544   2.9478141461e+01   9.0534922416e+00    0.1411468    0.1040609 -63.12 0.0007021834    1.651    0.394
       271 -12.2688    206.2164    129.3232   3.3445618031e+01   1.4082073308e+01    0.2621991    0.2328492 -40.82 0.0002961137    1.057    0.054
       272 -11.3097    121.8396    128.2713   5.2849632532e+01   3.2376943416e+01    0.2755765    0.2152544 -61.05 0.0008071021    1.374    0.272
       273 -12.6115     83.3265    128.2120   6.4104834457e+01   3.9396788670e+01    0.4376269    0.2686851 -36.40  0.001872746    1.836    0.455
       274 -12.0827     80.2098    127.3876   6.4877279748e+01   4.0091950306e+01    0.2544165    0.2212456  70.14 0.0006695981    1.290    0.225
       275 -13.4498     43.9569    127.2458   7.6124964405e+01   4.4884981291e+01    0.6334391    0.2729774  50.65  0.002389163    3.206    0.688
       276 -10.5477    130.5040    128.4595   5.0531506102e+01   3.0560113514e+01    0.1568962    0.1550708 -22.85 6.502015e-05    1.004    0.004
       277 -13.5716     60.2327    126.0220   7.0804663830e+01   4.3274876317e+01    0.3472588    0.2697846 -87.84  0.001794388    1.462    0.316
       278 -13.6465     19.1080    123.5233   8.3212021335e+01   4.8059465707e+01    0.4649177     0.276843 -45.40  0.002160982    1.613    0.380
       279 -11.8262     23.8610    114.8331   8.0392776275e+01   4.9820440281e+01    0.2745827    0.1954092 -80.60 0.0006921078    1.386    0.278
       280 -12.5561     22.0046    117.7577   8.1452111082e+01   4.9251204712e+01    0.2786621    0.2072372  25.96 0.0007069394    1.580    0.367
       281 -13.1521     19.4728    114.4983   8.1751567020e+01   5.0236320492e+01    0.4053612    0.2821249 -56.70  0.001046449    1.192    0.161
       282 -11.3844    109.1916    122.9039   5.5116916896e+01   3.6133260871e+01    0.2382517    0.2125027  84.30  0.000560161    1.282    0.220
       283 -11.5154    189.0198    121.6750   3.4991909748e+01   1.9241227414e+01    0.2071798    0.1942966  47.02 0.0002737953    1.116    0.104
       284 -10.8670    165.6148    122.2634   4.0201679854e+01   2.4305962139e+01    0.1589989    0.1247733  84.49 0.0006980462    1.690    0.408
       285 -11.9801    104.1101    121.3191   5.6215953909e+01   3.7471643869e+01    0.2998353    0.2732707 -74.69  0.001308611    1.182    0.154
       286 -12.7818     97.9942    117.2931   5.7048343325e+01   3.9554885859e+01     0.558746    0.2999367  41.30  0.001482387    1.923    0.480
       287 -10.9818    100.7074    113.6347   5.5294758040e+01   3.9921880272e+01    0.2466142    0.2210186  19.15 0.0005790537    1.165    0.142
       288 -13.8157     12.7197    112.4612   8.3606153729e+01   5.1195565444e+01    0.5797696    0.2669747 -62.37  0.002858921    1.679    0.404
       289 -13.8823      4.8267    119.9451   8.7069307264e+01   4.9874426760e+01    0.6230972    0.2209177 -55.25  0.002837054    2.172    0.540
       290 -11.9965     74.9564    125.0194   6.5984777687e+01   4.1479108602e+01    0.2238783    0.2040194 -47.53 0.0003164732    1.037    0.036
       291 -11.4781     43.8881    121.1651   7.5053284498e+01   4.6406879095e+01    0.1900008    0.1491907 -34.61 0.0004405254    1.324    0.245
       292 -11.3958    200.4918    120.4788   3.2446481545e+01   1.6989702714e+01    0.1492345    0.1403007 -39.12 0.0001289759    1.001    0.001
       293 -11.5080    179.2570    120.0078   3.6614407749e+01   2.1731587704e+01    0.2354526    0.2175276  45.11 0.0003458065    1.118    0.105
       294 -12.2504     71.8327    116.1744   6.4994564182e+01   4.4116043569e+01    0.2683056    0.1621501 -50.84  0.000662685    1.516    0.340
       295 -11.7714    188.0143    127.8227   3.6686918794e+01   1.8229271885e+01      0.24377    0.2082721 -37.22 0.0003020639    1.122    0.108
       296 -12.0195     51.2403    116.7753   7.1825259955e+01   4.6673944422e+01    0.4072849    0.2518481 -59.73  0.001986637    1.446    0.308
       297 -10.9158    196.9219    115.4709   3.1922626263e+01   1.8726634216e+01    0.2148406    0.1495134  50.26 0.0005281216    1.518    0.341
       298 -13.0351     82.5784    112.8018   6.0737641312e+01   4.3275001457e+01    0.4764391    0.2591447 -59.56  0.001525395    1.956    0.489
       299 -11.5787    104.8251    114.0963   5.4173382963e+01   3.9040586004e+01    0.2398385    0.2167509  89.50  0.001221579    1.270    0.213
       300 -13.9210     62.5545    111.3604   6.6928046372e+01   4.6585389941e+01    0.6364581    0.4301557 -59.88  0.003132482    1.410    0.291
       301 -10.8790      2.2965    114.3197   8.7135257294e+01   5.1363356775e+01    0.1306872   0.07240745 -48.07 0.0002684069    1.615    0.381
       302 -11.5777    116.3117    112.6941   5.0436667005e+01   3.7105220398e+01    0.2563493    0.1603854  44.58 0.0004834707    1.635    0.388
       303 -11.7432    109.6199    112.1928   5.2251495157e+01   3.8555420000e+01     0.288252     0.230443  26.63 0.0003364133    1.332    0.249
       304 -12.1429    113.0203    110.4623   5.0795012244e+01   3.8276894711e+01    0.3008246    0.2263318 -45.53 0.0007006228    1.305    0.234
       305 -11.9713     89.9846    110.9691   5.7926614517e+01   4.2470661627e+01     0.255764     0.214547 -36.40  0.000310882    1.163    0.140
       306 -11.0677     92.2631    107.7018   5.6361799469e+01   4.2838143959e+01    0.2140774    0.1740707 -19.94            0    1.342    0.255
       307 -11.9543     52.7369    110.6900   7.0055526229e+01   4.7988146142e+01    0.2814215    0.2302648  42.30 0.0007043372    1.376    0.273
       308 -12.5799     73.8533    109.7315   6.2810659732e+01   4.5374019511e+01     0.356243    0.2046693 -65.63 0.0007227938    2.053    0.513
       309 -11.7829    171.3420    109.1490   3.5567087846e+01   2.5714532171e+01     0.458461    0.2136001  54.71  0.001657447    2.371    0.578
       310 -11.1043    209.6306    108.2424   2.7862583688e+01   1.7329792656e+01    0.2132039    0.1321636 -31.18 0.0009528075    1.677    0.404
       311 -10.7054    139.6666    107.3156   4.2610137435e+01   3.3302052908e+01    0.1611941     0.127387 -88.39 0.0007046923    1.688    0.408
       312 -13.8277     10.1590    105.9562   8.3462222452e+01   5.2914460834e+01    0.4598708    0.3528332 -81.96  0.001946162    1.267    0.211
       313 -11.8657    219.3020    106.0175   2.5711596386e+01   1.5681181563e+01    0.2012932    0.1703132 -44.19 0.0003519835    1.073    0.068
       314 -11.8135    229.3865    103.1253   2.3464724677e+01   1.4109995496e+01    0.2193992    0.1965249  80.93 0.0003240112    1.227    0.185
       315 -12.6693     78.8211    101.4835   5.9073178025e+01   4.6546475002e+01    0.2877932    0.2703113  55.97 0.0006074636    1.201    0.167
       316 -13.0572    155.1368     97.3452   3.6075739217e+01   3.1823302780e+01    0.4204866    0.3598135   4.54 0.0008048236    1.374    0.272
       317 -12.8542     32.9571     98.1624   7.4217292526e+01   5.3067835439e+01    0.5099295    0.2541612 -36.76  0.002321452    2.080    0.519
       318 -12.1524     93.7740     99.2093   5.3586027836e+01   4.4508810423e+01    0.3168111    0.2479026  38.41   0.00126418    1.317    0.241
       319 -10.3502    155.6724    108.3244   3.8917269871e+01   2.9471696818e+01    0.1616633    0.1259475 -83.19 0.0007049498    1.695    0.410
       320 -11.0892     58.2251     98.0442   6.5233037103e+01   5.0326895965e+01    0.4231057    0.2219261  49.77  0.001581343    2.655    0.623
       321 -12.1577     24.3860     97.1092   7.7049066114e+01   5.4037315793e+01    0.4062846    0.2903342   9.82  0.001332788    1.634    0.388
       322 -11.0670     15.5263    103.0000   8.1193709373e+01   5.3278952240e+01    0.2593434    0.1606313  23.44  0.001445142    1.902    0.474
       323 -11.8746    191.5251    100.4988   2.9251432954e+01   2.2772370938e+01    0.2490475    0.2092438  69.87  0.001284141    1.278    0.218
       324 -11.3538     45.8632     97.3897   6.9449433662e+01   5.1958469147e+01    0.1834321    0.1606027  -7.46  0.001083487    1.205    0.170
       325 -11.1742    168.5476     96.4696   3.2834939884e+01   2.8857446135e+01    0.1517114    0.1489105  -5.01 3.573121e-05    1.062    0.059
       326 -10.9155    211.2720     95.3500   2.4511115644e+01   1.9292501946e+01     0.139943    0.1133101  -2.34 0.0006997839    1.629    0.386
       327 -10.4983    117.5143     94.4563   4.5029226521e+01   4.0859368049e+01    0.1522882    0.1502692   1.24 0.0001633921    1.033    0.032
       328 -12.1855     62.9759     92.9855   6.2256092432e+01   5.0860088938e+01    0.2179283    0.1777039  77.75 0.0008209192    1.688    0.408
       329 -11.9109     78.2441     92.4164   5.6793894792e+01   4.8698872545e+01    0.2066621    0.1362943  45.29 0.0009556306    1.705    0.414
       330 -12.7180    162.6094     99.5197   3.4957132114e+01   2.9651602392e+01    0.3044603    0.2416411 -64.56  0.001068059    1.424    0.298
       331 -10.7103    224.1281     90.8218   2.1446856276e+01   1.7307086749e+01    0.1746372    0.1620999  -2.84 0.0002738344    1.287    0.223
       332 -11.7747     23.0018     90.0978   7.6138238391e+01   5.5781513754e+01     0.214085    0.1557962 -53.59  0.001264217    1.131    0.115
       333 -12.4935    230.0475     89.7704   2.0350000033e+01   1.6244485849e+01     0.241086    0.2375239  46.95 0.0004290446    1.187    0.158
       334 -11.2792     88.3464     89.2131   5.2485942083e+01   4.7684122827e+01    0.2697496    0.1716108  47.66 0.0006545072    1.767    0.434
       335 -12.0267    178.3446     86.9010   2.8275603941e+01   2.8333049883e+01    0.2468584    0.2050873  75.37 0.0004806352    1.282    0.220
       336 -12.1767    150.2120     83.1288   3.3230283299e+01   3.5710577791e+01    0.3066271    0.2334319   6.64  0.001185368    1.771    0.435
       337 -12.3226     11.0699     86.9172   7.9909210808e+01   5.7315913089e+01    0.3150337    0.2040559   9.47 0.0008915281    1.824    0.452
       338 -11.5962    202.2974     86.0872   2.3743771254e+01   2.2910221499e+01     0.199333    0.1756196 -54.57  0.000369868    1.064    0.060
       339 -10.2773    244.2949     85.7350   1.7547302332e+01   1.4022737469e+01     0.130072   0.09080552 -66.30    0.0002214    1.509    0.337
       340 -11.7642    159.6249     85.0415   3.1647790379e+01   3.3121942723e+01    0.2138974    0.1943115 -41.00 0.0006560942    1.110    0.099
       341 -11.2618    125.4134     84.3477   3.9833304182e+01   4.1195526770e+01    0.3185303    0.2328635  88.86  0.001346577    2.147    0.534
       342 -13.0900     61.7031     83.9152   6.0219130344e+01   5.3062245493e+01    0.4011747    0.2537805 -21.52  0.001587392    1.877    0.467
       343 -11.7808    190.3218     83.8516   2.5244155384e+01   2.6057799098e+01    0.2371173    0.1959218  78.05 0.0003867512    1.277    0.217
       344 -11.5117    133.1049     84.1104   3.7718682161e+01   3.9508683712e+01     0.219235    0.2130933  34.95 0.0002894351    1.013    0.013
       345 -12.4476    112.9346     83.9802   4.3243953162e+01   4.3973293366e+01    0.4058813    0.2196211  52.19  0.001207871    2.049    0.512
       346 -11.0788    171.3366     83.2955   2.8700627930e+01   3.0646130807e+01    0.1520622    0.1186462  20.23 0.0007029413    1.649    0.394
       347 -12.2927     78.6634     82.2199   5.3672769345e+01   5.0840686141e+01    0.2534961    0.2353352  -8.35 0.0002727145    1.029    0.028
       348 -12.5048    182.2823     81.0041   2.5967273434e+01   2.8445698110e+01    0.2793692    0.2400566 -57.81 0.0002861747    1.151    0.131
       349 -11.0705    215.8756     79.8834   2.0115652831e+01   2.0915334295e+01    0.1976595    0.1518832 -66.47 0.0004001128    1.316    0.240
       350 -11.6874    206.3433     80.9744   2.1833363790e+01   2.2863125564e+01     0.201776    0.1679236 -45.44 0.0002985414    1.138    0.121
       351 -12.2756     54.2700     85.7541   6.3463318126e+01   5.3638040448e+01    0.4323245    0.3350535  -6.92  0.002375797    1.379    0.275
       352 -11.8810    112.8740     78.9002   4.1698152774e+01   4.4982587138e+01     0.275692     0.213203 -47.30  0.001353719    1.366    0.268
       353 -11.6183     88.1744     78.8771   4.9408319391e+01   4.9876540736e+01    0.3215497    0.2069131  31.77   0.00149561    1.597    0.374
       354 -10.9827     52.8086     78.5927   6.2014089216e+01   5.5392327553e+01    0.4547404    0.2284124  16.54  0.001914414    2.561    0.610
       355 -10.9524     48.2709     76.2646   6.3088715575e+01   5.6446593871e+01    0.1961889     0.181429  36.56 0.0004457255    1.297    0.229
       356 -11.5652    161.5222     76.9928   2.8981400852e+01   3.4115320007e+01    0.2285348    0.1476604 -38.73 0.0006090401    1.567    0.362
       357 -11.7076     75.1639     75.5440   5.2840549010e+01   5.2799554148e+01    0.2589552    0.1909342 -42.32 0.0005769104    1.309    0.236
       358 -10.4600     23.2923     76.6806   7.3035505957e+01   5.8795472959e+01    0.1168076   0.09767064  79.76  0.000366937    1.605    0.377
       359 -11.0984    214.8618     74.8917   1.9082772640e+01   2.1952324111e+01    0.1992237     0.149766 -63.73 0.0005828655    1.318    0.241
       360 -12.2321     86.1616     74.2322   4.8611138032e+01   5.1169115424e+01    0.4384354    0.1870949 -39.65  0.001322213    2.332    0.571
       361 -11.3717      1.9660     68.6671   7.9813006498e+01   6.1856497682e+01    0.2112553    0.1424629 -55.24 0.0008418281    1.161    0.139
       362 -11.0286    155.8076     73.8213   2.9298389698e+01   3.6041955791e+01    0.2102757     0.177653 -80.06 0.0006217572    1.335    0.251
       363 -11.1694    105.6401     72.6945   4.1880191345e+01   4.7679232120e+01    0.2637168    0.2218507   3.91  0.001175059    1.258    0.205
       364 -11.0245     51.1746     73.1446   6.1048721204e+01   5.6755525103e+01    0.1767413    0.1565316 -61.56 0.0005143764    1.335    0.251
       365 -10.5881    182.6631     71.2582   2.3324829632e+01   3.0003729209e+01     0.147232     0.109213 -80.09 0.0001956868    1.577    0.366
       366 -11.2140     10.5060     71.6242   7.6986956444e+01   6.0770340007e+01    0.2062325     0.142096  -2.10 0.0008454446    1.606    0.377
       367 -11.9668     98.1396     66.9231   4.2304038443e+01   5.0269269994e+01    0.2454003    0.2020052  31.16 0.0003090136    1.172    0.146
       368 -12.6085      1.7771     73.5705   8.0881043915e+01   6.0795863850e+01    0.3925465    0.1634147 -51.00  0.001766541    1.739    0.425
       369 -11.9035     60.0757     67.0195   5.5692227989e+01   5.6818721004e+01    0.2088847    0.1803385 -19.11 0.0003552396    1.016    0.016
       370 -11.4083    203.1519     66.1948   1.8700534557e+01   2.5988582555e+01    0.1939599    0.1887063  55.76 0.0003938471    1.174    0.148
       371 -12.1719    199.0667     65.4753   1.9137962343e+01   2.7049395656e+01     0.252676    0.2295155 -60.39 0.0003864628    1.051    0.048
       372 -11.8458    178.7086     64.2808   2.2160820261e+01   3.2077741074e+01    0.2460707    0.2328845  57.96 0.0002999841    1.100    0.091
       373 -12.2067     11.3437     62.4717   7.4473748430e+01   6.2680067828e+01    0.3711876    0.1849592 -17.03  0.001867886    2.301    0.565
       374 -11.8700     44.8301     62.0164   6.0142989720e+01   5.9795684693e+01    0.2352031    0.1749384  -3.05  0.001351544    1.343    0.256
       375 -12.2593    108.5562     59.5256   3.6674861473e+01   4.9389946282e+01    0.2854954    0.2568538 -80.12 0.0009978521    1.398    0.285
       376 -12.9479     33.5660     57.2305   6.3363289315e+01   6.1970725264e+01    0.5196873    0.1872019  35.82   0.00216682    3.239    0.691
       377 -11.3603    192.5145     57.5073   1.8125170944e+01   2.9808449164e+01    0.1411364    0.1278507 -79.58 5.235866e-05    1.019    0.018
       378 -11.2887    160.1250     57.1983   2.3616936858e+01   3.7693461061e+01    0.2003598    0.1666833 -78.94 0.0005756474    1.309    0.236
       379 -11.3756    120.5478     57.0083   3.2526876361e+01   4.7144862069e+01    0.2072211    0.1437367 -31.63  1.66524e-05    1.518    0.341
       380 -11.2075     52.8726     56.6227   5.5054560554e+01   5.9818224055e+01    0.2923895    0.1080628  40.50  0.001134011    3.167    0.684
       381 -11.8397    110.4053     54.7663   3.4535134733e+01   4.9760684811e+01     0.199868    0.1366438 -19.35 0.0009505064    1.663    0.399
       382 -11.1470    126.4530     53.5059   2.9873426428e+01   4.6331753578e+01    0.1431518    0.1360613  47.44 5.839849e-05    1.041    0.039
       383 -13.5977     30.9415     49.9151   6.2124090157e+01   6.3642363725e+01    0.3461956    0.2905879  39.83  0.001248304    1.598    0.374
       384 -10.4319    222.9865     49.9997   1.2254316017e+01   2.3907300928e+01    0.1571462    0.1352226 -76.92 0.0003372782    1.036    0.035
       385 -12.3680     19.2695     47.2671   6.6586428841e+01   6.5184374065e+01    0.4783643    0.1347229 -47.29  0.002008785    2.637    0.621
       386 -11.1918    190.8323     47.8148   1.5899641702e+01   3.1607242151e+01    0.1916928     0.180835  63.66 0.0004180488    1.153    0.133
       387 -12.0396     97.8697     44.1874   3.4459526689e+01   5.4042835285e+01    0.3314003    0.1702484  37.28  0.001175617    1.927    0.481
       388 -13.3630     36.7245     40.1632   5.6007284504e+01   6.4780126928e+01    0.3517679    0.2480234  13.95  0.001182679    1.358    0.264
       389 -12.2837     23.0000     40.0196   6.2361027894e+01   6.6211794750e+01    0.2397049     0.146071 -42.78  0.001167996    1.420    0.296
       390 -13.2317     26.0985     37.2052   5.9844960276e+01   6.6418524162e+01    0.4530501     0.262384  44.29  0.002328586    2.788    0.641
       391 -11.5554    241.8981     40.0970   8.1257413459e+00   2.1225372106e+01    0.1859737     0.150676 -66.04 0.0003727888    1.010    0.010
       392 -10.9396     85.2768     38.6809   3.6350131347e+01   5.7372542485e+01    0.1214191    0.1091847 -72.10 0.0002524162    1.574    0.365
       393 -10.4110     78.2768     37.3286   3.8176971990e+01   5.8898184399e+01    0.1368518   0.09401073   8.37 0.0006992862    1.594    0.373
       394 -11.3359     10.6548     36.6873   6.7235249312e+01   6.7793040004e+01    0.1287205   0.06712258 -26.36 0.0007046655    1.710    0.415
       395 -11.1042     67.8633     33.6808   4.0453256990e+01   6.1282251918e+01    0.1780904    0.1438341  26.50 0.0003340483    1.136    0.120
       396 -12.8452     31.6562     32.4681   5.5345822199e+01   6.6636164610e+01    0.3406759    0.2812195  -7.62  0.001510665    1.096    0.087
       397 -11.5949    106.5055     32.4565   2.7752125286e+01   5.3758736072e+01    0.2568468    0.1345345 -28.22  0.001184614    2.074    0.518
       398 -10.6747     95.3263     33.3132   3.1188273589e+01   5.6058121552e+01    0.1433581   0.09394535  22.08 0.0006056027    1.666    0.400
       399 -12.1508     43.8910     32.8472   4.9882343574e+01   6.5082787091e+01    0.2664693    0.1647179  -2.64   0.00143121    1.762    0.433
       400 -12.5882     78.3560     31.2525   3.5743838473e+01   5.9711482539e+01    0.2413716    0.2083907  54.49  0.001472029    1.408    0.290
       401 -11.3199      3.1700     29.8224   6.8704862130e+01   6.9504075041e+01     0.169641    0.1221274 -31.02  0.001184626    1.031    0.030
       402 -11.5865      4.6307     24.8196   6.6108776898e+01   7.0282687210e+01    0.2814512    0.1287349 -40.03  0.001066468    1.665    0.399
       403 -12.6156     67.7131     25.0126   3.6915000971e+01   6.2461610919e+01    0.2906834    0.1654375 -34.69  0.001116599    1.891    0.471
       404 -12.2813     58.9370     26.0857   4.0704652656e+01   6.3818909637e+01    0.2237679      0.16232 -16.30   0.00034175    1.301    0.231
       405 -12.5263    139.2041    247.7667   7.0449304490e+01   3.3476356191e+00    0.3210589    0.2760681  73.29  0.001206875    1.399    0.285
       406 -12.2529     87.1367     25.8645   3.0765778375e+01   5.8659643742e+01    0.2128032    0.1757779  26.00 0.0004967297    1.048    0.046
       407 -12.0094     84.0332     23.5308   3.0791999290e+01   5.9555695529e+01    0.2129118    0.1778267 -33.39 0.0009749231    1.404    0.288
       408 -12.0033     45.5726     25.8849   4.6189894418e+01   6.5882043211e+01    0.2238041     0.165072  29.92 0.0006444543    1.358    0.263
       409 -11.6530    166.3915     22.6037   1.2735678573e+01   4.0664303792e+01    0.2431336    0.1930035 -67.77 0.0008344823    1.295    0.228
       410 -11.0156    143.5385     18.7549   1.5196851349e+01   4.6619571512e+01    0.2070786    0.1419666  70.92  0.000501102    1.340    0.254
       411 -10.5971     46.3300     19.7019   4.3111043837e+01   6.6610196455e+01    0.1028108   0.09972482  47.03 0.0004381796    1.640    0.390
       412 -11.1136    131.1900     18.1701   1.7235363514e+01   4.9640642072e+01    0.1987385    0.1600682  39.80 0.0006866973    1.212    0.175
       413 -10.6687    162.0140    247.0431   6.5636833680e+01  -8.7781786243e-02    0.1533685    0.1327277  22.88 0.0009879761    1.048    0.045
       414 -10.1287     31.2893     16.3029   4.8493746312e+01   6.9089725890e+01    0.1209516   0.07445464  -3.95 0.0002590773    1.566    0.361
       415 -10.7434    153.0446    246.3436   6.7386087023e+01   1.4269596317e+00    0.1764612    0.1414714  33.10 0.0009226096    1.049    0.046
       416 -10.4534     80.2860    246.3040   8.2421170975e+01   1.2435700393e+01     0.107044   0.09679774  -9.14  0.000218227    1.562    0.360
       417 -11.3900    167.4415    242.9781   6.3921636282e+01  -2.6860485131e-01    0.1919343    0.1524557  28.82 0.0003748722    1.062    0.058
       418 -10.9940     60.9158    242.3957   8.5947897140e+01   1.5807057056e+01    0.1951497    0.1359086  79.81 0.0006617969    1.364    0.267
       419 -11.8002    199.2821    241.3131   5.7225612536e+01  -4.8723488733e+00    0.2143471    0.1754877  23.93 0.0002726081    1.138    0.121
       420 -11.1040    142.9995    242.2697   6.8911433941e+01   3.7090157247e+00    0.1858029    0.1423378  35.53 0.0002181712    1.108    0.097
