#   1 NUMBER                 Running object number                                     
#   2 MAG_AUTO               Kron-like elliptical aperture magnitude                    [mag]
#   3 X_IMAGE                Object position along x                                    [pixel]
#   4 Y_IMAGE                Object position along y                                    [pixel]
#   5 X_WORLD                Barycenter position along world x axis                     [deg]
#   6 Y_WORLD                Barycenter position along world y axis                     [deg]
#   7 A_WORLD                Profile RMS along major axis (world units)                 [deg]
#   8 B_WORLD                Profile RMS along minor axis (world units)                 [deg]
#   9 THETA_WORLD            Position angle (CCW/world-x)                               [deg]
#  10 FWHM_WORLD             FWHM assuming a gaussian core                              [deg]
#  11 ELONGATION             A_IMAGE/B_IMAGE                                           
#  12 ELLIPTICITY            1 - B_IMAGE/A_IMAGE                                       
         1 -11.5167     42.1246     20.4535   8.3708207144e+01   6.7345418635e+01     0.481257    0.3025553  37.03  0.002250854    1.833    0.454
         2 -11.8994    216.5888     13.9520   4.0807186383e+01   2.9547468364e+01    0.3949899     0.358532 -60.27  0.001084874    1.095    0.087
         3 -12.5707    187.8300      7.8301   4.2214040131e+01   3.7264968214e+01    0.3079015    0.2309875 -67.84   0.00171971    1.323    0.244
         4 -11.0391     57.5348      7.7817   7.1014981124e+01   6.6835176395e+01    0.3360085    0.2385376   1.46  0.002072175    1.270    0.212
         5 -11.8827     43.7980      8.1544   7.6978711321e+01   6.8868584158e+01    0.2346236    0.1964303   6.45 0.0004669664    1.158    0.137
         6  -9.8734    109.3269      8.6667   5.5476305715e+01   5.6511885417e+01    0.1305614     0.102337 -64.26 0.0007051536    1.716    0.417
         7  -9.9937     25.4592      7.6769   8.5574165462e+01   7.1200886202e+01    0.1550226   0.08809717 -27.14 0.0009283471    1.455    0.313
         8 -10.8981    166.2699      1.5808   4.2983169920e+01   4.3276875334e+01    0.2687822    0.1231568  76.00  0.001144125    2.134    0.531
         9 -11.3925    223.5723    213.3382   8.6354222694e+01  -3.4185673322e+00    0.3785742    0.2045442  16.17  0.001791853    2.310    0.567
        10 -10.7983    115.9183    209.3907   1.0704712940e+02   1.5388916030e+01    0.2926221    0.1724698 -71.75   0.00146497    2.077    0.519
        11 -10.1799     56.3311    205.6600   1.1882583899e+02   2.4768780199e+01    0.1330607    0.0730474  67.82 0.0007051648    1.744    0.427
        12 -10.5212     48.7483    201.5285   1.1997611212e+02   2.6555998316e+01    0.2573671     0.124797 -89.24  0.001287904    2.154    0.536
        13 -10.3554     41.6854    200.8194   1.2132372519e+02   2.7530056871e+01    0.2528754     0.113128 -63.36  0.001318816    2.178    0.541
        14 -10.3665    149.3212    198.6600   9.8458377289e+01   1.1757382887e+01    0.1387328    0.1028949  72.71 0.0004217749    1.718    0.418
        15 -10.8643    149.3820    223.1829   1.0215867686e+02   7.3629974914e+00    0.1653103    0.1220011 -69.11 0.0007572382    1.754    0.430
        16 -12.1358    159.9497    191.8798   9.5069614246e+01   1.1116170306e+01    0.6826761    0.4791132  79.14  0.003187415    2.276    0.561
        17 -10.0669     66.3130    194.6507   1.1569858567e+02   2.5801765995e+01    0.1369166   0.08049361  70.32 0.0007046279    1.721    0.419
        18 -10.2984    109.4975    186.0313   1.0515135239e+02   2.1208665921e+01    0.1978262     0.115157 -87.99 0.0008096342    2.666    0.625
        19 -10.6573    183.2112    183.6112   8.8690370883e+01   8.3216191308e+00    0.3754501    0.2060643 -44.21  0.001713871    1.946    0.486
        20 -10.3496    224.3107    183.6592   8.0669790513e+01   8.4325650397e-01    0.1222295    0.1095627 -76.12 0.0005789341    1.694    0.410
        21  -9.9442    191.4948    178.0089   8.5903489328e+01   7.7670685225e+00    0.1904043    0.1249922 -65.23 0.0008103409    2.554    0.609
        22  -9.9685    159.3407    175.6735   9.2242271834e+01   1.4368247732e+01    0.1469182    0.1132215  77.64 0.0005326919    1.733    0.423
        23 -10.8558     38.0368    174.5075   1.1976119991e+02   3.3665283895e+01    0.1733585    0.1146445  40.54  0.001034887    1.596    0.374
        24 -11.0499     44.8317    170.9489   1.1788533616e+02   3.3722718499e+01    0.4868752    0.2080451 -84.94  0.002065459    2.660    0.624
        25 -11.2969     55.5074    167.7169   1.1506765666e+02   3.3207834561e+01     0.440314    0.2291516  88.25  0.002005046    2.247    0.555
        26 -11.6325     14.9142    164.8830   1.2399248127e+02   3.8076128255e+01    0.3519995    0.1690602 -78.93 0.0007571129    1.676    0.403
        27 -10.8347    121.3861    169.2097   9.9682900067e+01   2.2825043250e+01    0.2051799    0.1346457 -68.54 0.0008947646    1.725    0.420
        28 -11.7098    106.4964    158.0308   1.0127626071e+02   2.7968945473e+01    0.6635328    0.3943132  71.00  0.002689087    2.464    0.594
        29 -10.8542    167.6829    157.4969   8.6727255281e+01   1.6383515182e+01    0.3583557    0.2669318  70.63  0.001664019    1.782    0.439
        30 -10.5445    218.3342    156.8147   7.6201670413e+01   6.3629497637e+00    0.2945171     0.118126 -44.32  0.001094832    2.666    0.625
        31 -10.7445    121.5147    157.5038   9.7501048702e+01   2.5422697999e+01    0.2742603      0.12677  50.65  0.001036583    2.338    0.572
        32 -10.7572    118.3744    156.8014   9.8132834459e+01   2.6155362340e+01    0.2631148    0.1830909 -59.11  0.001269203    1.448    0.309
        33  -9.7061     23.4845    153.5179   1.2104018787e+02   3.9920429120e+01    0.1249507    0.0973071  89.97 -9.826894e-06    1.027    0.026
        34 -10.5260    189.8737    150.7389   8.0478508039e+01   1.3162812281e+01    0.2817327    0.1978285 -66.84  0.001231191    2.091    0.522
        35 -10.3880    148.8273    145.5195   8.8440443090e+01   2.2770692660e+01    0.2954528    0.2042926 -86.86  0.001188906    2.340    0.573
        36 -10.6906    106.8001    145.2184   9.8795036681e+01   3.0911321615e+01     0.440966    0.2597091  87.91  0.001552961    3.242    0.692
        37 -10.0893    182.3921    142.2051   8.0111084284e+01   1.6400765578e+01    0.2201098    0.1397812 -51.41  0.000936747    1.729    0.422
        38 -11.9167     45.3904    132.0334   1.1286528711e+02   4.2878472046e+01    0.4070514     0.273337  56.42  0.002237907    1.608    0.378
        39 -10.6345     83.0295    132.0383   1.0252983612e+02   3.7981564379e+01    0.2404541    0.1687924  79.51  0.001139487    1.750    0.429
        40 -12.0101     99.5640    128.9320   9.7360874788e+01   3.6044921645e+01    0.7000165    0.4058443  72.85  0.002477193    3.209    0.688
        41 -11.4235     43.7724    123.5800   1.1201738762e+02   4.5102011720e+01    0.6246654    0.3131429  79.39  0.002388987    3.360    0.702
        42 -10.1197    117.3136    125.6396   9.1828411587e+01   3.3587108537e+01    0.1600808    0.1198842  88.15 0.0005644523    1.751    0.429
        43 -10.4020     58.8428    124.1424   1.0783010651e+02   4.3246711411e+01    0.3486332    0.1753713 -89.91  0.001203464    3.688    0.729
        44 -11.3119     27.1503    121.1310   1.1633544617e+02   4.7271717993e+01    0.6277366    0.2670331  82.66  0.002114564    4.542    0.780
        45 -11.5999    193.5622    118.6048   7.2068388926e+01   1.8588642385e+01    0.5814917    0.4494442 -71.70  0.002066855    1.687    0.407
        46 -10.7641     14.9558    121.2613   1.1972303856e+02   4.8200476213e+01    0.3936367    0.1951857  23.24  0.002085825    2.547    0.607
        47 -10.0845     70.8233    120.2103   1.0364122347e+02   4.2637353599e+01    0.2443139    0.1422293  74.56 0.0009499724    2.851    0.649
        48 -10.4387    108.1939    112.7501   9.1210771647e+01   3.8328192741e+01    0.4914611    0.2458076 -68.71  0.001500543    3.786    0.736
        49 -12.0922    160.0056    110.7515   7.7306127421e+01   2.7827165496e+01    0.7410421    0.4191756 -58.67  0.002731615    2.337    0.572
        50 -10.9176    174.1555    110.8620   7.4141721862e+01   2.4549712070e+01    0.3870151    0.2498996 -45.98  0.001141632    1.539    0.350
        51 -10.4210     91.8159    111.3364   9.5560571237e+01   4.1567045528e+01    0.3456265    0.1716748 -66.69  0.001236087    2.715    0.632
        52 -11.6303     14.4160    109.5581   1.1840014189e+02   5.1005983978e+01    0.5760253    0.3039443 -83.59  0.003009106    1.774    0.436
        53 -12.3246    140.7585    103.4957   8.0021555077e+01   3.3710353740e+01    0.7640545    0.3889704 -50.25  0.002867668    2.057    0.514
        54 -11.9532    127.5521    100.9527   8.2761950799e+01   3.7132452484e+01    0.4994985    0.2742784 -56.73  0.001896477    2.146    0.534
        55 -11.6045    107.4049     98.3617   8.7668592878e+01   4.1783699091e+01    0.5958605    0.3896769 -78.71  0.002307723    2.576    0.612
        56 -11.0616     82.3802    100.6792   9.5784419999e+01   4.5619065156e+01    0.2669796    0.2414046 -24.93 0.0006818195    1.170    0.145
        57 -11.2639     62.7980     95.4790   1.0070238960e+02   4.9658132500e+01    0.3508941     0.191577 -75.40  0.001396409    2.656    0.623
        58 -11.2383    170.5068     94.5406   7.0506041295e+01   2.8645917685e+01    0.2870157    0.2512124  56.21 0.0005236116    1.181    0.153
        59 -12.3825    170.1816     91.0429   6.9592750577e+01   2.9400676085e+01    0.4060385    0.3540191  77.12 0.0008350977    1.272    0.214
        60 -10.7313     78.5107    112.3383   9.9717748341e+01   4.3436905274e+01    0.3813792    0.2258441 -88.98  0.001416741    3.060    0.673
        61 -10.8112     34.2735     87.8059   1.0845896130e+02   5.4587550896e+01    0.4823107    0.1560899 -64.48   0.00185394    2.744    0.636
        62 -11.6481     42.1752     88.1824   1.0585942799e+02   5.3748559848e+01    0.3771144    0.2378853 -15.06  0.001447789    2.218    0.549
        63 -11.1843     87.0617     87.0641   9.0677438805e+01   4.7984915462e+01    0.4030642    0.2012964  45.08  0.001654086    2.252    0.556
        64 -10.9997     46.9001     83.3149   1.0310693749e+02   5.4383409916e+01    0.6048235    0.3472666  75.61  0.002231695    4.130    0.758
        65 -10.9676    104.4602     83.3273   8.4201205448e+01   4.5657509951e+01    0.3646008    0.2452618 -71.29  0.001511271    2.246    0.555
        66 -12.1879     44.4010    100.9609   1.0781414473e+02   5.0501062532e+01    0.6537068     0.377973  89.12  0.002881114    2.525    0.604
        67 -11.0079     24.0202     80.0666   1.1039688854e+02   5.7220420746e+01    0.3307962    0.1592252 -76.97  0.001482118    2.446    0.591
        68 -10.1525      8.6604     80.3346   1.1579823357e+02   5.8160015789e+01    0.1191757   0.08272417  75.06 0.0007051408    1.752    0.429
        69  -9.6946    153.5018     77.9897   6.9499271756e+01   3.5909983159e+01    0.2183568    0.1531178 -34.70 -0.000325911    1.424    0.298
        70 -11.2412     82.2163     72.8819   8.8014123666e+01   5.1877058383e+01    0.4250576    0.2580672 -69.47  0.001666441    2.850    0.649
        71 -10.1983    115.6067     72.8029   7.7632170729e+01   4.5562982796e+01    0.2200328    0.1380038 -49.78 0.0009470978    1.690    0.408
        72 -12.1269    223.4862     70.6970   5.4491515688e+01   2.0154877821e+01    0.2832091    0.2579316 -52.78 0.0005345457    1.012    0.012
        73 -11.0570     62.4358     70.2686   9.4055758481e+01   5.5411383503e+01    0.2781223     0.114216 -47.04  0.001140783    2.101    0.524
        74 -10.6350     51.8928     70.8277   9.8039681201e+01   5.6625206980e+01    0.2440131    0.1900833 -61.71 0.0009793561    1.308    0.236
        75 -10.1347    194.6629     67.6828   5.8219651271e+01   2.7562060392e+01    0.1541816    0.1174209  21.45 0.0007048561    1.701    0.412
        76 -11.6818     20.8706     50.7565   1.0449381836e+02   6.3872810940e+01    0.6516991    0.2184604 -55.87  0.002926502    2.288    0.563
        77 -10.9673     28.4655     52.3523   1.0177960369e+02   6.2938772754e+01    0.4108953    0.1939509 -29.18  0.001915706    2.428    0.588
        78 -13.3805     29.7935     59.8724   1.0339872646e+02   6.1244000198e+01     1.022693    0.5343942  21.76  0.002874917    2.259    0.557
        79 -11.6760     19.4845     59.3010   1.0735958839e+02   6.2166594702e+01    0.2906201    0.2143401 -35.36 0.0008970445    1.222    0.182
        80 -12.2516    237.3321     63.7946   5.0887076478e+01   1.8068672579e+01    0.4450097    0.2331976  79.79  0.001820481    2.709    0.631
        81 -12.4666    231.2800     59.1778   5.0518196738e+01   2.0129103228e+01    0.4680629    0.3190777 -53.62  0.000553531    1.401    0.286
        82 -10.7523     42.1605     62.8337   9.9392481644e+01   5.9436225060e+01    0.1839038    0.1711891 -62.85 0.0007217362    1.233    0.189
        83 -11.2995      8.5104     56.4274   1.1107403045e+02   6.3462831967e+01     0.429896    0.2726608 -83.53  0.002486205    1.930    0.482
        84 -10.3760     54.1249     54.0337   9.1957867503e+01   5.9866860851e+01    0.3093098    0.1757507 -67.56  0.001243837    3.272    0.694
        85 -10.7918    149.0896     52.1378   6.2320614319e+01   4.1469538631e+01    0.2364932     0.199489  27.39  0.000611873    1.266    0.210
        86 -10.4800     92.3874     51.1833   7.7216860803e+01   5.4286234543e+01    0.2062433    0.1268259 -46.41 0.0007983239    1.739    0.425
        87 -10.3066    157.0159     45.0260   5.8347974274e+01   4.0570218874e+01    0.2238158    0.2107746  61.21 0.0004677266    1.038    0.036
        88 -10.3128     10.3328     43.7918   1.0706907004e+02   6.6000368144e+01    0.2535086    0.1678314   2.25  0.000925778    1.744    0.427
        89 -10.7861      6.0229     43.2654   1.0883129459e+02   6.6347143869e+01     0.359948     0.212749  89.99  0.001808134    3.024    0.669
        90 -10.9306     74.7879     43.3987   8.0266387937e+01   5.8796655099e+01    0.2815124     0.132733  39.23  0.001239073    2.212    0.548
        91 -11.2680     70.0455     42.1647   8.1515057550e+01   5.9787740293e+01    0.3566304    0.2975256 -82.25  0.001962559    1.976    0.494
        92 -10.9650     42.2929     37.1525   9.0679235376e+01   6.4517615215e+01    0.2462954    0.1867679 -27.79 0.0008898855    1.087    0.080
        93 -11.6375    120.5451     34.7817   6.2935573699e+01   5.0886953216e+01    0.2905335    0.2647481  42.05 0.0002626325    1.069    0.065
        94 -10.3678     50.0947     34.6160   8.6357353019e+01   6.4003494933e+01    0.2473119    0.1182943  32.88  0.001199293    2.245    0.554
        95 -10.3579     73.2665     32.2830   7.6319878067e+01   6.0872826516e+01    0.2504725    0.1712379  65.02  0.001187384    2.604    0.616
        96 -10.4375    101.7352     29.1433   6.5797260259e+01   5.5831423717e+01    0.3777477    0.1707499 -40.20  0.001561244    2.423    0.587
        97 -11.4444    220.1680    248.5040   9.2695581830e+01  -7.4057896715e+00    0.1997636    0.1797536  42.11  0.001487278    1.530    0.346
        98 -10.9871    239.5011     20.6128   4.0288184142e+01   2.3440799589e+01     0.239662    0.1972491 -72.62 0.0006347957    1.068    0.064
        99 -11.1797    202.1810     20.9753   4.4174918168e+01   3.2258753583e+01    0.2446476    0.1292317 -55.75  0.001085865    2.006    0.501
       100 -10.1236     88.7672     17.7924   6.4877447905e+01   5.9955014320e+01    0.2024671    0.1543201 -67.27  0.001052527    2.156    0.536
       101 -12.2761     22.0404    239.1091   1.2734395088e+02   2.2223600121e+01    0.4619519    0.1876988  71.41  0.002598315    2.219    0.549
       102  -9.7560     65.2810     11.3183   6.9799144631e+01   6.5118924307e+01    0.1296656   0.08403262   9.47  0.000294802    1.581    0.367
       103 -10.5998     12.9067    227.4324   1.2828175527e+02   2.5301729261e+01    0.1823603    0.1060357  77.94 0.0005512702    1.308    0.235
       104 -10.0630    104.4475    225.0094   1.1125903764e+02   1.4231084180e+01    0.1725682    0.1184048 -67.77  0.001033901    1.611    0.379
       105 -11.4463     96.2476    224.1786   1.1277014376e+02   1.5613629516e+01    0.3540053    0.2172469 -70.98  0.002041125    1.785    0.440
       106 -11.2239    226.9482    221.9329   8.7235623830e+01  -5.1034037831e+00     0.170392    0.1559472  64.78  0.001142012    1.741    0.426
       107 -10.9719    239.6799    215.8335   8.3930828606e+01  -6.2304183806e+00    0.2846002     0.095288 -42.89  0.001100149    4.172    0.760
