#   1 NUMBER                 Running object number                                     
#   2 MAG_AUTO               Kron-like elliptical aperture magnitude                    [mag]
#   3 X_IMAGE                Object position along x                                    [pixel]
#   4 Y_IMAGE                Object position along y                                    [pixel]
#   5 X_WORLD                Barycenter position along world x axis                     [deg]
#   6 Y_WORLD                Barycenter position along world y axis                     [deg]
#   7 A_WORLD                Profile RMS along major axis (world units)                 [deg]
#   8 B_WORLD                Profile RMS along minor axis (world units)                 [deg]
#   9 THETA_WORLD            Position angle (CCW/world-x)                               [deg]
#  10 FWHM_WORLD             FWHM assuming a gaussian core                              [deg]
#  11 ELONGATION             A_IMAGE/B_IMAGE                                           
#  12 ELLIPTICITY            1 - B_IMAGE/A_IMAGE                                       
         1 -10.4102     24.6291     16.5793   1.0845264201e+02   6.8289688652e+01      0.41085    0.3641481 -26.40 0.0007226807    1.486    0.327
         2  -8.9637     31.3772     11.1537   1.0326166310e+02   6.8287622023e+01    0.2590181    0.1494551   0.99 0.0007430408    1.780    0.438
         3  -8.0301     32.6910      7.7181   1.0119932655e+02   6.8552984765e+01     0.155867    0.1078879   0.48 0.0005077313    1.173    0.147
         4 -10.0812      9.2754     19.7624   1.1653221537e+02   6.9143988289e+01     0.346267    0.1859685   2.37 0.0006227358    1.976    0.494
         5  -9.7326     64.0025     14.2740   9.2112989932e+01   6.3499725478e+01    0.3801915    0.2102862  24.83 0.0007672127    1.776    0.437
         6  -8.9136    232.4517     13.6054   6.0362228309e+01   2.6055568186e+01    0.2442353     0.192745 -46.63 0.0009835679    1.319    0.242
         7  -8.8490     74.7051     13.6416   8.8349867633e+01   6.1794458019e+01    0.3050249    0.1874448  23.82  0.001324161    1.545    0.353
         8  -8.7872     80.1655     12.5481   8.6239736808e+01   6.0942918782e+01    0.2387868    0.2144441  -8.01 0.0007750025    1.231    0.188
         9  -8.4392     88.3629     13.4345   8.4213166732e+01   5.9337385819e+01    0.3004545    0.1547306  27.69  0.001476231    2.086    0.521
        10  -8.8199     97.2138     11.8378   8.1221591402e+01   5.7768340497e+01    0.2654198    0.1547679  50.01 0.0007126332    1.508    0.337
        11  -8.5679    136.6762      8.8130   7.1587850666e+01   4.9456207362e+01    0.3040171    0.1143958 -26.59  0.001297454    2.930    0.659
        12 -10.6792     20.1276      8.8573   1.0718339665e+02   6.9748044667e+01    0.2845336    0.1654565  11.42 0.0004230192    1.633    0.388
        13  -8.2763      2.2718      7.9704   1.1517360771e+02   7.1338866605e+01    0.2073002    0.1501407 -20.14  0.001666615    1.057    0.054
        14  -8.0004    128.4180      7.7713   7.2797880662e+01   5.1443944484e+01    0.1616549     0.119184   6.79 0.0004136202    1.575    0.365
        15  -8.2707    118.6918      7.6479   7.4711345261e+01   5.3628644298e+01    0.2135814    0.1231141  33.68   0.00110523    1.748    0.428
        16  -7.7324     39.5051      8.4659   9.8724373948e+01   6.7639912813e+01    0.1135145   0.08536711   0.53 0.0002936137    1.014    0.014
        17  -8.8341     68.8483      3.6436   8.6071028987e+01   6.3775992818e+01    0.3784452    0.1854593  -2.67  0.001847088    2.653    0.623
        18  -9.9266     49.0816      4.6521   9.3313581721e+01   6.6766825592e+01    0.2390603    0.1583081   9.25 0.0003872818    1.317    0.241
        19  -8.5131    110.9905      4.6528   7.5319029215e+01   5.5554395934e+01    0.1938931    0.1736138  -2.16 0.0003802125    1.220    0.181
        20  -8.9479     56.9322      4.3389   9.0335597015e+01   6.5636013128e+01    0.3012985    0.1446921  27.26  0.001170494    2.037    0.509
        21  -7.8931     13.0438      5.1496   1.0881981783e+02   7.0871617081e+01    0.1807463   0.09339211  -4.80  0.001083221    2.085    0.520
        22  -8.3365    125.2022      3.8427   7.2124266716e+01   5.2504118734e+01    0.1785971    0.1585275  65.54 0.0005908182    1.136    0.120
        23  -8.2228    153.7920      3.1651   6.7046718173e+01   4.5920925734e+01    0.1731146    0.1300831  44.14 0.0002715572    1.310    0.237
        24  -7.9873    182.1863      2.1610   6.2969958158e+01   3.9176145266e+01    0.1844746    0.1502567  67.42 0.0003632311    1.107    0.097
        25  -7.7991    176.2065      1.7316   6.3586676380e+01   4.0659346648e+01    0.1691305    0.1356679  44.36 0.0007415803    1.363    0.266
        26  -7.8566    143.2702      2.0550   6.8361846319e+01   4.8501033737e+01    0.1661996    0.1484081  56.11 0.0003097497    1.066    0.062
        27  -7.6678    105.3116      1.6901   7.5520356363e+01   5.6996018388e+01    0.1125243   0.09459177 -74.84 0.0002468329    1.625    0.385
        28  -7.5822      3.0399      1.1993   1.1190092142e+02   7.2188230226e+01    0.1157616   0.06734087  13.65 0.0003093327    1.640    0.390
        29  -7.4032    158.3734    229.2375   1.2148787906e+02   3.8574898482e+00    0.1315879    0.0960217  22.77 0.0004317134    1.615    0.381
        30  -8.1174    249.0513    250.2044   1.0782169082e+02  -1.4272679885e+01    0.1863464    0.1270977  13.05   0.00121119    1.272    0.214
        31  -9.6510    207.9942    247.3777   1.1475563904e+02  -7.6207322378e+00    0.4089277    0.2649248  31.31  0.002411875    1.313    0.239
        32  -9.6624    200.6670    248.8208   1.1634432243e+02  -6.6208837793e+00    0.3785152    0.2423944  17.31  0.001451551    1.775    0.437
        33  -7.9648    182.4917    250.4811   1.2000044411e+02  -3.8225831819e+00    0.1271194    0.1032552  31.27 -2.23933e-06    1.077    0.071
        34  -8.5532    150.9013    249.6232   1.2585214739e+02   1.7062078708e+00    0.1846665    0.1755879   3.71 0.0007078536    1.292    0.226
        35  -7.8017    123.9181    250.5101   1.3104157382e+02   6.1139448812e+00     0.191816    0.1044418  42.59  0.001016221    1.569    0.363
        36  -7.3436    133.3349    229.3233   1.2650318296e+02   8.3169888780e+00    0.1259244    0.1040933   8.99  0.000705075    1.711    0.415
        37  -7.6236    101.3932    228.8409   1.3276801097e+02   1.3828628757e+01    0.1631192    0.1163188 -55.19 0.0006415031    1.648    0.393
        38  -8.4720    161.8769    234.3489   1.2156657099e+02   2.3404741269e+00    0.2404796    0.1804744  18.61 0.0008273687    1.612    0.380
        39  -7.6055    248.6777    227.7011   1.0400622530e+02  -1.1356399752e+01    0.1870646    0.1049159  32.90 0.0003132957    1.625    0.385
        40  -8.5756    247.1890    224.9881   1.0378301065e+02  -1.0761167476e+01    0.3268386    0.1646715 -19.44  0.001548709    2.446    0.591
        41  -7.8613    229.5349    226.9241   1.0732294008e+02  -8.2414757921e+00    0.1840135    0.1185595 -31.01  0.001036037    1.614    0.380
        42  -8.4599    186.4923    226.8092   1.1552118924e+02  -8.0891754428e-01    0.2812441    0.1588224  27.34  0.001309974    1.998    0.499
        43  -8.0599    223.8199    225.4716   1.0812452605e+02  -7.0899621097e+00    0.2587553    0.1572374 -16.65  0.001317589    2.010    0.502
        44  -7.7715    237.7396    225.2366   1.0552301829e+02  -9.3204183111e+00    0.2043751   0.08682039  31.02 0.0008953257    2.418    0.586
        45  -7.9477     51.9452    221.4944   1.4147634719e+02   2.2582018337e+01    0.1672178    0.1063654  45.81 0.0006369634    1.536    0.349
        46  -8.2980    239.9419    219.3636   1.0406083343e+02  -8.8347031792e+00    0.2436068    0.1680228 -21.87 0.0007923125    1.431    0.301
        47  -8.5161    226.5850    218.8392   1.0641890808e+02  -6.5637381605e+00    0.3392918    0.2078688  -1.81  0.001620539    2.270    0.559
        48  -8.2881    182.4004    219.9726   1.1518377403e+02   1.0874202079e+00     0.260497    0.1700436  27.69 0.0008413104    1.611    0.379
        49  -7.6914    130.1075    220.4548   1.2590080589e+02   1.0582928702e+01      0.20572    0.1202309  42.10  0.001010774    1.558    0.358
        50  -7.5614    173.3629    219.2955   1.1688677998e+02   2.8741158785e+00     0.138731    0.1022784  13.44 0.0007031476    1.711    0.416
        51  -7.2467     95.4831    218.4988   1.3268653645e+02   1.6863859823e+01    0.1338927    0.1091485  70.67 -3.349827e-05    1.032    0.031
        52  -7.8325    203.6541    216.6581   1.1040174307e+02  -2.2261990301e+00    0.2089153    0.1485426   5.96  0.001085281    1.707    0.414
        53  -8.6030    193.7735    215.3923   1.1212120524e+02  -2.1945019824e-01    0.3210023    0.1967473  25.73   0.00101946    1.815    0.449
        54  -9.0450    249.2944    212.5719   1.0112924595e+02  -9.3427786600e+00    0.2693122     0.225895  40.45 0.0009100987    1.394    0.283
        55  -7.9721    122.1553    213.3035   1.2650959977e+02   1.3420587010e+01    0.2080268    0.1603496  33.94 0.0005815258    1.434    0.303
        56  -8.2256    232.4280    211.7932   1.0403540028e+02  -6.4781703943e+00    0.2467139    0.1721769  -0.37 0.0007991708    1.586    0.370
        57  -7.7178    186.1926    210.2704   1.1272871142e+02   2.0795378486e+00    0.2191278    0.1585915  23.79  0.000741124    1.475    0.322
        58 -10.0141    170.9187    207.0511   1.1528785559e+02   5.5701813300e+00    0.2464043    0.2265354  57.45            0    1.094    0.086
        59  -7.6521    163.1945    207.8702   1.1703870905e+02   6.8924117951e+00    0.1885618    0.1631985  11.75 0.0008935791    1.331    0.249
        60  -7.9059    247.0056    205.0188   1.0010753399e+02  -7.8664676336e+00    0.2091127    0.1401906   3.41  0.001122967    1.667    0.400
        61  -8.3520    236.7205    204.3833   1.0184391917e+02  -6.0625017077e+00    0.2276631    0.1684239 -29.59 0.0007591035    1.325    0.245
        62  -8.0308    215.3432    205.4644   1.0607109793e+02  -2.4898660863e+00    0.2621623    0.1210908  36.81   0.00112688    2.096    0.523
        63  -7.8495    117.7337    205.3659   1.2627444643e+02   1.5846439645e+01    0.1916993    0.1245602  36.19 0.0006889004    1.639    0.390
        64  -7.3859    205.6739    204.7028   1.0781224686e+02  -5.9245706856e-01    0.1402116    0.1016382   8.85 0.0003365909    1.630    0.386
        65  -7.5977    176.6059    204.2893   1.1361637434e+02   4.9950587743e+00    0.1455063    0.1071011  70.54 0.0007003589    1.776    0.437
        66  -8.3988    228.3916    200.9536   1.0272708516e+02  -4.0806554283e+00    0.5178327    0.2251887 -20.93  0.001525955    5.451    0.817
        67  -8.3026    196.0556    200.3707   1.0891199144e+02   1.9758429043e+00    0.3095149    0.1253135  42.53  0.001208024    2.310    0.567
        68  -7.8435    184.9955    200.2062   1.1113457233e+02   4.1338190435e+00    0.2293377    0.1527394  19.00   0.00085369    1.930    0.482
        69  -7.7158    243.8770    197.1839   9.9152929271e+01  -6.1505627130e+00     0.182712    0.1373074  -4.26 0.0003898635    1.336    0.251
        70  -8.4425    165.9856    197.2468   1.1456674528e+02   8.4135776979e+00    0.3115368    0.1798286  36.88 0.0009352515    1.722    0.419
        71  -8.1231    192.9189    194.1172   1.0835233866e+02   3.7198356317e+00     0.273199    0.1838184 -12.10  0.001223606    2.135    0.532
        72  -7.4623     90.0488    192.2228   1.3036134481e+02   2.3394629286e+01    0.1771262    0.1066194  42.19 0.0006482462    1.653    0.395
        73  -7.9753    250.3387    199.0670   9.8370597074e+01  -7.5113419011e+00      0.25105    0.1083175 -29.51  0.001078408    2.439    0.590
        74  -6.8566    246.6719    190.2875   9.7294879207e+01  -5.5381671820e+00    0.1185156    0.1073285 -82.22 0.0004355612    1.614    0.380
        75  -7.9140    161.8003    190.3522   1.1419113079e+02   1.0622429891e+01    0.2023619    0.1874778  80.89 0.0008922557    1.129    0.114
        76  -7.8372    224.8256    189.0062   1.0104785027e+02  -1.4534747216e+00    0.2304356    0.1497836  -8.54 0.0008324475    2.046    0.511
        77  -7.7174    149.4559    194.0331   1.1754681428e+02   1.2301476620e+01    0.2009615    0.1248514 -26.87 0.0008089246    2.606    0.616
        78  -8.0362     65.0159    189.4852   1.3545248137e+02   2.7745828665e+01     0.184154    0.1236336  42.01   0.00102102    1.565    0.361
        79  -7.3491    217.3161    184.3238   1.0154091166e+02   7.7034366929e-01    0.1453969    0.1059791   3.30 0.0007043011    1.666    0.400
        80  -7.5757    165.5073    182.4995   1.1188256806e+02   1.1484561762e+01    0.1476215    0.1404596  47.97 0.0008106363    1.009    0.009
        81  -8.0160    156.3425    181.2848   1.1366381758e+02   1.3599851015e+01    0.2336042    0.1817712   1.45 0.0008223259    1.820    0.450
        82  -7.7137    183.4830    180.5365   1.0762690852e+02   8.2071798152e+00    0.1460762    0.1400886  41.43 0.0001171676    1.024    0.023
        83  -7.7012     96.5622    178.4524   1.2681999275e+02   2.5464651275e+01     0.140524    0.1268107  86.88 4.876302e-05    1.031    0.030
        84  -7.1202    121.7031    177.3471   1.2080241119e+02   2.1259389391e+01    0.1534392    0.1096812  81.20 0.0007034317    1.677    0.404
        85  -8.1707    148.7728    174.8274   1.1410512736e+02   1.6520368376e+01     0.263202    0.2035534  31.64 0.0008825445    1.411    0.291
        86  -7.4653    137.5238    175.4760   1.1680203407e+02   1.8632201663e+01    0.1485907    0.1407342  69.52 0.0008096392    1.020    0.019
        87  -7.6407     46.7694    175.4092   1.3772463596e+02   3.3309437779e+01    0.1568517    0.1267714  20.40 0.0009546208    1.743    0.426
        88  -7.6737    184.3481    171.3302   1.0554513782e+02   9.8677432694e+00    0.1562098    0.1182986   4.73 0.0006202052    1.763    0.433
        89  -7.6825     14.9790    170.4790   1.4407003263e+02   3.7745351232e+01    0.1396951   0.09619442 -27.55 0.0007872346    2.494    0.599
        90  -7.5324    199.3097    166.3527   1.0136428946e+02   7.7257893431e+00    0.1542222    0.1163845   0.34 0.0007044012    1.721    0.419
        91  -7.5201    150.6420    165.7289   1.1184578386e+02   1.8129648743e+01    0.1512385    0.1219522   8.78 0.0006998502    1.645    0.392
        92  -7.9028    168.3551    163.9501   1.0746014232e+02   1.4781440375e+01     0.315138    0.1925626  20.74  0.001158903    2.685    0.628
        93  -7.8117    123.1155    162.6208   1.1770768751e+02   2.4360719659e+01     0.212556     0.141957  30.68 0.0009390683    1.788    0.441
        94  -7.3541    138.4703    158.4638   1.1318644094e+02   2.2265106114e+01    0.1523029    0.1460694  79.74  0.000104509    1.008    0.008
        95  -7.9749    196.3337    154.3094   9.9332303109e+01   1.0743365308e+01    0.1551408     0.119864   6.09 0.0005289444    1.674    0.403
        96  -7.3559    204.7164    152.3392   9.7188236588e+01   9.3295839506e+00    0.1499819     0.118953 -75.80 0.0004622021    1.630    0.386
        97  -7.9141    169.3487    151.3037   1.0446413281e+02   1.7270989272e+01    0.1583988    0.1248344   6.36 0.0007040647    1.696    0.411
        98  -7.4260    145.6605    151.6698   1.1002092439e+02   2.2307546744e+01    0.1576611    0.1259533  -2.63 0.0007051762    1.740    0.425
        99  -7.8679    117.5343    151.2188   1.1678157659e+02   2.8082427076e+01    0.2119122    0.1390813 -42.76 0.0007473168    1.646    0.393
       100  -7.8762    133.0885    148.1024   1.1227437714e+02   2.5732605304e+01    0.2333832    0.2189694  -0.14 0.0008557274    1.235    0.190
       101  -7.7112    243.5390    147.5205   8.8919380582e+01   2.2599571572e+00    0.1409228    0.1274531 -22.93 0.0001908548    1.038    0.036
       102  -7.6603    214.4919    146.4620   9.3947462528e+01   8.3812480960e+00    0.1470031    0.1422674 -35.54 0.0003748752    1.022    0.022
       103  -9.3012     67.0151    144.5610   1.2839705061e+02   3.7979159687e+01    0.4694659    0.2956913  69.60  0.002235486    1.988    0.497
       104  -9.0430    229.3276    137.2892   8.9127110349e+01   6.9786898735e+00    0.2572834    0.2460705 -40.01 0.0004676275    1.029    0.028
       105  -8.0564    139.5270    137.9829   1.0841484778e+02   2.6702784112e+01    0.2151935    0.1360597 -25.14 0.0007639737    2.391    0.582
       106  -7.7554    115.4602    136.4443   1.1413656284e+02   3.1936281171e+01    0.1498275    0.1446464 -66.03 0.0001638818    1.041    0.040
       107  -8.5975      4.2081    134.5845   1.4280050738e+02   4.6633973540e+01    0.2195192    0.1437636 -44.99  0.001403732    1.672    0.402
       108  -8.2857     23.5748    130.1956   1.3739630119e+02   4.6145748138e+01    0.2773649    0.1403349 -33.48  0.001282115    2.991    0.666
       109  -7.5635     41.3237    129.3202   1.3258217791e+02   4.4667872590e+01    0.1317722   0.08680629 -40.51 0.0003858463    1.676    0.403
       110  -7.7654    183.0286    144.2133   9.9834643568e+01   1.5738054912e+01    0.2026168    0.2010418 -86.48 0.0002499317    1.004    0.004
       111  -7.8681    133.4282    124.5129   1.0671711060e+02   3.1040276512e+01    0.2901907    0.1482674  33.61  0.001035586    2.481    0.597
       112  -9.7181     13.7361    120.1515   1.3856148490e+02   4.9199444834e+01     0.513388    0.2086411 -34.93   0.00210067    4.007    0.750
       113  -8.6382    247.4104    118.8475   8.1958275690e+01   6.5741336958e+00    0.2483631    0.2023398  41.36 0.0006723498    1.392    0.282
       114  -8.1253     99.7489    119.2760   1.1437724183e+02   3.8826471081e+01    0.2822778    0.1831641  14.54  0.001154666    2.453    0.592
       115  -7.2785    119.6519    118.7122   1.0885112491e+02   3.5189784598e+01    0.1530772    0.1226469  -2.22 0.0005676775    1.658    0.397
       116  -6.9532    159.6792    117.3257   9.8514309686e+01   2.6769580316e+01    0.1637173    0.1252831 -84.37 0.0007046985    1.682    0.405
       117  -9.3346      2.7915    109.4905   1.4002290337e+02   5.2281874352e+01    0.3758558    0.1965005 -35.34  0.002118979    2.241    0.554
       118  -8.1053    133.8157    107.1350   1.0216605651e+02   3.4773054988e+01    0.4359874    0.1763866 -43.55  0.001505555    2.457    0.593
       119  -8.0504    123.5626    107.6234   1.0496813552e+02   3.6846710921e+01    0.2956903    0.1935918  16.10  0.001148466    2.460    0.593
       120  -9.3747     15.1535    105.2384   1.3590569331e+02   5.2418778575e+01    0.4925914    0.2102187 -30.82  0.002106862    3.655    0.726
       121  -7.4622    109.6514    105.7049   1.0823472671e+02   4.0045872933e+01     0.151599    0.1184348  -4.33  0.000703252    1.676    0.403
       122  -7.5610     66.6181    104.7266   1.2048838472e+02   4.7323306394e+01    0.1384624    0.1000145 -20.92 0.0006998173    1.705    0.413
       123  -8.0119     93.9340    103.4957   1.1211151581e+02   4.3398349509e+01    0.2133359    0.1448397  36.94 0.0007539518    1.574    0.365
       124  -7.4201     64.4609    101.4798   1.2037714534e+02   4.8335538886e+01    0.1355653    0.1207254 -52.52 0.0002833809    1.035    0.033
       125  -9.6899      7.7221     96.2441   1.3660187243e+02   5.4864876662e+01    0.3801075    0.1647951 -28.20  0.001754194    3.365    0.703
       126  -8.9542     44.5580     92.0682   1.2436312039e+02   5.2755369235e+01    0.3451067    0.2256617  -5.04  0.001827869    2.084    0.520
       127  -7.4647     53.3088     92.6783   1.2173385505e+02   5.1652607927e+01    0.1254612    0.1004688  86.02 0.0007035277    1.645    0.392
       128  -9.4602     19.9034     92.1970   1.3216523149e+02   5.4919941223e+01    0.4063663    0.1158064 -49.36  0.001738266    2.631    0.620
       129  -7.2240    109.3122     91.3261   1.0440372392e+02   4.3165649099e+01    0.1508748     0.115543  -5.58 0.0003326285    1.663    0.399
       130  -8.2023     96.4688     90.5045   1.0787152854e+02   4.5734904482e+01    0.3321699    0.2184516  -4.93  0.001376098    2.495    0.599
       131  -7.1424     57.2688     91.7005   1.2024322543e+02   5.1389014384e+01    0.1219815    0.1007332 -86.90 0.0002041432    1.523    0.343
       132  -8.3446     67.4752     85.6996   1.1544692304e+02   5.1330529654e+01    0.3837581    0.1636849  23.91  0.001431398    3.488    0.713
       133  -9.6888     36.0080     81.8808   1.2475010938e+02   5.5767013093e+01    0.5858198      0.25917 -30.39  0.002235222    3.115    0.679
       134  -7.5565    126.6671     83.6815   9.7463887030e+01   4.1110901729e+01    0.1547753    0.1181717   7.51 0.0005041744    1.694    0.410
       135  -8.4361     89.6488     78.5892   1.0647316478e+02   4.9333983540e+01    0.4374331    0.2286777  25.07  0.001753797    2.642    0.622
       136  -9.7530      8.0192     77.3774   1.3306495337e+02   5.8817986326e+01    0.4064983    0.1757417 -38.65  0.002153193    2.144    0.534
       137  -8.4524    184.7035     76.6236   8.2394667544e+01   2.8623005746e+01    0.4867772    0.1826277 -31.61   0.00144378    3.270    0.694
       138  -8.8695     49.0965     76.8672   1.1909420361e+02   5.5449144132e+01    0.3064399    0.2098364   7.31  0.001727313    1.748    0.428
       139  -7.1799    148.2488     76.6723   9.0063703964e+01   3.7512013505e+01    0.1487726    0.1164612 -69.87 0.0003001593    1.544    0.352
       140  -9.7546     24.2373     73.3253   1.2668666729e+02   5.8536815413e+01    0.7416438    0.2791722 -33.10  0.003057161    3.389    0.705
       141  -8.2033     23.4473     69.4914   1.2603076393e+02   5.9367522992e+01    0.1736161    0.1490768  32.98 0.0005951297    1.470    0.320
       142  -7.9760     74.9075     74.8546   1.0998701596e+02   5.2445687772e+01    0.2118358    0.1663047 -11.01 0.0005988075    1.353    0.261
       143  -7.8136    129.0010     69.9990   9.2758529797e+01   4.3119179174e+01    0.3058405    0.1774542  12.26 0.0009579847    4.125    0.758
       144  -8.4619     43.2367     68.0839   1.1869685056e+02   5.7833623938e+01    0.2753302    0.1611194 -20.89  0.001416703    2.035    0.509
       145  -8.1783     80.4718     68.0312   1.0611781342e+02   5.2873634247e+01    0.2231015    0.1793784   4.56 0.0005765391    1.303    0.232
       146  -8.5674     84.2965     63.8427   1.0357172222e+02   5.3005059677e+01    0.3761913     0.232039   4.77  0.001631069    2.525    0.604
       147  -8.2099     62.0000     67.0424   1.1190531014e+02   5.5786514612e+01    0.2701879      0.15991 -43.02   0.00058849    1.511    0.338
       148  -9.5787     65.3947     61.2898   1.0895915901e+02   5.6384246544e+01    0.4317352    0.2797199 -20.86  0.002284552    1.661    0.398
       149  -7.8455    106.0244     67.4675   9.8185287630e+01   4.8390285539e+01    0.2159542    0.1360147  41.91 0.0009188427    1.581    0.367
       150  -9.5960     17.6592     62.5742   1.2636832199e+02   6.1155242217e+01    0.4818532    0.1792664 -42.94  0.001885892    2.125    0.529
       151  -9.6353    241.3224     62.6438   7.0171365463e+01   1.7345484538e+01     0.246439    0.2302081 -77.50   0.00038684    1.129    0.114
       152  -7.5956    148.2412     63.7811   8.6263530185e+01   3.9730516361e+01    0.2398107    0.1013622  44.83 0.0008630923    2.413    0.586
       153  -8.8977     51.4000     60.4772   1.1356914396e+02   5.8355513278e+01    0.3235728    0.2774701  81.56  0.001868283    1.833    0.454
       154 -10.8668     38.2461     57.6893   1.1746736412e+02   6.0319826080e+01    0.5070903    0.2907763  -6.75  0.002613653    2.325    0.570
       155  -9.3861    245.6001     58.5233   6.8734923866e+01   1.7020315821e+01    0.2577609    0.1789202  36.43  0.001289245    2.173    0.540
       156  -7.6730    111.2514     58.6032   9.3868798325e+01   4.8849868951e+01    0.2042174      0.12412  36.78 0.0009458793    1.668    0.401
       157  -9.4349      3.1913     55.0225   1.2982309458e+02   6.3494475131e+01     0.422281    0.2228298 -39.14  0.002664503    1.501    0.334
       158  -8.1051     99.4081     54.2818   9.5806845941e+01   5.1902760762e+01     0.250753    0.1288988 -31.77 0.0007426373    2.009    0.502
       159  -9.2175     74.9858     50.4383   1.0211908459e+02   5.6812092818e+01    0.3240776    0.2250748  -1.70 0.0003556875    1.624    0.384
       160  -7.8290     81.6982     51.9719   1.0045695877e+02   5.5465565683e+01    0.1732935    0.1474728  66.12 0.0008038706    1.652    0.395
       161  -8.0923    118.5807     51.2662   8.9506320008e+01   4.8462475324e+01    0.2346725    0.1646879  59.61 0.0004911526    1.558    0.358
       162 -10.2677     45.2711     49.1117   1.1215437793e+02   6.1094256736e+01    0.2741877    0.1941684   2.02 0.0009862555    1.455    0.313
       163 -10.2117      9.8834     47.5355   1.2530291477e+02   6.4491382206e+01    0.5057387    0.2617168 -24.09  0.001978401    1.953    0.488
       164  -9.2879      2.3297     45.8618   1.2781672511e+02   6.5233930110e+01    0.2714087    0.2041338 -37.07  0.001112201    1.042    0.041
       165  -8.4182    106.9138     48.0841   9.1575736067e+01   5.1380067189e+01    0.2003144    0.1824535  12.26 0.0002872742    1.018    0.018
       166  -9.7709     24.6582     47.1920   1.1941126101e+02   6.3468675735e+01     0.521332    0.2394262   2.70  0.002376043    3.485    0.713
       167  -8.6874     31.7058     43.9708   1.1562742086e+02   6.3395267140e+01    0.1896564    0.1478154  -2.29 0.0004642514    1.230    0.187
       168  -7.9118     42.6218     44.6258   1.1164015223e+02   6.2153139123e+01    0.1905643    0.1208696 -16.17  0.001045868    1.600    0.375
       169 -10.2071     83.1455     40.1673   9.5837724103e+01   5.7027181852e+01    0.3125511    0.2243054   2.05  0.001755386    1.478    0.323
       170  -8.9993     38.0266     42.4335   1.1265140553e+02   6.3017692875e+01    0.2615799     0.148926 -23.17  0.001012728    1.742    0.426
       171  -8.7710     45.9788     39.4274   1.0854572580e+02   6.2610659425e+01    0.3586803    0.1743424  -7.09  0.001253047    5.031    0.801
       172  -8.3942     93.6960     42.1438   9.3312397652e+01   5.4832053070e+01    0.2592634    0.1531847  22.54 0.0007268984    2.036    0.509
       173  -8.9613      3.5962     38.9748   1.2538122864e+02   6.6386766995e+01    0.4070058   0.07696039 -55.18  0.001596331    4.007    0.750
       174  -9.3252      6.9804     34.3317   1.2256158363e+02   6.6979071140e+01     0.306222    0.1871373 -34.51  0.002117902    1.231    0.188
       175  -7.4730    123.4684     40.5036   8.4729486737e+01   4.8932260441e+01    0.1414692    0.1226017  28.40 2.764778e-05    1.102    0.093
       176  -9.7984     17.6589     38.2227   1.1936914321e+02   6.5578673430e+01     0.516102    0.1658284 -31.73  0.002096723    3.744    0.733
       177  -9.8302    137.7876     37.5518   8.0493096958e+01   4.6055104517e+01    0.2414148    0.2225997  33.11 0.0002542227    1.065    0.061
       178  -9.6055     37.7649     35.6626   1.1036937730e+02   6.4138041078e+01     0.348674    0.2116341  -2.36  0.001451644    1.832    0.454
       179  -8.3736    106.1823     36.8186   8.7897648682e+01   5.3113202642e+01    0.3580433    0.1735006  35.42    0.0015499    2.207    0.547
       180  -8.6307     92.1794     36.8572   9.1874584753e+01   5.5855363943e+01    0.3445174    0.1945025  28.38 0.0009999144    1.927    0.481
       181  -9.3510     95.9879     33.2707   8.9468835126e+01   5.5605138857e+01    0.2317871    0.1930536   9.59 0.0002875361    1.123    0.109
       182  -9.3508     54.6022     36.6593   1.0430947834e+02   6.1947120967e+01    0.2636077    0.1946486  10.99 0.0008959629    1.278    0.218
       183  -8.5590     70.4462     35.8439   9.8403689295e+01   5.9754921212e+01    0.2522399    0.1455052   9.29  0.001193208    2.363    0.577
       184  -7.3678    144.0206     34.2285   7.8145615974e+01   4.5006484294e+01     0.178834     0.105651  57.79            0    1.532    0.347
       185  -8.0124     76.7089     33.9843   9.5628534385e+01   5.8995042098e+01     0.182508    0.1532003  -7.20 0.0008748643    1.078    0.072
       186  -8.1107     82.0862     32.1281   9.3215784542e+01   5.8321091357e+01    0.1937724    0.1492457  11.86 0.0004106025    1.214    0.177
       187  -8.6408    127.8878     30.1730   8.0285563687e+01   4.9250966414e+01    0.2132559    0.1808014  20.00 0.0003187592    1.207    0.172
       188  -8.3930    112.3155     30.0876   8.3951972411e+01   5.2684136152e+01    0.3535261    0.1737387  31.62  0.001489999    2.456    0.593
       189  -7.9727    104.7623     31.5745   8.6432757857e+01   5.4075619873e+01    0.1780825    0.1229567  59.01 0.0009450407    1.596    0.373
       190  -8.0066     88.1209     31.1545   9.1000942497e+01   5.7361932702e+01    0.2074736    0.1557172  15.17 0.0008378435    1.283    0.221
       191  -9.2749      1.6088     29.5666   1.2334242654e+02   6.8094262317e+01    0.3121006   0.09696234 -49.22   0.00151122    2.308    0.567
       192  -7.7228    153.4850     27.0098   7.4130796793e+01   4.3599003112e+01    0.1763987    0.1130965  17.34 0.0006428698    2.252    0.556
       193  -9.5299     71.5008     25.9784   9.4286323455e+01   6.0909053290e+01    0.3696971    0.2024199  32.24  0.001178185    1.740    0.425
       194  -8.2987     61.8838     26.8726   9.7936536915e+01   6.2298383034e+01    0.1884483    0.1375828   5.48 0.0005601386    1.253    0.202
       195  -8.7838     57.4827     25.1948   9.8851832451e+01   6.3163675704e+01    0.2631511    0.1764432  32.53  0.000913061    1.451    0.311
       196  -8.8564     48.1765     25.7942   1.0256109765e+02   6.4353275337e+01    0.2876592    0.1573041  21.49  0.001215363    1.896    0.473
       197  -7.8955    110.2398     24.9936   8.2689985637e+01   5.3719364113e+01     0.159183    0.1087983 -23.50 0.0004871406    1.563    0.360
       198  -8.1805     80.5179     23.4981   9.0426350791e+01   5.9677543424e+01    0.2290344    0.1740846 -13.40  0.001304439    1.266    0.210
       199  -8.8391     84.7626     21.8355   8.8493554677e+01   5.9107996716e+01    0.2555862    0.1966386  34.66 0.0006054675    1.166    0.142
       200 -10.0624    192.3136    245.5890   1.1741011380e+02  -4.7585808238e+00    0.5120661    0.2910655 -25.29  0.002492417    2.479    0.597
       201  -7.5588     62.3302    248.3262   1.4193883373e+02   1.5928333558e+01   0.09652848   0.09282029 -49.34 0.0003894418    1.706    0.414
       202  -8.7290    243.1355    245.2930   1.0803853264e+02  -1.2815706840e+01    0.3342943    0.1623571 -35.29  0.001808566    2.214    0.548
       203  -8.5407     65.4635     23.3601   9.5298503907e+01   6.2202025201e+01    0.2030158    0.1046789  40.59  0.001054479    1.878    0.467
       204  -8.5692     91.9487     21.1390   8.6140726501e+01   5.7840232169e+01    0.2863837    0.2010085  14.40  0.001617108    1.442    0.307
       205  -8.6727    233.6906    243.8736   1.0948433156e+02  -1.1217008519e+01    0.2686593    0.1697231 -16.99  0.001283123    1.725    0.420
       206  -7.5687    117.1532     19.8718   7.9249135491e+01   5.2792656595e+01     0.179897    0.1343234  30.09 0.0004093788    1.288    0.224
       207  -7.8162     45.5218     20.0144   1.0125649948e+02   6.5465405876e+01    0.1679501   0.09833194 -29.42 0.0004181359    1.542    0.352
       208  -7.9671    127.7848     16.8747   7.5918366126e+01   5.0732053194e+01    0.1932876    0.1553078  36.99 0.0003795354    1.159    0.137
       209  -7.3973     74.4640    247.5232   1.3974784309e+02   1.4371246643e+01    0.1197034   0.09267189  68.55  0.000180117    1.034    0.033
       210  -8.8884     50.2790     15.1999   9.7430030173e+01   6.5429682008e+01    0.2396123    0.1566706   8.21 0.0007266864    1.431    0.301
       211  -7.7232     18.6687    247.6997   1.4909878734e+02   2.1457590680e+01    0.0895491   0.07710589 -73.25  0.000465754    1.648    0.393
       212  -8.9281    224.6441    245.3649   1.1136906239e+02  -1.0012112892e+01    0.1929539    0.1692141  -4.42 0.0003126546    1.185    0.156
       213  -8.4232    218.5559    245.6303   1.1252562723e+02  -9.0848657035e+00    0.2146546    0.1147365 -30.33  0.001135341    2.138    0.532
       214  -9.5800    157.4715    244.9380   1.2395878160e+02   1.3410216137e+00    0.2490651    0.1596854  32.11  0.000977996    1.564    0.361
       215  -7.9469    134.5238     13.4651   7.3468384086e+01   4.9522442455e+01    0.1329071    0.1123431  48.64 2.780159e-05    1.040    0.039
       216  -8.4899    249.6090    238.1976   1.0568825912e+02  -1.2869840998e+01    0.1976142    0.1036684 -32.16  0.000965539    1.947    0.486
       217  -8.7016    250.3889    243.2802   1.0642391417e+02  -1.3621051231e+01    0.1739838     0.107919 -25.14 0.0005019699    1.610    0.379
       218  -7.9291    106.4879     10.5142   7.8439120445e+01   5.5993814622e+01    0.1275982    0.1067737  36.12 -2.015632e-05    1.011    0.011
       219  -8.2699     95.9265    243.5100   1.3546323833e+02   1.1892522436e+01     0.188215     0.103528  45.54 0.0005212555    1.561    0.359
       220  -9.0326    170.3311    239.8546   1.2074179275e+02  -7.4129971081e-02     0.268061     0.205135  18.17  0.001145319    1.492    0.330
       221  -7.9596     26.1613    240.8342   1.4747799179e+02   2.1900830442e+01    0.1361471    0.1140554  81.02 0.0005842879    1.315    0.240
       222  -9.0671    242.1165    237.4746   1.0688804405e+02  -1.1662388639e+01    0.4123517    0.1953244 -25.47  0.002046374    2.393    0.582
       223  -7.4928    214.3732    239.2908   1.1225725039e+02  -7.5284103844e+00    0.1319024   0.08552974  14.02  0.000702277    1.725    0.420
       224  -8.1284    146.6532     14.1117   7.1455838513e+01   4.6614717060e+01    0.1685865    0.1561325  40.31 0.0003177862    1.118    0.106
       225  -7.9295    121.5149    239.4770   1.3015839641e+02   8.4754259215e+00    0.1301479    0.1062362  59.29 2.279896e-05    1.011    0.010
       226  -8.3762    223.8632    238.3761   1.1034771164e+02  -8.9404162940e+00    0.1801764   0.09807643  29.42 0.0006396414    1.696    0.410
       227  -7.6445     79.5379    238.4753   1.3797466556e+02   1.5342209846e+01    0.1238693   0.09701806  69.43 0.0002742438    1.009    0.009
       228  -7.7495    231.2469    236.9467   1.0875437516e+02  -9.9166394692e+00    0.1439031     0.100058 -31.03 0.0003283443    1.533    0.348
       229  -7.4435    148.2721    237.6875   1.2472208305e+02   4.1757322196e+00    0.1266854   0.09264901  70.46 0.0002744037    1.553    0.356
       230  -8.2594    195.6803    236.0858   1.1526273511e+02  -3.9034547156e+00    0.1764906    0.1528622  20.30 0.0005782631    1.076    0.071
       231  -9.7522    188.9221    234.2675   1.1626908435e+02  -2.4445238547e+00     0.348401    0.2531121  47.95  0.001138214    1.315    0.239
       232  -7.8620    248.5164    233.0152   1.0497674919e+02  -1.2038461216e+01    0.1680771    0.1095825 -28.51 0.0004700949    1.534    0.348
       233  -7.7458    204.5195    230.5594   1.1265383539e+02  -4.5816889074e+00    0.1296725    0.1110727  27.82 0.0001123715    1.026    0.025
       234  -8.0167    236.9531    229.1233   1.0635731574e+02  -9.7398488405e+00    0.1722892    0.1581596  21.16 0.0003828778    1.251    0.201
       235  -8.0415    195.0548    228.9853   1.1421176509e+02  -2.6854497158e+00    0.2072522    0.1482207   9.86 0.0009205776    1.669    0.401
