#   1 NUMBER                 Running object number                                     
#   2 MAG_AUTO               Kron-like elliptical aperture magnitude                    [mag]
#   3 X_IMAGE                Object position along x                                    [pixel]
#   4 Y_IMAGE                Object position along y                                    [pixel]
#   5 X_WORLD                Barycenter position along world x axis                     [deg]
#   6 Y_WORLD                Barycenter position along world y axis                     [deg]
#   7 A_WORLD                Profile RMS along major axis (world units)                 [deg]
#   8 B_WORLD                Profile RMS along minor axis (world units)                 [deg]
#   9 THETA_WORLD            Position angle (CCW/world-x)                               [deg]
#  10 FWHM_WORLD             FWHM assuming a gaussian core                              [deg]
#  11 ELONGATION             A_IMAGE/B_IMAGE                                           
#  12 ELLIPTICITY            1 - B_IMAGE/A_IMAGE                                       
         1 -15.3884    238.1264     61.9364   6.1967180105e+01   1.7735229180e+01     8.475239     2.546603 -26.47   0.02794494    3.142    0.682
         2  -9.1181    200.6276     82.5084   7.3240058879e+01   2.3765065660e+01    0.2542188    0.2152461  13.70 0.0008002723    1.274    0.215
         3 -10.3385    219.6469    239.3111   1.0123847414e+02  -1.0097223910e+00    0.2597272    0.1823544 -26.85 0.0009506105    1.774    0.436
         4 -11.2524    228.2245    197.0090   9.3564077674e+01   1.9881002764e+00    0.9268509    0.5135844  18.66  0.004964736    2.097    0.523
         5 -10.7015    222.0778    190.7869   9.3508107070e+01   3.7240199898e+00    0.6262487    0.4209508  -9.94  0.003512744    1.669    0.401
         6 -10.9111    241.0617    178.2626   8.8229241263e+01   1.9483978976e+00    0.5409322    0.2322783 -27.55  0.002428998    2.446    0.591
         7 -10.6947    225.8088    208.0575   9.5742040656e+01   1.1778465367e+00    0.6673274    0.3232739 -30.22  0.003776493    2.373    0.579
         8 -10.2150    223.2712    225.8807   9.8823716691e+01  -2.5696552425e-01    0.2552344    0.1752178   4.02 0.0009977032    1.570    0.363
         9 -10.9566    235.4777    183.1983   9.0011966000e+01   2.3322510685e+00    0.6460114    0.2871478 -39.65  0.003143118    2.787    0.641
        10 -10.6749    249.6388    183.5512   8.7858969620e+01  -5.7132120156e-02    0.3438448    0.1950425 -22.30  0.001165955    1.786    0.440
        11 -10.4116    247.6327    176.2229   8.6824989290e+01   1.0704442839e+00    0.4426745    0.2601952  -8.92  0.002464371    1.848    0.459
        12 -11.8352    233.3466    245.8035   1.0005654152e+02  -3.5561546668e+00    0.8428481    0.4360881  11.32  0.004949262    2.617    0.618
        13 -10.7232    228.5604    227.5380   9.8248661024e+01  -1.2145837264e+00    0.4394211    0.2556967  -2.43  0.002505627    2.227    0.551
        14 -11.2369    236.4998    198.0675   9.2429557886e+01   5.2698665319e-01    0.8315874    0.3093108 -20.75   0.00344613    4.084    0.755
        15 -11.4015    230.3899    235.2170   9.9057464702e+01  -2.2011724057e+00    0.4690906    0.3032026  26.74  0.003351728    1.205    0.170
        16 -11.2524    227.4576    219.1933   9.7193988396e+01  -2.3092983681e-01    0.3953004    0.2836888   3.97  0.001618707    1.415    0.293
        17 -11.0676    233.0612    211.6166   9.5163022676e+01  -3.3436109925e-01    0.4545033    0.2733784  -1.09  0.001798296    1.988    0.497
        18 -11.1236    250.0897    199.8571   9.0633601578e+01  -1.8029957568e+00    0.3569555    0.1806889 -27.31  0.001609815    2.100    0.524
        19 -11.6931    245.2144    190.6362   8.9799236416e+01  -9.1047577606e-02    0.5710871    0.4354164 -32.90  0.003173915    1.613    0.380
        20 -10.6382    246.7578    205.6670   9.2103679572e+01  -1.8602575102e+00    0.3073978    0.2352037 -20.93  0.001156721    1.460    0.315
        21 -10.9954    240.0497    207.0602   9.3356823291e+01  -9.6209353757e-01    0.3948078    0.2618459 -35.00  0.001854566    1.893    0.472
        22 -11.3001    242.8358    199.6825   9.1714128850e+01  -6.5141656945e-01    0.4236139    0.2449875  -9.24  0.001386663    1.956    0.489
        23 -11.5559    235.8447    228.1569   9.7231691658e+01  -2.3534219016e+00    0.4106694    0.3216811  -5.64  0.002046603    1.351    0.260
        24 -11.5868    238.1556    218.7363   9.5479074260e+01  -1.8142905655e+00    0.4753798    0.3263366 -12.97  0.001968524    1.553    0.356
        25 -10.8788    224.8038    249.0941   1.0174624718e+02  -2.6356338378e+00    0.2756389    0.2112553  23.04  0.001282246    1.126    0.112
        26 -11.1660    225.3438    242.2572   1.0077244912e+02  -2.1077248365e+00    0.3530567    0.2583656  -2.59   0.00167155    1.490    0.329
        27 -11.5836    242.4475    246.8147   9.8863214225e+01  -4.9054053802e+00    0.4113906    0.2793375  -2.39  0.002556203    1.534    0.348
        28 -12.3528    247.7597    215.4727   9.3522009983e+01  -2.9450159518e+00    0.5132418    0.3469538 -10.28  0.002227852    1.504    0.335
        29 -12.5155    248.0954    243.5387   9.7600243274e+01  -5.4169607587e+00    0.7866393    0.5702006 -48.26  0.005607476    2.780    0.640
        30 -11.5718    249.2722    233.3337   9.5987703592e+01  -4.7421290061e+00    0.3557888     0.222087 -18.94  0.001594092    1.767    0.434
        31 -12.1291    247.0266    226.0112   9.5242591368e+01  -3.7910471098e+00    0.6013784    0.3587247   2.54  0.003279905    1.799    0.444
        32 -10.9631    216.3471    232.0332   1.0075886240e+02   1.8106321584e-01    0.4052531    0.3006164   9.20  0.001900924    1.371    0.271
        33 -11.5647    210.1391    247.6052   1.0374791360e+02  -4.0310548966e-01    0.4682793    0.3583418  17.75  0.003297771    1.251    0.201
        34 -10.2360    214.1365    240.0795   1.0217819951e+02  -2.7306834198e-01    0.2486882    0.1838815   1.11  0.001050178    1.504    0.335
        35  -9.2420    202.5058    249.8600   1.0517825178e+02   4.8848228310e-01    0.2099874    0.1324495  22.25  0.001489334    1.581    0.367
        36  -9.8616    167.6602    250.1697   1.1055554991e+02   5.5461516461e+00    0.3475479    0.1226532  36.92  0.001757351    2.570    0.611
        37 -10.5434    140.5220    247.8354   1.1455339650e+02   9.7654702860e+00    0.3054453     0.237114   9.11  0.002260152    2.034    0.508
        38 -10.2733    156.6985    246.6279   1.1188943501e+02   7.5564190510e+00     0.198302    0.1652451 -10.92  0.001575972    1.744    0.427
        39  -9.5566    163.5579    245.8031   1.1072391813e+02   6.6414495291e+00    0.1950698    0.1814145 -24.09  0.001353356    1.462    0.316
        40  -9.5119    132.1990    246.4308   1.1572987713e+02   1.1134434379e+01    0.1587505    0.1232606 -16.75  0.001143441    2.355    0.575
        41 -10.5498    176.6713    244.9567   1.0857473792e+02   4.7917473939e+00    0.3649308    0.2659211   3.13  0.002518785    1.933    0.483
        42  -9.9593    151.1833    245.1438   1.1260387218e+02   8.5423945676e+00    0.1566805    0.1190496  37.16  0.001007447    1.216    0.177
        43  -9.0565    112.6835    245.6385   1.1873812777e+02   1.3978093263e+01   0.09198555   0.07542722  23.17 0.0007042193    1.762    0.433
        44 -10.2683    201.7806    240.9033   1.0418105826e+02   1.4763875853e+00    0.2689453    0.2131952   0.12  0.001540075    1.455    0.313
        45 -10.9606    204.7998    233.7895   1.0279078818e+02   1.7485927551e+00    0.3951277    0.3702846 -12.20  0.002970148    1.393    0.282
        46  -9.9611    169.3422    241.3792   1.0931980879e+02   6.2884437459e+00    0.2645153    0.1934514  16.07  0.001627128    1.714    0.416
        47  -9.8954    134.7822    239.8931   1.1468904392e+02   1.1600909832e+01    0.1883321    0.1309969 -52.16  0.001392042    1.926    0.481
        48  -9.4578    125.3829    240.7989   1.1628706909e+02   1.2839637006e+01    0.1175451    0.1000389 -49.10 0.0009503278    1.662    0.398
        49 -10.2369    183.3768    238.2366   1.0672727987e+02   4.5255146374e+00    0.2894565    0.2227336 -10.16  0.001722287    1.721    0.419
        50  -9.8583    148.1082    239.2867   1.1248213059e+02   9.7155426561e+00    0.1753803    0.1565086  85.21  0.001149957    1.367    0.268
        51 -10.6868    159.2449    237.1624   1.1045717266e+02   8.3084736273e+00    0.2496659    0.2231807 -27.09  0.002049769    1.514    0.340
        52  -9.4494    190.4760    224.8882   1.0388601152e+02   4.9336141111e+00    0.2581704    0.1749366 -22.69   0.00131365    1.940    0.485
        53 -10.2152    176.9030    234.4255   1.0729537218e+02   5.9436394438e+00    0.3544353    0.2129783 -26.85  0.002118258    2.505    0.601
        54  -9.9874    139.1389    235.5201   1.1354048773e+02   1.1531081553e+01    0.1782445    0.1427572 -22.89  0.001312051    1.978    0.494
        55  -9.4438    170.6575    233.5692   1.0819820611e+02   7.0025564578e+00    0.2059074    0.1467201 -26.33  0.001300268    1.979    0.495
        56  -8.7473    165.4112    232.7533   1.0895183548e+02   7.9065426520e+00    0.1241818    0.1038986 -16.98 0.0008734026    1.618    0.382
        57  -8.8186    152.6180    233.2119   1.1109060295e+02   9.8043589177e+00    0.1243485    0.1038965 -28.85 0.0009472767    1.673    0.402
        58  -9.2404    185.6154    231.7531   1.0556505322e+02   4.9085706076e+00    0.1555846    0.1070497 -57.00 0.0005822048    2.234    0.552
        59  -9.1649    184.3569    227.3213   1.0519938560e+02   5.6130413707e+00    0.1741537    0.1406665 -38.77 0.0008263189    1.605    0.377
        60  -8.9618    133.3344    231.3309   1.1405931086e+02   1.2953282057e+01    0.1022402   0.07827037  22.78  0.000411567    1.729    0.421
        61  -9.1183    122.8330    231.3831   1.1580086764e+02   1.4491448767e+01    0.1571568   0.08368862  38.15 0.0009502842    1.738    0.424
        62 -10.6984    190.7021    233.5708   1.0498449694e+02   3.9230428017e+00    0.3687964    0.2948526 -31.83  0.002281656    1.615    0.381
        63 -10.2034    211.8047    226.1924   1.0065669279e+02   1.4647394011e+00    0.2857525    0.1830142 -18.62  0.001267771    1.935    0.483
        64 -10.5039    216.6767    222.1003   9.9307523500e+01   1.1369480564e+00    0.3194045    0.2464958 -19.87  0.001550214    1.511    0.338
        65  -9.0732    173.9796    227.9976   1.0697672616e+02   7.1563342994e+00    0.1721947    0.1188402  20.64    0.0011316    1.700    0.412
        66  -8.8858    152.5634    228.2323   1.1053478284e+02   1.0453897384e+01    0.1280996    0.1064149 -25.60 0.0009495865    1.687    0.407
        67 -10.1156    198.9219    225.7606   1.0264244260e+02   3.5105338413e+00    0.2605795    0.2058354   3.99   0.00128915    1.414    0.293
        68  -9.8222    162.9762    226.2448   1.0857289704e+02   9.0936879506e+00      0.17356     0.144321  -9.93  0.001279967    1.633    0.388
        69 -10.0420    206.0387    224.3646   1.0131332614e+02   2.5517587124e+00    0.2652504    0.2054928 -12.65  0.001542477    1.511    0.338
        70 -10.3209    147.3743    224.0621   1.1092057355e+02   1.1809346472e+01    0.2896707    0.1633836 -38.50 0.0006484765    2.619    0.618
        71  -8.8025    170.5456    224.2116   1.0706653457e+02   8.1606181406e+00    0.1317406    0.1059845 -14.64 0.0009414549    1.661    0.398
        72  -9.3201    180.4313    221.7923   1.0511805506e+02   6.8906731728e+00    0.2155707    0.1119417 -37.36  0.001225199    2.501    0.600
        73  -8.7942    174.5000    221.9212   1.0611738305e+02   7.8191847028e+00    0.1406985    0.1141493 -39.18  0.001028054    1.576    0.365
        74  -9.4325    185.8588    220.2072   1.0401022568e+02   6.2155856219e+00    0.2071248    0.1593963 -25.86  0.001220542    1.630    0.386
        75 -10.1903    202.1755    217.7726   1.0100129450e+02   3.8890702906e+00    0.3400972    0.2123188 -26.77  0.001650719    1.985    0.496
        76  -8.8915    204.5580    212.2054   9.9800891646e+01   4.1408264784e+00    0.1804705    0.1066959 -18.08 0.0007799426    2.290    0.563
        77  -9.9987    210.7798    217.0020   9.9501682066e+01   2.6047913107e+00    0.2734131     0.197871 -25.41    0.0014733    1.636    0.389
        78  -9.3630    210.0217    211.2909   9.8774148672e+01   3.3603011798e+00    0.2882325    0.1763074  10.08  0.001418925    2.143    0.533
        79  -9.9830    193.3628    217.3323   1.0237785497e+02   5.3530586749e+00    0.2767563    0.2118649 -20.79   0.00180306    1.596    0.373
        80  -8.4604    158.3124    218.3587   1.0838367862e+02   1.0859569739e+01    0.1106617   0.08164947  17.82 0.0007042967    1.744    0.426
        81  -9.8633     55.9828    216.4898   1.2575813846e+02   2.5723664215e+01    0.1956774    0.1222926 -83.42 0.0006903062    1.538    0.350
        82  -8.7858    179.4809    216.0426   1.0450427319e+02   7.7534736454e+00    0.1452116    0.1149944 -33.69 0.0007395364    1.580    0.367
        83  -9.1675    170.9389    215.5625   1.0587938622e+02   9.1994095175e+00    0.1959458    0.1574498  -7.88  0.001305849    1.639    0.390
        84  -8.5312    165.3864    214.8471   1.0672888704e+02   1.0192813792e+01     0.138214    0.1081274 -23.07 0.0009386408    1.717    0.418
        85 -10.6896    217.1550    210.9720   9.7574952502e+01   2.2472382820e+00    0.3952115     0.273739 -15.35  0.001894531    1.651    0.394
        86  -9.5085    217.2703    203.6887   9.6419401209e+01   3.0386511341e+00    0.2434761     0.172009  -1.86  0.001190067    1.576    0.366
        87  -8.6123    185.5933    214.2707   1.0323586494e+02   6.9806238997e+00    0.1379887    0.1075218 -14.79 0.0009435876    1.602    0.376
        88  -7.9510    101.2843    214.7452   1.1784062206e+02   2.0085728883e+01    0.1094844   0.06676158  63.76            0    1.475    0.322
        89  -8.8550    200.4463    209.9442   1.0014023709e+02   5.0751054236e+00    0.1518128    0.1130757 -27.00  0.001025953    1.596    0.374
        90  -9.3134    192.8608    209.3339   1.0131150159e+02   6.3964815205e+00    0.2022656    0.1658901 -12.11  0.001084658    1.425    0.298
        91  -8.7162    186.5598    210.1546   1.0248917392e+02   7.3344873224e+00    0.1446699    0.1079239 -13.44 0.0009423686    1.710    0.415
        92  -9.0286    176.8284    209.6797   1.0407315343e+02   9.0025897259e+00    0.1551714    0.1359466  24.24   0.00100288    1.171    0.146
        93  -9.8169    206.2516    205.8208   9.8556528277e+01   4.6066303441e+00    0.3733732    0.1900075 -32.44  0.002083309    2.349    0.574
        94  -8.4952    182.9956    206.4979   1.0256485295e+02   8.3921526298e+00    0.1578852   0.08620492  26.82 0.0007846999    2.196    0.545
        95  -9.4706    197.8853    202.8425   9.9491596953e+01   6.3599800268e+00    0.2579005    0.1620924 -19.42    0.0015016    2.081    0.519
        96  -9.4380    210.2097    199.8589   9.6964962840e+01   4.6534126745e+00    0.2425175    0.1623885 -33.70  0.001134387    1.749    0.428
        97  -8.8360    139.2373    198.9938   1.0926058766e+02   1.6754425582e+01    0.1570604    0.1354999  55.62            0    1.054    0.051
        98  -9.1871    132.9783    199.0412   1.1040995523e+02   1.7764320465e+01     0.169649     0.142513  52.77            0    1.046    0.044
        99  -9.3574    215.2202    196.9411   9.5664547230e+01   4.1579230167e+00     0.235883    0.1606253 -26.82 0.0009452987    1.655    0.396
       100  -9.1882    202.0968    196.2358   9.7740325427e+01   6.4691505349e+00    0.1982172    0.1557726  -3.87   0.00130469    1.412    0.292
       101  -8.6681    184.4818    195.0191   1.0057783164e+02   9.6614669503e+00    0.1618286    0.1024435  -8.09 0.0008104076    2.632    0.620
       102  -8.8585    209.4512    193.5213   9.6059048626e+01   5.5475582991e+00    0.1944678    0.1104176 -18.42 0.0009888544    2.319    0.569
       103  -8.0066    194.0000    193.9485   9.8755437071e+01   8.1558360696e+00    0.1742319   0.06983033 -38.58 0.0008015977    2.937    0.659
       104  -9.5348    215.0747    189.5233   9.4448401280e+01   5.0712834351e+00    0.3081693    0.1634834 -23.66  0.001173142    2.278    0.561
       105  -8.5995    198.6273    190.2049   9.7348451150e+01   7.8405154852e+00    0.1612922    0.1117048 -18.02  0.000950033    1.740    0.425
       106  -9.6894    230.0053    186.1194   9.1409590007e+01   2.9234148698e+00    0.2530093    0.1687142 -19.77   0.00104268    1.584    0.369
       107  -9.4566    223.7720    183.1082   9.1892163689e+01   4.3462003243e+00    0.2635664    0.1773882 -21.47 0.0009908309    1.590    0.371
       108  -9.0841    225.5244    178.8962   9.0847312140e+01   4.5503213759e+00    0.2269271    0.1174029 -30.92 0.0007537394    2.080    0.519
       109  -8.7452    217.8703    182.4526   9.2753676219e+01   5.4545991653e+00    0.1906797    0.1358844 -18.41 0.0008996513    1.512    0.339
       110  -9.4102    210.8820    180.9893   9.3672229470e+01   6.8736261186e+00    0.2808926    0.1675816 -18.99  0.001401577    2.046    0.511
       111  -9.5139    230.2200    179.4743   9.0185417292e+01   3.6640797906e+00    0.3043443    0.1783774 -11.62  0.001101693    2.030    0.507
       112  -9.3796    232.8932    173.5439   8.8658136763e+01   3.9057912496e+00    0.2598415    0.1579783  -9.66  0.001010765    1.888    0.470
       113  -8.9591    218.8956    176.4704   9.1505908634e+01   6.0220942239e+00    0.2433539    0.1509453 -10.86  0.001278434    1.971    0.493
       114  -8.5840    197.6274    176.1461   9.5109686290e+01   9.9152128135e+00    0.1693997      0.11701 -19.97 0.0008334437    1.702    0.413
       115  -8.8383    101.0135    175.9706   1.1358958940e+02   2.6810543546e+01    0.1715162    0.1436046  68.07            0    1.004    0.004
       116  -8.6789    210.6118    174.7469   9.2596010493e+01   7.7361377914e+00    0.1625266    0.1180514 -40.27 0.0009548282    1.618    0.382
       117  -9.7234    225.2350    172.2337   8.9665785358e+01   5.4219056082e+00    0.3179317    0.2047404 -11.77  0.001460222    1.743    0.426
       118  -9.4074    237.0969    168.1863   8.6965384180e+01   3.8093544732e+00    0.2400958    0.1631196 -13.58 0.0008722821    1.487    0.328
       119  -9.5982    239.9260    163.0052   8.5507331150e+01   3.9316288081e+00     0.411933    0.1940208 -39.64  0.001954823    2.498    0.600
       120  -9.6114    237.8595    157.5153   8.4746286330e+01   4.9761205692e+00    0.2955961    0.1711923 -19.39  0.001241921    1.797    0.443
       121  -9.7232    245.5170    156.3497   8.3300496240e+01   3.7358808285e+00    0.3287326    0.2056258 -12.55  0.001106576    1.633    0.388
       122 -10.2826    245.9145    166.9974   8.5342123953e+01   2.4082367640e+00    0.3912677    0.2712996  11.13  0.002352209    1.381    0.276
       123  -9.6086    246.7143    161.6312   8.4168656954e+01   2.8950454527e+00    0.3007044    0.1936724 -26.09 0.0009949346    1.538    0.350
       124  -8.9255    218.5085    167.4089   8.9878954833e+01   7.2587790182e+00    0.2477946     0.123001 -31.63  0.001206408    2.151    0.535
       125  -8.9812    233.5852    163.1858   8.6561395444e+01   5.0472350176e+00    0.2209675    0.1148262 -33.58  0.001012787    2.010    0.502
       126  -9.1866    212.9916    161.9921   8.9776810310e+01   9.0120080723e+00    0.2704529    0.1562711 -23.95  0.001358134    1.943    0.485
       127  -8.5869    176.4916    159.4944   9.5933456064e+01   1.6398685311e+01    0.1333819    0.1205726  38.58 -6.72285e-05    1.001    0.001
       128  -9.5674    250.7824    155.8705   8.2389276194e+01   2.8569048141e+00    0.3948138   0.09172659 -33.33   0.00139263    4.059    0.754
       129  -9.1225    249.7241    149.5062   8.1250290477e+01   3.8048151930e+00    0.3659821     0.122931 -38.39  0.001433193    3.330    0.700
       130  -8.9310    226.4560    156.5173   8.6406676680e+01   7.2118364426e+00    0.2475033    0.1227009 -30.44  0.001001841    2.075    0.518
       131  -9.5008    241.4924    152.9465   8.3240994867e+01   4.8800327278e+00    0.2619402    0.1604709 -30.09  0.001041835    1.634    0.388
       132  -9.7103    243.5248    148.4285   8.1987813786e+01   5.0682137001e+00    0.3804811    0.2127276 -26.05  0.001426978    1.743    0.426
       133  -9.5914    234.8938    146.2060   8.2895872373e+01   6.9675423447e+00    0.4167772     0.227371 -35.74  0.002072172    1.897    0.473
       134  -8.8280    247.2135    143.2842   8.0332836046e+01   5.0264544658e+00    0.2504596    0.1675795 -28.50  0.001389522    1.458    0.314
       135  -9.9847    243.4466    139.6513   8.0140558130e+01   6.1899560700e+00    0.4631505    0.1530511 -34.38  0.001822007    2.907    0.656
       136  -9.0406    138.9874    143.0242   1.0038112892e+02   2.6560814639e+01    0.1672825      0.15866  77.70 0.0007546865    1.035    0.034
       137  -9.1153    229.7001    141.1862   8.2673080477e+01   8.6348363448e+00    0.2932443    0.1175662 -28.04  0.001188004    2.605    0.616
       138  -9.1122    181.6777    141.5360   9.1342129912e+01   1.8301913057e+01    0.2423427    0.1282152 -39.54  0.001083009    1.997    0.499
       139  -8.7985    250.4817    139.9455   7.9121211816e+01   4.8348017191e+00    0.1965485    0.1168287 -25.62  0.001031209    1.588    0.370
       140  -8.8807    172.3112    137.6637   9.2359770572e+01   2.0888512718e+01    0.1400436    0.1113349 -87.07 0.0005831679    1.684    0.406
       141 -11.0620    191.7617    246.0826   1.0636434075e+02   2.4352383832e+00    0.3990294    0.3020028   7.40  0.002247921    1.566    0.362
       142  -8.6398    171.2962     83.3234   7.8978870662e+01   3.0747619757e+01    0.1555069     0.119323  12.87 0.0003172159    1.622    0.383
       143 -10.4570    194.1994     81.1532   7.3992521904e+01   2.5540089379e+01     0.548906    0.2917707  26.97  0.001873875    3.126    0.680
       144  -8.6953    185.4989     82.4633   7.5957710394e+01   2.7448192812e+01    0.1509665    0.1463983  -1.72 0.0002112859    1.018    0.018
       145  -8.7386    188.1549    123.1285   8.5987690095e+01   2.0000635986e+01    0.1957671    0.1730836 -64.73 0.0007492079    1.320    0.243
       146  -8.2664    129.5325    106.6067   9.4616900839e+01   3.5667911467e+01    0.1435357    0.1358505  85.05 0.0007995968    1.043    0.041
       147 -10.0753    201.1642     77.1326   7.1645946783e+01   2.4468932812e+01     0.237226    0.2021352  15.14 0.0007408914    1.264    0.209
       148  -8.4717    186.0000    114.9404   8.4442577649e+01   2.1853710505e+01    0.2385805   0.08254423 -36.58 0.0007996306    2.923    0.658
       149  -8.7185    174.5135     76.9908   7.6492330928e+01   3.1049944065e+01     0.214095    0.1362473  -3.14 0.0008089541    2.427    0.588
       150  -8.8826    167.1885     76.7960   7.7910049845e+01   3.2875190748e+01    0.2151342    0.1824681  12.97 0.0007886339    1.331    0.248
       151 -10.9692    211.3224     75.5027   6.9517227878e+01   2.2240750615e+01    0.3159746     0.244045  11.21   0.00115926    1.493    0.330
       152  -8.9390    194.4427    121.0338   8.4302291939e+01   1.8974718787e+01    0.2205696    0.1390316 -35.07  0.001029981    1.604    0.376
       153  -9.2816    179.4979    132.0410   8.9707736742e+01   2.0353221885e+01    0.2150817    0.1401992 -36.84  0.001035962    1.602    0.376
       154  -8.3835    200.3136     72.3205   7.0422947024e+01   2.5415359596e+01    0.1569763     0.114824  19.31 0.0007038877    1.653    0.395
       155  -9.3795    195.4947     96.6700   7.7993780717e+01   2.2724352847e+01    0.3026853    0.1447497 -32.67  0.001063248    2.069    0.517
       156  -8.4219    140.3071     72.3662   8.2492532123e+01   4.0071559630e+01    0.1579343    0.1200745   5.78 0.0003449813    1.749    0.428
       157  -8.8085    203.4130     70.7283   6.9452625900e+01   2.4889186965e+01    0.2090991    0.1432299 -15.82 0.0007778431    1.587    0.370
       158  -8.3403    150.3077     71.3249   7.9866344308e+01   3.7914154561e+01    0.1564187    0.1203327  11.98 0.0003971546    1.650    0.394
       159  -8.4086    176.3181     70.3311   7.4155057022e+01   3.1711064574e+01    0.1606819    0.1185581  17.87 0.0006022602    1.688    0.408
       160  -9.0279    163.7705     70.0538   7.6574152954e+01   3.4870199298e+01    0.2564491    0.1800981   3.63  0.001077888    1.983    0.496
       161  -8.4148    170.5042     69.5095   7.5041994690e+01   3.3295274926e+01    0.1547116    0.1469485   8.62 3.894816e-06    1.078    0.072
       162  -8.6527    199.4285     68.4777   6.9463441087e+01   2.6217634539e+01     0.151365    0.1425536  -0.25 0.0002070534    1.068    0.064
       163  -8.3902    157.4744     68.4681   7.7406271301e+01   3.6686217420e+01    0.1531699    0.1476359   1.81 5.058906e-05    1.054    0.051
       164  -8.8165    194.3938     66.7554   6.9808722604e+01   2.7739722953e+01    0.2144309    0.1446631 -16.13 0.0009408628    1.640    0.390
       165  -9.9928    197.5010     63.1815   6.8232047218e+01   2.7494295592e+01     0.320437    0.2146674  24.69 0.0007340773    1.892    0.471
       166  -9.4395    203.5423     65.1943   6.7838497653e+01   2.5678735974e+01     0.346149    0.2529539  21.60  0.001107726    1.638    0.390
       167  -9.0293    146.8240     64.9933   7.8645621480e+01   3.9869403579e+01    0.2575674    0.1804508  -0.29  0.001084182    2.014    0.503
       168  -8.5945    171.4762     62.5385   7.2692674557e+01   3.4191768610e+01    0.1531318    0.1481265   4.37 0.0001841627    1.042    0.041
       169  -8.5113    192.6705     61.6776   6.8590755406e+01   2.8942166232e+01     0.160509    0.1153567  22.44 0.0006157401    1.695    0.410
       170  -8.4239    183.4922     95.4754   7.9935977018e+01   2.5744984438e+01    0.1497087    0.1442813   6.20 0.0003477939    1.027    0.026
       171  -8.6691    158.3692     59.8438   7.4466284809e+01   3.7921921213e+01    0.2240434     0.145433 -18.90 0.0008408692    1.767    0.434
       172 -10.4876    207.1377     57.6023   6.5067055245e+01   2.5868513771e+01    0.3579959    0.2456663  13.00  0.001575006    1.895    0.472
       173  -8.4563    165.3400     58.3143   7.2552426162e+01   3.6420093697e+01    0.1622618    0.1175066  22.06 0.0007047405    1.701    0.412
       174  -8.9913    179.5995    124.2453   8.7914813961e+01   2.1668502584e+01    0.2699261    0.1362504 -41.66  0.001126908    2.040    0.510
       175  -9.1485    208.1929     63.3494   6.6573075410e+01   2.4785884522e+01    0.2529798    0.1993659 -12.66 0.0007076091    1.323    0.244
       176 -10.1902    210.0254     90.5316   7.3813196645e+01   2.0283949434e+01    0.2902947    0.2122211 -20.74  0.000831691    1.378    0.274
       177  -8.4902    169.6667     54.6310   7.0520291367e+01   3.5898479568e+01    0.1669018    0.1165587  20.14 0.0007030512    1.832    0.454
       178  -8.9839    127.1328     54.1967   7.9711544872e+01   4.6381744821e+01    0.1983696    0.1736962 -68.48 0.0002711564    1.288    0.223
       179  -8.9075    201.7257     52.0347   6.4239834580e+01   2.8023276749e+01     0.228214    0.1548678  36.69  0.001025296    1.659    0.397
       180  -8.5645    164.5157     93.4720   8.3236469217e+01   3.0549322586e+01     0.149934    0.1461601   6.16 0.0003590389    1.038    0.037
       181  -8.8013    163.5170     51.5244   7.0690166615e+01   3.7950394787e+01    0.1542745    0.1464231  13.13 0.0008088236    1.075    0.070
       182  -9.1487    172.1002     49.9755   6.8550781149e+01   3.5978789754e+01    0.2181388    0.2149961   1.97  0.001185221    1.015    0.015
       183  -8.9262    188.6755     91.9846   7.8003164845e+01   2.5105413980e+01    0.2199001    0.1917116 -29.52 0.0007733615    1.128    0.113
       184  -8.9671    196.6248     91.2225   7.6332514234e+01   2.3340580442e+01    0.2152714    0.1406865 -19.89 0.0009461319    1.685    0.407
       185  -8.4004    173.9653     33.9953   6.2908415453e+01   3.7727981696e+01    0.1770005     0.170889  62.44            0    1.044    0.042
       186  -8.3387    128.2119     91.3585   9.0995033818e+01   3.9043582393e+01    0.1887138    0.1383608  59.50            0    1.474    0.322
       187  -8.7007    192.4010    129.2571   8.6596126274e+01   1.8075120835e+01    0.1967344    0.1310508 -45.90 0.0006799907    1.646    0.393
       188  -8.3970    183.3108     89.3150   7.8292337898e+01   2.6832524848e+01    0.1556793    0.1170376  15.71 0.0004860983    1.635    0.388
       189  -8.2549     15.0150     18.0279   1.0625960539e+02   7.0817689410e+01    0.1357677    0.1036299 -43.70 0.0009480499    1.009    0.008
       190  -9.4468    156.3369     14.3343   5.8851973576e+01   4.4757401327e+01    0.1615811    0.1037106  31.74 0.0007051947    1.744    0.427
       191  -8.8802    197.5940     86.2491   7.4804373629e+01   2.3906024932e+01    0.2147398      0.14297 -18.68 0.0009499352    1.650    0.394
       192 -10.5279    206.0154     84.2290   7.2791802309e+01   2.2201638865e+01    0.2718098     0.208572 -25.94 0.0008341527    1.269    0.212
