#   1 NUMBER                 Running object number                                     
#   2 MAG_AUTO               Kron-like elliptical aperture magnitude                    [mag]
#   3 X_IMAGE                Object position along x                                    [pixel]
#   4 Y_IMAGE                Object position along y                                    [pixel]
#   5 X_WORLD                Barycenter position along world x axis                     [deg]
#   6 Y_WORLD                Barycenter position along world y axis                     [deg]
#   7 A_WORLD                Profile RMS along major axis (world units)                 [deg]
#   8 B_WORLD                Profile RMS along minor axis (world units)                 [deg]
#   9 THETA_WORLD            Position angle (CCW/world-x)                               [deg]
#  10 FWHM_WORLD             FWHM assuming a gaussian core                              [deg]
#  11 ELONGATION             A_IMAGE/B_IMAGE                                           
#  12 ELLIPTICITY            1 - B_IMAGE/A_IMAGE                                       
         1 -16.0133      7.6982    214.4339   8.3907608909e+01   2.6051171120e+01     4.316609     1.079579  89.41   0.01470436    4.701    0.787
         2 -15.7624    149.3804     65.7628   1.6831055893e+01   3.8612955089e+01     5.434339    0.9370834 -35.35   0.01233968    7.093    0.859
         3 -13.3517      2.5452     20.6593   6.4266786802e+01   7.6720056442e+01    0.5942014    0.1196511 -63.14  0.001976719    4.264    0.766
         4 -11.0410    199.3012     13.4464   3.5732810631e+02   3.4531670475e+01    0.2516906    0.1387098 -51.66  0.001477349    1.406    0.289
         5 -13.4509      3.8659      4.5052   5.3731890378e+01   7.9885072415e+01     0.532326    0.3722477 -30.84  0.003208942    1.369    0.269
         6 -11.5286    192.0797    194.0229   3.6876610820e+01   8.2087605466e+00    0.4987429    0.2552503 -60.02  0.001670724    6.553    0.847
         7 -15.1861    194.0749    104.5496   1.9210896898e+01   2.2857916801e+01      1.94638    0.6275699  52.04  0.007595891    3.582    0.721
         8 -15.6651    244.3537    240.5413   3.5405539081e+01  -3.1440186561e+00     2.424287     1.340814 -31.82   0.01820564    1.559    0.359
         9 -16.4861    226.5926    156.7289   2.4809213997e+01   9.6444045805e+00     6.512536    0.7264799 -41.48   0.01696623    7.825    0.872
        10 -18.2403    239.8064    102.0240   1.2887946850e+01   1.5815358129e+01     7.211736     2.354581 -39.95   0.03421282    2.266    0.559
        11 -13.4012    158.4159    101.6026   2.4646031404e+01   3.0230017296e+01    0.6442748     0.337818 -55.24 0.0008308959    2.144    0.534
        12 -14.3208    133.1601    143.5887   3.9982982638e+01   2.6489961387e+01     1.442168    0.3688082 -55.49  0.003217364    7.166    0.860
        13 -15.2002    146.2679    111.8566   2.9698162822e+01   3.0695046075e+01     1.142761    0.9399995  23.73  0.005988745    1.434    0.303
        14 -13.9731    134.6822    107.8552   3.1383121378e+01   3.3887794080e+01     1.839612    0.2299692 -45.15  0.003714156    7.758    0.871
        15 -13.7667    143.5878    101.9015   2.7812442061e+01   3.3245177593e+01    0.5775276    0.4640767 -46.24  0.001169817    1.189    0.159
        16 -16.0682    247.2120     67.8199   5.5461670681e+00   1.9311085688e+01     1.673032    0.7249057 -35.32  0.009214199    1.810    0.448
        17 -10.4841     60.5067    150.4673   6.2850655473e+01   3.6638946353e+01    0.1539651    0.1422253  53.46 0.0001934769    1.027    0.026
        18 -12.1779     69.3213    145.6559   5.9134132577e+01   3.6685863721e+01    0.4095865    0.3059408  53.18  0.001658925    1.353    0.261
        19 -12.7046     66.3187    143.6701   5.9821369929e+01   3.7647705670e+01    0.4733688    0.3495783 -87.11  0.002204226    1.519    0.342
        20 -14.1276      2.9799    128.1249   8.1616873129e+01   4.8448408943e+01    0.9807264     0.382987 -81.47  0.003748015    2.388    0.581
        21 -15.0995    119.1820    229.8615   5.7227403753e+01   1.1041175840e+01     1.422866     0.842137 -26.86   0.00751497    2.034    0.508
        22 -12.4766    160.4926    128.4927   3.0512855901e+01   2.4656284972e+01    0.3621185    0.2476845 -57.09  0.001789412    1.610    0.379
        23 -14.1148     48.8791    124.1247   6.2907557660e+01   4.5376725151e+01    0.8507557    0.6032846 -52.56  0.002041486    1.439    0.305
        24 -14.5866     40.7089    122.7185   6.5910864783e+01   4.6773721341e+01    0.9895838    0.8264964 -29.92  0.003448079    1.339    0.253
        25 -13.5584     32.5894    123.8813   6.9349545541e+01   4.7336125357e+01    0.4898793    0.3830681   7.99  0.001122097    1.404    0.288
        26 -12.5577    177.4564    107.1878   2.2479201094e+01   2.5464846459e+01     0.417376    0.3190987  39.80    0.0019487    1.512    0.338
        27 -12.3957    158.8651    108.9587   2.6345649185e+01   2.8744129941e+01    0.3850414    0.2060162  46.61   0.00151861    2.012    0.503
        28 -14.5829    142.7585    123.5851   3.3275020701e+01   2.8978829305e+01     0.781754    0.6359358  69.53  0.003757254    1.465    0.317
        29 -13.4600    176.4428     97.9433   2.0491427328e+01   2.7285000101e+01    0.4238445    0.3246164 -34.72  0.001413586    1.260    0.206
        30 -12.6183    131.4007     98.9779   2.9879596135e+01   3.6430342909e+01    0.3570396    0.2565253 -50.36  0.001706524    1.360    0.265
        31 -13.0182    188.8510     89.0066   1.6453896306e+01   2.6381947180e+01    0.3136985    0.1683731 -39.56 0.0008946224    1.622    0.384
        32 -15.5515    141.8542    136.8068   3.6442673902e+01   2.6377071632e+01     1.792681     1.252284 -56.26  0.008734105    1.531    0.347
        33 -12.5894    183.4552     78.7371   1.4790272547e+01   2.9100094787e+01    0.4499715     0.275111 -21.81  0.001807772    2.211    0.548
        34 -10.0026    216.6189    170.3198   2.8707636171e+01   8.8556164531e+00    0.1057051   0.09160783 -67.43 0.0007022157    1.827    0.453
        35 -12.7044    194.1434     78.1770   1.3200081770e+01   2.7076510254e+01    0.2502903    0.1807072 -35.62 0.0005547673    1.298    0.229
        36 -12.5576    192.6131     74.7527   1.2594784296e+01   2.7900355140e+01     0.320935    0.2148058  53.73   0.00142708    1.744    0.427
        37 -11.7555    204.0764     75.0461   1.1252944117e+01   2.5661048205e+01    0.2360269    0.1490188 -39.57 0.0005480336    1.339    0.253
        38 -12.6820    192.5077    165.8013   3.1899830384e+01   1.2735702833e+01    0.4196914    0.3164098 -36.00  0.002105817    1.199    0.166
        39 -13.3193      2.6633     58.4987   7.4549788856e+01   6.7613536263e+01    0.7042414    0.1696469 -74.00  0.002235608    3.787    0.736
        40 -10.6045    198.0253     56.3326   7.6058962188e+00   2.9518411101e+01    0.1746629    0.1423814 -68.49 0.0005523188    1.119    0.106
        41 -10.7690    185.1925     52.1733   8.0088414694e+00   3.2729706731e+01    0.1931482    0.1287408 -58.97  0.001073062    1.344    0.256
        42 -11.3039    189.9448     47.3186   6.2844959748e+00   3.2399053804e+01    0.2131027    0.1640159 -37.40 0.0003751198    1.277    0.217
        43 -13.4489      3.3000     38.2009   6.9601048745e+01   7.2657211116e+01    0.4318614     0.283741  50.49  0.002231077    1.835    0.455
        44 -10.8283    219.6024    211.3081   3.4944616730e+01   2.6540804585e+00    0.1599802    0.1185308  27.59  0.000646886    1.597    0.374
        45 -11.5969    200.3143    165.1292   3.0426030182e+01   1.1775287705e+01    0.2537472    0.2041304  -9.11  0.001199855    1.152    0.132
        46 -10.8098    200.9848    160.9696   2.9551197723e+01   1.2358994078e+01    0.2995744    0.1874433 -19.53  0.001310172    1.689    0.408
        47 -12.7900    246.2720    200.7162   2.9335504917e+01   1.4552252314e+00    0.2307916    0.1742235  21.56  0.001665568    1.557    0.358
