#   1 NUMBER                 Running object number                                     
#   2 MAG_AUTO               Kron-like elliptical aperture magnitude                    [mag]
#   3 X_IMAGE                Object position along x                                    [pixel]
#   4 Y_IMAGE                Object position along y                                    [pixel]
#   5 X_WORLD                Barycenter position along world x axis                     [deg]
#   6 Y_WORLD                Barycenter position along world y axis                     [deg]
#   7 A_WORLD                Profile RMS along major axis (world units)                 [deg]
#   8 B_WORLD                Profile RMS along minor axis (world units)                 [deg]
#   9 THETA_WORLD            Position angle (CCW/world-x)                               [deg]
#  10 FWHM_WORLD             FWHM assuming a gaussian core                              [deg]
#  11 ELONGATION             A_IMAGE/B_IMAGE                                           
#  12 ELLIPTICITY            1 - B_IMAGE/A_IMAGE                                       
         1 -13.1122     10.5106     49.7961   9.3780443371e+01   6.6716230548e+01     2.419946     1.193066 -77.49  0.009255632    4.096    0.756
         2 -13.0076     37.8176     49.8051   7.9598951415e+01   6.3956288927e+01    0.9875269     0.779316 -48.95  0.005769487    1.391    0.281
         3 -11.4727    128.8414     18.8319   3.8331772725e+01   4.9689716078e+01    0.3690554    0.2686384   6.19 0.0003905174    1.826    0.452
         4 -11.5604     22.8959     24.1472   7.6713615286e+01   7.0360657321e+01    0.5407884    0.2393475 -30.07  0.002416724    2.384    0.581
         5 -10.9690    185.4011     23.0762   3.2022029619e+01   3.5882422167e+01    0.3257872    0.2224844 -17.56  0.001827329    1.937    0.484
         6 -10.1538     15.0856     13.8092   7.6304503176e+01   7.2882375695e+01    0.2193073    0.1451386 -29.76 0.0004133703    1.375    0.273
         7 -10.4118      9.7085     15.7962   8.0842199608e+01   7.3141745032e+01    0.2948065    0.1657941 -22.33  0.001210887    1.666    0.400
         8 -11.8934      3.3781     16.6552   8.5562135129e+01   7.3566077520e+01    0.4023119    0.2688585  37.41  0.001758142    2.034    0.508
         9 -11.4554    160.1139     22.5584   3.4814135680e+01   4.1796533805e+01    0.4135745    0.3045668  16.82  0.001865322    1.974    0.493
        10 -11.4251     48.6136     15.2102   5.9084479583e+01   6.7717278589e+01    0.7603626    0.3634509  37.92   0.00375994    1.850    0.459
        11  -9.7168     43.2796      8.1469   5.7778022071e+01   6.9467518311e+01     0.293127    0.2375958 -33.45  0.001915968    1.526    0.344
        12 -12.0126     40.7773     16.6779   6.3422951403e+01   6.8884023772e+01    0.4554062    0.3553622 -48.25   0.00170174    1.845    0.458
        13 -10.9144     39.8549     11.1070   6.0955349778e+01   6.9723276244e+01    0.3015368    0.2119033  47.90 0.0005341556    1.588    0.370
        14 -10.3407     34.3787     15.7576   6.6151126058e+01   7.0021631274e+01    0.3362282    0.2075809   0.86  0.001295971    1.822    0.451
        15 -11.9524    237.9624     17.6889   2.6532284474e+01   2.5544435018e+01    0.2783213    0.1737121 -76.72 0.0003531407    1.423    0.297
        16 -10.1642     74.5489      2.3906   4.3748033101e+01   6.3765010134e+01    0.2336414    0.1775381  88.65 0.0008369038    1.719    0.418
        17 -10.3887     73.6068      6.5344   4.5891808768e+01   6.3624328161e+01    0.2641493    0.2053266 -34.42  0.001635882    1.529    0.346
        18 -11.2889     78.2952     10.7779   4.6428322510e+01   6.2225104231e+01    0.7652496    0.2790781  48.24  0.002615771    2.221    0.550
        19 -10.2795     70.5191     13.8818   5.0181867990e+01   6.3585813874e+01    0.2328558    0.1887827  -0.55  0.000851727    1.288    0.223
        20 -11.3645     61.1856     14.4329   5.3665328690e+01   6.5430270981e+01    0.4712118    0.3242679  75.07  0.002409842    2.360    0.576
        21 -10.5708     20.8066     15.7169   7.3750203289e+01   7.1917868415e+01    0.7194698    0.4358802   0.19  0.004032867    1.738    0.425
        22 -10.3725    116.4913     14.5455   3.9086638346e+01   5.3072797902e+01    0.4614215    0.2055475  39.60  0.001933228    2.646    0.622
        23 -10.1717    131.4666     14.0206   3.6352176961e+01   4.9527342460e+01    0.3466827    0.2178517  11.77  0.001610578    2.400    0.583
        24 -12.1728    128.1650     10.8445   3.5847629124e+01   5.0614381669e+01    0.3074532    0.2590116 -62.14 0.0004519502    1.265    0.210
        25 -11.5851    233.5949     11.3719   2.5570522579e+01   2.7061841017e+01    0.2343665    0.1769258 -55.52 0.0009713424    1.116    0.104
        26 -12.1702    234.7801      4.7944   2.4220267954e+01   2.7518532923e+01    0.3936792    0.2938884  35.71  0.002227609    2.306    0.566
        27 -10.0625    156.9669     11.9584   3.2260956915e+01   4.3621927830e+01    0.2130247     0.131524 -66.54  0.001133603    1.693    0.409
        28 -10.2752     23.3569      7.8205   6.7907430844e+01   7.2669804627e+01    0.3642479    0.1580106  44.43  0.001456464    2.805    0.644
        29 -11.1835      8.2766      9.3369   7.8435609853e+01   7.4286640332e+01    0.4822084    0.2740881  11.46  0.002835005    1.650    0.394
        30 -11.2527    164.4202      7.0922   3.0114032504e+01   4.2328686290e+01    0.4863828    0.1990318 -24.49  0.002159634    2.872    0.652
        31 -11.1683     73.2341     16.8589   5.0645114851e+01   6.2704746650e+01    0.6624718    0.2449985  48.04  0.002823688    2.241    0.554
        32 -12.6326    213.8940      6.1569   2.5773340975e+01   3.1518984385e+01    0.6725996    0.3865368 -66.51  0.004093932    1.504    0.335
        33  -9.7477    150.5500      5.5687   3.1215865307e+01   4.5725964545e+01    0.2232075    0.1388554  73.58 5.639084e-05    1.382    0.276
        34 -11.3473    146.3668      6.7672   3.2061207542e+01   4.6614832401e+01     0.323807    0.2976429 -35.04  0.001972096    1.265    0.209
        35 -11.3931    149.0745      1.9506   3.0353918301e+01   4.6383150686e+01    0.3700094    0.1797307  74.01 0.0004782277    1.767    0.434
        36 -10.5386    240.9277      9.2409   2.4724876489e+01   2.5897653132e+01    0.1749396    0.1110718 -65.76 0.0005160381    1.246    0.197
        37 -10.1275    118.1556      8.2377   3.6611474906e+01   5.3241959828e+01    0.1937582     0.169524  21.10 0.0005878831    1.308    0.235
        38 -11.1679    194.8784      1.8062   2.6153753725e+01   3.5956475018e+01    0.5133051    0.1851797  63.65  0.002448292    2.559    0.609
        39 -10.5900    191.2371      7.6251   2.7776333281e+01   3.6194946924e+01    0.3260972    0.2614868 -85.15  0.001385184    1.055    0.053
        40 -10.5266    187.3063      5.6700   2.7639989743e+01   3.7251786630e+01    0.2278495    0.1642516 -84.06 0.0007536264    1.183    0.155
        41 -10.5342    155.7809      6.7331   3.0946585284e+01   4.4386363437e+01    0.3269056    0.1940832  34.18  0.001172602    2.379    0.580
        42 -10.6151     90.8536      6.8514   4.1529342734e+01   5.9762875755e+01    0.4307397    0.1743647  55.44  0.001964784    1.957    0.489
        43 -10.6032     98.6832      4.0382   3.8708546844e+01   5.8184833570e+01    0.3087555    0.2682212 -68.87  0.001309275    1.333    0.250
        44 -11.5748     27.6804      3.2977   6.2818014731e+01   7.2582037971e+01    0.2517835    0.2195377  44.12 0.0008533776    1.560    0.359
        45 -10.0483     32.7086      1.2740   5.8971716688e+01   7.1999854507e+01    0.3408692    0.1016727  44.44  0.001445454    2.889    0.654
        46 -11.3912     19.9839      3.0450   6.7129218962e+01   7.3733826465e+01    0.6857623    0.2927925  20.46    0.0029763    3.106    0.678
        47 -11.3206     11.8376      2.8398   7.2250258987e+01   7.4808715749e+01    0.3497267     0.235429  -0.82  0.002289349    1.277    0.217
        48 -10.9049    202.5267      3.3672   2.5952463712e+01   3.4167791488e+01    0.3196758    0.2093902  52.95   0.00196629    1.880    0.468
        49 -10.6087    179.0494      4.0417   2.7946779223e+01   3.9252212947e+01    0.2364051    0.1509679  86.90 0.0004300422    1.371    0.270
        50 -11.4904    119.6522      3.9565   3.4907048995e+01   5.3237921490e+01    0.3827363    0.1698874  73.40  0.001245322    2.089    0.521
        51 -10.3325     68.1684      3.5719   4.6145665809e+01   6.5037616231e+01    0.1890305    0.1618854  19.38 0.0006524232    1.143    0.125
        52 -10.7008    243.0126      2.9340   2.3425334994e+01   2.6161565782e+01    0.1711496    0.1273858 -62.88 0.0007909301    1.033    0.032
        53 -10.7769    223.5783      3.1727   2.4547755624e+01   2.9861724257e+01    0.2128246    0.1256322  62.77  0.001207611    1.890    0.471
        54  -9.9820    126.2992      2.8767   3.3542136901e+01   5.1735602102e+01    0.1622276    0.1557087  56.10 0.0004422415    1.160    0.138
        55  -9.6122    137.8402     10.8260   3.4401727418e+01   4.8291402220e+01    0.1804419    0.1364445 -76.94 0.0005203793    1.342    0.255
        56  -9.2800    177.2729    168.6687   6.8386425709e+01   1.2870355388e+01    0.1334895    0.1153226 -76.83 0.0002372082    1.592    0.372
        57 -10.2025    247.3154    249.9991   6.9719122472e+01  -9.4781544144e+00    0.1582826    0.1099263 -10.51  0.001162578    1.065    0.061
        58 -11.7318     88.9572    249.4403   1.0119877904e+02   1.0344297982e+01      0.34802    0.2377591  31.38 0.0008925018    1.257    0.205
        59 -10.1898     72.4303    250.1694   1.0484691517e+02   1.2297572077e+01    0.2126352    0.1596172  13.08  0.001299076    1.548    0.354
        60 -13.1141     18.9886    237.1709   1.1531075744e+02   2.0858268157e+01     1.813035    0.3764469  53.33   0.00628119    4.527    0.779
        61 -11.5941      5.2374    235.7436   1.1807589791e+02   2.2435268717e+01    0.3574092    0.3159679  25.51  0.002664392    1.392    0.282
        62 -13.2194      6.7917    244.9351   1.1816319306e+02   2.0447146236e+01     0.880024    0.5983652  36.82   0.00456176    1.361    0.265
        63 -12.6332     22.2909    248.8247   1.1525420440e+02   1.8197532490e+01    0.7830876    0.2456069  32.73  0.003694919    2.541    0.607
        64 -11.4398     17.2289    247.3691   1.1619773287e+02   1.8982506088e+01    0.3309346    0.1997393  44.66  0.002056124    1.327    0.246
        65  -9.5546      4.6974    168.6733   1.1438416826e+02   3.7798184318e+01    0.1300321   0.08619732 -49.36 0.0005992424    1.643    0.391
        66 -11.3118     44.5488    162.6730   1.0250060989e+02   3.5672170941e+01    0.3539018    0.2506869 -68.70  0.001559478    1.329    0.247
        67  -9.3389    111.5560    164.4882   8.3510511608e+01   2.5461507453e+01    0.1499672    0.1464717  -2.21 0.0001985425    1.013    0.013
        68  -9.1256    200.5212    162.4799   6.2438827777e+01   1.0086730407e+01    0.1380745     0.122287 -23.12 0.0008096247    1.041    0.039
        69 -12.7265     20.8866    157.5256   1.0885863206e+02   3.9345990103e+01    0.6594545    0.4143412  12.92 0.0009214548    1.923    0.480
        70  -9.6872    216.2864    155.0314   5.8054458401e+01   8.8304643156e+00    0.1868064     0.151042 -32.26 0.0003082406    1.077    0.071
        71 -11.0323     10.3166    152.7847   1.1149461899e+02   4.1401400253e+01    0.2813604    0.2073119  46.68 0.0005124581    1.396    0.283
        72  -9.1023    222.7064    152.3053   5.6411126174e+01   8.2724494147e+00    0.1231822   0.09957221 -60.70 0.0003531237    1.579    0.367
        73 -10.0916    177.3985    150.6539   6.4554145400e+01   1.6422220720e+01    0.2729667     0.225392  77.37  0.001391728    1.696    0.410
        74 -10.4645    207.0424    146.6852   5.7943349766e+01   1.1860776024e+01    0.1860005     0.171878  -3.64 0.0005894618    1.106    0.095
        75  -9.5657     19.3713    146.1906   1.0809067343e+02   4.2403414489e+01    0.1972674    0.1166776 -87.65 0.0004468322    1.682    0.406
        76  -9.6958    220.3716    143.8287   5.5057437807e+01   1.0113426602e+01     0.190786    0.1098865 -31.31 0.0005269348    1.604    0.377
        77  -9.5231      3.0160    143.9713   1.1286594242e+02   4.4150874139e+01     0.157651    0.1347092 -82.21 0.0004158167    1.002    0.002
        78  -9.8953     57.5265    138.5298   9.4761807974e+01   4.0401569667e+01    0.2707665    0.1842482  40.79 0.0008722663    1.520    0.342
        79 -11.5968      9.1518    136.5404   1.1023912103e+02   4.5664684649e+01    0.2677668    0.1888025 -67.47 0.0003183773    1.225    0.183
        80  -9.3463    143.5640    137.4505   6.9288014831e+01   2.5740928642e+01    0.1517961    0.1476531 -29.84 0.0001870183    1.030    0.029
        81 -10.3712     17.3780    137.1277   1.0766905552e+02   4.4918910856e+01    0.2003196    0.1820141 -18.14 0.0005880317    1.254    0.203
        82  -9.7962     21.0022    135.0015   1.0622756564e+02   4.5185741033e+01    0.2131604    0.1721587  84.61 0.0007263043    1.225    0.184
        83 -10.3707      2.6844    136.3368   1.1226329060e+02   4.6126267140e+01    0.3064523    0.1313581 -69.48  0.001379641    1.903    0.475
        84  -9.8856    249.1549    133.9037   4.8734325932e+01   7.2051283645e+00    0.1841961    0.1453372 -44.93 0.0004686382    1.186    0.157
        85  -9.4533    122.6981    134.7007   7.4072420538e+01   3.0488660751e+01    0.1573604    0.1225855  -9.58 0.0003344636    1.583    0.368
        86 -10.2213     79.8676    132.7969   8.6397131752e+01   3.8648760620e+01    0.2283619    0.2045683 -20.59 0.0004755391    1.181    0.153
        87 -11.5388     54.1921    132.5261   9.4772294843e+01   4.2396636941e+01    0.4528632    0.2466808  33.54  0.001087346    1.876    0.467
        88  -9.4869     47.9938    133.5492   9.7029977099e+01   4.2885202607e+01    0.2133931     0.144015  27.18    0.0010215    1.573    0.364
        89 -11.2677     36.5232    130.3039   1.0035845611e+02   4.4996180561e+01    0.5160642    0.2652459 -44.97   0.00198519    1.964    0.491
        90 -11.1796     73.9955    129.1305   8.7514344593e+01   4.0501341242e+01     0.347429     0.321275 -86.82 0.0007766513    1.147    0.128
        91 -11.2957     24.0249    125.9404   1.0397246859e+02   4.7301726468e+01    0.3005277    0.2115658  20.43 0.0009293729    1.584    0.369
        92 -11.1865     20.0185    121.9705   1.0479072172e+02   4.8661021408e+01    0.3111254    0.1438758 -39.10  0.001285217    2.393    0.582
        93  -9.6613    220.1520    124.1380   5.0939773439e+01   1.3551010625e+01    0.1834413    0.1427317 -53.41 0.0004482924    1.304    0.233
        94  -9.4116    243.7196    122.6745   4.7232085637e+01   9.8325247846e+00    0.1224491   0.08903161 -14.93 0.0003641436    1.594    0.373
        95 -11.0417     15.5907    125.6200   1.0682505458e+02   4.8046759661e+01    0.4806617    0.2143102  25.61  0.002122239    2.387    0.581
        96 -10.4217     73.2571    117.9524   8.5262058430e+01   4.3445303094e+01     0.445657     0.269497 -84.15  0.001441769    2.906    0.656
        97  -9.7627      1.4198    118.9275   1.1087981550e+02   5.0660138220e+01     0.199369    0.1107455 -73.30 0.0003549404    1.522    0.343
        98 -10.8368     10.9913    122.9648   1.0806199145e+02   4.9053934096e+01    0.2758058    0.2280949  56.10 0.0009472904    1.317    0.240
        99  -9.4370    179.1972    116.1798   5.6278194475e+01   2.2848221249e+01    0.1982341    0.1699266 -69.33 0.0006549656    1.305    0.234
       100  -9.9460     85.8229    116.1308   8.0623250326e+01   4.1819196977e+01    0.2185111    0.1777973 -26.29 0.0006583601    1.318    0.241
       101 -11.1431     16.6639    115.1292   1.0498796686e+02   5.0685455871e+01    0.3922437    0.2276838 -30.76   0.00125107    1.946    0.486
       102  -9.7691    214.1472    115.1724   4.9928792806e+01   1.6177340521e+01    0.1974213    0.1715591 -18.87 0.0004076466    1.205    0.170
       103 -10.9099    249.3897    112.3055   4.4421717309e+01   1.0558542896e+01    0.2281057    0.1775307 -49.36 0.0006349029    1.160    0.138
       104 -10.4814     94.7495    112.4318   7.6803924557e+01   4.1105207627e+01    0.3050277    0.2877571 -32.30  0.001159829    1.038    0.037
       105 -11.6368     37.0122    110.4774   9.6661160385e+01   5.0096194733e+01    0.4736861    0.3649862  86.15  0.002455244    1.516    0.341
       106 -11.8366     14.4377    108.9286   1.0487401514e+02   5.2435423488e+01    0.5172637    0.3100933  -6.87  0.002527774    2.053    0.513
       107 -10.3430      1.3242    108.3240   1.0965733362e+02   5.3365014785e+01     0.377581    0.1450326 -68.82  0.001494852    2.083    0.520
       108 -10.0186      2.3468    105.2905   1.0888716731e+02   5.4081345468e+01    0.2637886    0.1163822 -55.60 0.0007314512    1.821    0.451
       109 -11.3594     23.5913    106.1034   1.0093279831e+02   5.2465605381e+01    0.3910132    0.2878513  72.54  0.002049297    1.637    0.389
       110  -9.6483     25.9633    102.2477   9.9301232645e+01   5.3244320925e+01    0.1817583     0.171441 -29.61 0.0002900361    1.091    0.083
       111 -11.7101     55.1662    109.4601   8.9697525349e+01   4.8206566398e+01    0.4699069    0.2753399 -48.52 0.0006754357    1.587    0.370
       112 -11.0372    120.1998    101.0770   6.6128858318e+01   3.8564261831e+01     0.763531    0.3114696 -32.53  0.002234934    3.764    0.734
       113 -10.3580     52.0114    103.9360   8.9592476813e+01   5.0003952139e+01    0.2438609    0.1621618 -28.74 0.0006908688    1.680    0.405
       114 -10.2410     38.1614    103.6004   9.4818956553e+01   5.1723909700e+01    0.2517709     0.154304 -55.53 0.0009289549    1.455    0.313
       115 -10.6387     77.5184    102.5057   7.9927143635e+01   4.6529699032e+01    0.2762709    0.1332496  45.77  0.001028183    2.335    0.572
       116 -10.8829     20.4287    100.3237   1.0112181982e+02   5.4184992454e+01     0.505541    0.2660989 -13.75   0.00203406    2.530    0.605
       117 -11.5816    143.5748     98.3251   5.9372015960e+01   3.4017466125e+01    0.6209255    0.4207078  55.54  0.002828839    1.561    0.359
       118 -10.7434     50.0692     99.4260   8.9257143047e+01   5.1370507957e+01    0.4597981    0.2683947  -1.16  0.001186925    2.519    0.603
       119 -11.5279     14.5484     96.7163   1.0282085840e+02   5.5520342705e+01    0.4808214    0.1993587 -57.23  0.002100255    1.921    0.480
       120 -11.5009     10.8021     90.8699   1.0331316984e+02   5.7218335140e+01    0.3844533    0.2208631  21.29 0.0007220003    1.928    0.481
       121 -10.0783      5.3352     97.9858   1.0670314145e+02   5.5763635975e+01    0.1876958    0.1575608 -58.43 0.0005283949    1.006    0.006
       122  -9.5287    205.5128     97.4960   4.7287360821e+01   2.0857430899e+01     0.137489       0.1215 -49.48 0.0001179251    1.015    0.015
       123 -11.7592    161.9132     95.1705   5.4477020335e+01   3.0536666096e+01    0.5831392    0.2909815 -36.65  0.002344685    2.024    0.506
       124 -10.5612    173.4911     83.4687   4.9186399355e+01   3.0047491638e+01    0.2327964    0.1775885 -15.04 0.0006605716    1.658    0.397
       125 -12.2823    158.0143     89.9884   5.3908703682e+01   3.2369925198e+01    0.5668679    0.3075254 -37.77  0.002394199    1.833    0.455
       126 -11.5963    156.6651     82.9209   5.2272665235e+01   3.3953921313e+01    0.7466872     0.459435  34.45  0.003200558    2.091    0.522
       127 -12.1735    166.6416     83.6965   5.0514456753e+01   3.1547618473e+01    0.7679008      0.51727  62.21  0.003702037    1.573    0.364
       128 -10.0496     37.7515     94.6420   9.2989816561e+01   5.4000398165e+01     0.228544    0.2003928 -86.19  0.001172111    1.305    0.234
       129  -9.8915     37.8403     90.3727   9.1938635295e+01   5.5033520423e+01    0.4775024     0.182429 -40.11  0.001716719    2.814    0.645
       130 -10.7964     65.5472     93.5654   8.1826297512e+01   5.0588380481e+01    0.5525743    0.2141156  34.72  0.001982213    2.603    0.616
       131  -9.5258      7.5172     94.4698   1.0527766250e+02   5.6520762520e+01    0.1349085     0.112247 -53.29 3.100059e-05    1.027    0.026
       132  -9.2657    113.4312     93.4525   6.5870254082e+01   4.1619640273e+01     0.152924    0.1469312  -1.37 0.0001145921    1.045    0.043
       133 -11.3151     57.4492     90.5231   8.4086297429e+01   5.2515184847e+01    0.5979506    0.3753355  -3.64  0.002509961    2.259    0.557
       134  -9.6035     31.3633     92.8326   9.5181621462e+01   5.5100562245e+01    0.2105974    0.1078292 -51.18 0.0004993786    1.687    0.407
       135 -11.7079     63.0002     98.6210   8.4138998690e+01   4.9774815503e+01     0.554924    0.3155545  22.15  0.002337869    2.005    0.501
       136  -9.4330     46.5318     92.4563   8.8920998527e+01   5.3515453670e+01     0.142545    0.1331419 -37.21 0.0003488902    1.037    0.036
       137 -10.5702     25.4335     91.1265   9.7262488562e+01   5.6066285325e+01    0.2894067    0.2197227 -60.72  0.000873567    1.212    0.175
       138 -11.7743     22.0188     87.6780   9.7958936649e+01   5.7198810063e+01    0.5200939    0.2448388 -54.01  0.001756281    1.763    0.433
       139 -10.2455     97.2357     89.3533   6.9563852828e+01   4.5843692233e+01    0.2786722    0.1970701  50.02  0.001273938    1.499    0.333
       140  -9.9824     83.1017     88.7570   7.4088697452e+01   4.8696535134e+01    0.2129018    0.2068705  55.71 0.0005582147    1.130    0.115
       141 -11.9569      5.1334     84.1560   1.0450997936e+02   5.9188663729e+01    0.7307662     0.271773 -44.38  0.002825153    2.281    0.562
       142  -9.0674    135.3118     88.6484   5.8662784147e+01   3.7764702621e+01    0.1572111    0.1197458 -78.11 0.0007045275    1.724    0.420
       143 -10.5976     78.4348     87.4124   7.5328229706e+01   4.9838846421e+01    0.2763877    0.2647857 -74.02  0.000818469    1.180    0.153
       144 -10.0416     62.5781     82.6917   7.9833724136e+01   5.3545695452e+01    0.2343466     0.188594  15.47 0.0004132946    1.275    0.216
       145 -10.4848     65.1705     87.5138   8.0255406194e+01   5.2048409166e+01     0.245367    0.2163874 -51.04 0.0009135028    1.160    0.138
       146 -10.9939     67.7027     83.4728   7.8094523270e+01   5.2550956682e+01    0.3813472    0.2304027  17.06  0.001103555    2.073    0.518
       147 -10.4850     45.9415     87.1098   8.7770865469e+01   5.4867014329e+01    0.3657182    0.2997085  36.62  0.001997616    1.335    0.251
       148 -10.1134    120.9613     86.8192   6.1822087114e+01   4.1334594453e+01     0.225107    0.2238399  36.72  0.001206829    1.016    0.016
       149 -10.7546     14.6344     84.0017   1.0036288510e+02   5.8648593990e+01    0.2756341    0.2122784  89.16  0.001550435    1.536    0.349
       150 -10.2818    115.3646     83.8937   6.2486294036e+01   4.3145225391e+01    0.2909477    0.2130193  39.04 0.0006328428    1.376    0.273
       151 -10.9844    161.9718     88.0194   5.2574106027e+01   3.1835464864e+01    0.4067721     0.295696  76.35  0.001006076    1.662    0.398
       152 -10.0641     74.1018     82.3695   7.5364236063e+01   5.1709312429e+01    0.2617017    0.1972345 -32.74 0.0005739503    1.330    0.248
       153 -11.5784     30.9376     80.7135   9.2466379525e+01   5.8064532181e+01    0.4512554    0.2946206 -42.33  0.002327471    1.370    0.270
       154 -12.3713    232.5612    245.5602   7.1520181208e+01  -7.3966684773e+00    0.4619586     0.210257 -27.37  0.002584142    1.991    0.498
       155 -13.1450      5.2599     63.8211   1.0028366171e+02   6.3971909845e+01    0.7766978    0.6191148 -53.18  0.004813065    1.113    0.102
       156 -14.1185     16.5859     67.4954   9.5655873934e+01   6.2390431112e+01    0.6021861    0.4895166 -54.01  0.001130233    1.162    0.139
       157 -11.2253     13.1108     77.2411   9.9605190499e+01   6.0373411467e+01    0.3233362    0.2263539 -46.36  0.001044487    1.204    0.170
       158 -12.0628      8.2540     73.5757   1.0103780048e+02   6.1545651060e+01    0.7742411    0.4148481 -12.95  0.003774509    2.122    0.529
       159 -10.4241    112.7189     79.7729   6.1971212899e+01   4.4529990320e+01    0.3906378    0.1951124  44.30 0.0007280399    1.974    0.493
       160 -10.7234     60.1992     78.2698   7.9427417612e+01   5.4895675795e+01    0.3526413    0.2993597 -14.82 0.0009969241    1.157    0.136
       161 -12.7752     44.6654     75.0020   8.4892865845e+01   5.7817109700e+01    0.2866299    0.2715395   3.55 0.0004426763    1.116    0.104
       162  -9.0321    250.3180     95.6905   4.0993224787e+01   1.2947661772e+01     0.124177   0.08006495 -60.43 0.0003747921    1.638    0.390
       163 -11.0742     93.4159     73.6178   6.5861337611e+01   4.9833212816e+01    0.6106826     0.346319  21.62  0.002258244    2.741    0.635
       164 -10.3624     75.1822     74.9065   7.2597349257e+01   5.3099828290e+01    0.2994106    0.1928078   8.81  0.001249506    2.204    0.546
       165 -11.3339     50.5027     61.7692   7.8071503387e+01   5.9839461637e+01    0.6697663    0.4786672  60.49   0.00323668    2.181    0.542
       166 -10.6658     54.2080     74.3284   8.0640091798e+01   5.6657773245e+01    0.3663172    0.2738632  48.61   0.00109835    1.609    0.379
       167 -11.8191     50.4394     68.4124   8.0339128747e+01   5.8472515745e+01    0.4434614    0.2641375 -48.34  0.001487056    1.629    0.386
       168 -10.4293    207.4721     73.3177   4.1421545714e+01   2.4354242127e+01     0.204299    0.1932066  83.03  0.000329572    1.154    0.134
       169 -10.3829    101.6193     72.3885   6.2883806702e+01   4.8348400652e+01    0.4337616    0.2689951  70.91  0.001647795    2.766    0.638
       170  -9.5257    152.1868     71.8340   5.0097984460e+01   3.6903021696e+01    0.1929074    0.1697124  26.29 0.0005073299    1.303    0.233
       171 -10.7911     42.8578     68.3754   8.3649719540e+01   5.9506381466e+01    0.2908873    0.2209209   2.08  0.001574495    1.353    0.261
       172 -10.9404     36.1657     68.3689   8.6673067408e+01   6.0321200723e+01    0.3934787    0.2010388  42.40  0.001319159    2.426    0.588
       173 -10.2991    194.9112     69.9222   4.2340785392e+01   2.7528509248e+01    0.1970686    0.1803241 -64.64 0.0003933099    1.029    0.028
       174 -10.6041    167.8742     69.7616   4.6575226725e+01   3.3601133400e+01    0.2143676    0.1938703 -45.82 0.0003628728    1.099    0.090
       175 -12.5896    122.5857     63.7896   5.4310234338e+01   4.5177061718e+01    0.4572568     0.357022 -59.90 0.0004965333    1.464    0.317
       176 -10.0561    124.6084     58.0673   5.1989445091e+01   4.5635021015e+01    0.1926171    0.1768599 -30.29 0.0003993722    1.149    0.130
       177  -9.2969    230.3037     68.6924   3.7651246949e+01   2.0510118064e+01    0.1296347   0.08092842 -62.43 0.0003249078    1.604    0.377
       178 -10.0670    130.6241     68.2053   5.3738683924e+01   4.2561995720e+01    0.1947577    0.1414899 -25.07 9.650578e-05    1.562    0.360
       179 -11.4823     94.3436     66.2884   6.3117649733e+01   5.1025001497e+01    0.4668561    0.3359489  11.47  0.000822865    1.776    0.437
       180  -9.9914     98.0389     60.2596   5.9898396736e+01   5.1306548327e+01    0.2042728    0.1800567  39.50  0.001116766    1.079    0.073
       181 -10.4531     18.1744     42.3959   8.7072924268e+01   6.7591330958e+01    0.4176105    0.1643483 -39.09  0.001551127    2.290    0.563
       182 -12.2971     30.5492     64.0896   8.7985516235e+01   6.1877290712e+01    0.7389331    0.5617058 -36.85  0.003726086    1.161    0.138
       183 -11.3383     23.8744     41.6648   8.3668070768e+01   6.7163583324e+01    0.4711911    0.3477503  76.20  0.002339331    2.917    0.657
       184 -11.1914     26.6401     55.6435   8.7206495682e+01   6.4084424896e+01    0.3429764    0.2236421 -46.69 0.0002941229    1.392    0.281
       185 -12.3260    226.1022    245.7906   7.2684404025e+01  -6.7238253034e+00    0.4922808    0.2586813 -15.62  0.002800335    1.891    0.471
       186 -11.8691     26.8103     49.1213   8.4878209789e+01   6.5397295753e+01    0.5212078     0.439363 -63.79    0.0019949    1.509    0.337
       187 -11.5966     35.4501     42.3956   7.7892296928e+01   6.5652884583e+01    0.5946676    0.3290458   7.57  0.002590154    2.332    0.571
       188 -12.8599     27.8483     37.8872   8.0016277935e+01   6.7418324390e+01    0.4274405    0.3106642 -10.40  0.001402461    1.273    0.215
       189 -11.7648     24.2191     34.8130   8.0724770011e+01   6.8390927990e+01    0.3806194    0.2312355   1.36 0.0008321173    1.771    0.435
       190  -9.3369    104.2715     67.6547   6.0535748147e+01   4.8647173891e+01    0.1451184    0.1173993 -75.89 0.0006994645    1.618    0.382
       191  -9.7706    127.5160     66.4519   5.3939990584e+01   4.3583680833e+01    0.1453613    0.1402173  58.74 7.554128e-05    1.006    0.006
       192 -10.7460    151.0595     63.8926   4.8056699579e+01   3.8461298440e+01    0.3669358    0.1824015  46.78   0.00151546    2.113    0.527
       193  -9.4826    143.9428     64.4614   4.9655033169e+01   4.0050968562e+01    0.2107823    0.1378898  56.72 0.0003805867    1.486    0.327
       194 -10.3315     76.5874     63.1751   6.8096042819e+01   5.5156802911e+01    0.2849869    0.2265041  15.59  0.001228237    1.301    0.231
       195  -9.6539    202.4554     61.3327   3.9274343865e+01   2.7192295018e+01    0.2318565     0.123591 -32.38  0.001101703    1.925    0.480
       196 -10.4388    113.0750     61.0426   5.5872056710e+01   4.7824469593e+01    0.2171834    0.2095447  81.64 0.0007387929    1.096    0.087
       197  -9.2286    183.6195     60.2376   4.1565780441e+01   3.1478402806e+01      0.13881   0.09617705 -78.37 0.0006237224    1.630    0.386
       198 -11.2632     77.2662     69.7267   7.0113202639e+01   5.3764947233e+01    0.4282472    0.3022511  47.88 0.0008101673    1.522    0.343
       199 -10.7678     59.3203     58.9718   7.3316023458e+01   5.9018203290e+01    0.3748643    0.3074341  19.82  0.001425277    1.166    0.142
       200 -10.0059     61.5959     54.8283   7.0849864816e+01   5.9415077156e+01    0.5155134    0.3159528  26.38   0.00246466    1.687    0.407
       201 -10.6090    147.6600     57.3459   4.6815574860e+01   4.0280216580e+01    0.3922875    0.2245338 -61.75  0.001629955    2.338    0.572
       202 -10.1166     69.1590     58.0428   6.9037112464e+01   5.7489768427e+01    0.3765146    0.1899827 -54.27  0.001467786    2.789    0.641
       203 -10.8557     74.9432     55.1260   6.5781787752e+01   5.6934820171e+01    0.4627305    0.2275857 -49.89 0.0006985147    2.541    0.606
       204  -9.8702     48.5106     55.9331   7.6873883463e+01   6.1289802151e+01    0.1993385    0.1674428  11.47 -0.0001724218    1.122    0.109
       205  -9.6286    230.7361     54.9976   3.4707091546e+01   2.2342315281e+01    0.1617996   0.09161974 -39.54 0.0008894993    1.535    0.349
       206 -10.7579    133.5286     54.0559   4.8700409089e+01   4.4142316456e+01     0.198993     0.189317 -57.63 0.0005538239    1.086    0.079
       207 -13.0535    105.6498     52.5728   5.5016544913e+01   5.0879738847e+01    0.5362971    0.3322888  49.49  0.001140824    1.511    0.338
       208  -9.8023    104.4771     47.0315   5.3389802924e+01   5.1988123823e+01    0.2198739    0.1786576   5.89 0.0005755459    1.415    0.293
       209  -9.1903    213.7211     54.6644   3.6405134825e+01   2.5776946718e+01    0.1143134    0.1000655   8.83 0.0005099371    1.612    0.380
       210 -11.3195     87.8280     51.4036   5.9940971830e+01   5.4967444519e+01    0.5896685    0.2457071 -47.60  0.002149387    3.083    0.676
       211  -9.7185    120.0134     52.6736   5.1337676071e+01   4.7548672335e+01    0.2054394     0.172142  47.98 0.0003530176    1.133    0.118
       212  -9.8365     55.7347     53.3056   7.2728914999e+01   6.0672781366e+01    0.2818242    0.1546174  16.45  0.001157695    2.485    0.598
       213  -9.6218    172.5514     52.5298   4.1207748116e+01   3.5120929220e+01    0.1357001    0.1238535 -77.68 0.0003209213    1.004    0.004
       214 -12.6416    129.5893     49.6284   4.8154423744e+01   4.5733259783e+01    0.4331118     0.359022  33.85  0.000440237    1.300    0.231
       215 -10.4895    131.2671     41.9746   4.5356459293e+01   4.6395840987e+01    0.2969816    0.2144899 -58.79 0.0007267155    1.570    0.363
       216  -9.7879    237.3798     50.7809   3.3207283851e+01   2.1641897086e+01    0.1622684    0.1032625 -31.51 0.0006400801    1.639    0.390
       217 -12.0415     78.5397     47.3164   6.1530759132e+01   5.7539168433e+01    0.3595852    0.2359345 -30.11 0.0001606205    1.603    0.376
       218 -10.7997     45.2103     49.9125   7.6126216729e+01   6.2919970281e+01    0.4129907    0.1803314 -43.03  0.001782459    2.210    0.548
       219 -10.2567    200.0875     49.4123   3.6749653627e+01   2.9371940203e+01    0.1929606    0.1650299 -43.01 0.0003507796    1.187    0.157
       220  -9.5266    181.7925     49.8070   3.9169826897e+01   3.3378874319e+01    0.1857415    0.1389111 -67.68 0.0002389463    1.316    0.240
       221 -10.3927     52.5011     49.7441   7.2766757945e+01   6.1844376913e+01    0.2442962    0.1804132  29.13 0.0008605333    1.302    0.232
       222 -10.9384     59.8742     47.6991   6.8812791841e+01   6.0982426120e+01    0.3900489    0.1927857  30.95  0.001685172    2.107    0.525
       223 -10.4875    151.5359     46.1588   4.2833581706e+01   4.0964165282e+01    0.2430886    0.2170178 -72.13 0.0005540186    1.101    0.092
       224 -10.2797    143.2727     45.7180   4.4186028939e+01   4.3005114862e+01    0.2296195    0.1935428 -79.50   0.00056724    1.229    0.187
       225 -10.7260    112.3764     45.7483   5.0878040255e+01   5.0355027736e+01    0.3963445    0.2029997  41.51  0.001410534    2.028    0.507
       226 -11.2955     91.3496     42.6953   5.5575029378e+01   5.5552534633e+01    0.6340131    0.4134459 -26.15   0.00315435    1.683    0.406
       227 -10.2070     95.5550     42.9527   5.4420153950e+01   5.4589648274e+01    0.1935512    0.1391494 -25.89 9.165211e-05    1.509    0.337
       228 -12.1777     45.3755     38.7380   7.1535068671e+01   6.4878761488e+01    0.6978914    0.4045534  53.29  0.001660629    2.768    0.639
       229 -12.9357     57.6638     34.3868   6.4204500657e+01   6.3519855115e+01    0.3991002    0.2895111  -7.35 0.0005416092    1.460    0.315
       230  -9.5073     83.2807     44.6521   5.8886070257e+01   5.6983822004e+01    0.1329678    0.1117053 -75.12 0.0007012714    1.643    0.391
       231 -10.2003     72.8279     43.0642   6.1905195573e+01   5.9346283580e+01    0.3286702    0.2488312 -71.63  0.001449999    2.192    0.544
       232 -10.1799    139.0564     42.8677   4.4108497460e+01   4.4404132739e+01    0.2359212    0.1993583 -39.91  0.000656847    1.248    0.199
       233 -10.1322    107.9486     42.1473   5.0739028553e+01   5.1890435817e+01    0.4065168    0.1434639  44.69  0.001440449    2.842    0.648
       234 -11.4012     69.0535     38.1887   6.1318114187e+01   6.0826000135e+01    0.5815847    0.3375921   5.75  0.002218473    2.946    0.661
       235 -10.8549     81.0445     36.1489   5.6273913288e+01   5.8691941605e+01    0.4420598    0.3522701 -64.40   0.00240055    1.747    0.428
       236 -11.2971     74.7374     35.6466   5.8206899590e+01   6.0066308582e+01    0.3654571    0.2451825  21.48  0.001017748    1.642    0.391
       237 -10.3027     79.4041     30.1429   5.4356691921e+01   5.9840208654e+01    0.3152346    0.1930372 -28.53 0.0008719442    1.763    0.433
       238 -10.0330    148.2710     41.1090   4.1914791877e+01   4.2420662762e+01    0.2874824    0.1728088 -27.69  0.001383059    1.876    0.467
       239  -9.3678     84.7944     34.6735   5.4481273204e+01   5.8095323383e+01    0.1692044    0.1524737  63.70 0.0002625631    1.234    0.189
       240  -9.6781     15.3207     39.7321   8.7697336784e+01   6.8369771494e+01    0.1726581   0.09553543 -43.08 0.0009177001    1.555    0.357
       241 -11.1717    225.1143     38.1098   3.1662729269e+01   2.5642085798e+01    0.2447982    0.1769131 -88.75 0.0003892535    1.334    0.250
       242  -9.8808    152.3697     38.9948   4.0611242560e+01   4.1710362866e+01    0.1855993     0.165033 -51.13  0.000448758    1.153    0.133
       243  -9.4868     85.9956     38.7134   5.5699757608e+01   5.7281426725e+01    0.1871068    0.1553541  43.02  0.000203325    1.107    0.097
       244  -9.0413    160.2874     38.2720   3.9169446639e+01   3.9913422606e+01    0.1270361   0.09979061  38.64 0.0001758276    1.507    0.336
       245  -9.8454      1.3907     37.7319   9.5169416498e+01   6.9788300981e+01    0.1682379   0.08905973 -45.84 0.0002794305    1.509    0.337
       246  -9.9211    134.3944     35.9969   4.2844013102e+01   4.6414478864e+01    0.2803813    0.1345668 -29.72  0.001216352    2.288    0.563
       247  -9.9015    171.9866     36.0118   3.6904120266e+01   3.7442815875e+01    0.1999538     0.148302  40.93 0.0005731789    1.649    0.394
       248 -10.6701    100.3442     35.5422   5.0326134587e+01   5.4526293881e+01     0.286005    0.2100613 -84.18 0.0007629723    1.940    0.484
       249 -10.8562     51.9479     40.3532   6.9218239251e+01   6.3563004066e+01    0.2486141    0.2040455 -18.28 0.0007179533    1.160    0.138
       250 -11.3243     17.6266     31.1197   8.2940965721e+01   6.9757227660e+01    0.4473462    0.2199735  31.38  0.002293118    2.117    0.528
       251 -10.1451     12.4314     33.2019   8.6882951998e+01   6.9866266368e+01    0.2233415    0.1897162  40.27  0.000705766    1.606    0.377
       252  -9.9465      8.8639     35.1501   8.9771812304e+01   6.9790491127e+01     0.272848    0.1749506 -30.91 0.0008298903    1.308    0.236
       253 -10.9123      8.0498     31.3040   8.8798927438e+01   7.0584019513e+01    0.2758009    0.1864811 -20.22 0.0008538952    1.271    0.213
       254 -10.3723    109.0697     34.4456   4.7716615717e+01   5.2648020468e+01    0.3236996    0.2162606  84.62  0.001465463    2.018    0.505
       255 -11.3927    221.7737     32.3553   3.0730179318e+01   2.7016213842e+01    0.2573651    0.1681318 -47.34 0.0003164841    1.307    0.235
       256  -9.2994    141.8071     33.3779   4.0699968252e+01   4.4947721430e+01    0.1771595    0.1144469  56.19 0.0002026436    1.435    0.303
       257 -11.1736    237.3188     29.4242   2.8893289214e+01   2.4324720824e+01    0.3051766    0.2121779  35.20  0.001799287    2.561    0.610
       258 -10.8485    205.8473     32.1508   3.2126914534e+01   3.0341956039e+01    0.1828771    0.1394519 -66.75 0.0002615343    1.132    0.116
       259 -10.0197    166.6030     32.2624   3.6617717216e+01   3.9159173186e+01    0.1697032     0.129246 -17.40 0.0009481732    1.641    0.390
       260  -9.0775    125.6867     31.2748   4.2995551883e+01   4.9085502909e+01    0.1345355    0.1007278 -77.74 0.0002184762    1.559    0.359
       261 -10.6718     98.0109     31.2365   4.9329120901e+01   5.5604076460e+01    0.3071651    0.2093984  49.07  0.000721627    1.307    0.235
       262 -11.3615    102.5261     28.6732   4.7207563454e+01   5.4875424086e+01    0.4681323    0.2986516  78.37 0.0007126337    2.009    0.502
       263 -10.4534     50.0030     28.9975   6.5102850730e+01   6.5653240196e+01    0.4719876    0.2449739 -15.71   0.00200593    2.789    0.641
       264  -9.3437     44.1649     31.1875   6.8792666479e+01   6.6283288868e+01    0.1578226     0.150116 -24.70 0.0004402238    1.330    0.248
       265 -10.3318     69.7082     25.7705   5.5776240343e+01   6.2401206115e+01    0.4808036    0.2460627  30.85  0.001546234    2.173    0.540
       266  -9.4948     25.6692     30.2711   7.7950306327e+01   6.9013618787e+01    0.1570989    0.1007778 -31.42 0.0002409965    1.423    0.297
       267 -10.9579    111.7817     27.6725   4.4671653411e+01   5.2823988016e+01    0.3124843    0.2144393 -17.41 0.0001700354    1.723    0.420
       268 -10.9781     60.0295     27.0711   5.9991703115e+01   6.4123362297e+01    0.2059409    0.1826953 -18.89 0.0003881431    1.215    0.177
       269 -11.0659    175.0189     26.7330   3.4093025706e+01   3.7841545453e+01    0.2171359    0.1740113 -47.25 0.0002216733    1.239    0.193
       270 -12.1648     36.9674    243.4437   1.1190874085e+02   1.7737498358e+01    0.6448616    0.3134077  88.93  0.002633291    2.362    0.577
       271 -10.8212    128.4413     26.5057   4.0903068857e+01   4.8971234496e+01    0.2603039    0.2098623  52.92 0.0005606274    1.166    0.142
       272  -9.8985    250.0185    246.4974   6.8731700294e+01  -9.3168326769e+00    0.1537403   0.08879078  19.49 0.0006879409    1.563    0.360
       273 -10.0721    203.9661     25.7016   3.0837171136e+01   3.1502895616e+01     0.267807    0.1186746 -49.67  0.001320499    2.005    0.501
       274 -11.5012    192.5430     23.2278   3.1340411723e+01   3.4270465390e+01    0.4505354    0.1517132 -49.17  0.001888638    2.788    0.641
       275 -10.5639    128.6652     23.6939   3.9945350047e+01   4.9225428638e+01    0.2748396    0.1581369  43.70 0.0006609648    1.818    0.450
       276  -9.9102      1.4548     25.8574   9.0847105033e+01   7.2077880608e+01    0.1684952    0.0989766 -47.08 0.0003463842    1.486    0.327
       277 -13.3288     74.8562    238.8348   1.0326632399e+02   1.4203593817e+01    0.8243695    0.7259764  57.58   0.00549017    1.084    0.077
       278 -11.7306     74.4980    233.4714   1.0281982999e+02   1.5334126243e+01     0.296646    0.2180445  40.93  0.001048387    1.168    0.144
       279 -11.1739      8.1426     24.9370   8.6122971844e+01   7.1738545575e+01    0.4363432    0.1608161  17.82  0.001972727    2.798    0.643
       280 -10.9954     14.0513     23.2016   8.1604100950e+01   7.1493129988e+01    0.2376468    0.1592243  -6.06 0.0004901782    1.359    0.264
       281 -12.0270    165.1796     22.8563   3.4254986582e+01   4.0568602755e+01    0.2982986    0.2117536  64.74  0.001723464    1.317    0.241
       282 -10.1741    106.4143     23.1415   4.4238055906e+01   5.4593510096e+01    0.2498908     0.166542 -84.95 0.0007429012    2.087    0.521
       283 -10.7873    107.8522     17.7152   4.1934087641e+01   5.4818133487e+01    0.3548023    0.1846509  43.20  0.001678913    1.883    0.469
       284 -10.9948     99.1191     23.0828   4.5939921633e+01   5.6298206164e+01    0.4168089     0.231362  48.78  0.001742922    1.579    0.367
       285 -10.2523     94.1797     22.3921   4.6920453208e+01   5.7505750062e+01    0.2621309    0.2170266  64.68 0.0007804219    1.199    0.166
       286 -10.7032     59.2688     20.7817   5.7396926380e+01   6.5072662369e+01    0.2978458    0.1873129 -11.53 0.0009719639    1.815    0.449
       287  -9.5087    120.4074     20.7990   4.0502555537e+01   5.1516802230e+01    0.1576956    0.1288638   1.97 0.0002672948    1.476    0.323
       288 -10.0798     67.1464     21.0467   5.4581301285e+01   6.3492406401e+01     0.236209    0.1680086  43.48 0.0006091096    1.241    0.194
       289 -10.0852    195.5344    238.6805   7.7226661846e+01  -2.1030447419e+00    0.2277287    0.1503614 -10.58  0.001357642    1.444    0.307
       290 -11.2803      6.0392     20.6688   8.5610474699e+01   7.2662278691e+01    0.2330168    0.1486921  11.73 0.0003237826    1.466    0.318
       291 -10.6309    244.1770    237.4273   6.8259479784e+01  -7.5754116810e+00    0.1792137    0.1138506 -29.49 0.0008285021    1.414    0.293
       292  -9.9703    134.9961    238.0022   8.9708541582e+01   6.1948717474e+00    0.2236307    0.1211094 -28.32 0.0009915946    2.557    0.609
       293  -9.5277    226.3421     21.9560   2.8189235769e+01   2.7317864198e+01    0.1584564    0.1268183 -59.52 0.0005943466    1.074    0.069
       294 -11.0480     29.8460    233.0015   1.1275414002e+02   2.0629558220e+01    0.2944507     0.158372  83.13  0.001574346    1.944    0.486
       295 -10.2558    159.9703    235.7370   8.3992052838e+01   3.0973947721e+00    0.1841251    0.1456603  17.50 0.0004389559    1.069    0.064
       296  -9.9466    221.0677    234.7862   7.1832907447e+01  -4.6512207297e+00    0.1997205    0.1104453   2.56  0.001038158    1.959    0.490
       297 -10.4940     86.9962    233.1807   9.9932021275e+01   1.3759866294e+01    0.2320504    0.1181977  50.82   0.00108378    2.012    0.503
       298 -10.2844     29.8468     19.1315   7.0311051295e+01   7.0220507704e+01    0.3110604    0.1917973 -30.47 0.0007458467    1.574    0.365
       299 -10.1622     38.2465    232.7710   1.1090453004e+02   1.9785452596e+01    0.1782145    0.1389663  62.12 0.0007326246    1.103    0.093
       300 -10.0960     24.0547    232.3274   1.1396153203e+02   2.1361077430e+01    0.1827284    0.1525925 -76.90  0.000641617    1.296    0.228
       301  -9.2042    139.6735     19.6803   3.6851462002e+01   4.6992078618e+01    0.1354742   0.09120503  40.12 0.0004564518    1.681    0.405
       302  -9.6818     54.4676     18.6135   5.8288900660e+01   6.6241195915e+01    0.1922929    0.1490238  62.79 0.0005094103    1.733    0.423
       303  -9.6199    169.8768    228.8531   8.0850668002e+01   2.8810556117e+00    0.1648308    0.1483214  33.18 0.0005080985    1.316    0.240
       304  -9.6979    109.2582    242.4285   9.5965218491e+01   8.9543713055e+00    0.1884561   0.09905008  40.93 0.0009385415    1.666    0.400
       305 -11.1563      4.4902    226.5354   1.1781310098e+02   2.4416820438e+01    0.3248178    0.1828869  58.89  0.001938939    1.473    0.321
       306 -10.2193    194.9578     16.9165   2.9627091706e+01   3.4428479731e+01    0.1775631    0.1489222 -79.45 0.0002891811    1.032    0.031
       307 -11.1135    120.9417    225.9961   9.1219188644e+01   1.0449683337e+01    0.2108038    0.1858657  26.52 0.0006977045    1.009    0.009
       308  -9.6945     98.0097    242.4592   9.8468925126e+01   1.0468865519e+01    0.2050188      0.11006  30.73 0.0006616822    1.614    0.380
       309  -9.3251    105.3142    223.3307   9.4495753642e+01   1.3233121540e+01    0.1346878    0.1010849 -12.13 0.0004443946    1.678    0.404
       310 -10.6172    247.4846     15.4988   2.5527569557e+01   2.4016278271e+01    0.1107507   0.08370442 -62.74   0.00069112    1.021    0.021
       311  -9.9578    123.6693    221.6845   8.9983812579e+01   1.0898974491e+01    0.1383214    0.1002379  -6.91 0.0004642003    1.681    0.405
       312 -11.0372     88.7295    241.1948   1.0040127034e+02   1.1943790648e+01    0.2237442    0.1658758 -37.68  0.001313966    1.676    0.403
       313 -11.3272     10.3442    217.1632   1.1607777669e+02   2.5920652584e+01    0.3153447    0.2334849  30.65  0.001960945    1.417    0.294
       314  -9.5440     97.3635     12.8410   4.2406261245e+01   5.7738124281e+01    0.2403535    0.1523205  75.27  0.001238137    1.710    0.415
       315  -9.6512     83.8299     13.6120   4.6101284343e+01   6.0737496111e+01    0.1721927    0.1149434  66.79 0.0002444207    1.546    0.353
       316 -10.4623    243.4828     12.5209   2.5200199999e+01   2.5074008234e+01    0.1119138   0.08332998 -63.73 1.786155e-05    1.004    0.004
       317  -9.6709     38.2481    217.4188   1.0974892944e+02   2.3101317597e+01    0.1789126   0.09965036  42.36 0.0007844063    1.557    0.358
       318 -11.2393     29.3606    215.9089   1.1169715873e+02   2.4375768694e+01    0.2998938    0.2548891  -8.12  0.001122489    1.575    0.365
       319  -9.9259    169.6780     12.6939   3.1038238573e+01   4.0572607645e+01     0.122627   0.08843043  45.88 0.0007032653    1.640    0.390
       320 -11.4051    235.9288    214.5238   6.5843730671e+01  -3.5116689415e+00    0.2666045    0.1409693 -30.78 0.0009257698    1.605    0.377
       321  -9.5585    136.6233    215.6912   8.6096624563e+01   1.0145804944e+01    0.1450099     0.100197  -4.17 0.0007028975    1.782    0.439
       322  -9.5185     30.7286     12.3276   6.6260729440e+01   7.1024234337e+01    0.1260589   0.09955069   7.26 0.0002947322    1.026    0.026
       323  -9.6794     27.9863     10.2362   6.6618270730e+01   7.1699191998e+01    0.1618194    0.1050061  42.20 0.0005123735    1.710    0.415
       324  -9.6458    169.6172    213.1944   7.8351335213e+01   5.6497376320e+00    0.1856563    0.1149785 -31.00 0.0008189995    1.653    0.395
       325 -10.2112    175.7449     11.5768   3.0131395706e+01   3.9285149433e+01    0.1772659    0.1041242  88.72 0.0009515448    1.605    0.377
       326 -10.6004     21.1841    212.5098   1.1334852451e+02   2.5950017331e+01    0.2693325    0.1268629  51.14  0.001344511    1.874    0.466
       327 -11.3770    238.9249    210.4642   6.4637390444e+01  -3.2795638222e+00    0.3317448    0.2803272  65.21  0.002073504    2.514    0.602
       328 -10.8504      1.5726    211.2267   1.1770932683e+02   2.7985363039e+01    0.2564543     0.128453 -86.62  0.001081131    1.811    0.448
       329 -11.9508      5.5995    208.6793   1.1667702717e+02   2.8219897338e+01    0.4348685    0.2889183 -88.51  0.002219743    1.344    0.256
       330 -10.2289     11.0512    208.2168   1.1540947154e+02   2.7854122271e+01    0.2017321    0.1521627 -58.38 0.0006203403    1.501    0.334
       331 -10.8595    244.8934    202.3875   6.2241379417e+01  -2.8152169760e+00    0.2624423    0.1047503  40.49   0.00124044    3.206    0.688
       332  -8.9219    107.7047     10.6708   3.9388602713e+01   5.5514928004e+01    0.1348395   0.08617882  37.08 0.0006210642    1.632    0.387
       333 -10.6584     20.4020    199.7612   1.1264875274e+02   2.8953237698e+01    0.3378904    0.1268532 -60.98  0.001420365    2.571    0.611
       334 -10.5396    175.4125    202.4859   7.5256720633e+01   6.7211756888e+00     0.232788    0.2014937   5.83 0.0004896729    1.034    0.033
       335  -9.8959    117.2275    201.6208   8.8515394586e+01   1.6031394246e+01    0.2019499    0.1290808  23.09 0.0009458655    1.606    0.377
       336  -9.2358    188.2225    205.0283   7.3052953711e+01   4.3480521397e+00    0.1673607    0.1010735 -38.11 0.0005141858    1.604    0.376
       337  -9.5604    208.4599    211.7826   7.0288097049e+01   3.7925981569e-01    0.1762646    0.1023411 -25.27 0.0009327977    1.629    0.386
       338 -11.3547     16.2503    193.0771   1.1318258826e+02   3.0911902146e+01     0.454508    0.2487982  25.19  0.002339123    1.944    0.485
       339 -10.1513    244.7488    188.2723   5.9737392378e+01  -6.9705051571e-01    0.2099129     0.124689 -34.35 0.0004739037    1.397    0.284
       340  -9.6245    212.0042    188.2161   6.5348063823e+01   3.7582448437e+00    0.1627574    0.1012307  31.74 0.0005769773    1.674    0.403
       341  -9.2749      2.3062    187.3704   1.1623903688e+02   3.3423099998e+01    0.1269546   0.08304697 -50.34 0.0006802998    1.758    0.431
       342 -11.2134     15.9968    182.5149   1.1245569297e+02   3.3483918296e+01    0.4718656    0.2498901  76.08  0.002268148    1.942    0.485
       343 -10.3224    168.1901    183.6847   7.3335903504e+01   1.1451850305e+01    0.2766536    0.1731468  49.57  0.001269586    1.978    0.494
       344  -9.7199     58.7281    181.9778   1.0096317038e+02   2.9082583528e+01    0.1981859    0.1820196 -83.27 0.0007797576    1.063    0.060
       345 -10.7001     46.5634    177.6273   1.0377594444e+02   3.1632750504e+01    0.3091851    0.2627869 -89.63   0.00118621    1.118    0.106
       346  -9.8196    244.5734    178.2066   5.7913994771e+01   8.6708389256e-01    0.1841081   0.09413228 -28.23 0.0009515773    1.731    0.422
       347 -10.5959     34.0675    173.9911   1.0682935017e+02   3.3903925989e+01    0.1987957    0.1781729  83.03            0    1.010    0.009
       348 -10.7107     18.2215    173.4001   1.1111636789e+02   3.5546103618e+01    0.3015251    0.1871237  51.80  0.001142825    1.564    0.360
       349 -12.3823     50.5021    161.8034   1.0062645402e+02   3.5207767474e+01    0.6454299    0.4486554  65.46  0.001061489    1.576    0.366
       350 -12.0700     36.5724    166.3047   1.0526898699e+02   3.5600904433e+01     0.530844    0.5087643  29.12  0.002745174    1.156    0.135
       351 -11.3133     35.4938    161.9023   1.0506374256e+02   3.6843925530e+01    0.4655188    0.3374023  -0.32  0.001400709    1.766    0.434
