#   1 NUMBER                 Running object number                                     
#   2 MAG_AUTO               Kron-like elliptical aperture magnitude                    [mag]
#   3 X_IMAGE                Object position along x                                    [pixel]
#   4 Y_IMAGE                Object position along y                                    [pixel]
#   5 X_WORLD                Barycenter position along world x axis                     [deg]
#   6 Y_WORLD                Barycenter position along world y axis                     [deg]
#   7 A_WORLD                Profile RMS along major axis (world units)                 [deg]
#   8 B_WORLD                Profile RMS along minor axis (world units)                 [deg]
#   9 THETA_WORLD            Position angle (CCW/world-x)                               [deg]
#  10 FWHM_WORLD             FWHM assuming a gaussian core                              [deg]
#  11 ELONGATION             A_IMAGE/B_IMAGE                                           
#  12 ELLIPTICITY            1 - B_IMAGE/A_IMAGE                                       
         1 -11.7513      3.4287     16.3003   7.2996195812e+01   7.0518228471e+01    0.3188264    0.2701617  80.00   0.00191177    2.197    0.545
         2 -11.9321      2.3500     24.4974   7.6389435233e+01   6.9151518810e+01    0.4236973    0.1707958 -44.01  0.002412978    1.741    0.426
         3 -12.2697    132.8191     19.0712   2.7453330974e+01   4.9280502530e+01    0.3780643    0.2505044  32.93 0.0004149278    1.533    0.348
         4 -11.8305     31.5882     13.6770   5.8211216645e+01   6.8564704207e+01    0.3575236    0.3132058 -23.40  0.000713168    1.367    0.268
         5 -12.2497    238.1222     17.6591   1.2185670897e+01   2.3336269630e+01    0.2618873    0.2153267 -60.51 0.0002871084    1.087    0.080
         6 -10.9192    233.0113     15.4436   1.2150104735e+01   2.4770209368e+01    0.2970063    0.1840708 -33.47  0.001597375    1.626    0.385
         7 -11.2178     16.9757      3.1887   6.0446736716e+01   7.1544528627e+01    0.2477643    0.1429731 -23.03  0.001602456    1.398    0.285
         8 -10.6264     19.0375     15.8588   6.5109312262e+01   6.9458722082e+01    0.3526197    0.2348091  -1.66  0.002078591    1.425    0.298
         9 -11.9523      9.3742      8.0208   6.6607571566e+01   7.1463460288e+01    0.2938955    0.2431681  -1.31  0.001073093    1.310    0.237
        10 -10.9844     11.1486     14.5440   6.8448488471e+01   7.0298522237e+01    0.3258799    0.1447085 -24.69  0.001421806    2.268    0.559
        11 -11.3668    165.3531     16.7879   2.0764084280e+01   4.1415121363e+01    0.2255596    0.1836812   2.57 0.0005714878    1.440    0.306
        12 -11.2486     76.2844     10.2072   3.8858370423e+01   6.2395176922e+01    0.6151035    0.2015894  43.08  0.002546559    2.698    0.629
        13 -10.8093     71.4305     14.5571   4.2433111742e+01   6.2762094978e+01    0.3945725     0.296322 -59.95  0.002131538    2.444    0.591
        14 -11.2101     60.4767     14.1172   4.6224218413e+01   6.4633935931e+01     0.377457    0.2736992  -3.27  0.001435226    1.219    0.180
        15 -10.9329    131.3070     12.3282   2.5375887348e+01   5.0338990199e+01    0.3572751    0.2261286  14.97  0.001729911    1.909    0.476
        16  -9.9761    128.5266     10.5095   2.5291612720e+01   5.1180977544e+01    0.2275745     0.209337 -22.63 0.0006366472    1.213    0.175
        17  -9.9163     99.4044     13.2325   3.3228992482e+01   5.7496117325e+01    0.2316386    0.1572526 -30.57  0.001263018    1.595    0.373
        18 -11.3596    155.0423      9.2881   2.0057006721e+01   4.4773147767e+01    0.2899939    0.2401473 -62.33 0.0008367967    1.357    0.263
        19 -11.3601    176.4642     11.0920   1.7427477495e+01   3.9170155527e+01    0.2859486    0.2108287  82.73 0.0007154459    1.317    0.241
        20 -11.8818    145.6006      7.8216   2.1150157227e+01   4.7269027038e+01    0.4857115    0.3104932 -17.83  0.002489952    1.772    0.436
        21 -11.3036     10.8882      3.0277   6.3548649467e+01   7.2095576576e+01    0.2291845    0.1908364 -18.43  0.001342344    1.290    0.225
        22 -10.8472    241.2606      9.0555   9.9681595694e+00   2.3585127449e+01    0.2080717    0.1595904  89.37 0.0004402801    1.181    0.153
        23 -11.1675    213.6572      6.5850   1.1889284023e+01   3.0332612085e+01    0.3568931    0.2501256 -14.21  0.001957394    1.815    0.449
        24 -11.2567    105.7697     12.5582   3.1282313502e+01   5.6197441816e+01    0.2996116    0.2035198  29.56 0.0002506844    1.386    0.278
        25 -10.8847     36.6926      7.5055   5.3005178980e+01   6.8830759101e+01    0.2865791    0.2052221  39.33  0.001242968    1.822    0.451
        26 -12.0338    230.6362      5.7778   1.0128740386e+01   2.6376066916e+01    0.4642155    0.2133294  83.53  0.000740877    2.238    0.553
        27  -9.6124     91.9252      6.9876   3.2699827287e+01   5.9685379570e+01    0.1554401    0.1252878  33.63 0.0004860235    1.072    0.067
        28 -10.1910    222.9157      5.5266   1.0755971484e+01   2.8218203546e+01    0.1835517    0.1584328 -54.29 1.318291e-05    1.147    0.129
        29 -10.1753    171.6087      4.7623   1.6234039794e+01   4.1007208059e+01    0.1837191    0.1182915 -40.25  0.000655291    1.671    0.402
        30 -10.5244    164.3732      4.7332   1.7225013429e+01   4.2839951895e+01    0.2262697    0.1920704 -73.99  0.000596389    1.248    0.199
        31  -9.0172     68.6372      5.6940   3.9390050166e+01   6.4253248472e+01    0.1353447   0.07900187  18.75 0.0004447366    1.738    0.424
        32 -10.3567    201.9435      3.5008   1.2299295702e+01   3.3509819204e+01     0.355103    0.1469132  51.15  0.001119302    2.504    0.601
        33 -11.0060    179.0122      3.9336   1.5035274445e+01   3.9210716709e+01      0.20386    0.1786755  72.82 0.0003193006    1.016    0.015
        34  -9.7396    106.0478      4.0121   2.7808360380e+01   5.6949873795e+01    0.1531628     0.123508  42.10            0    1.073    0.068
        35 -10.2379     74.4851      2.5933   3.6004832749e+01   6.3514009907e+01    0.3004186    0.1992198 -49.27  0.001593086    2.458    0.593
        36 -11.9044     27.4687      3.1579   5.5194289292e+01   7.0483779852e+01    0.2347417    0.2051498 -12.86 0.0009506788    1.399    0.285
        37 -10.7465    168.0456      1.9305   1.5874255686e+01   4.2161378737e+01    0.1996751     0.174103  71.57 0.0003145122    1.014    0.014
        38  -9.7781     90.8795      2.1563   3.0929703627e+01   6.0349754827e+01    0.1699169    0.1233404  20.01 0.0002574022    1.253    0.202
        39 -10.5082     34.8301      1.5048   5.0897605816e+01   6.9826190273e+01    0.3321243    0.1205548  40.54  0.001575012    3.142    0.682
        40  -9.9173      2.9372      1.9007   6.7316825583e+01   7.2856152102e+01    0.2308859    0.1322204  42.95  0.001287856    3.650    0.726
        41  -9.5106    118.2597      7.6609   2.6420852350e+01   5.3860517086e+01    0.1248484    0.1015365 -58.27  0.000327126    1.584    0.369
        42  -9.4819    183.4896      1.4653   1.3798845573e+01   3.8307336370e+01    0.1344824    0.1168505  70.37 8.875396e-05    1.049    0.047
        43 -10.2339    126.2263      2.7402   2.2942667026e+01   5.2425207915e+01    0.1910831     0.134263  34.79  0.001046185    1.344    0.256
        44 -10.0848     67.6613    165.3196   8.4008494599e+01   3.2519174273e+01    0.1394868   0.08880885  71.25 0.0004756963    1.711    0.416
        45  -9.9539    110.0022    249.7475   8.5175834077e+01   9.8209163469e+00    0.1715175    0.1244289  50.13 0.0007273866    1.077    0.072
        46 -11.6537     89.4828    249.4413   8.8778699544e+01   1.2863671704e+01    0.2858149     0.191689  44.23  0.001030425    1.303    0.232
        47  -9.2852     72.2738    250.3653   9.1824961927e+01   1.5072341339e+01   0.09006594   0.08677897 -37.22 0.0007003729    1.667    0.400
        48 -12.7106      7.0361    245.7964   1.0205657239e+02   2.3384749817e+01     0.570075    0.2978666  70.01   0.00416223    1.399    0.285
        49 -12.4122     21.4840    248.3314   9.9965142011e+01   2.1485328771e+01    0.5412179    0.1599174  49.25  0.003049677    2.345    0.574
        50 -12.0619     14.4189    244.7284   1.0088272962e+02   2.2831647980e+01    0.3148533    0.1574354  87.40  0.001749039    1.681    0.405
        51 -10.0892     10.0334    162.4542   9.6629182837e+01   3.9294784313e+01    0.1449272    0.1087061  38.05 0.0006066464    1.570    0.363
        52 -11.4439     21.2938    156.8143   9.3679923811e+01   3.9570368052e+01     0.337523     0.252833 -31.60   0.00189407    1.946    0.486
        53  -9.7653    216.4525    154.5281   4.8325272060e+01   6.9686636592e+00     0.143548    0.1316656   1.99  5.79434e-05    1.013    0.013
        54 -10.9246    236.3938    152.3195   4.4166812091e+01   3.4238897704e+00    0.2804019    0.1265683 -30.55  0.001148672    2.211    0.548
        55 -10.4970     10.8157    153.0467   9.5671120219e+01   4.1276511766e+01    0.2519491    0.1593827  39.72  0.001578015    1.747    0.427
        56  -9.6346     21.0203    147.9979   9.2868253231e+01   4.1554135862e+01    0.1438509    0.1124951 -83.57  0.000351263    1.017    0.017
        57 -10.3131      7.9769    145.8315   9.5669504554e+01   4.3078024438e+01    0.1801181     0.100787  83.40  0.001048269    1.650    0.394
        58  -9.9154    216.5403    145.4676   4.6287573323e+01   8.5106906766e+00    0.1468988    0.1327745   1.32 0.0002011323    1.040    0.039
        59  -9.8405    187.6644    144.0710   5.1765706843e+01   1.4879672867e+01    0.2043729    0.1884553  -6.62 0.0004334512    1.078    0.072
        60  -9.4326     13.6984    140.2893   9.3807290804e+01   4.3874876249e+01    0.1172431   0.07409541  72.83  0.000197608    1.564    0.360
        61 -11.0425      9.2136    137.1888   9.4566823525e+01   4.4901073621e+01    0.3005327     0.116931 -68.34  0.001531953    1.948    0.487
        62 -11.0757      2.8076    135.5475   9.5933169511e+01   4.5707963373e+01    0.4113533   0.09780258 -69.46  0.001746672    2.889    0.654
        63 -12.8434    241.7037    133.7505   3.9117108594e+01   5.3910817455e+00    0.4783193    0.3084921 -14.54  0.001442536    1.768    0.434
        64 -10.4647     21.7188    134.9499   9.1274150999e+01   4.4434738050e+01    0.3022503    0.1555294  50.74    0.0016315    2.127    0.530
        65 -10.5673    249.4885    134.4938   3.7997180639e+01   3.7625340465e+00    0.1390993    0.1219831 -12.72 0.0002758877    1.026    0.025
        66 -10.9590     54.2387    132.4498   8.2524379400e+01   4.1771761544e+01    0.4015422    0.1799635  30.63  0.001420718    2.568    0.611
        67 -11.6880     36.5887    131.0018   8.6968959555e+01   4.3999861854e+01    0.4220636    0.2124532 -60.25  0.001166683    1.660    0.398
        68 -10.8879     73.5682    128.8704   7.6686920173e+01   4.0122416695e+01    0.2961925    0.2560979 -71.82  0.001176629    1.069    0.064
        69 -10.0605     22.1449    125.8465   9.0060702390e+01   4.6469671658e+01    0.1603902    0.1186567 -56.56 0.0002958098    1.263    0.208
        70 -11.4100     10.7159    122.2780   9.2603339429e+01   4.8133185134e+01    0.2982016    0.1999374  81.49  0.001553834    1.464    0.317
        71  -9.9300     17.6526    125.6867   9.1209261478e+01   4.6859717794e+01    0.1633819     0.120893  13.72  0.000866425    1.818    0.450
        72 -10.7284     14.4872    125.4946   9.2003146864e+01   4.7140333656e+01    0.1862574     0.172402 -49.66  0.001385619    1.284    0.221
        73 -11.9240    243.8962    121.8886   3.6049448229e+01   6.8748087889e+00    0.2597773    0.1892786 -29.98 0.0008949866    1.259    0.206
        74 -10.9632     19.9655    121.1080   9.0028738932e+01   4.7721557979e+01    0.2949236    0.1339525 -62.29  0.001395821    1.721    0.419
        75 -10.2849      4.9609    122.4877   9.4105528083e+01   4.8467027489e+01    0.1333786    0.1167051  28.34 0.0003310404    1.474    0.322
        76  -9.2501    220.3434    121.3258   3.9947765027e+01   1.1905297843e+01    0.1550882    0.1125226  10.07 0.0004799696    1.739    0.425
        77 -11.0598     24.3607    118.3812   8.8476953464e+01   4.7994159306e+01    0.3162851    0.1787869 -74.59  0.001013471    1.523    0.343
        78 -10.3829      1.3742    118.7238   9.4623026328e+01   4.9524485842e+01    0.1979628   0.08771525 -76.38 0.0004259169    1.789    0.441
        79 -11.4469    249.7310    117.6581   3.4154729471e+01   6.3860893047e+00     0.272123     0.214021 -36.67 0.0008513478    1.173    0.148
        80 -11.1201     31.2548    116.8687   8.6356017596e+01   4.7754752238e+01    0.2758045    0.1669961  -7.71  0.001383868    2.745    0.636
        81 -11.1976     52.2565    115.2180   8.0122705217e+01   4.6018118159e+01    0.4597368     0.214549 -68.22  0.001321672    2.129    0.530
        82 -10.9932     54.9867    109.5642   7.8252605780e+01   4.7015118122e+01    0.2965232    0.2059631 -64.53 0.0005303501    1.297    0.229
        83 -10.6294     56.3132    104.9753   7.6930553399e+01   4.7917739099e+01     0.269104    0.1728568 -17.52  0.001278534    2.315    0.568
        84 -10.4362     19.6761    112.2763   8.8916388437e+01   4.9752359541e+01    0.2159379    0.1544028  77.78 0.0008652834    1.502    0.334
        85 -12.1612     24.0795    106.5007   8.6806501688e+01   5.0727752929e+01     0.596007    0.3376675  -7.06  0.002990538    2.896    0.655
        86 -12.1725     14.4247    110.2422   9.0102136752e+01   5.0591331199e+01    0.3638668    0.3001293 -79.27  0.002434201    1.086    0.079
        87 -11.0324    182.6589    114.2642   4.5595021988e+01   2.1736164828e+01     0.281745    0.2572421  15.91 0.0005912741    1.131    0.115
        88  -9.7999     71.9971    115.7195   7.4532378230e+01   4.3409755195e+01    0.2520929    0.1461682  84.66 0.0009153937    3.486    0.713
        89 -12.2130    248.4790    112.3126   3.3121108085e+01   7.4881102766e+00    0.5237664    0.3023773  36.88  0.001644098    2.044    0.511
        90  -9.8984     94.5339    112.0110   6.7236811995e+01   4.0793001041e+01    0.2255788       0.1366 -51.51 0.0006518266    1.562    0.360
        91 -10.8352      1.5212    108.7579   9.3473253354e+01   5.1728889875e+01    0.3205448    0.1520001 -54.60  0.001820437    1.752    0.429
        92 -10.0176      2.6994    104.6773   9.2656219641e+01   5.2568834957e+01    0.1703191     0.125685 -46.75 0.0007310166    1.363    0.266
        93 -12.1703    248.1631    105.6215   3.1620863474e+01   8.6172768960e+00    0.4230597    0.2812013  72.50  0.002026305    2.091    0.522
        94  -9.8378    111.8341    105.8425   6.0820566374e+01   3.9048590376e+01    0.1905126    0.1702667  73.84  0.000994539    1.261    0.207
        95 -11.2373     15.9613    115.1059   9.0326081429e+01   4.9383301493e+01    0.2371241    0.1769348 -75.46  0.000453416    1.090    0.082
        96 -10.5760     37.4028    101.8270   8.2048270660e+01   5.0647246239e+01    0.3388917    0.2227751  72.86  0.001588509    2.036    0.509
        97  -9.9933     34.2479     97.7335   8.2254093976e+01   5.1868245988e+01    0.2873398    0.1481898 -54.08  0.001432122    1.577    0.366
        98 -11.3460     62.1975     99.2177   7.3885513111e+01   4.8512656492e+01    0.4513508    0.2868428 -35.69  0.001517116    1.692    0.409
        99  -9.4189     47.7134    100.2833   7.8592145905e+01   4.9964325920e+01    0.1229551   0.09620695  81.39 0.0002341973    1.525    0.344
       100  -9.3053    144.5034     99.4708   5.0445082697e+01   3.3520072542e+01    0.1538477    0.1530464 -86.86 0.0008095645    1.044    0.042
       101 -10.9179     21.4730     98.4672   8.6293561753e+01   5.2746373214e+01    0.2220501    0.1670509 -65.68 0.0006505108    1.076    0.070
       102  -9.9019      9.6897     99.0019   8.9892909135e+01   5.3423340642e+01    0.1644787    0.1179717 -70.87 0.0003573673    1.113    0.102
       103 -10.4495     41.3299     96.9134   7.9893204019e+01   5.1388380258e+01    0.2081083    0.1699613  75.54  0.001274185    1.446    0.308
       104 -10.9521    241.4752     96.0521   3.0377645289e+01   1.1546407585e+01    0.2267717    0.1295931 -34.54  0.001037634    1.608    0.378
       105 -11.5870    249.3400     91.5424   2.8168554924e+01   1.0587641965e+01    0.3136168    0.1687275 -23.34  0.001347685    2.122    0.529
       106 -10.8440    227.3369     92.9979   3.1834029114e+01   1.5155931361e+01    0.2536812    0.2172474  58.20 0.0003260957    1.241    0.194
       107 -10.1779      1.5013     92.5418   9.1410221078e+01   5.5314670052e+01    0.1164526   0.08893051 -66.74 0.0001813881    1.005    0.005
       108 -10.5084     38.6204     88.0850   7.8932610281e+01   5.3637476604e+01    0.5341246    0.1034893 -53.93  0.001845979    3.440    0.709
       109 -10.7302     83.7789     89.1346   6.4648424283e+01   4.7669498022e+01    0.3059255    0.2396988  42.18  0.001637309    1.391    0.281
       110  -9.8070     10.7238     90.6279   8.8316526291e+01   5.5221686167e+01    0.1315894     0.109811  38.34 0.0005153883    1.490    0.329
       111 -10.1776    159.9893     90.0000   4.4068593087e+01   3.1768826339e+01    0.2664692   0.08859268  50.75 0.0008090902    2.989    0.665
       112 -10.3416     65.6163     87.2930   6.9934889146e+01   5.0738128996e+01    0.2236528      0.19969 -77.39 0.0008295688    1.265    0.210
       113  -9.6967    104.6290     95.1375   6.0015748190e+01   4.2748093423e+01    0.1971845     0.185093  57.58 9.161948e-05    1.156    0.135
       114 -11.0810     22.2959     86.8567   8.3997913299e+01   5.5283031486e+01    0.2160087    0.1646688 -51.74 0.0008342147    1.097    0.088
       115 -10.0835     10.3118     86.4675   8.7771725925e+01   5.6164477865e+01    0.2216577    0.1323614  58.00  0.001250015    2.272    0.560
       116  -9.8398     54.0722     86.0427   7.3393369242e+01   5.2458486321e+01    0.1878335    0.1485335 -36.79  0.001102961    1.185    0.156
       117 -10.0223    107.1144     84.6566   5.6315392101e+01   4.4485428313e+01    0.1982553    0.1795983  28.11 0.0003321741    1.124    0.111
       118 -10.9726    247.2181     84.5850   2.6833890522e+01   1.2114721577e+01    0.1845244    0.1286332  45.51 0.0006195257    1.606    0.377
       119 -10.2860    166.9359     83.1852   4.0563863154e+01   3.1352450638e+01      0.42717    0.1287465  59.36  0.001019227    5.266    0.810
       120 -11.3088     30.5066     81.6065   8.0236028596e+01   5.5796795727e+01    0.2862736    0.2249282 -43.45 0.0008415439    1.127    0.113
       121 -10.4298     75.8515     82.1621   6.5247981933e+01   5.0400573988e+01    0.3775811    0.1971089  38.88    0.0017015    2.079    0.519
       122  -9.0759     62.3050     82.3219   6.9731498181e+01   5.2259832576e+01    0.1401322   0.09478463 -26.65 0.0003793977    1.637    0.389
       123  -9.6493     42.3983     82.2301   7.6372137881e+01   5.4565321148e+01    0.1791326    0.1116817 -67.82 0.0004718273    1.659    0.397
       124 -10.5831      7.2604     81.0326   8.7843380511e+01   5.7528167156e+01    0.3021142    0.1538751 -46.44  0.001314832    1.663    0.399
       125 -10.5667      3.0223     78.5964   8.8820285696e+01   5.8278740236e+01    0.2712283    0.1003201 -60.53  0.001383016    1.881    0.468
       126  -9.9309    111.9918     78.0803   5.2924195293e+01   4.4845375540e+01    0.2305569    0.1749917  -2.37 0.0005029588    1.614    0.381
       127 -10.2654     88.1010     77.5127   5.9980168172e+01   4.9416773940e+01    0.2327862    0.1819208 -51.97   0.00122494    1.314    0.239
       128 -13.1864      4.3996     66.3958   8.6163556089e+01   6.0815041041e+01     1.190202    0.4979694 -72.64  0.004634767    2.381    0.580
       129 -12.5363      5.0900     48.0310   8.1885096603e+01   6.4550041490e+01     1.033904    0.3475074 -54.91  0.005230743    2.035    0.509
       130 -12.6568     12.3814     47.4817   7.8789986658e+01   6.4246809287e+01    0.6954192    0.3089752 -64.19  0.001431651    2.259    0.557
       131 -14.4608     16.7058     67.4675   8.1976224309e+01   5.9877995163e+01    0.6584751    0.3988621 -62.29  0.001281713    1.386    0.278
       132 -11.2019     11.0381     61.7578   8.2789013705e+01   6.1427686143e+01    0.3715198    0.1765052 -57.48  0.001391111    1.580    0.367
       133 -10.4748     99.8814     76.6017   5.6052093910e+01   4.7499266772e+01    0.2651815    0.2021681 -47.19 0.0003453079    1.319    0.242
       134 -11.2634     44.6125     74.7413   7.3785542863e+01   5.5963959262e+01    0.2175473    0.1973982 -39.16 0.0003744948    1.084    0.077
       135 -11.6345    167.7435     73.4391   3.7562300296e+01   3.2877618209e+01    0.2661127    0.2556688 -52.96 0.0002870361    1.072    0.067
       136 -10.4331     54.0034     71.8039   6.9719361549e+01   5.5538121101e+01    0.2015905    0.1721165 -34.99  0.001249327    1.024    0.023
       137 -12.2055     50.3312     68.3219   7.0044644930e+01   5.6693953239e+01    0.4287587    0.2339324 -56.29 0.0005431086    1.758    0.431
       138  -9.5904     77.6116     69.5427   6.0961245854e+01   5.2747777927e+01    0.1390706    0.1219461 -27.37 5.875336e-05    1.027    0.026
       139 -10.9062    122.7917     67.2578   4.6484243473e+01   4.4613028566e+01    0.2550621    0.2206951 -26.93 0.0003035088    1.146    0.127
       140  -9.9651    139.9303     66.1479   4.1693174438e+01   4.0901616663e+01    0.2259032    0.2043164  65.66 0.0008883824    1.191    0.160
       141 -11.7949    156.0046     63.5112   3.7119729366e+01   3.7461130588e+01    0.2771425    0.2645791 -21.84  0.000356307    1.070    0.065
       142 -11.0894     32.1388     64.0000   7.5492625038e+01   5.9427228660e+01     0.319083    0.1694191  29.81 0.0009977891    2.185    0.542
       143 -11.1214     28.4034     60.8609   7.6064938195e+01   6.0394052305e+01     0.514332    0.2521062  10.25  0.002493002    2.730    0.634
       144 -10.4896    202.1145     62.3953   2.8007148028e+01   2.6071169950e+01    0.2319646     0.197485 -19.54  0.001216254    1.276    0.217
       145 -10.8840     76.7478     62.2040   5.8918837921e+01   5.4325833365e+01    0.2356252    0.1957216  -2.77            0    1.206    0.171
       146  -9.4343    168.8302     62.6338   3.4138499885e+01   3.4405660952e+01    0.1925995    0.1430015  68.77 0.0001072998    1.447    0.309
       147 -10.4897    115.4474     59.0614   4.5813736479e+01   4.7652177705e+01    0.4941533    0.2921166 -21.93   0.00145516    2.008    0.502
       148  -9.3046     69.3225     61.6969   6.1310032880e+01   5.5554785045e+01    0.1248856    0.1092709  89.91 0.0004224819    1.634    0.388
       149 -11.0706     46.2955     60.2537   6.9180152205e+01   5.8795662371e+01    0.3897064    0.2061921 -44.32 0.0008135958    1.586    0.369
       150  -9.6440    137.7641     59.6099   4.0132449146e+01   4.2520630892e+01    0.2696968    0.1750562 -53.10    0.0010867    1.890    0.471
       151 -10.3719     98.2259     60.1233   5.1250379797e+01   5.0958228595e+01    0.2259687     0.182351  24.22            0    1.244    0.196
       152  -9.7783    127.1760     58.8079   4.2550488013e+01   4.5107826638e+01    0.1978778    0.1633245  18.00 0.0002595602    1.268    0.212
       153 -10.7385     58.1198     58.7901   6.4372696622e+01   5.7668446855e+01    0.2921648     0.227812  14.14  0.001026587    1.359    0.264
       154 -10.6529    231.2325     57.7907   2.2540433997e+01   1.9721479527e+01    0.2201788    0.1172599 -19.73 0.0008853986    2.501    0.600
       155  -9.3771    134.2950     57.7251   4.0375573132e+01   4.3646926917e+01    0.1421006    0.1193581 -78.87 0.0002715907    1.525    0.344
       156 -10.0447     81.0980     55.5000   5.5195812663e+01   5.4871846490e+01    0.4056312    0.2345421  -8.34  0.001590052    2.953    0.661
       157 -11.5949     74.9378     56.0424   5.7483507326e+01   5.5774700481e+01    0.2500059    0.1952412 -17.21  0.000526195    1.232    0.188
       158 -11.2688     35.3008     41.9884   6.7679164027e+01   6.3467824655e+01    0.6332025    0.2674673 -23.21  0.002319908    4.206    0.762
       159 -10.9011     27.5788     50.9473   7.3636117074e+01   6.2460140716e+01    0.7140478     0.379758 -66.97  0.003501567    2.485    0.598
       160 -10.9974     18.3366     42.3716   7.4874221379e+01   6.4843588053e+01    0.5822949    0.1273847 -43.84  0.002293567    3.278    0.695
       161 -10.9994     24.3992     41.8759   7.2175006163e+01   6.4472898998e+01    0.2596538    0.2230943  15.01  0.000999123    1.373    0.271
       162 -13.1770     27.0404     37.2410   6.9532369631e+01   6.5110203231e+01    0.4038011    0.3704715  64.42  0.001387523    1.671    0.401
       163 -12.5411    105.0676     52.4856   4.6546931018e+01   5.0937237871e+01     0.290661    0.2610825  -9.72 0.0003126439    1.054    0.051
       164  -9.7378     62.0234     52.9915   6.1039604129e+01   5.8254001970e+01    0.1679689    0.1278763 -35.45 0.0004105357    1.165    0.141
       165  -9.4673    154.6763     52.6889   3.4034224199e+01   3.9508167308e+01    0.1572211    0.1125069  24.64 0.0007038844    1.655    0.396
       166 -11.0231    128.7705     50.4261   3.9328290726e+01   4.6099890385e+01    0.3028761    0.2355041  20.68 0.0007251165    1.377    0.274
       167 -11.1660    132.3134     49.6220   3.8171238444e+01   4.5399173453e+01    0.6065798    0.3968969 -78.99  0.002048651    3.020    0.669
       168 -11.7059     51.7491     46.7324   6.2750143080e+01   6.0759657830e+01    0.4302122     0.322094 -53.26  0.002547495    1.522    0.343
       169 -10.8354     44.8903     50.4685   6.6665155536e+01   6.0868283170e+01    0.2690721    0.1531493 -40.56  0.001449801    1.480    0.324
       170 -12.7167     38.0070     50.0386   6.9222328759e+01   6.1678989974e+01    0.6908743     0.454147 -33.81  0.003719516    1.298    0.229
       171 -10.5058     69.0651     48.0311   5.6752880276e+01   5.8134143133e+01    0.1975543     0.167681 -11.25 0.0003533489    1.041    0.039
       172 -10.6657     82.6317     47.1837   5.1728905846e+01   5.6069650118e+01    0.2062339    0.1853911  36.48 0.0006077361    1.250    0.200
       173  -9.4766    143.3419     45.7681   3.4286258619e+01   4.3333563825e+01    0.1937797     0.138783 -15.42 0.0005537072    1.574    0.365
       174  -9.6881    120.1783     45.8742   3.9982195668e+01   4.8755896062e+01    0.1983568    0.1556019  21.55 0.0003686139    1.309    0.236
       175 -10.4597    112.4190     45.4391   4.1936520094e+01   5.0527600960e+01    0.2385809    0.2152375   5.80  0.000466739    1.043    0.041
       176  -9.4542    104.4927     46.4517   4.4571500315e+01   5.2037225460e+01    0.1433268    0.1289201   9.50 6.305776e-05    1.018    0.017
       177 -11.0105     44.5700     43.3019   6.4372847865e+01   6.2240271579e+01    0.2935859     0.220863 -60.55 0.0009496758    1.738    0.425
       178 -11.4777     44.8382     38.1270   6.2409960018e+01   6.3133236931e+01    0.2114922    0.1743158 -24.56  0.001394123    1.056    0.053
       179  -9.6844    164.2823     44.7593   2.9604553294e+01   3.8252329273e+01    0.2426441   0.09827641  48.68 0.0006721452    2.354    0.575
       180 -10.5565     96.3146     42.4410   4.5568246839e+01   5.4307396804e+01    0.3028747    0.2024265  10.66  0.000777711    1.803    0.445
       181 -11.0899     72.5449     42.6205   5.3526428965e+01   5.8521609160e+01    0.2888311    0.2437521 -36.31  0.001748161    1.251    0.201
       182 -10.9830     67.1365     41.9986   5.5242315531e+01   5.9470039578e+01    0.3025373    0.1685956 -37.79 0.0008921334    1.656    0.396
       183 -11.2098     89.2587     41.4494   4.7421804736e+01   5.5811480657e+01    0.2502322    0.2124217   7.10  0.001460856    1.082    0.076
       184  -9.6319    130.6224     41.1609   3.5694502403e+01   4.7046335914e+01    0.2072602     0.137084 -13.19 0.0009488688    1.763    0.433
       185 -10.6593    236.0508     39.6566   1.7548620235e+01   2.1102826996e+01    0.2343356    0.1913163 -28.59 0.0003728127    1.311    0.237
       186  -9.5883    226.5056     40.4817   1.8863640093e+01   2.3235903508e+01    0.1378885    0.1245088 -70.90 0.0001440239    1.013    0.013
       187 -10.8038     54.0054     36.9890   5.8322076331e+01   6.2184334057e+01    0.3415889     0.202419 -51.09 0.0009922324    2.047    0.511
       188 -11.9923     57.6429     34.0593   5.5769135553e+01   6.2171231560e+01    0.3036671    0.2171123 -29.42 0.0004755667    1.236    0.191
       189  -9.5950    148.1631     38.9695   3.0999725973e+01   4.3100339174e+01    0.2068782    0.1596649  85.91 0.0004519366    1.578    0.366
       190 -10.2965     82.5896     36.4419   4.7697124640e+01   5.7804359345e+01    0.4214158    0.2501339   7.39   0.00185871    2.388    0.581
       191 -10.5777    193.7233     35.6178   2.1952982097e+01   3.1967924427e+01    0.3957113    0.2001635 -46.94  0.001038966    2.085    0.520
       192 -11.9993     75.3173     35.1252   4.9670515780e+01   5.9269390468e+01    0.4625459    0.2780575   2.14  0.001038493    2.266    0.559
       193 -10.0771      1.6351     37.0107   8.0468611229e+01   6.6872033265e+01    0.1661181    0.1064323 -48.01 0.0009069485    1.145    0.126
       194 -10.7203    248.1273     36.1739   1.5444381738e+01   1.8812953887e+01    0.1798936    0.1763812  81.68 0.0004206388    1.197    0.165
       195  -9.8457    128.7115     35.9618   3.4342145502e+01   4.8213559392e+01    0.1922189    0.1803318  -6.22 0.0003124591    1.094    0.086
       196 -11.4301    111.3458     34.7505   3.8340218086e+01   5.2317011043e+01    0.2698763    0.2536422  -8.26 0.0007424749    1.113    0.102
       197  -9.7228    134.9620     34.9319   3.2524746529e+01   4.6864777098e+01    0.2231152    0.1745221 -70.52   0.00111507    1.690    0.408
       198 -11.7217      8.1970     31.9042   7.6067286618e+01   6.7475876644e+01    0.3907318    0.2642977 -68.90  0.001628308    1.872    0.466
       199  -9.9847     13.8297     34.1924   7.4278869113e+01   6.6695073622e+01    0.1849698    0.1476587 -21.31 0.0006066756    1.151    0.131
       200 -10.8803     18.0618     31.1671   7.1386256085e+01   6.6942310877e+01     0.310061    0.2057453  14.46   0.00199425    1.654    0.395
       201  -9.8615    177.5935     34.2017   2.4044308799e+01   3.6264550731e+01    0.1946787    0.1419091  -8.86 0.0009473484    1.680    0.405
       202  -9.8081    140.1340     33.8615   3.1009547657e+01   4.5751485595e+01     0.196596    0.1873646  75.95 0.0002642261    1.133    0.118
       203  -9.4581    122.2964     33.3708   3.4986040817e+01   5.0049588492e+01    0.1523173    0.1019587  19.39            0    1.733    0.423
       204  -9.6941     34.2047     33.4492   6.5117642989e+01   6.5110065731e+01     0.146922     0.109683  33.83 0.0009366866    1.670    0.401
       205 -10.8021     49.3885     29.0481   5.7049280928e+01   6.4090578821e+01    0.3105147    0.1708898 -34.33    0.0010744    1.597    0.374
       206 -10.8762    221.6608     31.7056   1.7261037594e+01   2.5528416723e+01    0.2394404    0.1985076 -58.12 0.0002357164    1.137    0.120
       207 -10.7260    101.4225     28.5331   3.8751768526e+01   5.5265762059e+01    0.3158567     0.246466 -62.47 0.0009782966    1.902    0.474
       208 -10.9093    156.7880     28.1909   2.5804307578e+01   4.2309701603e+01    0.2417674    0.2023224  55.75 0.0002910847    1.097    0.089
       209 -10.9831     79.4004     28.6692   4.5681049049e+01   5.9513432956e+01    0.2770648    0.2073281  -7.40 7.468036e-05    1.268    0.212
       210 -11.1879    238.1070     27.9796   1.4572559392e+01   2.2111978409e+01    0.1984666    0.1701711 -65.92  0.000308107    1.034    0.033
       211 -10.8830    197.8746     28.0369   1.9285685552e+01   3.1861527894e+01     0.282313    0.1830307  67.88 0.0006778066    1.447    0.309
       212  -9.3301    162.6869     28.3041   2.4779257987e+01   4.0800096145e+01    0.1448311    0.1075568 -70.33 0.0004472335    1.616    0.381
       213 -10.8613    112.2302     27.4094   3.5357677251e+01   5.3086494677e+01    0.2731279    0.2348223   2.27 0.0008733842    1.135    0.119
       214  -9.4061     71.5697     28.5672   4.8361575941e+01   6.0876668413e+01    0.1310556    0.1094815  -0.12 9.242121e-05    1.012    0.012
       215  -9.1345    179.6977     27.2758   2.1677569424e+01   3.6576672715e+01    0.1417895    0.1040591 -71.65 0.0002655745    1.540    0.351
       216  -9.4404    124.0305     27.1607   3.2318900224e+01   5.0436156183e+01    0.2183224    0.1639092  89.83 0.0009941481    1.887    0.470
       217 -10.6550    215.3546     25.3628   1.6402001205e+01   2.7836416812e+01    0.3373672    0.1890406  53.68  0.001157639    1.821    0.451
       218 -10.6392     16.3876     26.2495   7.0413157590e+01   6.7938488215e+01    0.1520348   0.09432114 -52.52 0.0009416166    1.585    0.369
       219 -11.0203    224.6024    247.9847   6.4202516561e+01  -7.9596328515e+00    0.2317765    0.1086752 -33.61   0.00126973    2.479    0.597
       220 -10.8729     10.9188     24.1456   7.2212951487e+01   6.8695901033e+01    0.2432965    0.1606147 -14.98  0.001120831    1.404    0.288
       221  -9.4907    160.6686    249.6565   7.5963390657e+01   1.8907448124e+00    0.1193169   0.08430813  15.72 0.0007050749    1.754    0.430
       222 -10.1159      6.9442     25.2189   7.4460569503e+01   6.8760998202e+01    0.1723628    0.1403733  12.44 0.0007726578    1.468    0.319
       223 -10.8200     22.2306     24.2626   6.6971372828e+01   6.7807252029e+01    0.2364891    0.1602814 -13.17 0.0006374462    1.343    0.255
       224  -9.9401    226.0647     23.2868   1.4703121839e+01   2.5498803240e+01    0.1852061    0.1550655 -88.66 0.0004007854    1.098    0.089
       225  -9.9081    159.2292     23.5870   2.3901656489e+01   4.2228255901e+01    0.2082452    0.1161042  52.10 0.0008173204    1.619    0.382
       226 -11.2389     57.6652     21.6254   5.0630956523e+01   6.4057147210e+01    0.5103125    0.2249024  24.37  0.002165934    2.957    0.662
       227  -9.7308    186.7922     22.6213   1.9303118102e+01   3.5307565464e+01    0.1940477    0.1254671  80.67 0.0003390202    1.585    0.369
       228 -11.2253     28.3545    245.2000   9.8724035665e+01   2.1281974589e+01    0.2466772    0.1315123 -73.25  0.001693377    1.860    0.462
       229  -9.9186     93.9842     22.4264   3.8504123486e+01   5.7565137963e+01    0.1956671    0.1214592  46.72 0.0003393965    1.531    0.347
       230  -9.9845     82.9883     22.2108   4.1832379679e+01   5.9727058693e+01     0.190892    0.1581236  16.00  0.001045263    1.047    0.045
       231 -10.0440    207.0228     21.0265   1.6266451759e+01   3.0396438386e+01    0.2032073    0.1826497 -83.66 0.0003485985    1.016    0.016
       232 -11.3885     65.8426     20.4943   4.7038066628e+01   6.2944575742e+01    0.3622553    0.2203937  54.29  0.001221803    2.419    0.587
       233  -9.6692     34.5976     20.7019   5.9905464539e+01   6.7173500365e+01    0.2502212    0.1639178 -62.42  0.000708975    3.290    0.696
       234  -9.8346    181.4838     19.8683   1.9266201847e+01   3.6969385545e+01    0.1896558    0.1393114 -27.76 0.0005268466    1.485    0.327
       235  -9.2820    145.3221     20.2753   2.5362187476e+01   4.6089040467e+01    0.1468954   0.09576415  36.04 0.0003764467    1.578    0.366
       236 -10.8580     41.7784     19.1278   5.6075630118e+01   6.6575920029e+01    0.2766457    0.2019419  20.82   0.00108853    1.358    0.264
       237  -9.8153    238.2699    245.6464   6.1462571031e+01  -9.7088585737e+00   0.09544592   0.08937497  36.97  0.000699511    1.633    0.388
       238 -10.0266     24.4590     20.4625   6.4433659355e+01   6.8236398674e+01    0.1950759    0.1367751  17.96 0.0008987783    1.507    0.336
       239 -10.2946     28.5295     19.5405   6.2167856355e+01   6.7992173633e+01    0.2286707     0.151031 -10.40 0.0006994794    1.390    0.280
       240 -10.4545     73.0152    244.8006   9.1256123568e+01   1.5913795490e+01    0.2548787    0.1726625  31.43  0.001641848    1.863    0.463
       241 -12.2134     75.4334    238.4166   9.0298780916e+01   1.6693452473e+01    0.4990508    0.4089193 -67.18  0.003660929    1.485    0.327
       242 -10.0902    108.4110     17.4083   3.2513501911e+01   5.5103971311e+01    0.2344157    0.1300315 -16.75  0.001100836    1.979    0.495
       243 -11.6370     18.3889    236.5349   9.9854817957e+01   2.3852241910e+01    0.4323781    0.1250118  54.88  0.002263191    2.626    0.619
       244 -10.3282    160.3374    235.3086   7.4118781248e+01   4.0502039008e+00    0.2366459    0.1294136  33.52 0.0008018852    1.683    0.406
       245 -11.3497     29.8898    233.9368   9.7833385934e+01   2.3094829785e+01    0.3523233    0.1391611  71.54  0.001827447    2.622    0.619
       246  -9.8957    195.0552    238.6907   6.8099564275e+01  -2.1856463381e+00     0.178461    0.1331744  30.64 0.0007414299    1.066    0.062
       247 -10.4416     15.0115     13.5640   6.6120557280e+01   7.0158413555e+01    0.1489818    0.1119617  -5.74 0.0003091011    1.205    0.170
       248 -10.5690    194.3936     16.7266   1.6662988267e+01   3.4037362768e+01    0.2548495      0.19835  72.83 0.0008088087    1.172    0.147
       249  -9.7974     24.0142    232.0527   9.8697162122e+01   2.4066155192e+01    0.1361821     0.117604 -67.55 0.0005717632    1.622    0.384
       250 -10.0760    183.9929    230.0211   6.8852308605e+01   8.5543627345e-01    0.2136173    0.1312446 -10.87  0.001032362    2.638    0.621
       251 -11.2377     76.4274     15.4762   4.1129174403e+01   6.1765139430e+01    0.2416277    0.2193685  40.34  0.001581433    1.334    0.250
       252 -10.0069    151.5853    228.7070   7.4884778132e+01   6.5551669799e+00    0.1496764    0.1229052 -73.01 0.0009381544    1.548    0.354
       253 -10.9424      3.7612    226.4330   1.0170358829e+02   2.7094865486e+01    0.2284982    0.1074571 -79.03  0.001510034    1.810    0.448
       254  -9.8461    159.4162     15.9554   2.1459880541e+01   4.3009003485e+01    0.1936746    0.1364825 -26.91 0.0004747434    1.552    0.356
       255  -9.2671    119.7007     16.2874   2.9334346577e+01   5.2676142815e+01    0.1269342    0.1067689 -72.10 0.0004728783    1.556    0.357
       256 -10.2315     50.8152     14.9841   5.0428329371e+01   6.5965854683e+01    0.2119933    0.1602964  22.17  0.001118502    1.259    0.206
       257 -10.0984    185.5505     14.2300   1.7106823211e+01   3.6541075775e+01    0.2212337    0.1462214  63.17 0.0004861679    1.361    0.265
       258 -10.2159    191.2192    226.4626   6.6927605018e+01   1.4732745499e-01    0.2107758    0.1808655 -28.97  0.001303756    1.360    0.264
       259 -10.8323     15.3696    222.0360   9.9576860583e+01   2.6786028998e+01    0.2760752   0.08519036  44.42  0.001466716    2.508    0.601
       260 -10.0931    211.9854    218.5024   6.1702903415e+01  -2.2322182464e+00    0.1922572    0.1595933 -13.91  0.001237213    1.254    0.203
       261 -10.1073     50.8214    218.1696   9.3072018307e+01   2.3605730885e+01    0.1427176    0.1318565  87.92  0.001087364    1.353    0.261
       262  -9.3049     40.5098     13.5089   5.4119400785e+01   6.7541700827e+01      0.12048   0.09401959  -8.64 0.0001206161    1.017    0.017
       263  -9.5201    136.3179    216.2922   7.6169422474e+01   1.1250454203e+01    0.1229974   0.09836103  13.51  0.000311947    1.602    0.376
       264 -10.4914    103.1267     16.9886   3.3735078327e+01   5.6298078776e+01    0.1924401    0.1702977  25.63  0.000305388    1.039    0.037
       265 -10.8081     29.2351    215.6486   9.6793746962e+01   2.6561298881e+01    0.1927408    0.1576189  52.47  0.001117535    1.337    0.252
       266 -11.1226     24.0053    216.0034   9.7739919806e+01   2.7045001109e+01    0.1673134    0.1223921  76.81 0.0004122696    1.019    0.019
       267 -12.0984     11.5785    209.6772   9.9531942378e+01   2.9489732959e+01    0.4622183    0.1851253  86.67   0.00248053    2.356    0.576
       268 -12.5946      5.7261    208.4503   1.0047844646e+02   3.0267173566e+01    0.5479975    0.1810984 -74.12  0.002950595    2.493    0.599
       269 -10.9642      1.7687    206.2082   1.0104180468e+02   3.1050098724e+01    0.1772924    0.1222241 -83.89  0.001008893    1.245    0.197
       270  -9.2128    120.7335    219.6154   7.9731825997e+01   1.3261299398e+01    0.1161449   0.09886362  -8.90 0.0006986147    1.695    0.410
       271 -10.3899    237.1731    208.8436   5.5382993467e+01  -5.0723426927e+00    0.1783193    0.1253503   3.43 0.0005901178    1.357    0.263
       272 -10.9758     19.8665    201.0487   9.7512476936e+01   3.0379087269e+01    0.4409018    0.1144518 -64.28  0.002001239    3.350    0.701
       273 -10.9042    175.4092    202.3580   6.6048031505e+01   6.7080517199e+00    0.2502383    0.2096981  33.22 0.0005137381    1.045    0.043
       274 -10.4784    238.7709    200.7887   5.3605196133e+01  -4.2476689361e+00    0.1565475    0.1476302  -4.93 0.0006138317    1.335    0.251
       275  -9.6449    215.4846    194.0195   5.6618636395e+01   7.3243808402e-01    0.1906207    0.1278291 -31.03 0.0006813488    1.552    0.356
       276 -11.5315     15.4787    193.0999   9.7795103077e+01   3.2397244924e+01    0.2450439    0.1935799  61.74 0.0009127916    1.219    0.180
       277 -10.8921    244.6871    187.9800   5.0093679589e+01  -3.4508356013e+00    0.1846491    0.1525982  -7.89 0.0005098474    1.088    0.081
       278  -9.8870     61.9648    184.5362   8.7651549436e+01   2.9043823691e+01    0.1995383    0.1474185 -78.62  0.001229703    1.237    0.192
       279 -11.9568     19.2449    181.6089   9.6238603001e+01   3.4413238041e+01    0.3217263    0.2160312 -49.39  0.001622637    1.953    0.488
       280 -11.7639     15.6557    181.3292   9.6930282513e+01   3.4802793372e+01    0.3034893     0.169543  68.03  0.001870458    1.597    0.374
       281 -10.8672    244.1638    178.8909   4.8376502721e+01  -2.0605299668e+00    0.2938536     0.161267 -24.24 0.0008406651    1.828    0.453
       282 -10.8386     18.3488    172.9222   9.5734481922e+01   3.6333777419e+01    0.2002326    0.1318765  59.11  0.001319907    1.402    0.287
       283  -9.5448    176.7354    168.6798   5.9441910287e+01   1.2489137854e+01    0.1435885    0.1114634   0.99 0.0002777799    1.555    0.357
       284 -10.9641      5.8358    167.8837   9.7918289865e+01   3.8471190922e+01    0.1680636    0.1280937 -72.25 0.0007490368    1.258    0.205
       285 -11.1526     51.3719    162.2264   8.7403349664e+01   3.5262635372e+01    0.6268822    0.2620237 -74.62  0.002745394    2.433    0.589
       286 -11.0558     36.4879    165.8562   9.1192830936e+01   3.6103799107e+01    0.3042601    0.2134426  32.28  0.001900726    1.691    0.409
       287 -10.4310     35.6783    161.0413   9.0866844146e+01   3.7256002134e+01    0.2459874    0.2185222 -21.05 0.0009259823    1.594    0.373
