#   1 NUMBER                 Running object number                                     
#   2 MAG_AUTO               Kron-like elliptical aperture magnitude                    [mag]
#   3 X_IMAGE                Object position along x                                    [pixel]
#   4 Y_IMAGE                Object position along y                                    [pixel]
#   5 X_WORLD                Barycenter position along world x axis                     [deg]
#   6 Y_WORLD                Barycenter position along world y axis                     [deg]
#   7 A_WORLD                Profile RMS along major axis (world units)                 [deg]
#   8 B_WORLD                Profile RMS along minor axis (world units)                 [deg]
#   9 THETA_WORLD            Position angle (CCW/world-x)                               [deg]
#  10 FWHM_WORLD             FWHM assuming a gaussian core                              [deg]
#  11 ELONGATION             A_IMAGE/B_IMAGE                                           
#  12 ELLIPTICITY            1 - B_IMAGE/A_IMAGE                                       
         1 -14.9190      7.5304    153.8373   1.2889257840e+02   4.1995899668e+01     5.458896     1.557888 -86.26   0.02333989    3.483    0.713
         2 -12.8220    203.6651     34.1487   5.5180716338e+01   2.9462201616e+01     1.263585    0.8547942 -15.30  0.005988298    1.616    0.381
         3 -13.2632    221.6479     16.5947   4.8069722205e+01   2.6872383406e+01     1.012613     0.874094  27.48  0.004103571    1.327    0.247
         4 -10.3736      3.0180     17.7816   1.1036067617e+02   7.1436055706e+01    0.2118478    0.1287403 -53.85 0.0008910602    1.246    0.197
         5 -11.8929    242.2758    249.0596   9.5742815741e+01  -5.9740152571e+00    0.7044497    0.1739229  43.67  0.003109135    3.584    0.721
         6 -11.3774     90.1618    246.0575   1.2009679618e+02   1.6273665597e+01    0.3076102    0.1344908  61.30  0.001746521    2.307    0.567
         7 -11.8074     95.3308    246.3368   1.1927074577e+02   1.5548745318e+01    0.2569036    0.2259956  29.14  0.002124941    1.566    0.361
         8 -10.2034     43.8896    247.3284   1.2756438999e+02   2.1700146177e+01    0.1838745    0.1313492 -74.68  0.001548433    1.678    0.404
         9 -11.2438    109.9835    248.9966   1.1708200081e+02   1.3187489860e+01    0.2506791    0.1409846  59.29  0.001672881    1.583    0.368
        10 -10.5899     39.8114    246.0764   1.2813385045e+02   2.2335477550e+01    0.1674126     0.121593  49.67  0.001420416    1.309    0.236
        11 -11.6075     58.3560    242.3903   1.2501258451e+02   2.0791652668e+01    0.3501657    0.1756486  32.40  0.002136577    2.470    0.595
        12 -10.1669     51.7678    240.5000   1.2595987738e+02   2.1847354653e+01    0.2566026   0.09184477  67.05  0.001303329    3.170    0.685
        13 -13.0617    129.5600    231.5491   1.1210733083e+02   1.2803088133e+01     1.080703    0.2329684  43.84  0.004285352    3.412    0.707
        14 -12.7754    108.7181    230.4694   1.1563344330e+02   1.6016452298e+01    0.5674939     0.252445  44.12  0.003243793    1.717    0.418
        15 -12.3790    100.9695    229.4430   1.1688920398e+02   1.7269016356e+01      0.67312    0.1235838  42.45  0.002599732    3.837    0.739
        16  -8.9268     13.0105    234.0581   1.3176053879e+02   2.6933719838e+01    0.1651263   0.06794917  61.48 0.0008781291    1.728    0.421
        17 -12.6885     10.1524    206.8482   1.3114231001e+02   3.1723920162e+01    0.7000481    0.3558741  42.16   0.00274707    1.743    0.426
        18 -12.1773     59.3432    213.8635   1.2296204253e+02   2.5275738737e+01     0.960657     0.263631  59.23  0.003518086    5.038    0.802
        19 -11.2632     78.9537    164.7995   1.1432525695e+02   3.1918999529e+01    0.4329664    0.3851804 -51.49  0.001694402    1.401    0.286
        20 -13.5136     28.4445    217.5036   1.2855068994e+02   2.8114160976e+01    0.6329606    0.4391206  63.89  0.002364295    1.042    0.040
        21 -10.9641    109.9920    225.7560   1.1495411325e+02   1.6545502833e+01    0.2786401    0.1543899  53.49  0.001538691    1.474    0.322
        22  -9.5364     93.6241    149.6470   1.0887268760e+02   3.2873213158e+01     0.251719    0.2046794  68.02 0.0007912638    1.149    0.130
        23 -11.5414     81.7774    148.2370   1.1144201238e+02   3.4953000276e+01    0.2626633    0.2127459 -61.12 0.0006255805    1.281    0.219
        24 -10.8506     81.3671    224.1029   1.1985805449e+02   2.0778861706e+01    0.4211879   0.05011998  47.64  0.001399089    5.352    0.813
        25 -11.6872     67.8400    143.7265   1.1412258264e+02   3.7850407263e+01    0.5994989    0.3559227  66.69  0.002547465    1.829    0.453
        26  -8.6200     96.9910    145.6951   1.0745011331e+02   3.3169127362e+01    0.1819323    0.1575019  57.43 0.0003045097    1.094    0.086
        27  -9.1683    106.8629    135.3929   1.0327504741e+02   3.3701712706e+01    0.3110166    0.2022107 -21.30  0.001289864    3.003    0.667
        28  -9.5942     93.7282    132.4290   1.0596991260e+02   3.6519745075e+01    0.2264253    0.1958783 -44.95 0.0006723574    1.304    0.233
        29  -8.7676    104.9770    122.6487   1.0124904023e+02   3.6749040858e+01    0.1823565    0.1641908  56.77 0.0002990353    1.095    0.087
        30 -10.5139    181.1942    247.0017   1.0512755628e+02   3.0459978140e+00    0.1697997   0.09586067  29.45  0.001065297    1.617    0.382
        31  -9.1518    167.8410    112.7565   8.4020287927e+01   2.5952416829e+01    0.2815398    0.1954698 -67.67  0.001215131    2.073    0.518
        32 -12.4983     22.6424    224.0818   1.2982711189e+02   2.7603962357e+01    0.2501525    0.1963323  75.40 0.0007473092    1.216    0.178
        33 -10.4518    242.6761     93.6576   6.5758715304e+01   1.2135992440e+01    0.2305079    0.1580492  15.79   0.00112811    1.737    0.424
        34 -11.2684     52.4708    192.5335   1.2260347275e+02   2.9911419948e+01     0.222306    0.2027713 -84.17 0.0005219703    1.359    0.264
        35 -11.4712     59.6309    184.7428   1.2053137944e+02   3.0520560391e+01    0.2210332    0.1914991 -78.04 0.0005127503    1.298    0.230
        36 -12.6656     39.5644    207.2431   1.2604159036e+02   2.8707952402e+01    0.6731021     0.542551 -67.45   0.00347137    1.580    0.367
        37 -10.4404     71.2153    172.7909   1.1693926852e+02   3.1370548750e+01    0.1954325    0.1728715  74.20 0.0003470886    1.121    0.108
        38 -11.6823    134.9774    248.0000   1.1286525104e+02   9.7773702616e+00    0.3368455     0.142589  40.70  0.001924495    1.796    0.443
        39 -12.8589     57.2054    170.2823   1.1965199603e+02   3.3654849402e+01    0.4281611     0.257455 -48.56  0.001687132    2.247    0.555
        40  -9.8743     80.9723    250.0000   1.2187108998e+02   1.6895495418e+01    0.1711443   0.04373911  40.71 0.0008060076    2.967    0.663
        41  -8.9849     33.3065     24.6666   9.7813622603e+01   6.7705097829e+01    0.1109436   0.09433295 -78.72 0.0004073302    1.667    0.400
