#   1 NUMBER                 Running object number                                     
#   2 MAG_AUTO               Kron-like elliptical aperture magnitude                    [mag]
#   3 X_IMAGE                Object position along x                                    [pixel]
#   4 Y_IMAGE                Object position along y                                    [pixel]
#   5 X_WORLD                Barycenter position along world x axis                     [deg]
#   6 Y_WORLD                Barycenter position along world y axis                     [deg]
#   7 A_WORLD                Profile RMS along major axis (world units)                 [deg]
#   8 B_WORLD                Profile RMS along minor axis (world units)                 [deg]
#   9 THETA_WORLD            Position angle (CCW/world-x)                               [deg]
#  10 FWHM_WORLD             FWHM assuming a gaussian core                              [deg]
#  11 ELONGATION             A_IMAGE/B_IMAGE                                           
#  12 ELLIPTICITY            1 - B_IMAGE/A_IMAGE                                       
         1 -12.0714     62.7083     70.1856   7.2016096811e+01   5.6863848728e+01      1.00407    0.1587577 -48.84   0.00238031    5.541    0.820
         2 -12.2585      7.6103     53.8480   9.5547377759e+01   6.7369674350e+01     0.707126    0.1294772 -64.65  0.002312336    3.482    0.713
         3 -10.3693     40.7701     14.0405   5.6275480220e+01   7.2192046799e+01    0.1885588    0.1646289  -7.02 0.0003043059    1.068    0.063
         4 -11.1308    192.0342    226.0029   7.0878749727e+01   5.6776319078e+00    0.1799607    0.1072494   2.98 0.0008365041    1.651    0.394
         5 -11.2440    162.3649    224.6283   7.6083198155e+01   9.5108936206e+00    0.2260939    0.1622483  11.94 0.0007682944    1.181    0.153
         6  -9.7655     99.3318    224.7231   8.8842537993e+01   1.7452075182e+01    0.1191305   0.07340615  49.26 0.0004001875    1.600    0.375
         7 -10.6830     60.2217    222.8328   9.7132029528e+01   2.2306757534e+01    0.2094106   0.08053201  55.21 0.0009516029    2.857    0.650
         8 -10.0961    126.2193    220.4302   8.2719393560e+01   1.4751466611e+01    0.1667171   0.08993175  38.86 0.0006286558    1.587    0.370
         9 -10.5148     74.7776    219.5590   9.3681658642e+01   2.1255592810e+01    0.1763121   0.08339243  39.77 0.0008774787    1.655    0.396
        10 -10.3621    186.3198    214.6472   7.0243953705e+01   7.7752392560e+00    0.1000766   0.08839406  46.62 0.0007047213    1.748    0.428
        11 -11.6403    186.0139    203.8255   6.8647089665e+01   9.2211776144e+00    0.1863939    0.1537747 -40.92  0.001286577    1.640    0.390
        12 -12.0635    165.0839    201.9102   7.2305780255e+01   1.2325644327e+01    0.3736374    0.2512466 -48.68  0.002244744    1.943    0.485
        13 -12.4117    162.8615    193.8690   7.1487680466e+01   1.3833863759e+01    0.4199045    0.3205484  76.50  0.002239452    2.790    0.642
        14 -10.8263     88.8267    198.5006   8.8410842897e+01   2.3385847473e+01    0.2246605    0.1416491  77.33  0.001150882    2.307    0.566
        15 -11.4589    177.8172    197.9898   6.9242548756e+01   1.1127886294e+01    0.1677603    0.1488775 -80.39  0.001090023    2.038    0.509
        16 -10.7637    124.3304    197.6608   8.0185003327e+01   1.8722372500e+01     0.125936    0.0909447  57.63 0.0007051809    1.740    0.425
        17 -10.3407     44.3176    193.6579   9.8691563830e+01   2.9589498099e+01    0.1346333   0.07290852  56.23 0.0007049015    1.714    0.417
        18 -10.5223    206.4897    191.4895   6.3016224771e+01   8.1050687938e+00    0.1178795   0.09241861   2.80 0.0008103745    1.026    0.025
        19 -10.7047    139.4789    189.9630   7.5739129399e+01   1.7856710961e+01    0.1568125    0.1161133 -84.94 0.0008094259    2.490    0.598
        20 -11.3239      9.0755    187.7182   1.0700176683e+02   3.4064691001e+01    0.2829952    0.2108365  -6.81  0.001476113    1.856    0.461
        21 -12.5504     94.3970    185.3947   8.5494963963e+01   2.5173969607e+01    0.6581476    0.2553574  51.39  0.002413846    3.473    0.712
        22 -10.3988    165.3954    186.1927   6.9724782554e+01   1.4640485749e+01    0.1627265     0.118502 -49.54 0.0007451351    1.765    0.433
        23 -11.0853    120.5654    184.8546   7.9194287395e+01   2.1539746559e+01    0.2838683    0.1336221 -63.75  0.001153485    3.404    0.706
        24 -10.9400    110.0760    185.8817   8.1794178749e+01   2.2873978390e+01    0.2082454    0.1677254  51.20  0.001252907    1.284    0.221
        25 -10.7323     54.8069    186.2210   9.5472299684e+01   2.9995257402e+01    0.2331151   0.09616011  57.60  0.000958132    2.835    0.647
        26 -10.4760     74.9855    183.9896   9.0143561527e+01   2.8032867490e+01    0.2197081    0.1349105  58.41  0.001136291    1.745    0.427
        27 -10.2982    129.6660    188.3343   7.7648964039e+01   1.9577389458e+01    0.1277778   0.09561577  59.68 0.0007052205    1.736    0.424
        28 -10.7538    174.7611    183.5785   6.7434352239e+01   1.3656282620e+01    0.1727258     0.107737  41.47 0.0009518639    1.691    0.409
        29 -10.8715    147.9781    179.9740   7.2293447007e+01   1.8269363718e+01     0.195305    0.1595237  64.13  0.001135162    1.728    0.421
        30 -11.4400     78.0695    175.6935   8.8372248652e+01   2.9368015868e+01    0.3012527    0.1837623  67.37  0.001456309    2.069    0.517
        31 -10.8020    177.0075    170.7434   6.4706681680e+01   1.5269935333e+01    0.2196869    0.1644595 -47.53 0.0009752372    1.674    0.403
        32 -11.5058    121.7872    168.8920   7.6378052426e+01   2.4361910435e+01    0.4065702    0.2959656 -86.93  0.002029972    2.187    0.543
        33 -10.6810     55.3860    169.1933   9.3661875865e+01   3.3628462127e+01    0.1852845    0.1177147  88.07 0.0009503917    1.765    0.433
        34 -10.5132    135.0048    171.5141   7.3728517384e+01   2.1780510465e+01    0.1891384    0.1045423  53.74 0.0008099228    2.504    0.601
        35 -11.2626    139.3697    164.6985   7.1525994968e+01   2.2327616022e+01    0.3314612    0.2542561  89.72  0.001681296    2.194    0.544
        36  -9.9812    192.3337    165.6643   6.0871712118e+01   1.3664823859e+01    0.1120682    0.1039189 -80.07  0.000387216    1.739    0.425
        37 -10.9739     80.0030    163.6163   8.6266482823e+01   3.1717935755e+01    0.4834857    0.2495864  74.87  0.001666488    4.083    0.755
        38 -10.9892    205.7632    161.7660   5.7761144939e+01   1.2177923984e+01    0.1895052   0.08897924 -42.70 0.0008873001    2.458    0.593
        39 -11.1232     93.2037    160.1120   8.2189556188e+01   3.0578237960e+01    0.3218411    0.2035122  72.22  0.001427609    2.353    0.575
        40 -10.4514    177.8136    160.2182   6.2549318745e+01   1.6787232474e+01    0.1948551    0.1506186 -89.00 0.0009497237    2.807    0.644
        41 -11.1551    197.4788    157.4718   5.8360012186e+01   1.4062497316e+01    0.2219605     0.109177 -43.99  0.001036806    2.371    0.578
        42 -10.7347    105.9338    157.9857   7.8484803925e+01   2.9069885184e+01    0.2300552    0.1647426  64.96  0.001141248    1.762    0.432
        43 -10.7482    168.1898    157.4083   6.3910936907e+01   1.8825418804e+01     0.184714    0.1206055  46.71 0.0009494699    1.719    0.418
        44 -10.6969    119.4752    154.9836   7.4495100405e+01   2.7491494618e+01    0.1899882    0.1268609 -81.74 0.0008101108    2.610    0.617
        45 -10.9625     81.6019    154.0353   8.4418112322e+01   3.3631976328e+01    0.3198087    0.2144672  66.31  0.001548792    1.793    0.442
        46 -10.8392     49.4483    154.2912   9.3712742684e+01   3.7755083000e+01    0.3466274     0.185766  69.67  0.001527538    2.256    0.557
        47 -11.0201    133.5595    152.7049   7.0621471277e+01   2.5563593257e+01    0.3071947    0.2039134  68.04  0.001327936    2.589    0.614
        48 -11.2328     68.1481    152.9942   8.8098011702e+01   3.5740865324e+01    0.2580509     0.195483  37.73  0.001380407    1.236    0.191
        49 -11.5875    189.8309    149.3028   5.8089164802e+01   1.6516017474e+01    0.3243074    0.1766402 -40.37  0.001610236    1.867    0.464
        50 -11.0547    200.3872    148.2076   5.5985806263e+01   1.4952341011e+01    0.1814558    0.1090992 -40.33  0.000953205    1.730    0.422
        51 -11.1426     39.3010    147.0712   9.5955574166e+01   4.0603479651e+01    0.3751052    0.1820708  68.99  0.001555851    2.511    0.602
        52 -11.6552    149.3506    144.7238   6.5349366579e+01   2.4305818919e+01    0.4216306    0.3059039  86.76  0.001861092    2.728    0.633
        53 -11.5168    107.5032    144.8077   7.5683236897e+01   3.1624274914e+01    0.5294887    0.3241073  70.85  0.002048076    2.983    0.665
        54 -11.4573     55.4795    144.3916   9.0685190707e+01   3.9411449977e+01    0.5172614    0.2748658  88.99  0.002143937    2.494    0.599
        55 -11.4760    125.0682    142.6532   7.0689083304e+01   2.9042956922e+01    0.4477572    0.2841538 -78.93  0.001711895    3.234    0.691
        56 -11.1133     87.8102    142.7549   8.0784232237e+01   3.5273920931e+01    0.2884347    0.2051761 -74.65   0.00119169    1.630    0.386
        57 -10.7513      2.0000    139.4876   1.0687228135e+02   4.5578280798e+01    0.2814972   0.06421848 -82.56 0.0009376595    3.958    0.747
        58 -11.2825     22.5596    135.9081   1.0012229644e+02   4.4956695904e+01    0.6578264    0.2634362  87.64  0.002543055    2.865    0.651
        59 -10.3952    179.6709    133.3539   5.6572385593e+01   2.0804212480e+01    0.1317488    0.1095089 -70.84 0.0007046282    1.776    0.437
        60 -10.4547    112.7887    133.1794   7.1904496077e+01   3.3223995063e+01    0.2491859    0.1613797  76.21 0.0009548238    2.869    0.652
        61 -11.2201    132.3291    131.4202   6.6462559349e+01   2.9997898649e+01    0.3551805    0.2522705 -78.05  0.001559267    2.305    0.566
        62 -11.9381     83.2689    130.1578   7.9795229596e+01   3.8929096071e+01    0.6879828    0.3008514 -65.16  0.002499535    2.778    0.640
        63 -10.6545    143.3862    131.2216   6.3763591281e+01   2.7950254613e+01    0.2054033    0.1342512 -52.20 0.0009533421    1.728    0.421
        64 -10.6598    153.1633    129.0213   6.1038031768e+01   2.6504672678e+01    0.2308562    0.1674179 -66.03  0.001083173    2.005    0.501
        65 -11.7832     98.6265    126.4792   7.4443813082e+01   3.7223743223e+01    0.7077525    0.3559815 -67.37  0.002525554    2.981    0.665
        66 -10.8158     72.8880    128.5543   8.2728206630e+01   4.0910102317e+01    0.3037719    0.1946067 -85.15  0.001333896    2.006    0.501
        67 -11.5756     12.3673    125.4788   1.0262574198e+02   4.8387116348e+01    0.7402648    0.2035185 -75.98  0.002669668    3.151    0.683
        68 -11.1573    117.4747    124.6604   6.8748383305e+01   3.4199040497e+01     0.324455    0.2426611  88.93  0.001279732    1.986    0.496
        69 -11.6549     58.7550    122.5619   8.6286182103e+01   4.4394128895e+01    0.6400864    0.3063948 -87.32  0.002080621    3.773    0.735
        70 -10.7645    180.0000    124.0052   5.4379617940e+01   2.2275620323e+01     0.231524   0.07345819 -36.74 0.0008057504    2.965    0.663
        71 -11.8978     27.8264    121.0907   9.6821993204e+01   4.8262050440e+01    0.7513114    0.2749232  71.01  0.002096006    5.394    0.815
        72 -12.1683     42.8181    119.9013   9.1363148702e+01   4.7039567023e+01     1.006654    0.4031609 -87.29  0.003030705    4.389    0.772
        73 -10.3157    158.3391    120.6745   5.7939307688e+01   2.7026816548e+01    0.1412922    0.1163322 -80.91 0.0004795014    1.727    0.421
        74 -11.1521    141.6933    118.1258   6.1060370077e+01   3.0815473799e+01    0.4897648    0.2270255 -56.04  0.001647345    3.342    0.701
        75 -10.4968    130.5035    118.0075   6.3763686849e+01   3.3070241278e+01    0.2101519    0.1311961 -67.39 0.0008106099    2.578    0.612
        76 -11.6753      2.4302    114.6736   1.0531566277e+02   5.1777379272e+01    0.7044317    0.2169434  85.19   0.00243173    3.529    0.717
        77 -11.4224    108.9709    112.9007   6.8289601939e+01   3.8381225360e+01    0.5875079     0.293608 -62.67  0.002030994    2.993    0.666
        78 -11.7836     92.2790    109.9960   7.2585193964e+01   4.2168213830e+01    0.8635184    0.2843109 -55.75  0.002675065    3.367    0.703
        79 -11.5364     78.3762    110.6330   7.7249986950e+01   4.4425294221e+01    0.6644396    0.3216335 -71.66  0.002221334    3.242    0.692
        80 -10.5002    122.0000    111.5095   6.4337380551e+01   3.6114187183e+01     0.331455    0.0848502 -45.51 0.0009305238    3.901    0.744
        81 -11.6635     14.0497    109.2141   1.0056065097e+02   5.2465138339e+01    0.4852484    0.2513504 -87.90  0.002235697    1.848    0.459
        82 -11.1817     65.9651    108.9121   8.1137089164e+01   4.6807448081e+01    0.4314841    0.2091208 -67.66   0.00165019    2.325    0.570
        83 -12.2266     44.6049     99.3887   8.7152570667e+01   5.2147148786e+01     1.114396    0.5234758 -86.91  0.003679687    3.551    0.718
        84 -12.9655     21.8666     99.3482   9.6306267818e+01   5.4463386427e+01     1.087379    0.4555089  86.72  0.003873658    3.149    0.682
        85 -11.3042     70.8752    118.8195   8.1511611910e+01   4.3600746988e+01    0.3658223      0.20017 -80.29  0.001371689    2.683    0.627
        86 -10.6300    150.3118    102.9712   5.5186381489e+01   3.1911812223e+01    0.2460046    0.1062202 -55.19 0.0007045986    4.274    0.766
        87 -12.1315      6.8347    100.4376   1.0251306900e+02   5.5224191811e+01    0.6254937    0.1350366 -74.14  0.002038405    3.611    0.723
        88 -10.8541    128.3942    101.2071   5.9927946312e+01   3.6919837560e+01    0.2229306    0.1399813 -52.00 0.0009553799    1.722    0.419
        89 -11.3826     81.6562     98.0023   7.3033085349e+01   4.6915449590e+01    0.4822187    0.1850177 -55.16  0.001644966    2.661    0.624
        90 -12.0509    107.9328     96.4836   6.4228134371e+01   4.2196442411e+01     0.639116    0.2755545 -53.26  0.002203547    2.657    0.624
        91 -11.2784     94.9534     94.9753   6.7787733519e+01   4.5137475674e+01     0.604663    0.2065584 -45.94  0.001950481    2.908    0.656
        92 -12.1454     63.0814     92.9762   7.8480615955e+01   5.1242640985e+01    0.8574364    0.2877391 -60.65    0.0027413    3.151    0.683
        93 -10.2679     57.8780     91.8964   8.0233809130e+01   5.2297709137e+01    0.2012588    0.1690154  69.98  0.001039065    1.298    0.230
        94 -12.6732      5.1915     88.7068   1.0203178133e+02   5.8396564674e+01    0.7109609    0.2444619 -66.26  0.002873636    2.345    0.574
        95 -11.1581    124.4169     90.1349   5.7795589897e+01   4.0007335717e+01    0.3649493    0.1334175 -49.11  0.001139079    3.148    0.682
        96 -11.6613     34.7048     86.4576   8.8649515594e+01   5.6651003747e+01    0.8545965     0.256282 -63.61  0.002932781    2.859    0.650
        97 -11.3526     85.9090     85.6026   6.8061365226e+01   4.9037844062e+01     0.464958    0.2847421 -68.83   0.00182044    2.283    0.562
        98 -12.3446     48.2028     81.7332   8.1654727159e+01   5.6237907420e+01    0.7602269    0.3063427 -62.65  0.002787837    2.446    0.591
        99 -12.6913     25.1820     76.1811   9.0874998808e+01   6.0282700654e+01     1.104595    0.2931489 -55.81  0.003799744    2.949    0.661
       100 -10.6805     74.3695     78.8042   7.0142471207e+01   5.2781503171e+01    0.4590911    0.1477733 -57.54  0.001257571    4.197    0.762
       101 -10.3482    138.6576     91.3365   5.4608756690e+01   3.6620901797e+01     0.156356    0.1202344 -77.04 0.0007050148    1.765    0.433
       102 -10.5693    127.6143     74.4334   5.2094994577e+01   4.2310615837e+01    0.3192819     0.116645 -49.07  0.000954085    3.430    0.708
       103 -10.4637     72.6661    228.3394   9.4856436574e+01   1.9979591987e+01    0.1235729   0.06768267  52.75 0.0007051561    1.749    0.428
       104 -11.6075    104.3979     81.1673   6.0673564467e+01   4.6225274888e+01    0.6099377    0.2585556 -48.01  0.002149029    2.420    0.587
       105 -10.8048      5.6652     70.4994   9.9548554158e+01   6.3158763188e+01    0.2513172    0.1112851 -75.77  0.001088131    1.973    0.493
       106 -11.1025     94.5980     68.0846   5.9346378539e+01   5.1077967009e+01     0.541557    0.1463817 -43.04  0.001546102    3.639    0.725
       107 -11.7554     17.5114     63.9723   9.2140362013e+01   6.4102669993e+01    0.5162038   0.08205765 -57.14  0.001584672    3.745    0.733
       108 -11.3213     37.1766     62.2381   8.1314220853e+01   6.2564268951e+01    0.5032728    0.1941598 -59.72  0.001887457    2.396    0.583
       109 -11.3392     73.1125     56.2662   6.2634752776e+01   5.8042672937e+01    0.8149387    0.1962661 -43.15  0.002243111    4.133    0.758
       110 -10.7077     24.5807     57.7416   8.6697852848e+01   6.5077971089e+01    0.2870714    0.1145965 -59.78  0.001148824    2.134    0.531
       111 -10.7424     84.6743    227.3256   9.2208630796e+01   1.8774704752e+01    0.1214167   0.07109148  52.29 0.0007049277    1.694    0.410
       112 -11.3088     81.8853     69.4601   6.4231539135e+01   5.3455070019e+01     0.745257    0.2130505 -45.64  0.002215561    3.420    0.708
       113 -11.0532     53.7707     51.1637   6.9029715185e+01   6.2732433977e+01    0.6214595    0.1932333 -55.55  0.001780049    4.213    0.763
       114 -10.8269     92.0000     47.9950   5.2402251177e+01   5.5538816257e+01    0.5909809   0.08533823 -37.11  0.001248528    6.891    0.855
       115 -11.7372     50.9804     66.9738   7.6124244362e+01   5.9511046152e+01    0.7830049    0.2455892 -61.80  0.002205875    4.282    0.766
       116 -11.0111     16.9010     42.0980   8.6517273990e+01   6.9647205741e+01    0.5063125   0.09232564 -56.41   0.00162293    3.555    0.719
       117 -11.2265     30.7188     49.3130   8.0517555525e+01   6.6493423835e+01    0.5521884    0.1988273 -65.19  0.001850621    3.343    0.701
       118 -11.5418      4.9324     39.7993   9.3943300601e+01   7.1051438879e+01    0.5229669     0.180234 -77.69   0.00188105    3.282    0.695
       119  -9.9907    113.7407     41.6094   4.3621757577e+01   5.1286448473e+01    0.1546978    0.1155024  13.21 0.0006970163    1.694    0.410
       120 -10.9927     57.6741     40.5478   6.2480639068e+01   6.4259338992e+01    0.2728285    0.1302743 -43.98  0.001098589    2.040    0.510
       121 -10.6962     36.7071     39.1723   7.2919047777e+01   6.8047310498e+01    0.3410738    0.1133665 -50.20  0.001219445    2.737    0.635
       122 -11.2755     27.6043     29.5303   7.4046740011e+01   7.1379877001e+01    0.4239753     0.116456 -41.96  0.001322097    3.927    0.745
       123 -11.9633     44.7177     51.0432   7.3500000182e+01   6.4208754239e+01    0.7410212     0.223448 -46.87  0.002447651    3.088    0.676
