#   1 NUMBER                 Running object number                                     
#   2 MAG_AUTO               Kron-like elliptical aperture magnitude                    [mag]
#   3 X_IMAGE                Object position along x                                    [pixel]
#   4 Y_IMAGE                Object position along y                                    [pixel]
#   5 X_WORLD                Barycenter position along world x axis                     [deg]
#   6 Y_WORLD                Barycenter position along world y axis                     [deg]
#   7 A_WORLD                Profile RMS along major axis (world units)                 [deg]
#   8 B_WORLD                Profile RMS along minor axis (world units)                 [deg]
#   9 THETA_WORLD            Position angle (CCW/world-x)                               [deg]
#  10 FWHM_WORLD             FWHM assuming a gaussian core                              [deg]
#  11 ELONGATION             A_IMAGE/B_IMAGE                                           
#  12 ELLIPTICITY            1 - B_IMAGE/A_IMAGE                                       
         1 -15.6743    174.7477     88.8395   8.8254408454e+01   2.8876898998e+01     3.230561     2.198028 -82.24   0.01306163    2.159    0.537
         2 -13.8041    176.0593     33.7689   7.2741005824e+01   3.7213360520e+01     1.065224    0.8334153  18.68  0.004028353    1.651    0.394
         3 -12.6707    179.7065     26.5615   7.0204988106e+01   3.7192993010e+01    0.5157424    0.4363635  24.80  0.001127185    1.436    0.303
         4 -12.2729    193.9414      2.5354   6.2177529993e+01   3.6293616693e+01    0.7046557    0.2581337  70.79  0.003008039    2.341    0.573
         5 -12.0112    186.6441    219.2415   1.1488061890e+02   5.8662111202e-01    0.2226489    0.1967791 -63.09  0.000715331    1.377    0.274
         6 -15.3235    234.5317    247.2329   1.1063553928e+02  -1.1564942814e+01     1.931758     0.590096  37.24   0.00821069    2.862    0.651
         7 -14.7341    197.3127    247.9802   1.1752154268e+02  -5.7486075098e+00     1.617111    0.5749614  40.59  0.007075054    2.361    0.576
         8  -9.5382    140.3087    250.3022   1.2849608291e+02   3.5293980710e+00    0.1156584   0.09347574  18.24 0.0005919475    1.603    0.376
         9 -11.6080    116.7700    249.4456   1.3274454428e+02   7.5686231895e+00    0.2170683    0.2041119 -79.96 0.0007574256    1.294    0.227
        10 -17.0755    104.4140    186.6039   1.2679834172e+02   2.2243800604e+01     3.568382     2.020027  70.16  0.009488155    2.404    0.584
        11 -19.8916     46.3697    161.6331   1.3638434340e+02   3.6415575994e+01     19.50458     2.772574 -66.39   0.04854941    6.904    0.855
        12 -10.7783      1.4350    249.6801   1.5207343942e+02   2.2878243672e+01    0.1172924   0.07452167 -83.39 0.0008916625    1.355    0.262
        13 -11.7290     16.1937    206.2092   1.4705292197e+02   2.9812105746e+01    0.1652322    0.1302074 -86.93  0.001219889    1.178    0.151
        14 -11.1708     11.5923    205.7290   1.4784025870e+02   3.0367999915e+01    0.2829927    0.2068298  60.42  0.001125078    1.298    0.230
        15 -18.3858     81.6553    193.0527   1.3272097704e+02   2.4466887708e+01     6.970206     1.861445 -60.87   0.02451362    3.499    0.714
        16 -12.3996    193.2349    193.1648   1.0878699429e+02   3.9629843793e+00    0.8133883    0.5050882 -59.63  0.003623132    2.223    0.550
        17  -9.8736    180.6514    193.3351   1.1140131199e+02   6.3929795946e+00     0.146451    0.1132496  80.52 0.0007047712    1.778    0.438
        18 -14.0441    248.9039    176.0252   9.4754032577e+01  -3.4701583982e+00     1.151334    0.4497977 -40.07  0.004595545    2.415    0.586
        19 -16.0489    232.5929    128.8269   8.7312905448e+01   7.9573220702e+00     2.743293     2.195077 -40.57   0.01042467    1.158    0.136
        20 -15.6000    226.4868    164.9619   9.6458495350e+01   2.5950113143e+00     2.416102     1.876577 -38.30   0.01086749    1.245    0.197
        21 -13.9969    244.8477    158.8960   9.1859078873e+01   1.4821028294e-01     1.007828    0.6698278  54.79  0.005070813    1.816    0.449
        22 -11.1411    207.6902    183.6812   1.0400214556e+02   2.8816403899e+00    0.2719815    0.2653843 -87.92 0.0008788511    1.190    0.160
        23 -12.1596    210.8765    180.2135   1.0266448954e+02   2.8900396398e+00    0.5027041    0.3231166 -26.13  0.002362589    1.737    0.424
        24 -11.2681    197.8214    175.5254   1.0429975054e+02   6.3668409891e+00    0.4005286     0.301764 -53.86  0.001349485    1.483    0.326
        25 -11.0581    203.3926    167.8863   1.0155672158e+02   6.6924393075e+00    0.3345007    0.2511703 -68.59  0.001585814    1.797    0.444
        26  99.0000     21.8136    213.8127   1.4661591712e+02   2.7662913329e+01    0.1969779    0.1513792   7.80  0.001261459    2.591    0.614
        27 -11.7600    250.3521    210.4550   1.0130069331e+02  -9.0255443289e+00    0.4467492    0.1593783 -35.38  0.001747926    2.742    0.635
        28 -11.3653    203.8481    154.7681   9.8591577062e+01   9.1367102987e+00    0.5980616    0.2789397 -51.65  0.002182339    2.557    0.609
        29 -10.0801    139.9378    156.3583   1.1297274612e+02   2.2432382637e+01    0.2132117    0.1857984  50.76 0.0004099889    1.138    0.121
        30 -11.3074    134.0453    145.7351   1.1208462025e+02   2.6045950125e+01     0.989335    0.2272782 -53.89  0.002231221    6.059    0.835
        31 -11.4668     11.5258    249.0636   1.5053603932e+02   2.1947393548e+01    0.1572291     0.112588 -73.01  0.000913842    1.583    0.368
        32 -15.2084    174.6090    126.0202   9.7953835565e+01   2.1497802925e+01     2.176231      1.81748  88.53  0.006775049    1.401    0.286
        33 -11.9296     93.7257    237.5467   1.3567406598e+02   1.3397824727e+01    0.3003918    0.1773362  49.73  0.000211195    1.433    0.302
        34 -11.3865     21.6207    135.8599   1.3888009434e+02   4.4857492686e+01    0.2104525    0.1790521 -60.91 0.0003097611    1.179    0.152
        35 -11.7805    173.4261    228.7331   1.1905405786e+02   1.3724411753e+00    0.2772827    0.1965911  23.17  0.001502518    1.572    0.364
        36 -11.7252    105.9923    131.0003   1.1588602413e+02   3.4881086007e+01    0.4292008    0.3268014 -70.93  0.001548797    1.405    0.288
        37 -10.5964    106.5445    126.5199   1.1471774564e+02   3.5819930451e+01    0.2879654    0.2316687 -34.16  0.000642375    1.349    0.259
        38 -10.4921    118.4360    130.3261   1.1249247876e+02   3.2698637913e+01    0.2713361    0.2114462 -32.65  0.001135966    1.438    0.304
        39 -14.3626    170.5564    104.8895   9.3441827889e+01   2.6780162185e+01     1.316256      1.13735   0.85  0.004763297    1.392    0.282
        40 -11.6710     84.5079    121.3548   1.1951615418e+02   4.0760238396e+01    0.2655441    0.2408066  89.80 0.0006856263    1.159    0.137
        41 -12.0858    178.0026    226.2676   1.1775880637e+02   9.6550859064e-01    0.2801774    0.1973343  28.50  0.001452858    1.424    0.298
        42 -10.3924    124.6102    228.1030   1.2860044844e+02   1.0143029399e+01     0.238705    0.1710687  68.58 0.0005450872    1.403    0.287
        43 -13.6187     93.8949     76.2005   1.0490928688e+02   4.8907145854e+01     1.391269     1.042862 -20.43  0.006681115    1.422    0.297
        44 -13.1205     83.8871     74.2717   1.0736785385e+02   5.0981516145e+01    0.6585756    0.4358319  21.77   0.00304509    1.760    0.432
        45 -13.4324     94.4140     50.4241   9.6410858865e+01   5.3310999525e+01    0.7661471    0.7153738 -11.01  0.003865636    1.102    0.092
        46 -11.5597     91.9687     41.4724   9.4008981029e+01   5.5102785839e+01    0.3469064      0.25797  -5.22   0.00142336    1.389    0.280
        47 -12.6838    162.7323     48.8468   7.9374322060e+01   3.8467951371e+01    0.4692619    0.3845784 -34.40   0.00151081    1.295    0.228
        48 -12.8524     15.1867     42.0873   1.2166660204e+02   6.4927955832e+01    0.6588563    0.3980356 -40.98  0.002884808    1.261    0.207
        49 -11.7207    115.1971     42.3486   8.7890604515e+01   5.0364399029e+01    0.6973946    0.3668987  45.45  0.003107625    1.772    0.436
        50 -11.4728    106.8275     38.4920   8.8760336863e+01   5.2629568771e+01    0.3597179    0.2977667 -79.24  0.001495212    1.765    0.434
        51 -11.2542    227.1803    235.8848   1.1004934805e+02  -8.9262165333e+00    0.1809126    0.1643844  27.70  0.001241189    1.239    0.193
        52 -10.8268    100.2012    231.1992   1.3373713605e+02   1.3596107644e+01    0.2144342    0.1687536  80.25 0.0004280057    1.165    0.142
