#   1 NUMBER                 Running object number                                     
#   2 MAG_AUTO               Kron-like elliptical aperture magnitude                    [mag]
#   3 X_IMAGE                Object position along x                                    [pixel]
#   4 Y_IMAGE                Object position along y                                    [pixel]
#   5 X_WORLD                Barycenter position along world x axis                     [deg]
#   6 Y_WORLD                Barycenter position along world y axis                     [deg]
#   7 A_WORLD                Profile RMS along major axis (world units)                 [deg]
#   8 B_WORLD                Profile RMS along minor axis (world units)                 [deg]
#   9 THETA_WORLD            Position angle (CCW/world-x)                               [deg]
#  10 FWHM_WORLD             FWHM assuming a gaussian core                              [deg]
#  11 ELONGATION             A_IMAGE/B_IMAGE                                           
#  12 ELLIPTICITY            1 - B_IMAGE/A_IMAGE                                       
         1 -15.0558     10.9422    144.9687   1.4195186685e+02   4.4012837287e+01     10.14558      3.31453 -84.57   0.03431397    4.580    0.782
         2 -12.9374      4.3624     50.0146   1.2759541568e+02   6.4666649395e+01    0.7052204    0.3811916 -58.68  0.004376733    1.628    0.386
         3 -13.3148    198.7925     27.6074   6.6782104966e+01   3.2550508747e+01     1.413231     1.292889  23.82  0.007421359    1.418    0.295
         4 -13.3682    214.3611      9.4792   6.0728708599e+01   3.0920753157e+01    0.9737806    0.8104462  71.19  0.004852057    1.213    0.176
         5 -12.4566      4.9762      5.4924   1.1210745786e+02   7.1750709665e+01    0.8018214    0.4249876 -16.82  0.005356239    1.670    0.401
         6 -10.9171    121.8110    250.0027   1.3078036348e+02   6.3672286388e+00    0.3015932    0.1684875  53.47  0.001621249    1.524    0.344
         7 -12.0839    239.7514    248.1678   1.0842639087e+02  -1.2808823972e+01    0.5862368    0.2606249  36.58  0.003053908    1.963    0.490
         8  -9.2991     66.2184    249.9560   1.4091632006e+02   1.4955436986e+01    0.1839149    0.1219302  72.80   0.00060806    1.233    0.189
         9 -10.9937     46.8130    249.2729   1.4419971192e+02   1.7696338147e+01    0.3436469    0.2344265 -61.84  0.001628686    1.835    0.455
        10 -11.0107     29.0659    248.4987   1.4708855233e+02   2.0033014355e+01    0.3272356    0.1765778 -62.01   0.00109844    2.196    0.545
        11 -12.2507     35.3167    245.1435   1.4583669077e+02   1.9919935319e+01    0.7677251    0.4720307 -62.18  0.004982131    1.951    0.487
        12 -12.5556     10.1054    231.7202   1.4916356433e+02   2.5365722700e+01    0.5697372     0.395449 -85.27  0.004227888    1.238    0.192
        13 -12.1266     20.0026    243.5069   1.4825005386e+02   2.2020078853e+01    0.6520982     0.276729  75.96   0.00355897    2.181    0.541
        14 -11.9769     12.9496    240.8372   1.4923026151e+02   2.3301795391e+01    0.4825647     0.224466 -88.82  0.002710547    1.776    0.437
        15 -11.9202      5.2577    249.4821   1.5089768513e+02   2.2491209618e+01     1.030386    0.3335253  36.80  0.002938905    3.470    0.712
        16 -11.9439      5.6618    241.4549   1.5042167877e+02   2.3949546242e+01    0.5206185     0.328084  70.29  0.002416816    1.134    0.118
        17  -9.5624    190.3032    245.6580   1.1712083239e+02  -4.6067272143e+00    0.1201268   0.09552454  68.48 0.0003507472    1.679    0.404
        18 -10.6895    157.1652    245.1592   1.2339895693e+02   1.1721548663e+00    0.1839167     0.138825  61.13  0.001089304    1.351    0.260
        19 -10.2715    110.2279    242.3934   1.3208232199e+02   9.6573972433e+00    0.1921204   0.09603737  51.63 0.0009548723    1.694    0.410
        20 -11.1006    184.1384    239.2341   1.1730204675e+02  -2.5585280728e+00    0.2895925    0.2101249  64.21  0.001607931    1.766    0.434
        21 -10.3916    120.0292    239.0530   1.2979192517e+02   8.6475105761e+00    0.2148549    0.1370204  70.49 0.0008935595    1.723    0.419
        22 -11.4772    139.0126    248.6724   1.2735617455e+02   3.7038209157e+00    0.3839256    0.2885651 -56.87  0.002374606    1.580    0.367
        23  -9.4703    112.1572    250.6060   1.3265732305e+02   7.8451780956e+00    0.1731762    0.1049009  36.85 0.0008253269    1.709    0.415
        24 -10.9371     50.1150    235.4333   1.4254871474e+02   1.9946434905e+01    0.2853634    0.2212322  78.06  0.001368492    1.070    0.066
        25 -11.5139    198.4972    245.3210   1.1551917598e+02  -5.9314855647e+00    0.2900684     0.255363  11.69  0.001868489    1.120    0.107
        26 -12.7305    120.7912    232.0033   1.2874374714e+02   9.8484872055e+00     1.291435    0.1893937  43.64  0.003567271    5.291    0.811
        27  -9.2321    171.9766    223.0000   1.1709954183e+02   2.3402303545e+00     0.228795   0.06955932  42.30 0.0005200568    2.910    0.656
        28  -9.6842     79.1951    219.0128   1.3545882806e+02   1.9223506920e+01    0.2158092    0.1238206  80.27 0.0006118278    1.938    0.484
        29 -12.4071      9.3193    207.4182   1.4775554613e+02   3.0369463841e+01    0.6356453    0.5827375   6.77  0.003230341    1.857    0.462
        30  -8.6775    152.4842    213.0012   1.1946438114e+02   7.8254454907e+00    0.1832364    0.1393756 -54.37 0.0001465089    1.450    0.310
        31 -12.1628     95.9350    228.5711   1.3323866472e+02   1.4652413324e+01    0.8619667    0.1957959  45.23  0.002997642    3.565    0.719
        32 -10.6008     56.0206    205.4415   1.3863774746e+02   2.5437041372e+01     0.557195    0.1943286  59.44  0.002051656    3.667    0.727
        33 -11.5410     58.2592    198.4796   1.3742559144e+02   2.6678011440e+01    0.2724808    0.2182472 -70.46  0.000548416    1.264    0.209
        34  -9.4503    192.0317    193.2690   1.0767184895e+02   3.9853922295e+00    0.3894999    0.2241962 -69.07  0.001341127    3.887    0.743
        35 -10.5927      9.8919    194.1812   1.4669699720e+02   3.3123599448e+01    0.2254782    0.1590621  72.02 0.0003504441    1.186    0.157
        36 -11.8428     64.8667    190.0407   1.3502549636e+02   2.7681660577e+01     0.274051    0.2364333 -67.39 0.0004338577    1.263    0.208
        37 -13.0442     62.0249    175.2813   1.3375320472e+02   3.1491665631e+01    0.5211871    0.2759617 -47.13  0.001953009    2.318    0.569
        38 -10.5896     75.5320    177.2014   1.3090744009e+02   2.9124704542e+01    0.2377853     0.208594  83.80 0.0003622597    1.043    0.041
        39  -9.3491     95.6361    172.4397   1.2544013050e+02   2.7066680368e+01     0.251169     0.178684  62.62 0.0005141704    1.423    0.297
        40 -11.5034     82.8412    168.3496   1.2783127166e+02   3.0106890477e+01    0.5907381    0.4381287 -51.51  0.001901737    1.425    0.298
        41  -8.9754     94.0777    168.2595   1.2510952490e+02   2.8316506574e+01     0.201214     0.176074  61.53  0.000814013    1.124    0.110
        42 -12.4528     45.9085    214.7612   1.4153690054e+02   2.4735572708e+01    0.6943287    0.5543917  89.65  0.002953455    1.122    0.109
        43 -10.1372     96.2121    152.4220   1.2172675880e+02   3.1741397669e+01    0.2817138    0.2808216 -30.79 0.0007271155    1.175    0.149
        44 -11.8739     84.8031    151.3490   1.2443302783e+02   3.3874079289e+01    0.3088747    0.2457947 -49.49 0.0005773125    1.299    0.230
        45  -8.9016     99.4908    148.0835   1.2004462956e+02   3.2216450758e+01    0.2150648     0.138409 -56.12 0.0003815189    1.473    0.321
        46 -12.0579     67.4346    143.5674   1.2752919026e+02   3.8319838851e+01    0.6718648    0.4344159  66.73   0.00292365    1.853    0.460
        47  -9.6546    108.6056    137.3462   1.1543342384e+02   3.3134917689e+01     0.432287    0.2983276 -17.06  0.001441241    2.436    0.589
        48 -12.7391     30.6670    232.1858   1.4572045879e+02   2.3003040116e+01    0.2869064    0.2364257 -82.09 0.0007523413    1.358    0.264
        49 -10.3627     95.6148    134.5912   1.1828047381e+02   3.6113950141e+01    0.2660661    0.2375841 -38.78 0.0006429867    1.207    0.172
        50 -11.4542     25.5910    128.4629   1.3614771217e+02   4.6597629606e+01    0.4101555    0.2245847  54.89 0.0005984767    2.236    0.553
        51 -11.1372     20.0365    125.5058   1.3719566039e+02   4.7745032400e+01    0.2893507     0.184102  57.97  0.001317613    1.859    0.462
        52  -9.9956     81.2841    124.3766   1.2000734083e+02   4.0877882459e+01    0.3387267    0.2135775  61.79   0.00106006    2.064    0.515
        53  -8.9324    106.1804    123.9600   1.1303461877e+02   3.6730828234e+01    0.1939782    0.1827631 -54.24  0.000250433    1.040    0.038
        54  -8.5198     68.4229    123.4205   1.2342492628e+02   4.2987288920e+01    0.1381208    0.1228104 -69.00 4.655769e-05    1.041    0.039
        55  -9.0651     76.1842    129.1555   1.2243345098e+02   4.0518804080e+01    0.2571431    0.1664926  64.01 0.0008261945    1.970    0.492
        56 -10.1218    167.8790    113.0036   9.4832022496e+01   2.5855769922e+01    0.3180133    0.2616911 -73.56 0.0005007228    1.348    0.258
        57  -9.8630     41.1278     96.3342   1.2581380009e+02   5.2441783543e+01    0.3799831     0.189349  50.87   0.00169502    2.999    0.667
        58 -13.7100     35.9001    225.6301   1.4430846096e+02   2.3703672108e+01    0.6532895    0.5018021  76.02  0.002401262    1.071    0.066
        59  -8.5195     65.4256     81.4922   1.1426959843e+02   5.2721858238e+01    0.1326674    0.1186543 -40.01 0.0001495032    1.055    0.052
        60  -9.7321    158.5120     77.0532   8.7162593751e+01   3.5121906168e+01    0.2298033    0.1508068 -37.75 0.0007031321    1.571    0.363
        61  -9.3638     56.9957     75.3615   1.1534721785e+02   5.5069632232e+01     0.213731    0.1859693  68.51 0.0008544297    1.556    0.357
        62 -10.8221     99.4291    249.1418   1.3485847570e+02   1.0148315890e+01    0.3303283    0.1613425  60.80  0.001632592    2.019    0.505
        63  -9.7910     81.6501    249.3404   1.3812090231e+02   1.2838555599e+01    0.2006285     0.112754  68.28  0.001111637    1.680    0.405
        64 -10.8829    181.7243    245.0988   1.1866901043e+02  -3.0619277584e+00     0.224645    0.1648039 -37.67  0.001347725    1.608    0.378
