#   1 NUMBER                 Running object number                                     
#   2 MAG_AUTO               Kron-like elliptical aperture magnitude                    [mag]
#   3 X_IMAGE                Object position along x                                    [pixel]
#   4 Y_IMAGE                Object position along y                                    [pixel]
#   5 X_WORLD                Barycenter position along world x axis                     [deg]
#   6 Y_WORLD                Barycenter position along world y axis                     [deg]
#   7 A_WORLD                Profile RMS along major axis (world units)                 [deg]
#   8 B_WORLD                Profile RMS along minor axis (world units)                 [deg]
#   9 THETA_WORLD            Position angle (CCW/world-x)                               [deg]
#  10 FWHM_WORLD             FWHM assuming a gaussian core                              [deg]
#  11 ELONGATION             A_IMAGE/B_IMAGE                                           
#  12 ELLIPTICITY            1 - B_IMAGE/A_IMAGE                                       
         1 -13.5021    177.8600     83.5679   1.4739216084e+01   2.8630455163e+01     2.048125     1.221352   6.44  0.006101474    5.482    0.818
         2 -13.6365    227.6897     64.8451   3.6463767961e+00   2.1088442340e+01     2.347894    0.8483533 -49.52  0.009925121    2.629    0.620
         3 -11.7677    235.2157     38.6001   3.5716034392e+02   2.2997317006e+01     1.284653    0.3286276 -55.49   0.00411901    5.245    0.809
         4  -9.9706    151.4977     24.2562   1.4248992493e+00   4.3814131896e+01    0.6494919    0.4377411 -85.46   0.00327428    1.448    0.309
         5 -13.3855    201.2693     38.0878   3.5984913413e+02   3.0057751917e+01       2.0022     1.338193 -66.13   0.01119654    1.400    0.286
         6 -13.4946    183.9549     61.3660   7.9246581750e+00   3.0778279109e+01     1.384109    0.7813575 -36.60  0.001846179    1.638    0.390
         7 -13.3269    177.4974     39.1638   2.6690815684e+00   3.5425591661e+01     1.605189    0.9524097  52.27  0.007760987    1.915    0.478
         8 -12.8939    162.1629     36.8947   3.9596159403e+00   3.9508150133e+01    0.9407253    0.8794282  57.95  0.004462596    1.221    0.181
         9 -12.0540    241.9259     22.5398   3.5326830255e+02   2.3570457954e+01    0.9251901    0.3762754  73.62  0.004862931    2.688    0.628
        10 -13.4997    222.5194     10.3510   3.5164298139e+02   2.8678976629e+01    0.9567743    0.4605251 -61.10  0.003546095    1.769    0.435
        11 -13.8453    243.9793      8.4850   3.5021967608e+02   2.4672355302e+01     1.185153    0.4397402 -74.57   0.00567977    2.954    0.661
        12 -13.0989    225.6530     24.7974   3.5473759970e+02   2.6479366949e+01    0.8694592    0.7203584  69.68  0.003018212    1.443    0.307
        13 -12.8262    221.3831     38.5018   3.5819189021e+02   2.5732830166e+01      0.93059    0.5656162 -56.40  0.001604366    1.418    0.295
        14 -11.5524     40.4921     41.9999   4.3820692386e+01   6.7555516359e+01     1.434672    0.9698253  -9.64  0.004841831    1.950    0.487
        15 -13.6117     66.1059     15.2050   1.6747822233e+01   6.7045025431e+01     1.428287     1.168285 -31.52  0.008087875    1.335    0.251
        16 -12.2659     76.3365      6.7835   8.5720806149e+00   6.5481065611e+01    0.6818054    0.5785082  32.07  0.003975973    1.211    0.174
        17 -13.7098      4.1789     55.4372   7.1307965074e+01   6.7866768821e+01     1.681972    0.7997572 -67.43  0.004793114    1.824    0.452
        18 -12.9519     25.7253     40.3776   5.2578376355e+01   6.9881094540e+01     2.086259    0.9728826 -38.45   0.00847503    2.283    0.562
        19 -14.0181     35.3523     56.5472   5.2466169591e+01   6.4969795268e+01     2.180232     1.440858   1.79   0.01017655    1.851    0.460
        20 -11.5748     52.6344     21.1532   2.6216128473e+01   6.9207395705e+01    0.9248959    0.6093135 -63.33  0.001325357    2.484    0.597
        21 -13.7366     64.6236     34.8371   2.7801447185e+01   6.4451385559e+01     1.562624     1.302602  22.27  0.002379977    1.253    0.202
        22 -13.3002     12.9503     34.1802   5.9510500513e+01   7.2507719403e+01      1.23681    0.6046869 -76.97  0.005184245    2.794    0.642
        23  99.0000     35.9361     20.9845   3.5893850269e+01   7.2372648573e+01     2.411633     1.262399  52.08   0.01035508    2.544    0.607
        24 -12.2367     80.7225     22.0296   1.5198943702e+01   6.2644539651e+01    0.9239224    0.4653082  53.22  0.003052779    1.764    0.433
        25 -13.5244      5.5625     37.1326   6.6188615858e+01   7.2296109702e+01     1.225432    0.6194678 -88.16  0.002138224    2.663    0.624
        26 -10.3841    101.7656     21.5159   9.1239437112e+00   5.7315955156e+01    0.4850944    0.2546918 -30.76  0.002114403    2.039    0.510
        27 -11.3839    176.2933     24.4403   3.5863935431e+02   3.7540157837e+01    0.3582251    0.1777127 -41.69 0.0005786911    1.777    0.437
        28 -11.1922    123.8001     23.6216   5.4448618025e+00   5.1207873704e+01    0.4526272    0.3346075  -8.49  0.001697204    1.740    0.425
        29 -10.6395    114.7882     20.7650   6.0154099871e+00   5.3949570722e+01     1.099241    0.5354835  37.32  0.004112592    2.895    0.655
        30 -11.5542    113.5788     14.0047   3.4958081268e+00   5.5013491099e+01    0.4033525    0.2605175  12.38 0.0006637868    2.268    0.559
        31 -12.1581    115.9173      8.2194   7.4260095382e-01   5.4955855961e+01    0.7314044    0.4214666 -35.13  0.002668862    1.805    0.446
        32 -11.5641    202.9954     17.5652   3.5455191190e+02   3.2084061382e+01    0.3762658    0.3545189 -75.67 0.0009001838    1.233    0.189
        33 -11.2963     20.6093     22.7921   4.8295569872e+01   7.4223124458e+01    0.4992777    0.2533453 -56.08 0.0006956027    2.110    0.526
        34 -10.4598    156.0000     11.9904   3.5698215326e+02   4.3990854975e+01    0.4550864    0.2051383 -16.28  0.001819232    3.023    0.669
        35 -10.7910    150.2776     13.3281   3.5802472474e+02   4.5333384509e+01    0.2406936    0.1961265 -63.91 0.0006454535    1.119    0.107
        36 -10.7508    125.2920     11.5051   5.9690861734e-01   5.2127914283e+01     0.314151    0.2631025 -50.17  0.001406242    1.221    0.181
        37  -9.4200    107.4857      5.5375   1.0088384313e+00   5.7457005706e+01    0.1860207     0.140265   2.96 0.0005942039    1.675    0.403
        38 -10.7287     38.0185     12.3337   2.8991495725e+01   7.3406664730e+01    0.2104866    0.1759272  -4.52 0.0003388696    1.194    0.162
        39  -9.7483     92.7487     11.3957   6.6361656657e+00   6.0806276757e+01    0.2454988    0.1529762 -40.01 0.0005934239    1.731    0.422
        40 -10.0166     88.6631     12.0809   7.9686550030e+00   6.1798465296e+01    0.1817085    0.1700754  14.70 0.0005122712    1.189    0.159
        41 -10.5884    108.6974     10.8376   3.0620499848e+00   5.6638675145e+01     0.483784    0.2805784  -1.13  0.002090936    2.533    0.605
        42  -9.8547    144.6132     10.1655   3.5761582658e+02   4.7130459379e+01    0.3351757    0.1599042 -89.73 0.0009691326    2.174    0.540
        43  -8.5621    100.7950      7.0865   2.9098073376e+00   5.9100806348e+01    0.5998519    0.2803453 -55.37  0.002370331    2.688    0.628
        44 -10.4549     26.3087      9.6174   3.5416487788e+01   7.5840362011e+01    0.3238832    0.1938571  23.37 0.0009191859    1.739    0.425
        45 -11.9093    193.6631      8.1665   3.5280187602e+02   3.5180049598e+01    0.3052465    0.2237131  74.13  0.001349536    1.406    0.289
        46 -12.7080    173.2852      6.1876   3.5370292833e+02   4.0220229128e+01    0.4010645    0.2417081 -20.11  0.001659409    1.954    0.488
        47  -9.8513     49.0340      6.4820   1.8757484120e+01   7.1960026258e+01    0.3809882    0.2719071 -13.69  0.002095097    1.554    0.357
        48  -9.3078     44.5672      8.2629   2.2305361347e+01   7.2686091289e+01    0.2800776    0.2052005  -0.50  0.001235636    1.545    0.353
        49 -10.8825     45.9921      2.3342   1.7352048811e+01   7.3087883922e+01    0.2764253    0.2219345   5.70 0.0005180594    1.301    0.231
        50 -10.6547      3.4802      6.1304   5.5153520692e+01   7.9190189416e+01    0.4554882    0.2175204 -23.70  0.002144029    2.347    0.574
        51  -9.6400    207.4085      2.8270   3.5067243237e+02   3.2630969634e+01    0.1327185    0.1105078 -28.90 0.0001114067    1.381    0.276
        52  -9.8200    209.7706      6.2137   3.5135970186e+02   3.1784503708e+01    0.2455222    0.1484415  75.89    0.0014323    1.681    0.405
        53 -11.2030    216.2165      2.2212   3.5009520769e+02   3.0804374049e+01    0.4939556    0.1942363  79.56  0.002424529    2.499    0.600
        54  -9.5889    188.7346      5.2472   3.5235945479e+02   3.6611166342e+01    0.1276432   0.07573977 -61.45 0.0002337259    1.433    0.302
        55  -8.6350    184.2902      3.4368   3.5216444646e+02   3.7830846431e+01    0.3376798    0.1331766  61.14  0.001481888    2.656    0.623
        56 -11.0611     55.8954      3.5769   1.3708399398e+01   7.0742678741e+01    0.4145998    0.2176619  46.16   0.00066283    1.679    0.404
        57 -11.9560    154.4323      2.1614   3.5402748519e+02   4.5329409043e+01    0.2327603    0.1939278 -79.50 0.0003030646    1.008    0.008
        58  -9.5555    143.2383      2.8238   3.5528547147e+02   4.8173162551e+01    0.2656541    0.1557333  27.62  0.001183663    2.620    0.618
        59 -11.7069     87.8506      1.4013   2.8457434198e+00   6.3004498778e+01    0.3859024    0.1285604  64.09 0.0005451859    2.385    0.581
        60 -10.3276    126.9480      1.8883   3.5674158059e+02   5.2562703945e+01     0.204284    0.1742677  87.32 0.0003450241    1.013    0.013
        61  -9.8114    227.5206     97.5032   1.0896057647e+01   1.6504816036e+01    0.1274355    0.1053366 -39.46 -3.777065e-05    1.023    0.022
        62 -10.2066     16.9063     96.9029   7.0941910998e+01   5.6195148547e+01    0.2086501    0.1776587 -47.62 0.0002734758    1.189    0.159
        63 -11.0755    159.1623     95.7404   2.1441671244e+01   3.0672447951e+01    0.4463084    0.2047582  57.11  0.001590469    2.422    0.587
        64 -11.4973     43.8322     93.2065   5.8118714713e+01   5.4539504042e+01    0.3202159    0.2333245 -32.74  0.001367813    1.559    0.358
        65 -11.0137     36.3658    249.3208   7.6422712190e+01   1.7848159910e+01     0.162154    0.1348684 -14.89  0.001133529    1.726    0.420
        66 -13.7967    235.9414     85.9842   7.4280867838e+00   1.6675999365e+01      2.14572    0.8627998  69.29  0.008792714    4.198    0.762
        67 -11.2404     12.5630    248.2449   8.1453985004e+01   2.0335658405e+01    0.2351438    0.1003946 -81.18  0.001304921    2.641    0.621
        68 -12.7275    194.9125     56.3857   5.2020553351e+00   2.9025129413e+01    0.8165486    0.7513712 -72.09  0.005123676    1.088    0.081
        69 -11.5057    160.9072     53.8731   9.2549474559e+00   3.7419748940e+01    0.9430378    0.7534275 -40.12  0.005027481    1.236    0.191
        70 -11.4067      2.9620    248.2556   8.3453481831e+01   2.1179782733e+01    0.3641652    0.1643377  52.78  0.002203115    1.580    0.367
        71 -12.5405    165.3599     65.6254   1.1946375748e+01   3.4494811218e+01     1.294643    0.4924278  55.50  0.004810742    2.615    0.618
        72 -11.6908    158.9905     26.9319   1.3174922111e+00   4.1567975703e+01    0.3768205    0.2586538  -9.85  0.001664192    1.986    0.497
        73 -10.5927    180.9695    244.0344   4.5431007723e+01   1.5235426717e+00    0.1827801    0.1341998  11.50  0.001301034    1.016    0.016
        74 -14.4248    195.8835     80.7561   1.1228638765e+01   2.5169809187e+01     1.465912     1.246354 -86.08  0.004789248    1.269    0.212
        75  -9.6913    218.5891    239.7456   3.8192056096e+01  -2.1102196051e+00    0.1263274   0.09121338 -29.35 0.0006180553    1.564    0.360
        76 -12.1866    162.1049     83.4343   1.7529758172e+01   3.2245970054e+01    0.5422148    0.4379658  59.95  0.002762107    1.274    0.215
        77 -12.7281    168.9717     78.7120   1.4973697001e+01   3.1472841000e+01    0.8531716    0.4459499 -49.80  0.002151929    1.934    0.483
        78 -12.7692    180.7317     71.1491   1.1002436811e+01   3.0010608217e+01     1.393081    0.4639606  59.37  0.004999441    3.115    0.679
        79 -10.3965     15.9143    238.7796   8.0460612600e+01   2.1787524707e+01    0.1620663    0.1438165  33.94  0.001156571    1.285    0.222
        80 -12.1705    149.1688     42.1298   7.5360128837e+00   4.2108627388e+01     1.120471     0.616788  54.51  0.004893977    1.834    0.455
        81  -9.7724     26.5106    207.0147   7.6688340180e+01   2.7255660016e+01    0.1656866   0.08956775 -50.69 0.0008093245    2.487    0.598
        82  -9.7512    101.0987    176.1024   5.3597803400e+01   2.4681155114e+01    0.1846621    0.1527211  54.88            0    1.218    0.179
        83 -12.6236    242.9368     61.2639   1.4517936464e+00   1.8756990131e+01    0.8294407     0.348513  61.66  0.002024936    2.797    0.642
        84 -10.1442    236.9186    146.0450   1.9570135944e+01   7.9472340863e+00    0.1791362    0.1448775 -21.04 0.0004037089    1.012    0.012
        85  -9.6813    250.1623    132.1081   1.5133525640e+01   8.0157968239e+00    0.1463728    0.1152402 -40.31 0.0002898751    1.254    0.203
        86  -9.5580    222.3820    124.8137   1.7406104930e+01   1.3295147619e+01    0.2565466    0.1359855 -34.53 0.0007415427    1.612    0.379
        87 -14.3048    209.5399     68.5355   6.4707053368e+00   2.4160611438e+01     1.604494    0.8024471  69.30  0.003298215    2.373    0.579
        88 -13.5881    207.2659     59.8966   4.6438394898e+00   2.5857997022e+01     1.250496    0.5797059  52.12  0.004266081    2.549    0.608
        89 -10.7053    221.0992    121.1923   1.6832363548e+01   1.4060116496e+01    0.3636309    0.2100686  55.37  0.001634903    2.190    0.543
        90  -9.9487    196.2831    123.4264   2.1208753489e+01   1.8075139361e+01    0.2429923     0.152779 -53.33  0.001181033    1.827    0.453
        91 -12.4813    238.2625     51.4577   3.5973373983e+02   2.0848796491e+01    0.5981341    0.2465082 -40.75  0.001446658    1.824    0.452
        92 -12.9902    230.5827     46.8874   3.5935360567e+02   2.2871802317e+01    0.6992748    0.4770754  54.28  0.003484572    1.849    0.459
        93 -12.7495     59.8499     90.8462   5.0574829244e+01   5.2868306797e+01    0.4716599    0.4208259  40.92  0.001620443    1.117    0.105
        94 -11.6503    212.7041     90.0041   1.1120065200e+01   2.0348972473e+01    0.2302545    0.1728132 -72.07 0.0008219577    1.581    0.368
        95 -10.4868     70.0565     87.5247   4.5439347791e+01   5.1979159123e+01     0.606845     0.225283  43.66  0.001994083    2.710    0.631
        96 -12.9451     65.9276     81.9126   4.5504086424e+01   5.4105291603e+01    0.8577046    0.6962765  76.58  0.003427748    1.446    0.308
        97 -13.1508     50.2417     84.7886   5.3208482638e+01   5.5891464708e+01     1.048952    0.5596758  14.35            0    2.588    0.614
        98 -12.7005     87.7866     61.4499   2.9905283753e+01   5.4298631912e+01     1.270333    0.6889176 -36.11  0.003964953    2.086    0.521
        99 -12.2532    100.0547     54.7516   2.3280473188e+01   5.2691037878e+01    0.9730992    0.7294416  18.56  0.003005958    1.809    0.447
       100 -10.5717    228.5997    119.0033   1.5324971403e+01   1.3148306022e+01    0.2874321    0.1709917  45.39 0.0009027003    1.975    0.494
       101 -14.7420     42.4839     75.2777   5.4347825204e+01   5.9407264163e+01     2.404271     1.601641   0.00  0.006837599    1.946    0.486
       102 -11.5810    204.0600    116.6150   1.8415812120e+01   1.7774256220e+01    0.4519466    0.3454918 -81.66  0.002435002    1.911    0.477
       103 -10.2698    248.3831    117.9509   1.2591949547e+01   1.0214363289e+01    0.2291417    0.1726073  83.39  0.001440789    2.162    0.537
       104 -10.7279    171.9198    116.5541   2.4103603502e+01   2.4033520985e+01    0.2566119    0.1951358 -46.30 0.0003264889    1.283    0.221
       105 -11.6022    126.6135    116.0012   3.4474095645e+01   3.3714888034e+01    0.3860396    0.2263302  42.79 0.0005708698    1.689    0.408
       106 -13.5480    100.2244     72.1184   2.9476941291e+01   4.9243122250e+01     1.750847     1.332464 -12.68  0.003824427    1.817    0.450
       107 -13.8082      6.4696     68.1537   7.2074694069e+01   6.4497073207e+01      1.14803    0.9031362  75.78  0.006515856    1.344    0.256
       108 -10.5163    181.8752    114.7342   2.1774147893e+01   2.2351649974e+01    0.2977558    0.2574995 -87.66   0.00121921    1.406    0.289
       109 -10.1826    196.0000    112.9903   1.8904331496e+01   1.9885542589e+01     0.307857    0.1710599 -46.03  0.001446731    1.733    0.423
       110 -13.1909     51.6289     44.8044   3.8819635436e+01   6.5121168967e+01    0.7806633    0.4659888  13.74   0.00144255    2.613    0.617
       111 -13.1649     61.1111     43.5679   3.3530456173e+01   6.3576698769e+01    0.5233291    0.4334006 -82.87 0.0005125906    1.583    0.368
       112 -11.0638    196.8632    108.3744   1.7700347695e+01   2.0490396023e+01    0.4356595     0.295722 -51.68  0.002263236    1.514    0.340
       113 -12.7070     58.1191     60.3710   4.1851288697e+01   6.0596969393e+01    0.8644084    0.5423729 -66.93  0.003662615    2.068    0.516
       114 -12.8109     50.4124     54.8537   4.3598762992e+01   6.3162887959e+01    0.7491741    0.6050883 -58.53  0.002266278    1.313    0.239
       115 -14.0734     76.8133     58.7837   3.3048753149e+01   5.7266606202e+01    0.8948811    0.4247954  45.50   0.00343299    2.041    0.510
       116 -13.3946     79.1035     49.8369   2.8559802933e+01   5.8543689404e+01     1.672164    0.6966174  42.02  0.005963767    2.455    0.593
       117 -10.1113    199.5453    106.4720   1.6831911610e+01   2.0285342495e+01    0.2283181    0.1950458 -46.57 0.0004877062    1.107    0.097
       118 -13.5263    117.7962     61.8026   2.0783920326e+01   4.7001203091e+01    0.8733037    0.6830522 -15.02 0.0009545504    1.639    0.390
       119 -12.0848    113.6475     55.9897   1.9832732735e+01   4.9085784144e+01    0.4169594    0.3018634 -71.22  0.001391037    1.670    0.401
       120 -12.5843     75.2194     41.8023   2.6611117477e+01   6.0896135401e+01     0.352562    0.3071128  83.07 0.0005911752    1.318    0.241
       121 -12.1748    123.8912     69.9228   2.1928565165e+01   4.3977110261e+01    0.5510817    0.4486986 -63.94  0.001243279    1.293    0.226
       122 -11.9227    148.0714     84.4596   2.0676476528e+01   3.5356613777e+01    0.5061098      0.38762  82.28 0.0009690803    1.521    0.343
       123 -11.2776    147.1400     78.4166   1.9128606403e+01   3.6698884061e+01    0.4431876    0.2824046 -49.65  0.001249169    1.574    0.365
       124 -10.1817    167.4520     90.0432   1.8297501090e+01   2.9844554569e+01    0.2753007    0.2058905  79.39 0.0009756919    1.596    0.374
       125 -12.2788    248.9455     83.0516   5.4669397835e+00   1.4874927293e+01    0.2388757    0.2197135 -49.37 0.0003496878    1.180    0.152
       126  -9.7902     80.4762     84.5110   4.0461004658e+01   5.0740391978e+01    0.1557425    0.1530243  59.16 4.200367e-05    1.012    0.012
       127 -11.0389     18.3762     82.4929   6.8090300970e+01   5.9981035260e+01     0.391276    0.2025836 -21.88  0.001590137    2.519    0.603
       128 -11.4961    191.7620    103.5435   1.7400956105e+01   2.2306804770e+01     0.598932    0.2199681 -48.08  0.002137095    2.987    0.665
       129 -10.8882     82.3500     79.3744   3.8144790603e+01   5.1569359855e+01    0.4381008    0.2555649  40.87  0.001797165    1.690    0.408
       130 -11.6707     84.7747     73.1684   3.5187317975e+01   5.2469567408e+01    0.7183616    0.5610583 -88.15  0.002033352    1.636    0.389
       131 -13.3009     18.2107     64.2615   6.4614042241e+01   6.4781061043e+01     1.515815    0.4856764  43.69  0.004585291    3.889    0.743
       132 -11.8288     73.9304     75.2447   4.0093894950e+01   5.4218118153e+01    0.6511678    0.4320631  40.93  0.001764467    1.480    0.324
       133 -10.8200     74.3554     70.3747   3.8280142945e+01   5.5254748672e+01    0.4275264    0.3219826 -28.80  0.001660589    1.553    0.356
       134  -9.7914    155.5225     76.8253   1.6950770203e+01   3.4969400445e+01    0.2456307    0.1765154  65.04  0.001172801    1.441    0.306
       135 -11.7697    249.8790     73.7854   3.4656475502e+00   1.5940198524e+01     0.394734     0.176147 -37.91   0.00210046    1.693    0.409
       136 -10.3155    249.7462     67.9929   2.2777705220e+00   1.6711698142e+01    0.2229105    0.1427779 -35.90 0.0007199235    1.248    0.199
       137 -12.3097    240.5396     71.2900   3.8091656794e+00   1.7871502351e+01    0.7466662    0.2673106 -43.21  0.003462736    2.184    0.542
       138 -12.0008    137.1318     71.2838   1.9175241634e+01   4.0447512941e+01      1.14711    0.4655824  57.02  0.004036617    2.481    0.597
       139  -9.9720    136.5000     62.0554   1.6392372533e+01   4.2238443960e+01    0.2881727    0.2523944  74.27 0.0005497262    1.106    0.096
       140 -11.3037    137.4741     58.0112   1.4873178829e+01   4.2674222173e+01    0.6795173    0.4158982 -69.52  0.002744801    2.175    0.540
       141 -11.0347    145.6638     59.1127   1.3567430005e+01   4.0415872112e+01     0.488642    0.3605315   7.84  0.002188097    2.093    0.522
       142 -11.2561    154.7582     65.1866   1.3694312467e+01   3.7147651638e+01    0.7464007    0.3507897 -44.10   0.00176426    2.041    0.510
       143  -9.8588    152.0266     59.3064   1.2424507836e+01   3.8785735368e+01    0.4322023     0.334064  -9.85 0.0006581465    1.720    0.419
       144 -11.4028    144.1361     67.8691   1.6596576427e+01   3.9319498838e+01    0.3958608    0.3470581 -46.06 0.0007298343    1.137    0.120
       145 -11.5868    148.3457     65.6567   1.5064628490e+01   3.8654462168e+01    0.9520466     0.515584 -72.59  0.003164859    3.405    0.706
       146 -10.7776    142.5807     54.4760   1.2693968867e+01   4.1946720375e+01    0.3295891    0.2605867 -36.04 0.0007174895    1.314    0.239
       147 -10.6664    145.5329     52.4220   1.1472520585e+01   4.1515992895e+01    0.2803315    0.2538597  65.29 9.450946e-05    1.121    0.108
       148 -10.5400     68.2716     70.6916   4.0927884283e+01   5.6366693515e+01     0.428967    0.1774811  37.02  0.001502354    2.447    0.591
       149 -11.2048    140.5094    112.2710   2.9962824190e+01   3.1531040280e+01    0.2561745    0.2454698  50.91  0.001376958    1.046    0.044
       150 -10.7738    127.1061     58.8510   1.7458047455e+01   4.5172699791e+01    0.4540515    0.2809874  35.11  0.001845579    2.137    0.532
       151 -11.4667    173.6972     56.6726   8.0991374348e+00   3.3882988609e+01    0.3377817     0.273234  71.87 0.0005266949    1.251    0.201
       152 -12.7316     81.5176     40.7833   2.3764107389e+01   5.9621006332e+01    0.6712441    0.3985276  48.71  0.001870586    1.581    0.367
       153 -10.9052    245.3320     53.5796   3.5962369977e+02   1.9302312688e+01    0.2456715    0.1693372 -50.17  0.001604368    1.160    0.138
       154 -10.8593    245.0264     49.9706   3.5888377479e+02   1.9803175188e+01    0.2003429    0.1297769 -46.48  0.001268714    1.190    0.159
       155 -11.6384    123.4564     53.5782   1.6504371718e+01   4.7000700693e+01    0.3927496    0.2616583  66.54 0.0006178453    1.497    0.332
       156 -11.0420    167.8778     51.6179   7.5140449077e+00   3.6037651128e+01    0.3616869    0.2217504  53.91  0.001255916    1.733    0.423
       157 -10.3719    249.7352     49.4667   3.5842732875e+02   1.9031139588e+01    0.2945899    0.1429427 -38.67  0.001588927    1.546    0.353
       158 -11.7545    133.5308     46.6298   1.1883434977e+01   4.5503242687e+01    0.3410408    0.2897075 -76.81 0.0006419252    1.161    0.138
       159 -11.3788    133.2418     40.3390   9.7653837027e+00   4.6508459684e+01    0.5162843    0.3597713 -66.36  0.002394811    1.550    0.355
       160 -11.7800    125.8127     45.6877   1.3177224980e+01   4.7657711008e+01     0.392966     0.293746  74.03 0.0004031291    1.315    0.240
       161 -10.0485    121.6585     45.2840   1.3960896076e+01   4.8802237558e+01     0.414897    0.2358126 -68.28  0.001549819    2.581    0.612
       162  -9.9904     99.2180     46.6534   2.0379955376e+01   5.4324492613e+01    0.2890855    0.2266143 -68.91 0.0007483016    1.470    0.320
       163 -11.6493     95.8561     42.2734   1.9617204110e+01   5.5891560276e+01    0.6726234    0.2663376  56.10   0.00239794    2.381    0.580
       164  -9.4390    210.9717    112.0000   1.6330626517e+01   1.7255363469e+01     0.195466   0.07605859  51.70 0.0008034657    2.950    0.661
       165 -11.3462    248.0252     41.5312   3.5689263224e+02   2.0285266798e+01     0.402404    0.2624153 -46.00  0.001708176    1.156    0.135
       166  -9.2636    109.6544     43.7572   1.6317523806e+01   5.2151908962e+01    0.1523981    0.1103825  37.21 0.0006921043    1.569    0.363
       167 -10.2512    104.8167     42.7940   1.7233081084e+01   5.3545121328e+01    0.2699648    0.2115379  76.17 0.0007696813    1.313    0.238
       168 -10.1003    112.4212     38.7622   1.3682060289e+01   5.2200693029e+01    0.4124587     0.118027  60.32  0.001084627    3.230    0.690
       169 -12.2860     92.2161     33.3803   1.6919368342e+01   5.8190017893e+01    0.6682621    0.3871853  38.99   0.00177408    1.942    0.485
       170 -10.8815    131.6773     33.0956   7.5029846607e+00   4.7920100792e+01     0.404339    0.2131304 -47.39 0.0003638316    1.934    0.483
       171 -10.2939    247.7601     32.8039   3.5508719814e+02   2.1348093527e+01    0.1540424     0.119209 -49.16 0.0003917597    1.049    0.046
       172 -10.4309    239.2270     31.7329   3.5539395428e+02   2.3043478693e+01    0.3035182     0.176022 -49.06   0.00184651    1.324    0.245
       173 -10.6925    121.5914     33.1276   9.4682047777e+00   5.0586795414e+01    0.2451129    0.1924699  63.23 0.0004658956    1.189    0.159
       174 -10.5733    111.8920     32.3857   1.1294893241e+01   5.3249868269e+01    0.4106997    0.2473881  44.71  0.001811918    1.770    0.435
       175  -9.4230    114.5058     28.3731   9.1166372749e+00   5.3093767014e+01    0.1486461     0.129191  59.39 -0.0003494621    1.113    0.102
       176 -11.3804    104.1630     29.6221   1.2016099955e+01   5.5653201401e+01    0.4545581    0.3204648  80.05  0.001326306    1.489    0.329
       177 -10.9526    209.7048    105.2894   1.5020137033e+01   1.8548019700e+01    0.3574698    0.2368904 -58.91  0.001856265    1.788    0.441
       178 -11.2414     97.4977     21.8557   1.0314065714e+01   5.8392534129e+01    0.2986045    0.2441546 -37.82  0.001181018    1.319    0.242
       179 -10.4320    138.5786     29.1323   4.9287211586e+00   4.6607073570e+01    0.3761564    0.1569629 -18.83  0.001268892    3.617    0.724
       180 -10.0611     80.4421     30.4555   1.9402325213e+01   6.1531977821e+01    0.1877204    0.1606556 -89.39 9.842399e-05    1.326    0.246
       181 -10.8337     85.3109     29.0630   1.7111267018e+01   6.0544045515e+01    0.5471373    0.2260399  56.59   0.00207892    2.201    0.546
       182  -9.3347    120.4819     28.4464   7.9125750974e+00   5.1497146944e+01     0.149313    0.1317172 -88.01 9.198704e-05    1.066    0.062
       183 -10.3907    134.9760     26.0775   4.4406354963e+00   4.7937040047e+01    0.3019757    0.2211156  -2.31  0.001070911    1.873    0.466
       184 -11.8323    134.7511     21.0038   2.6739200815e+00   4.8592793418e+01    0.5059223    0.3431866  87.35  0.001973403    1.418    0.295
       185 -12.2596    160.7465    104.7763   2.3466580343e+01   2.8612198882e+01     0.441331    0.2571382 -46.50 0.0002383068    1.687    0.407
       186 -10.0326     15.2546    106.7821   7.2855920791e+01   5.3619549870e+01    0.1943941    0.1503577 -49.47 0.0004504179    1.322    0.244
       187 -10.0566    128.6038     23.6965   4.6347208703e+00   4.9917252929e+01    0.2598255    0.2180042  19.28  0.001393448    1.505    0.336
       188  -9.7008    184.9458    105.5417   1.9035889962e+01   2.3346752553e+01    0.1990015    0.1394302  50.60 0.0004522497    1.541    0.351
       189 -11.8141    148.8191    103.8437   2.5821785825e+01   3.1425369268e+01    0.3391353    0.2297063  57.32  0.001006761    1.574    0.365
       190 -11.2096    144.4769    103.2948   2.6679971184e+01   3.2505008187e+01    0.3624226    0.3058576  32.90  0.001132612    1.285    0.222
       191  -9.9716    210.5379     21.5470   3.5499750522e+02   2.9994422528e+01    0.4725768    0.2688329  63.46  0.002589202    1.953    0.488
       192  -9.5649    215.7932     18.9929   3.5403470834e+02   2.9157679991e+01    0.2699412    0.1679694 -50.86  0.001052413    1.278    0.218
       193 -10.3328    212.9751     15.9848   3.5350233032e+02   3.0081934861e+01    0.2498561    0.1390613 -52.53 0.0004382489    1.445    0.308
       194 -11.9343    137.5510     81.9145   2.2309792782e+01   3.8352638472e+01    0.7226931    0.5823651  84.58  0.002407482    1.390    0.281
       195 -13.4934    121.0023    100.7466   3.2000154927e+01   3.8312008448e+01     1.018465    0.4522649 -43.61  0.003630927    2.309    0.567
       196 -10.9209    162.4685     20.5487   3.5894752343e+02   4.1424477712e+01    0.3290174    0.2377957 -76.89 0.0007143104    1.273    0.214
       197  -9.8381     14.4708     19.3932   5.1697838685e+01   7.5576199858e+01    0.2046057    0.1271403 -70.19  0.001012547    2.200    0.545
       198 -10.2067    194.3965     18.4657   3.5541591070e+02   3.3927358183e+01    0.2304197    0.1324315 -38.49 0.0009711929    1.532    0.347
       199  -9.8349    170.5314     19.4356   3.5777420899e+02   3.9526243085e+01    0.2223564    0.1058668  61.77   0.00099562    2.076    0.518
       200  -9.9111     92.6011     16.8869   9.2730582273e+00   6.0252781783e+01    0.2582075     0.166232  51.43  0.000658057    1.433    0.302
       201 -10.0000    154.5273     15.5105   3.5825409121e+02   4.4005145373e+01    0.2138171    0.1653131   9.11  0.001095105    1.809    0.447
       202 -12.5305    120.9442     87.7609   2.8288100612e+01   4.1119435520e+01    0.6370097    0.4558996 -42.05  0.002893159    1.431    0.301
       203 -11.4352    141.7345     96.2061   2.5410930240e+01   3.4555537553e+01    0.4682683    0.3113956  49.89  0.001210825    1.513    0.339
       204  -9.2461    102.2661     14.6253   5.9812582254e+00   5.7963813178e+01    0.1483587   0.09983391 -61.47 0.0006988898    1.672    0.402
       205 -12.1531    124.6558     82.0370   2.5558093167e+01   4.1421860444e+01     0.706678    0.3810917  35.39   0.00189288    2.451    0.592
       206 -11.4440    128.1116     76.1192   2.2837518858e+01   4.1756875163e+01    0.3951047    0.3102791  47.41   0.00129218    1.291    0.226
       207 -12.8795    126.7873     90.9664   2.7658358697e+01   3.9087272123e+01    0.7592446    0.5155699  17.75  0.002121271    2.382    0.580
       208  -9.7699     14.0873     12.8489   4.8285974350e+01   7.6906663922e+01    0.2331895    0.1381085  47.23 0.0008882349    2.336    0.572
       209 -11.7723    132.2640     87.0083   2.5096413598e+01   3.8611715410e+01    0.6505488    0.2905804  56.39  0.002291374    2.430    0.588
       210 -12.7670    135.5044     96.2716   2.6937624373e+01   3.5973435299e+01    0.6965324    0.5875314 -37.71  0.002671904    1.221    0.181
       211  -9.2592      1.7059     12.3481   6.0545430787e+01   7.8049529785e+01    0.1161498   0.09309343  57.15 0.0002369776    1.672    0.402
       212  -9.6305    179.2751     11.2726   3.5466897227e+02   3.8255634373e+01    0.1163671    0.0976178  49.23 0.0006887402    1.487    0.328
       213 -13.5068    128.3609     95.6000   2.8571605838e+01   3.7753476828e+01    0.9449056    0.5920316 -60.51  0.003859652    1.915    0.478
       214 -11.4301    215.7278    100.2995   1.3048541039e+01   1.8208628032e+01    0.3993884    0.2259755 -22.25  0.001375782    2.067    0.516
       215 -12.0940    169.7051     96.8309   1.9643557483e+01   2.8123960240e+01    0.5803143    0.3865742 -25.53  0.001510937    1.721    0.419
       216 -12.1253    150.7603     96.4085   2.3407875831e+01   3.2450218667e+01    0.5501069    0.3782485 -54.63  0.002524931    1.530    0.346
       217  -9.3865      9.2521     10.2490   5.1439622052e+01   7.7896814112e+01    0.1202406    0.0814549 -21.14 0.0002096753    1.416    0.294
       218 -11.3009     82.5250    101.5056   4.4507251610e+01   4.6182010051e+01    0.3075611    0.2082007  35.89 0.0006486402    1.480    0.324
       219 -10.2085     87.9068     97.8617   4.1610411244e+01   4.6038779879e+01    0.3854181    0.2948092   8.66  0.001141321    1.745    0.427
       220 -11.7874     82.8619     98.0053   4.3453415318e+01   4.6989116064e+01    0.5860347    0.3383268  19.28  0.001681589    2.681    0.627
       221 -10.5783    180.4968     99.4794   1.8336492420e+01   2.5326844585e+01    0.3639223    0.2272604 -15.59  0.001536973    2.362    0.577
       222 -12.4138    184.0559     95.1373   1.6643747420e+01   2.5322307064e+01    0.6372235    0.4678125  75.80  0.002474415    1.667    0.400
       223 -12.7078    199.5837     96.4258   1.4476855371e+01   2.1914171161e+01    0.3203845    0.2704696 -46.05 0.0003125423    1.077    0.072
       224 -10.9582    205.4708     97.4940   1.3855202091e+01   2.0585133336e+01    0.3601601    0.1830784 -39.45  0.001695658    1.708    0.414
       225 -13.2243    102.8646     96.5994   3.6243426242e+01   4.3236321195e+01     1.105075    0.5163777  34.12  0.001252137    2.609    0.617
       226 -11.9293     95.3362     89.9512   3.6779865537e+01   4.6392006591e+01    0.5841734    0.4389316  65.93   0.00114232    1.517    0.341
       227 -11.7113    106.2405     87.1375   3.2399052228e+01   4.4634092396e+01    0.5448918    0.3332567  39.77  0.001894267    1.695    0.410
       228 -12.1216    114.7913     86.5270   2.9652037783e+01   4.2811399522e+01    0.4852094     0.328988  43.87 0.0002440047    1.481    0.325
       229 -12.7893    114.5849     80.9675   2.7997082333e+01   4.4032517564e+01    0.8077742    0.5341634 -46.99  0.002909015    1.537    0.350
       230 -11.0051    250.3656     97.6503   8.3041594555e+00   1.2686697472e+01    0.3288301    0.1420608 -43.13 0.0006945212    1.909    0.476
       231 -10.9170    250.5141     93.9163   7.5318035244e+00   1.3167119085e+01     0.227903    0.1088148 -37.28 0.0005068523    1.610    0.379
       232 -10.4857     11.6909     98.0167   7.3414679647e+01   5.6239690199e+01    0.2054782    0.1679097 -78.05  0.000718132    1.119    0.106
