#   1 NUMBER                 Running object number                                     
#   2 MAG_AUTO               Kron-like elliptical aperture magnitude                    [mag]
#   3 X_IMAGE                Object position along x                                    [pixel]
#   4 Y_IMAGE                Object position along y                                    [pixel]
#   5 X_WORLD                Barycenter position along world x axis                     [deg]
#   6 Y_WORLD                Barycenter position along world y axis                     [deg]
#   7 A_WORLD                Profile RMS along major axis (world units)                 [deg]
#   8 B_WORLD                Profile RMS along minor axis (world units)                 [deg]
#   9 THETA_WORLD            Position angle (CCW/world-x)                               [deg]
#  10 FWHM_WORLD             FWHM assuming a gaussian core                              [deg]
#  11 ELONGATION             A_IMAGE/B_IMAGE                                           
#  12 ELLIPTICITY            1 - B_IMAGE/A_IMAGE                                       
         1 -14.5497     68.2362    144.2070   1.0300011273e+02   3.7836730359e+01     4.914059     2.568103  76.00  0.006503379    3.975    0.748
         2 -13.9458    223.6317     20.7486   3.6337420442e+01   2.7887682631e+01     1.023848    0.9426408  28.31  0.003339921    1.458    0.314
         3 -12.7855    215.9077     28.4772   3.8881595503e+01   2.8715438336e+01    0.5600466    0.4917687  47.65  0.001091854    1.380    0.275
         4 -13.8863    198.8784     42.3194   4.4316230801e+01   3.0929270245e+01      1.29221     1.166266  20.50  0.003195022    1.374    0.272
         5 -13.9475    208.0758     36.6703   4.1736029504e+01   2.9502243146e+01     1.483717     1.025926 -24.18    0.0061407    1.674    0.403
         6 -12.1530    246.1551      2.3731   3.0702436965e+01   2.5088017019e+01    0.5953065    0.2358665  78.60   0.00299475    2.411    0.585
         7 -10.1170      2.3302      3.1276   9.0010132278e+01   7.4478506882e+01    0.2256215   0.06652468 -39.96  0.001096671    2.588    0.614
         8 -10.3983     48.8490      2.8921   6.4955278255e+01   6.8896106239e+01    0.1923103    0.1586605  66.26 0.0007508743    2.044    0.511
         9 -10.0938    150.5870    179.0336   8.8048780860e+01   1.5777336383e+01    0.4472249    0.2645815 -74.00   0.00157149    3.484    0.713
        10 -12.9365     64.6138    174.8679   1.0861126168e+02   3.0785346846e+01     1.203536    0.5854757 -33.17  0.003900194    4.913    0.796
        11 -15.4571      3.8044    181.6069   1.2361831875e+02   3.5450841482e+01     9.329186          nan -75.70   0.01899342   12.622    0.921
        12 -13.3612     86.8945    224.1055   1.0937179108e+02   1.6780160741e+01    0.8727723    0.6709222  55.33 0.0005319938    1.130    0.115
        13 -13.5806     19.6219    219.8117   1.2275773135e+02   2.5790771929e+01    0.6297849    0.4866015  67.37  0.002003981    1.060    0.056
        14 -15.9764     54.1328    246.7116   1.1797143452e+02   1.6672163333e+01      9.57716     2.889444  26.72  0.008804346    9.762    0.898
        15 -13.1533     34.4939    204.5376   1.1868563207e+02   2.7506143252e+01    0.4434951    0.3684172 -44.50   0.00131646    1.616    0.381
        16 -15.7403     42.2073    194.0870   1.1609909701e+02   2.8991981762e+01     5.373821     2.201376  69.88   0.02030003    3.582    0.721
        17  -9.4834     99.3380    180.9200   1.0080305272e+02   2.4309384519e+01    0.1962079    0.1779868 -68.46 0.0005897369    1.111    0.100
        18 -10.0283    144.0204    179.0111   8.9586253029e+01   1.6994178582e+01    0.2903737    0.2143365 -47.83  0.001443506    1.405    0.288
        19 -15.6925      8.4283    240.0988   1.2586915277e+02   2.2866655409e+01     3.267957     1.791748 -79.05   0.02179794    1.672    0.402
        20  -8.8994    188.3509    174.6783   7.8762651389e+01   9.5930108764e+00    0.1407512    0.1182076  84.29 0.0007048229    1.748    0.428
        21 -13.5821     64.1402    158.5648   1.0644497564e+02   3.4812651137e+01    0.5682965    0.4233101 -43.59  0.001479955    1.487    0.327
        22 -12.3226     76.9988    162.0831   1.0354999160e+02   3.2195921965e+01    0.6048036    0.4581448 -58.63  0.001377933    1.272    0.214
        23 -12.7035     83.9679    156.1539   1.0069024018e+02   3.2626562905e+01     1.119783     0.553412 -52.65   0.00119234    1.942    0.485
        24 -14.8114      9.4966    207.3795   1.2400560877e+02   2.9338457792e+01     1.132239    0.9863089  -7.82  0.007552814    1.793    0.442
        25 -10.2064    109.9139    201.2884   1.0135915282e+02   1.8071404121e+01    0.2314918    0.1935225 -56.06  0.000213175    1.283    0.220
        26  -9.6594    174.7020    148.5243   7.6055279038e+01   1.7471083944e+01    0.3700371    0.2328818 -68.76  0.001378619    2.783    0.641
        27 -10.6635    134.0000    145.9566   8.5254768069e+01   2.6288242421e+01    0.7198765    0.1824655 -52.05   0.00186291    4.504    0.778
        28 -11.7806     23.1594    147.0604   1.1597813997e+02   4.2025552081e+01    0.4079968     0.219082  62.52  0.002004849    2.102    0.524
        29  -9.0209    179.5535    146.4895   7.4518805082e+01   1.6894984913e+01    0.1506772    0.1441801 -20.01 0.0001053265    1.028    0.027
        30  -9.3027     72.9833    172.7201   1.0619859557e+02   3.0179361680e+01    0.1830275    0.1655605  72.27 0.0002730469    1.045    0.043
        31 -10.6229     32.4002    143.8562   1.1307687739e+02   4.1994291184e+01     0.383596    0.2376201  66.08   0.00197623    1.798    0.444
        32 -10.1136     98.3322    142.3017   9.4083636241e+01   3.3731120718e+01    0.2858994    0.2414898  61.88 0.0007107482    1.267    0.211
        33  -9.9346    101.0551    138.9449   9.2612618722e+01   3.4084206405e+01    0.4310491    0.2989351 -13.01  0.001778087    2.202    0.546
        34 -12.4527     86.3891    140.6298   9.7134985793e+01   3.6085685784e+01    0.3108873    0.2579803 -46.64 0.0005591364    1.197    0.165
        35  -9.7329     46.0526    135.0243   1.0791683820e+02   4.2821660764e+01    0.2141048     0.151801  74.67 0.0008044253    1.591    0.372
        36 -10.0536     27.0379    135.0811   1.1345789041e+02   4.4636896251e+01    0.1949775    0.1647919 -79.98 0.0003870522    1.037    0.036
        37 -10.9594    107.7318    130.9786   8.8952678578e+01   3.4823694933e+01    0.5670672    0.3528113  33.56  0.002453135    1.716    0.417
        38 -10.6743    135.7987    128.0795   8.0586889544e+01   3.0011090790e+01    0.5065752    0.2013267 -47.93  0.001708101    2.505    0.601
        39  -9.4051    137.3835    167.7288   8.8994193380e+01   2.0695606671e+01    0.2930574     0.176384  48.56 0.0009783533    1.728    0.421
        40 -11.3586     96.7033    127.1040   9.1251365106e+01   3.7713400880e+01    0.3365914    0.2716926 -18.50  0.001074187    1.467    0.318
        41  -9.4676    160.3372    127.6573   7.4379671828e+01   2.4889960399e+01    0.1615667    0.1264021 -85.14 -0.0001566745    1.767    0.434
        42 -11.0137    195.7623    199.1905   8.2039094718e+01   3.8096529316e+00    0.3200184    0.2572224 -77.95  0.001554252    2.114    0.527
        43 -10.7487    192.2411    193.3877   8.1662759740e+01   5.4337889061e+00    0.5384654    0.2990347 -62.68  0.001890639    4.190    0.761
        44  -9.7899    106.7237    119.4719   8.6491865646e+01   3.7749443440e+01    0.2433822    0.1979586 -48.17 0.0004065661    1.187    0.157
        45 -11.0171     22.7825    117.8756   1.1235310690e+02   4.9212189251e+01    0.2892675    0.1815747  28.53  0.001596157    1.851    0.460
        46  -9.1026     81.5643    116.8046   9.3467692006e+01   4.2698371836e+01    0.2807954    0.1213757  30.54  0.001028069    2.643    0.622
        47  -9.4243    168.0953    113.0329   6.8862630628e+01   2.6221664985e+01    0.2561987    0.1954283 -79.55  0.001131535    1.799    0.444
        48  -9.6596    135.0000    112.5388   7.6807732814e+01   3.3649424516e+01    0.3532008   0.08851771 -44.72  0.000933164    3.922    0.745
        49 -10.1171    205.3841    110.3630   6.0649139367e+01   1.8447783281e+01    0.3257327    0.2405537  36.91  0.001124435    1.517    0.341
        50  -9.6055     29.9412    107.6942   1.0841121697e+02   5.1125393680e+01    0.1724374    0.1663645 -77.41 0.0007823802    1.147    0.128
        51  -9.8577    134.5997    105.7614   7.5076715999e+01   3.5207819650e+01    0.2267798    0.1471291 -52.74 0.0009516814    1.646    0.392
        52 -12.0883    242.4536    102.6409   5.2879933439e+01   1.2147891835e+01    0.4333841    0.2034563 -51.39  0.001703092    2.332    0.571
        53 -11.6012    249.1006    102.3849   5.1901961789e+01   1.0916242227e+01    0.3018326     0.229927 -33.27  0.001743801    1.173    0.148
        54  -9.8765     62.9312    100.8404   9.5762607898e+01   4.9231112886e+01    0.2762356    0.1892574 -87.84  0.001245695    2.154    0.536
        55  -9.0129    132.8361     97.6206   7.3260005955e+01   3.7318247162e+01    0.2138743     0.147412  58.05 0.0004219544    1.655    0.396
        56 -10.5943     53.1111     91.4853   9.6902910577e+01   5.2669679473e+01    0.3238949    0.1994129 -65.12  0.001078362    1.714    0.417
        57 -10.1135     41.7346     91.9587   1.0112988927e+02   5.3812376179e+01    0.2079583    0.1880723  -9.42 0.0004839601    1.189    0.159
        58 -10.6778    250.0019     87.7378   4.8553647448e+01   1.3064087897e+01    0.1826695    0.1620716 -52.71  0.000483507    1.060    0.056
        59  -9.4494    234.4791     86.4969   5.0311116919e+01   1.6364440171e+01    0.1382923    0.1204765 -49.64 0.0001469156    1.021    0.021
        60  -9.2611     72.5331     83.5128   8.7773266444e+01   5.1841278175e+01    0.2293526    0.1306938  45.74 0.0005997224    2.081    0.520
        61  -9.2049    160.0513     82.0273   6.2134056489e+01   3.4095492762e+01    0.1840863    0.1779013  53.96 0.0004969563    1.039    0.037
        62 -10.7099    243.1971     77.5982   4.7145364120e+01   1.5976546812e+01    0.1727836     0.122669  49.25 0.0005337431    1.662    0.398
        63  -9.2964     89.7626     64.9730   7.5860898822e+01   5.2705262882e+01    0.2214997    0.1692485 -70.75  0.001055106    1.976    0.494
        64  -9.7534     47.3169     61.9593   9.0751223359e+01   5.9841042145e+01    0.1873616    0.1744099  12.96   0.00044338    1.220    0.180
        65 -10.8210     13.4883     59.8988   1.0459886372e+02   6.3314451292e+01    0.2458001    0.1909695 -55.26 0.0003941629    1.155    0.134
        66 -10.6129    134.2607    247.9400   1.0236353841e+02   5.3582703520e+00    0.3370403    0.1930033 -71.99  0.001573923    2.885    0.653
        67 -10.0138    172.9061    244.0883   9.4126420582e+01   1.0952978361e-01    0.2973538     0.172313 -65.48  0.001316182    3.750    0.733
        68  -9.9601     59.9808    197.5295   1.1241693331e+02   2.6103177831e+01    0.2238947     0.157061  84.02  5.34723e-05    1.384    0.277
        69 -10.1911    208.5269    197.0639   7.9088876104e+01   2.0389580988e+00    0.1964554    0.1257464 -36.60 0.0004455037    1.552    0.356
        70  -9.8637    136.8372     43.0674   5.5171960083e+01   4.5966999181e+01    0.2143494    0.1878032 -76.53 0.0004850408    1.301    0.231
        71  -9.8077    138.9456     36.9747   5.2700603198e+01   4.6266316656e+01    0.2098399    0.1937534  89.61 0.0005085213    1.152    0.132
        72  -8.5072    115.4937     31.4680   5.6093957821e+01   5.2501531770e+01    0.1388915     0.125444  36.59 9.042233e-05    1.002    0.002
        73  -9.8919    189.5065     15.0617   3.8377587563e+01   3.6401571938e+01    0.1837995    0.1256585 -32.64 0.0007073047    1.559    0.359
        74  -9.5500    197.6579    223.0127   8.5901049670e+01  -4.2889968118e-01    0.1738222    0.1483869 -10.61 0.0004797417    1.143    0.125
        75  -9.1727     79.4498    183.1981   1.0605148905e+02   2.6785626931e+01    0.1918141    0.1258573 -83.17 0.0009381315    1.667    0.400
