#   1 NUMBER                 Running object number                                     
#   2 MAG_AUTO               Kron-like elliptical aperture magnitude                    [mag]
#   3 X_IMAGE                Object position along x                                    [pixel]
#   4 Y_IMAGE                Object position along y                                    [pixel]
#   5 X_WORLD                Barycenter position along world x axis                     [deg]
#   6 Y_WORLD                Barycenter position along world y axis                     [deg]
#   7 A_WORLD                Profile RMS along major axis (world units)                 [deg]
#   8 B_WORLD                Profile RMS along minor axis (world units)                 [deg]
#   9 THETA_WORLD            Position angle (CCW/world-x)                               [deg]
#  10 FWHM_WORLD             FWHM assuming a gaussian core                              [deg]
#  11 ELONGATION             A_IMAGE/B_IMAGE                                           
#  12 ELLIPTICITY            1 - B_IMAGE/A_IMAGE                                       
         1 -13.5287    160.4197     52.2043   7.9919515859e+01   3.8410343617e+01     1.674814     1.233348  25.01  0.005965302    1.646    0.393
         2 -13.5719    172.4973     36.4106   7.2883591269e+01   3.7554514780e+01     1.007853    0.9411425  37.14  0.003561923    1.133    0.117
         3 -11.4567    189.6748     14.5671   6.4112315697e+01   3.5750421056e+01    0.2906781    0.2715582 -54.27  0.001132633    1.109    0.098
         4 -13.1702    189.7649      4.8471   6.1407655959e+01   3.6697080979e+01    0.9629474    0.6180292  69.64  0.004018254    1.410    0.291
         5  -9.7212      3.5392    225.7501   1.4912793472e+02   2.7492162405e+01   0.08413915   0.07605907 -49.31 0.0005004462    1.847    0.459
         6 -18.4207     58.4552    243.7328   1.4088250471e+02   1.8207247315e+01     5.669945     4.744229  62.30   0.03681165    1.211    0.174
         7 -19.1835     49.5668    107.1842   1.2647554899e+02   4.8770874316e+01     17.50865     1.149663 -61.07   0.02925891   13.851    0.928
         8  -9.6454    180.1107    192.4151   1.1071754915e+02   8.0620436351e+00    0.1981372    0.1857049  72.65 0.0005213654    1.268    0.212
         9 -10.5686    167.2957    191.4210   1.1313008823e+02   1.0592784595e+01    0.3296562    0.2224819  24.29  0.001653774    1.664    0.399
        10 -12.0801    193.6217    192.9165   1.0815152179e+02   5.5173000488e+00    0.7472623    0.4751712 -49.35  0.003259204    1.904    0.475
        11 -11.7873    206.6053    180.2174   1.0323148429e+02   5.2180956053e+00    0.8212414    0.3993284  32.04  0.003173842    2.237    0.553
        12 -11.7269    196.3579    171.7969   1.0352138050e+02   8.5623205515e+00    0.7965773     0.399983 -48.75  0.002948145    2.376    0.579
        13 -12.6875    136.8037    171.7586   1.1611595457e+02   2.0082647047e+01    0.7078246    0.4846497  63.42  0.002665475    1.693    0.409
        14 -10.7239    142.1317    165.8284   1.1380064102e+02   2.0297511250e+01    0.2944424    0.1885784 -53.58 0.0007101609    1.655    0.396
        15 -10.0398    122.9716    165.9767   1.1821671594e+02   2.3856100874e+01     0.215104    0.1953148  69.63 0.0003115633    1.063    0.060
        16  -9.8824    223.8796    164.1385   9.6752534201e+01   4.6216104773e+00     0.196005    0.1821375 -45.21 0.0005049615    1.284    0.221
        17 -10.4601    237.5918    159.7854   9.3437372474e+01   2.7969607712e+00    0.1887448     0.117224 -41.34 0.0008956924    1.661    0.398
        18 -10.8564    110.8446    158.2291   1.1966980865e+02   2.7726016803e+01    0.3242948     0.192356  45.46  0.001048839    1.649    0.394
        19 -10.4924    139.9041    156.3944   1.1244151047e+02   2.2704453680e+01    0.2541953    0.2293455 -63.91 0.0003564527    1.144    0.126
        20 -10.0661    161.7604    153.4153   1.0687516361e+02   1.8928953050e+01    0.2159114    0.1372586  33.87 0.0009536642    1.684    0.406
        21  -9.3718      8.9842    152.8003   1.4350843360e+02   4.1991908341e+01     0.165922    0.1178965 -38.33 0.0006090382    1.951    0.487
        22 -11.5886    134.3856    148.2030   1.1204186077e+02   2.5543732262e+01    0.5669453    0.2748205 -58.52  0.002128418    2.487    0.598
        23 -11.9123    134.0000    144.0099   1.1123989409e+02   2.6531441601e+01    0.8542647    0.2921109 -56.32  0.002487485    4.034    0.752
        24 -10.1519    174.7123    149.2146   1.0314868384e+02   1.7078459413e+01    0.2619686    0.2170823  40.30 0.0009221229    1.187    0.158
        25 -11.1200     11.6171    205.9936   1.4671330573e+02   3.0503246973e+01    0.2104847    0.1653442  53.18  0.001051765    1.328    0.247
        26 -12.6094    113.2086    139.2332   1.1535533096e+02   3.1583743769e+01    0.9433181    0.5966147  15.33  0.003695491    2.788    0.641
        27 -11.8075    103.6641    138.7102   1.1768736746e+02   3.3420181404e+01    0.3096702    0.2988148  23.29 0.0005593089    1.160    0.138
        28 -11.5019    106.0781    130.9459   1.1542170802e+02   3.4777623691e+01    0.4091464    0.3370156 -68.10  0.001189643    1.217    0.178
        29 -10.6753    107.5484    125.7778   1.1388438299e+02   3.5695974819e+01    0.2976717    0.2510772 -33.94 0.0005134215    1.292    0.226
        30 -11.4814    118.9282    129.5640   1.1177480824e+02   3.2693040307e+01    0.3852422    0.3389582 -59.88  0.001141879    1.116    0.104
        31 -11.5431    135.6326    123.8607   1.0621024995e+02   3.0594196107e+01    0.8671519    0.1813275 -47.64  0.002160649    4.890    0.795
        32 -10.8031    163.1257    210.6834   1.1719893603e+02   8.0008020630e+00    0.2889688    0.1966434 -54.55  0.001591615    1.779    0.438
        33 -11.8125    124.8513    127.0932   1.0968962193e+02   3.2084534384e+01    0.6159176    0.3937361  78.58  0.002319838    2.752    0.637
        34 -10.4958    113.0919    118.7899   1.1077060072e+02   3.6245698562e+01    0.2544461    0.2102051 -52.92 0.0004088328    1.171    0.146
        35 -10.1633    159.0423    206.1696   1.1729389165e+02   9.4837917025e+00    0.2806244    0.1791936  46.87  0.001484473    1.430    0.301
        36 -10.2194    168.5663    113.4723   9.5883474602e+01   2.5498036080e+01    0.3703831    0.2691177 -73.48  0.001182146    1.905    0.475
        37 -10.1226    205.6489    110.1409   8.7631245449e+01   1.7644835722e+01    0.2814401    0.2192292  44.07 0.0006613409    1.342    0.255
        38 -11.1033     91.9902    109.5157   1.1436224779e+02   4.2183526976e+01    0.2990053    0.2098874 -52.74 0.0006555694    1.334    0.250
        39 -10.2914    163.8446    204.8829   1.1612327452e+02   8.8579621380e+00    0.2166037    0.2112005  59.04 0.0004166017    1.138    0.121
        40 -12.3431    138.0712    198.5165   1.2037654662e+02   1.4559588365e+01    0.6411008    0.3605231  63.67  0.002775879    2.495    0.599
        41 -10.3739    208.8607    197.5324   1.0610815125e+02   2.0892629767e+00    0.1890964    0.1842249 -52.18  0.000536875    1.339    0.253
        42  -9.3821     14.2856    248.1717   1.4841276258e+02   2.2456009853e+01    0.2517131   0.08760386  46.70  0.001518167    2.080    0.519
        43 -12.4601    176.6926     28.9131   6.9975499590e+01   3.7420601689e+01    0.5181134    0.4272823  30.91  0.001275056    1.378    0.274
        44  -9.4704     13.3831     59.8826   1.2858237042e+02   6.2630054168e+01    0.1720025    0.1186945 -53.85 0.0004595474    1.130    0.115
        45  -9.5343    128.3813     27.7450   7.8268746094e+01   4.9622402108e+01    0.2481265    0.1687921  72.09 0.0006469901    1.667    0.400
        46 -10.6258    168.8994    234.6861   1.1967846740e+02   3.2526130444e+00    0.2105509    0.1808199 -59.17 0.0004447808    1.497    0.332
