#   1 NUMBER                 Running object number                                     
#   2 MAG_AUTO               Kron-like elliptical aperture magnitude                    [mag]
#   3 X_IMAGE                Object position along x                                    [pixel]
#   4 Y_IMAGE                Object position along y                                    [pixel]
#   5 X_WORLD                Barycenter position along world x axis                     [deg]
#   6 Y_WORLD                Barycenter position along world y axis                     [deg]
#   7 A_WORLD                Profile RMS along major axis (world units)                 [deg]
#   8 B_WORLD                Profile RMS along minor axis (world units)                 [deg]
#   9 THETA_WORLD            Position angle (CCW/world-x)                               [deg]
#  10 FWHM_WORLD             FWHM assuming a gaussian core                              [deg]
#  11 ELONGATION             A_IMAGE/B_IMAGE                                           
#  12 ELLIPTICITY            1 - B_IMAGE/A_IMAGE                                       
         1 -14.8421    166.8136     40.6972   7.6646749083e+01   3.8555835911e+01      1.20862     1.050974   5.89  0.004057814    1.367    0.269
         2 -14.7651    184.0579      8.0470   6.5032801141e+01   3.8079400028e+01     1.691547    0.8222907  61.91  0.006254332    1.739    0.425
         3 -10.6027    133.7495    247.7542   1.2976682803e+02   5.0491578678e+00    0.1519368    0.1396929  70.45   0.00104262    1.163    0.140
         4 -20.0364     67.3753    172.2672   1.3343441390e+02   3.1292770262e+01     18.42385     6.773547 -65.52   0.07402319    2.539    0.606
         5 -11.0646    125.0279    247.0305   1.3130249526e+02   6.6387530404e+00    0.2750177    0.1241793 -57.63  0.001339143    2.598    0.615
         6 -11.2669    164.0031    249.2966   1.2430599600e+02  -3.7976951084e-01    0.3137451    0.1717127 -48.70  0.001670297    2.230    0.552
         7 -13.2073    206.3735    178.4143   1.0357175896e+02   3.9293053456e+00    0.6261864    0.4940008  -0.76  0.003228904    1.468    0.319
         8 -13.5061    203.3620    172.1897   1.0287303966e+02   5.7035880876e+00     1.906517    0.7463939 -54.17  0.005615155    4.439    0.775
         9 -11.9856    151.9689    182.9405   1.1597398585e+02   1.4107260964e+01    0.3220063    0.2270555 -64.61  0.001079616    1.619    0.382
        10 -11.4948     14.0000    240.3907   1.4998890043e+02   2.3384876258e+01    0.2918916    0.1148868 -76.90  0.001692264    2.139    0.533
        11 -10.7103     11.0100    241.0421   1.5049112847e+02   2.3580401906e+01    0.1977635    0.1177666  88.77 0.0009269061    1.273    0.215
        12 -13.5300    195.6410    169.4085   1.0385511566e+02   7.8350128514e+00    0.8779293    0.5009955 -54.44 0.0006087009    2.120    0.528
        13 -12.6391    193.5839    164.7532   1.0328106588e+02   9.1813106578e+00    0.4388587    0.3952073  43.17  0.001842579    1.098    0.089
        14 -10.0920     12.9614    228.8995   1.4947290554e+02   2.5677555482e+01    0.1396035   0.07879215 -72.63 0.0004806975    1.613    0.380
        15 -10.6684    219.0431    224.2562   1.0989964717e+02  -6.0892756508e+00     0.178001    0.1498131  25.75 0.0001952033    1.051    0.049
        16 -12.0105      8.7219    175.4404   1.4638437573e+02   3.7122724938e+01    0.2057001    0.1664419  66.86 0.0007845588    1.261    0.207
        17 -13.3980    137.8107    171.6012   1.1699158194e+02   1.9390512832e+01    0.8101053    0.5540267  63.65  0.002861222    1.633    0.388
        18 -11.6434    165.7333    172.5502   1.1089338103e+02   1.3472493176e+01    0.2770093    0.2088706 -48.34 0.0007398148    1.375    0.273
        19 -11.7023    125.8813    172.1606   1.1985082206e+02   2.1591896812e+01    0.3694838    0.2961721  83.35  0.001516724    1.342    0.255
        20 -14.1999    144.6402    168.3414   1.1478186007e+02   1.8736920630e+01     1.080815    0.6524321  75.38  0.003934414    2.893    0.654
        21 -10.8019    110.2207    222.9558   1.3115211271e+02   1.3582694876e+01    0.1844709    0.1495022  80.16 0.0004352428    1.154    0.134
        22 -12.3716    177.0330    170.2068   1.0794688468e+02   1.1586276580e+01    0.3569427    0.2241625 -44.43  0.001594341    1.642    0.391
        23 -11.8926    230.0902    166.7098   9.6537289263e+01   1.3543552465e+00    0.3314565    0.1956429 -51.60   0.00147466    2.018    0.505
        24  -9.7625     15.2040    215.0280   1.4819945286e+02   2.8184523123e+01     0.149531    0.1132346 -78.21  0.000665155    1.315    0.239
        25 -11.0744      1.3019    214.8444   1.5054058726e+02   2.9584485368e+01    0.1427843   0.07125963 -73.02 0.0004476208    1.675    0.403
        26  -9.9478    111.9709    214.1756   1.2963553901e+02   1.5044242174e+01    0.1781255    0.1403175  76.93 0.0003068491    1.205    0.170
        27 -10.0367    116.4849    211.9863   1.2840467827e+02   1.4711546022e+01    0.3093379    0.1513772 -64.14  0.001370248    2.314    0.568
        28 -12.1658    121.1307    157.5775   1.1816341185e+02   2.5832486368e+01    0.2914077    0.2740819 -73.10 0.0007524993    1.050    0.048
        29 -10.4320     16.8722    156.2610   1.4284499952e+02   4.0657069064e+01    0.1788286    0.1528833 -35.62 0.0007437453    1.586    0.370
        30  -9.6131    176.9760    154.9769   1.0466681281e+02   1.4752727975e+01    0.1785091    0.1775383 -64.58 0.0009641659    1.016    0.016
        31 -12.2695    161.4893    153.3226   1.0774945510e+02   1.8481520772e+01    0.3088288    0.2919351  57.35 0.0009197889    1.039    0.038
        32 -11.4820    174.3025    148.7054   1.0383920887e+02   1.6660685431e+01    0.3706606    0.2859613 -75.11  0.001292717    1.618    0.382
        33 -10.5376    190.9205    158.0499   1.0236893757e+02   1.1088506272e+01    0.3596387    0.1897188  33.21  0.001355969    2.336    0.572
        34 -11.9445    108.6778    209.3325   1.2964597314e+02   1.6601506851e+01    0.3134393     0.220804  65.53  0.001709042    1.350    0.259
        35 -10.6334     17.9851    129.4647   1.3937283180e+02   4.6619455611e+01    0.2287708    0.1263883 -56.36 0.0007144909    1.515    0.340
        36 -12.1984    160.3830    127.7463   1.0201804506e+02   2.4285070379e+01    0.4619723    0.3026259 -56.75  0.001542952    1.670    0.401
        37 -11.7298    140.0910    120.5044   1.0507949355e+02   3.0397218258e+01    0.3903796    0.2187138  62.05   0.00125038    2.399    0.583
        38 -11.8202    107.3965    206.4894   1.2951618099e+02   1.7413357605e+01    0.2732204    0.2160046  59.08 -0.0001020042    1.122    0.109
        39 -10.8012    167.8700    112.8111   9.6533441138e+01   2.5706758052e+01    0.3693158    0.2477452  86.82   0.00140564    2.394    0.582
        40 -13.2906    163.6852    202.9694   1.1710837822e+02   7.7569551486e+00    0.9085518    0.4932341 -71.09  0.002716089    3.937    0.746
        41 -13.2773    113.9976    110.0936   1.0918388453e+02   3.8114104648e+01    0.4036275    0.3457802  60.91 0.0006961711    1.263    0.208
        42 -13.5169    117.4904    109.5104   1.0809326806e+02   3.7553137472e+01    0.5597442    0.4176128 -89.00  0.002175817    1.871    0.465
        43 -11.8707    157.2278    200.5488   1.1804041386e+02   9.4785822297e+00     0.703391    0.4373843  85.58  0.002669628    3.247    0.692
        44 -10.7233    205.4995    110.1957   8.8120159268e+01   1.7293640060e+01    0.2740013    0.2164972  54.75 0.0006457798    1.299    0.230
        45 -10.9187    153.7993    194.9751   1.1778556975e+02   1.1259160095e+01    0.2933761    0.2325227  86.21  0.001347695    1.509    0.337
        46 -11.0523     18.6828    108.8098   1.3613436310e+02   5.1198518430e+01    0.1805194     0.150608 -30.64 0.0006844944    1.368    0.269
        47 -10.1250    139.9660    200.6916   1.2173172841e+02   1.2756109565e+01    0.2755512    0.1857953  32.38 0.0008210911    1.651    0.394
        48 -10.9506     16.5255    250.3197   1.5016015056e+02   2.1286860846e+01     0.131737    0.1054296 -70.65  0.001044339    1.682    0.406
        49 -11.5429    169.6753    195.1639   1.1444339828e+02   8.0955890163e+00    0.2516581    0.1864643  53.83 0.0006159149    1.336    0.251
        50 -12.8041    180.3598    193.4028   1.1187573925e+02   6.3172045294e+00    0.4844418    0.4094955 -68.51   0.00185014    1.402    0.287
        51 -12.3952    170.2590    184.5327   1.1230088625e+02   1.0081985613e+01    0.4382417    0.2846487 -56.77  0.002017139    1.760    0.432
        52 -14.4446    154.9332     55.6906   8.3372738915e+01   3.9323694493e+01     1.353613     1.092134  54.58  0.001071774    1.173    0.148
        53 -10.1954    160.2071    249.0096   1.2497772907e+02   3.1801132084e-01    0.1619174    0.1492521  55.39 0.0004507246    1.138    0.121
        54 -12.9173    170.7526     33.1251   7.3796221581e+01   3.8560377589e+01    0.4139155    0.3534846  43.54 0.0008827422    1.216    0.177
        55 -14.2778    174.6130    188.0531   1.1205618080e+02   8.5013205399e+00     1.342725    0.5503795 -45.20  0.005083167    2.589    0.614
        56 -10.7758     13.5013     59.9459   1.2790591885e+02   6.1763120896e+01    0.1643896    0.1569496  37.34 0.0004026507    1.415    0.293
        57 -13.7907    165.8552    188.5238   1.1401167867e+02   1.0169794466e+01     0.669538    0.4920795  35.21  0.002514558    1.369    0.269
        58 -10.7598    138.0556     31.5968   7.9472317652e+01   4.6675989809e+01    0.2895518    0.1958833  78.17  0.001412501    1.818    0.450
