#   1 NUMBER                 Running object number                                     
#   2 MAG_AUTO               Kron-like elliptical aperture magnitude                    [mag]
#   3 X_IMAGE                Object position along x                                    [pixel]
#   4 Y_IMAGE                Object position along y                                    [pixel]
#   5 X_WORLD                Barycenter position along world x axis                     [deg]
#   6 Y_WORLD                Barycenter position along world y axis                     [deg]
#   7 A_WORLD                Profile RMS along major axis (world units)                 [deg]
#   8 B_WORLD                Profile RMS along minor axis (world units)                 [deg]
#   9 THETA_WORLD            Position angle (CCW/world-x)                               [deg]
#  10 FWHM_WORLD             FWHM assuming a gaussian core                              [deg]
#  11 ELONGATION             A_IMAGE/B_IMAGE                                           
#  12 ELLIPTICITY            1 - B_IMAGE/A_IMAGE                                       
         1 -16.2283    243.6638    178.5078   3.1889388730e+01   3.5123503315e+00     7.236439     1.436115 -39.33   0.02782835    4.328    0.769
         2 -14.5366    242.7777     91.6708   1.5887741399e+01   1.5580054280e+01     1.787838    0.9989198 -41.62  0.008085802    1.372    0.271
         3 -14.5610    227.9460     79.3265   1.4828564568e+01   1.9791635813e+01     2.589183    0.8705474 -28.30  0.009210114    3.976    0.748
         4 -14.3363      5.2886     89.2594   8.2610630580e+01   5.9663510921e+01     2.054307    0.7186426 -81.73  0.005821324    2.678    0.627
         5 -12.8029      9.7735     72.0141   7.8055701996e+01   6.4111334471e+01    0.8112988    0.2550932 -69.37  0.002944058    2.689    0.628
         6 -13.2428    209.3252      4.4103   3.5911197289e+02   3.2853645720e+01     1.029673    0.5148806  89.07  0.004567563    1.925    0.481
         7 -14.9324    244.1465     38.5908   4.8166702984e+00   2.2257813009e+01     3.384109    0.7853299 -34.96   0.01421982    2.962    0.662
         8 -13.6114    236.2662      5.4511   3.5823140272e+02   2.7391738718e+01     1.347266    0.6078743 -82.72  0.006179702    2.197    0.545
         9 -15.0004    179.8844     11.7312   2.6695441767e+00   3.8648877131e+01     2.541469     1.460412 -68.94   0.01297286    1.521    0.343
        10 -11.0745     61.5940    233.4884   7.6084746768e+01   1.7726937011e+01    0.4062224     0.229937  38.47  0.001717818    1.343    0.255
        11 -13.8814    153.3550    247.4272   5.7474948760e+01   4.4853831708e+00     1.373054    0.4949012  31.98   0.00530544    2.202    0.546
        12 -13.0199    148.8969    237.3617   5.7147507709e+01   6.4684353663e+00    0.4532616    0.3865695 -12.64  0.002835719    1.220    0.180
        13 -10.8549    106.5226    242.9935   6.6674822111e+01   1.0689320373e+01    0.3027625    0.2244786  21.10  0.001969466    1.153    0.132
        14 -10.7907    120.7158    249.5804   6.4305214570e+01   7.9462050084e+00    0.2483317    0.1968792  33.31   0.00137879    1.151    0.131
        15 -13.0918    111.6400    248.8326   6.6142658737e+01   9.1291246614e+00     1.112052    0.3229299  29.74   0.00476774    2.607    0.616
        16 -13.5081     75.5497    245.1233   7.3726978926e+01   1.3975331148e+01    0.7211201    0.5600122  78.05  0.003530124    1.541    0.351
        17 -14.2897     89.0025    243.4850   7.0583568931e+01   1.2695410175e+01     1.308437    0.6123902  38.64  0.004548504    1.652    0.395
        18 -10.8728     54.0301    250.2695   7.8882638725e+01   1.5447861129e+01    0.3528149    0.1686574  31.01  0.001279078    1.552    0.356
        19 -10.5635     49.6716    250.3283   7.9854803109e+01   1.5900734508e+01    0.2788707    0.1708587  59.57  0.001598039    1.555    0.357
        20 -12.9009     40.4493    145.7010   7.4295726023e+01   4.0879973675e+01     0.564392    0.3746424   0.10  0.001423923    2.053    0.513
        21 -15.5039     19.2812    245.0096   8.6403255276e+01   1.9920075620e+01     2.245337    0.7405107  30.95   0.01048016    2.089    0.521
        22 -13.8802     29.8250    234.2361   8.3601656402e+01   2.0986929033e+01    0.9050691    0.5254437  48.10  0.003314252    1.314    0.239
        23 -14.4603     24.2008    215.0570   8.4132747356e+01   2.5514530611e+01     1.704576     0.770562  50.25  0.008531374    1.733    0.423
        24 -15.8641     31.3456    164.2549   7.9084035513e+01   3.6943340761e+01      5.29227     2.261581 -80.76   0.02127295    2.391    0.582
        25 -14.2950      4.8630    174.0533   8.7747956079e+01   3.6825647618e+01     1.347098    0.6340769 -84.96  0.006248646    2.043    0.510
        26 -13.7430      4.8294    161.3564   8.7289763420e+01   4.0054284542e+01    0.8250304     0.710224  16.12  0.003942464    1.324    0.245
        27 -14.0477      4.0963    226.7679   8.9388043103e+01   2.4875922259e+01     1.215039    0.4955919  77.82  0.006064488    2.396    0.583
        28 -15.4979      7.1180    205.0267   8.8105943890e+01   2.9288713350e+01     1.878404    0.9553216  78.36  0.009757524    1.859    0.462
        29 -13.2799      4.2428    147.9272   8.6922019196e+01   4.3619875816e+01    0.6894488     0.594882  32.53  0.002409888    1.205    0.170
        30 -14.8043      3.7101    135.6729   8.6535685284e+01   4.6950673005e+01     2.394639    0.9756873 -83.90  0.006414187    2.258    0.557
        31 -12.3184    132.7534    237.7390   6.0502539317e+01   8.3607892693e+00    0.6159555     0.237067  31.14  0.002973551    2.060    0.515
        32 -14.2317     73.3433    213.9445   7.1646298770e+01   2.0228437110e+01     2.083308     1.062455  49.15   0.01000773    1.800    0.444
        33 -13.1909     47.7134    217.8038   7.8380681350e+01   2.2463297472e+01     1.230538    0.5090275  37.94  0.005534072    1.795    0.443
        34 -13.1837     51.1625    211.4215   7.7063098854e+01   2.3436321458e+01    0.9352819     0.403248  53.09    0.0041771    2.153    0.536
        35 -12.7153     92.3019    212.4867   6.6806248441e+01   1.8076683624e+01     1.252899    0.6828948 -81.00  0.005731546    2.780    0.640
        36 -11.9114    139.1369    216.6174   5.6520163307e+01   1.1021598407e+01    0.5571334    0.2722789  37.30   0.00280907    1.816    0.449
        37 -13.1725    124.7490    205.5497   5.8227214114e+01   1.4972669528e+01     1.104466    0.7274924 -52.45  0.006102069    1.733    0.423
        38 -12.1357    100.0098    200.1952   6.3462525226e+01   1.9527298132e+01    0.7848368    0.3463438  33.68  0.003087802    1.910    0.476
        39 -12.5324    104.3521    192.9684   6.1432973056e+01   2.0413128990e+01     1.017776    0.5966734  31.71  0.004428149    1.513    0.339
        40 -10.1387     83.8993    203.2169   6.7892577175e+01   2.1112003860e+01    0.2826707    0.1940775 -58.22  0.001530983    1.669    0.401
        41 -12.1708    114.6149    204.4592   6.0451342212e+01   1.6608704125e+01    0.8775392    0.5790682 -56.91  0.004771968    1.756    0.431
        42 -11.4086     94.9174    189.1131   6.3341234894e+01   2.2620052092e+01    0.3469764    0.2734552 -53.68  0.001465144    1.422    0.297
        43 -11.1157     75.2728    182.4840   6.7818651043e+01   2.6936992254e+01    0.5568691    0.3807827 -89.89  0.002762697    1.707    0.414
        44  -9.5884     68.9175    184.7177   6.9855688504e+01   2.7280987438e+01    0.2057781    0.1662191  40.58   0.00069908    1.083    0.077
        45 -11.3438     67.7185    174.2334   6.8985702392e+01   2.9964233468e+01    0.5034833    0.2827928  38.53  0.001397938    1.545    0.353
        46 -13.4978     83.3276    161.8408   6.2708515142e+01   3.0728267283e+01     1.996368    0.9127491  48.14  0.007667489    2.183    0.542
        47 -10.5891    105.0959    154.6745   5.5262757246e+01   2.8884969942e+01    0.2632321     0.215301 -79.67  0.001339154    1.364    0.267
        48 -11.3145     94.2858    152.3715   5.7940658013e+01   3.1281245047e+01    0.3557758    0.2847962  66.53  0.001392702    1.313    0.239
        49 -10.9901     56.2600    150.4430   6.9537004490e+01   3.7613647677e+01    0.3018554    0.2657907  24.61  0.000484651    1.216    0.178
        50 -11.3900     65.1049    146.1602   6.6009628985e+01   3.7501237092e+01    0.4595448    0.3241714  53.81  0.001044074    1.355    0.262
        51 -12.6766     68.4442    143.8273   6.4546608085e+01   3.7618934490e+01    0.9197795    0.4776149  63.79  0.002765252    2.531    0.605
        52 -13.7056     86.3728    139.5596   5.8026324070e+01   3.5828178042e+01     1.359004    0.8955138  76.44  0.004370939    1.969    0.492
        53 -15.4024     20.4733    183.3033   8.3610586949e+01   3.3200984903e+01     2.808943     1.195628  65.65   0.01191389    2.280    0.561
        54 -12.4697     71.8307    133.4210   6.1646498240e+01   3.9843613734e+01    0.5804453      0.42661 -78.64  0.001953566    1.430    0.300
        55 -10.8524     48.1475    134.7657   7.0186317043e+01   4.2921569573e+01    0.3876267    0.2987924 -23.09   0.00185131    1.690    0.408
        56  -9.7296    105.6002    130.8067   5.0419441042e+01   3.4516536567e+01    0.2251545    0.1486243 -68.74 0.0009562498    1.742    0.426
        57 -12.2725     55.9193    126.2288   6.6020813444e+01   4.4206342504e+01    0.6228907    0.4802595 -80.92  0.002930449    1.297    0.229
        58  -9.3723    101.6635    126.6902   5.0689066793e+01   3.6273571258e+01    0.1564986    0.1261683 -10.55 0.0005068418    1.682    0.405
        59 -10.3057     86.9704    122.0692   5.4300625185e+01   4.0200617735e+01    0.2397648        0.225  61.77 0.0004807227    1.024    0.024
        60 -11.5625     41.1060    135.4399   7.2829941087e+01   4.3608946160e+01    0.5131952    0.2924168  66.27  0.002146284    1.890    0.471
        61 -12.3367     62.4232    116.3693   6.1773568709e+01   4.5919431588e+01    0.5815125    0.3979332 -44.49  0.002576686    1.654    0.395
        62 -12.1344     21.8046    115.5989   7.7931003550e+01   5.1153202248e+01    0.4443759    0.3782037 -23.32  0.002391836    1.383    0.277
        63  -9.1345    100.9734    116.2484   4.8502806884e+01   3.8968796578e+01    0.1960556    0.1318415  43.39 0.0002735627    1.455    0.313
        64 -10.6629    113.0098    108.2277   4.2938303862e+01   3.8393301283e+01    0.2174185    0.1285046  45.10 0.0006798345    1.680    0.405
        65 -13.6048    130.8864    229.0904   5.9878005624e+01   9.9928068643e+00     1.475375    0.3994822  38.09  0.005790699    3.101    0.678
        66 -12.8484    115.1525    237.7629   6.4262589749e+01   1.0513101095e+01    0.8663148    0.3993831  34.13  0.004504745    1.702    0.412
        67 -11.1751    213.1026     74.7990   1.5422644216e+01   2.3174253155e+01    0.3529049    0.2181863  72.30  0.001937517    1.929    0.482
        68 -12.5149    114.5237    229.8484   6.3540951433e+01   1.1939499748e+01    0.8284275    0.3198745  36.31  0.003263431    2.065    0.516
        69  -9.9175     70.8440    230.4387   7.3671310542e+01   1.7237684198e+01    0.2247778     0.152971 -42.49  0.001292609    1.949    0.487
        70 -11.6720     61.1510    239.6946   7.6615162176e+01   1.6600412494e+01    0.3886067    0.3544553  65.84  0.001619456    1.241    0.194
        71 -10.8649     13.1175     60.0145   7.3822455907e+01   6.7065724745e+01    0.2102669    0.1996632 -71.69 0.0006067956    1.029    0.028
        72 -12.0362      6.2063     41.1828   7.4299126881e+01   7.2261757322e+01    0.3781815    0.2537347 -67.43  0.001386962    1.410    0.291
        73 -12.7432      3.2195     34.4110   7.4963340925e+01   7.4060087544e+01    0.5757594    0.4438611 -52.06  0.002104469    1.180    0.153
        74 -11.6985     10.7122     29.3086   6.6647930290e+01   7.4762888361e+01    0.2910609    0.2313515 -52.87  0.001193425    1.201    0.167
