#   1 NUMBER                 Running object number                                     
#   2 MAG_AUTO               Kron-like elliptical aperture magnitude                    [mag]
#   3 X_IMAGE                Object position along x                                    [pixel]
#   4 Y_IMAGE                Object position along y                                    [pixel]
#   5 X_WORLD                Barycenter position along world x axis                     [deg]
#   6 Y_WORLD                Barycenter position along world y axis                     [deg]
#   7 A_WORLD                Profile RMS along major axis (world units)                 [deg]
#   8 B_WORLD                Profile RMS along minor axis (world units)                 [deg]
#   9 THETA_WORLD            Position angle (CCW/world-x)                               [deg]
#  10 FWHM_WORLD             FWHM assuming a gaussian core                              [deg]
#  11 ELONGATION             A_IMAGE/B_IMAGE                                           
#  12 ELLIPTICITY            1 - B_IMAGE/A_IMAGE                                       
         1 -12.5555    129.4583     47.1254   4.8639810488e+01   4.6336105358e+01     2.052169     1.467365 -28.37   0.01081272    1.574    0.365
         2 -13.3533    155.6807     48.4831   4.3845850627e+01   3.9960606182e+01     1.865204     1.471062  74.27   0.00615236    1.202    0.168
         3 -12.5610     98.9722     45.6289   5.5892965370e+01   5.3452918727e+01     1.561659     1.093477 -58.03  0.007750803    2.007    0.502
         4 -11.3261     82.9625     30.5716   5.5202556355e+01   5.8808260365e+01     1.062332     0.785791  -4.31  0.004404378    1.492    0.330
         5 -12.7895     61.9796     31.4994   6.2986731237e+01   6.2722966827e+01     2.594147     1.756708 -16.64   0.01463302    1.540    0.351
         6 -10.8898     15.4933     47.4882   9.1111665025e+01   6.6159883971e+01       1.1769    0.4242882 -60.88  0.004459743    3.894    0.743
         7 -11.4074      2.9099     31.7725   9.2600835644e+01   6.9969175709e+01    0.8440621    0.3637372 -49.92  0.004469458    1.993    0.498
         8 -11.8258     81.8516     57.1511   6.5455190163e+01   5.5184137685e+01     1.331141    0.6958482 -42.48  0.005923592    2.077    0.519
         9 -11.7399    108.0401     63.0125   5.9148067140e+01   4.8803877654e+01     1.740358    0.8582938 -24.19  0.006477043    2.916    0.657
        10 -13.1111    243.2914     12.6617   2.6093474956e+01   2.5439643604e+01     1.828125    0.8533564 -50.86   0.01109869    1.696    0.410
        11 -10.0990     39.7520     24.0778   6.9397685482e+01   6.7321800693e+01    0.4946889     0.469431 -55.21  0.003387066    1.728    0.421
        12 -10.4305     45.0899     18.7844   6.4499866129e+01   6.7188772426e+01    0.5938095    0.3712631  30.25  0.003499921    1.352    0.260
        13  -9.6618     37.8853     15.7171   6.6403405531e+01   6.8673231872e+01    0.2938602     0.205471 -30.05  0.001222211    1.571    0.363
        14  -9.3351     92.0000     17.5266   4.7586425840e+01   5.8317872715e+01    0.3892256       0.2164 -24.34  0.002027986    2.070    0.517
        15  -9.4455     89.5150     23.0162   5.0342771707e+01   5.8294365467e+01    0.4710835    0.2201766 -28.64  0.002222188    2.401    0.584
        16  -9.6562     30.6567     19.9219   7.2010464440e+01   6.9148155154e+01    0.2095992     0.177403  -4.35 0.0003970931    1.217    0.178
        17  -8.3377     84.1465     11.1528   4.7238072835e+01   6.0596977053e+01    0.1412932    0.1318904  59.17 0.0009581345    1.222    0.182
        18  -7.8785    102.6805      9.2584   4.1997525913e+01   5.6698745848e+01    0.1181484    0.0916793 -88.66 0.0003681407    1.543    0.352
        19 -10.4128     72.4620     89.0444   7.9241386723e+01   5.0627123017e+01    0.4258479    0.3500909  69.49  0.001302541    1.690    0.408
        20 -10.1007    213.7117    249.3751   7.6550706331e+01  -7.8439672098e+00    0.4424627    0.2552438   4.52   0.00242805    1.743    0.426
        21  -9.9383    194.7497    250.4016   8.0480759630e+01  -5.6326429070e+00     0.309553      0.15092  30.08  0.001577355    1.831    0.454
        22  -9.8034      1.8172    144.6257   1.1476319982e+02   4.4002952487e+01    0.4479421    0.1881337 -78.72  0.001959854    2.092    0.522
        23  -8.9274    236.5246    146.5439   5.3276887842e+01   6.4282166222e+00    0.1337087    0.1112536 -35.99 0.0001098925    1.015    0.015
        24  -9.8643     35.9934    143.9753   1.0418997455e+02   4.1528844530e+01    0.2096981    0.1916103 -78.98            0    1.059    0.055
        25  -9.0265     29.4384    143.4799   1.0619047440e+02   4.2274523335e+01    0.1412141     0.124073 -67.04 0.0003020046    1.007    0.007
        26  -8.4172     48.8331    139.1628   9.9272503601e+01   4.1435287617e+01    0.2001643    0.1554546 -40.43            0    1.279    0.218
        27  -8.9537     15.5288    136.3150   1.0963451491e+02   4.5263190690e+01     0.299413    0.1830439  74.14  0.001436981    1.937    0.484
        28  -9.2602     24.7564    134.4850   1.0641037132e+02   4.5034195874e+01    0.2719697    0.1955637  80.74 0.0008103328    1.551    0.355
        29  -9.8977     30.6544    133.0288   1.0424947047e+02   4.4908203053e+01    0.3359947    0.2339606 -79.32 0.0007422433    1.436    0.304
        30  -9.0577     43.5919    132.7963   9.9890948331e+01   4.3693664968e+01     0.369807    0.1555373 -61.45  0.001126266    2.088    0.521
        31  -8.6647     61.7498    132.9745   9.3840687243e+01   4.1462078067e+01     0.213435    0.1856619 -52.91 0.0002785608    1.074    0.068
        32  -9.9454      8.6648    131.5285   1.1122932003e+02   4.6952442532e+01    0.2800743    0.2495721 -49.14 0.0004233703    1.130    0.115
        33  -9.1144     82.8885    129.4947   8.6107302501e+01   3.9235730460e+01    0.2485796    0.2227292  39.59 0.0004446674    1.168    0.144
        34  -8.5700     21.9906    130.4854   1.0674051732e+02   4.6296982177e+01    0.2669734    0.1048457 -38.67 0.0009261063    2.947    0.661
        35  -8.6257     23.5455    127.5056   1.0577673254e+02   4.6948118264e+01    0.2094637    0.1908392  48.50 3.268178e-05    1.241    0.194
        36  -9.5546     73.5362    130.2789   8.9354191025e+01   4.0494273873e+01    0.2557463    0.2471144  69.94 0.0002569768    1.121    0.108
        37 -10.1721      3.7280    124.8382   1.1201714283e+02   4.8945314959e+01    0.3116943    0.2377334 -72.01 0.0008750852    1.114    0.102
        38  -8.8338      9.9398    125.1406   1.1000377033e+02   4.8512372816e+01    0.2250406    0.1877533  -6.39  0.001362683    1.384    0.277
        39 -10.2009     46.8068    109.6817   9.4177710994e+01   4.9281697683e+01    0.4324637    0.2503766 -65.02  0.001458993    1.774    0.436
        40 -10.7775     41.2251    109.7142   9.6255814543e+01   4.9886118460e+01    0.6060039    0.3185074 -36.48  0.001093936    1.974    0.493
        41 -11.0490     43.3385    122.5539   9.8089951288e+01   4.6389222089e+01    0.3874569    0.2597258 -68.12  0.000231817    1.466    0.318
        42 -10.2238     46.3784    116.1510   9.5724801047e+01   4.7697585375e+01    0.3756473     0.291495   7.05 0.0005560999    1.413    0.292
        43  -9.5796     76.9421    120.9175   8.6081046814e+01   4.2352542396e+01    0.4447416    0.3259411  61.72  0.002007474    1.771    0.435
        44  -9.5080     36.3264    121.2769   1.0031666800e+02   4.7435773228e+01    0.4038879    0.2416283 -21.33  0.001266673    2.070    0.517
        45  -9.6223     10.5639    120.1320   1.0911407526e+02   4.9752951942e+01    0.3388538    0.1478889 -49.60  0.001210849    1.935    0.483
        46  -8.5746    108.0158    119.9650   7.5844896073e+01   3.7095267290e+01    0.2270029    0.2193445  -5.94  0.001178217    1.013    0.013
        47  -9.2193     89.0264    120.0266   8.1847788295e+01   4.0575892587e+01    0.2421855    0.1924442  71.34 0.0005497785    1.643    0.391
        48  -8.7638     70.6142    120.0098   8.8023986011e+01   4.3547984614e+01    0.2164864    0.1861455 -50.67 0.0004166818    1.113    0.102
        49 -11.0169      3.9478    114.0322   1.1055931513e+02   5.1664556880e+01    0.5927824    0.3020519 -56.81   0.00171508    1.552    0.356
        50  -8.5686     27.1200    113.8682   1.0226376012e+02   5.0162823484e+01    0.2131595    0.1809192 -48.15            0    1.035    0.034
        51  -9.5242     25.7455    110.1333   1.0208722287e+02   5.1220816798e+01     0.470203    0.2486837  52.18  0.001645382    2.670    0.625
        52  -8.5198     20.9677    112.6964   1.0429246238e+02   5.0943511322e+01    0.2951317    0.1658458   4.21 0.0009801608    2.150    0.535
        53  -9.0631    133.1568    111.1185   6.6342390217e+01   3.3943293115e+01    0.3761181    0.1980202 -66.22  0.001082865    4.122    0.757
        54  -8.3921     32.9050    112.5379   9.9903024134e+01   4.9993940606e+01    0.1904949     0.139254   7.02 0.0006200987    1.526    0.344
        55  -8.7285     82.1117    110.9103   8.1844150639e+01   4.3975253117e+01    0.2317234    0.2115695 -23.93 0.0004299528    1.052    0.049
        56  -9.6989     65.5898    109.2217   8.7202310034e+01   4.6967252342e+01    0.2646085    0.1786222 -18.75 0.0006471849    1.784    0.439
        57  -9.1018     59.7527    108.2101   8.9069159762e+01   4.8031490684e+01    0.2910014    0.2557458   4.18 0.0006841988    1.163    0.140
        58 -10.4983     56.4274    106.7552   8.9938949154e+01   4.8830856961e+01     0.526464    0.2653041 -36.37  0.002088896    2.156    0.536
        59  -9.7374    125.6067    106.0060   6.7015938045e+01   3.6673237386e+01    0.4580812    0.2450024 -64.05   0.00140505    3.341    0.701
        60  -9.0239     89.7762    107.8993   7.8471423576e+01   4.3361183268e+01     0.253825    0.2057628  16.28            0    1.300    0.231
        61  -9.5108     77.5058    107.4454   8.2529462988e+01   4.5568404785e+01    0.3187418    0.2443847 -34.64  0.001549167    1.282    0.220
        62 -10.3136     12.9503    112.7468   1.0719215882e+02   5.1478111002e+01    0.5460401    0.2015364 -47.90  0.002265605    2.257    0.557
        63  -9.0120      4.7729     97.6486   1.0782365295e+02   5.5678257122e+01    0.3139355    0.1502607 -57.67  0.000835538    1.612    0.380
        64 -10.2196      3.9279    103.5155   1.0906239160e+02   5.4282546652e+01    0.4217406    0.2902074  78.12  0.002103719    1.762    0.432
        65 -10.0102     11.8785    105.1644   1.0637031561e+02   5.3442170310e+01    0.3656768    0.2115273  14.24  0.001424026    1.973    0.493
        66 -10.4234    114.4270    104.6577   6.9839684410e+01   3.9320216204e+01    0.3991221    0.2624678  11.06  0.001135707    2.318    0.569
        67  -9.9796     63.7389    103.5623   8.6450474626e+01   4.8607315122e+01    0.3778704    0.2966641  76.99   0.00118431    1.805    0.446
        68  -9.3334     66.3385    101.3292   8.4916445007e+01   4.8762413748e+01    0.3111214    0.2160803  -7.50  0.001165059    1.752    0.429
        69  -8.9478     36.4119    105.0241   9.7066120392e+01   5.1545808225e+01    0.2673028    0.1849877  -7.81  0.001191772    1.630    0.386
        70 -10.8165    112.2299    100.0686   6.9208058818e+01   4.0775953746e+01    0.5427787    0.3509646 -17.74  0.002140677    2.230    0.551
        71 -12.2131    115.2128     76.8346   6.1476739835e+01   4.4806687930e+01     1.123039    0.7753841 -41.68  0.005343238    1.507    0.336
        72  -9.4576     41.8174     43.4711   7.6568474787e+01   6.4077315419e+01    0.5759957    0.3415209 -53.32  0.002840882    2.355    0.575
        73 -11.9521     97.8113     89.2001   7.0517209819e+01   4.6008123370e+01     1.907956    0.5917281 -42.19   0.00592382    3.308    0.698
        74 -11.3695     84.4737     75.8685   7.0856825576e+01   5.1276490386e+01     1.359892    0.7927818 -22.67  0.005569911    2.260    0.558
        75 -10.4381    138.0480     35.1817   4.3255120395e+01   4.5850521241e+01    0.5442623    0.2575397  62.77  0.001145257    1.910    0.476
        76 -10.6197    165.4625    248.3865   8.6307547326e+01  -1.3564349655e+00     0.394663    0.2474359  29.78  0.002162167    1.389    0.280
        77 -11.4988     94.9639     71.3198   6.5854887659e+01   5.0101410389e+01     1.244843    0.7257351 -51.04  0.005378105    2.064    0.516
        78  -9.9175    152.9600    249.7667   8.9228762371e+01   1.6781011631e-01    0.4472192    0.1054155  29.06  0.001309349    4.729    0.789
        79 -10.8780     61.5849     64.0192   7.5503757597e+01   5.7512329495e+01    0.9576816    0.6751722  23.90  0.004942482    1.363    0.266
        80  -9.3727    132.7028    245.8748   9.3178715498e+01   3.7908586992e+00    0.2807128    0.1259605 -56.29  0.001203327    2.731    0.634
        81 -10.6259    188.2589    248.6513   8.1533446137e+01  -4.5085349825e+00    0.4116682    0.3209955  53.68  0.002395614    2.047    0.511
        82 -11.4979     59.6869     53.0287   7.2369937111e+01   5.9807786336e+01     1.093109    0.5240674 -24.36  0.004306256    2.857    0.650
        83 -11.3740    182.5645    236.8842   8.0832176838e+01  -1.7814818858e+00    0.4226743    0.2628375  25.36  0.002085165    1.444    0.307
        84 -10.1341     72.3384     75.9846   7.5285294960e+01   5.3411880568e+01    0.3533134     0.297835  -0.02  0.001075071    1.144    0.126
        85 -12.1363     64.3308     83.0498   8.0528379365e+01   5.3217067325e+01     1.855174      1.32658  56.19  0.008816594    1.956    0.489
        86 -10.9799     48.9305     85.6474   8.7380907992e+01   5.4774040730e+01    0.5461095    0.3976432 -58.38   0.00282718    1.467    0.318
        87 -10.7940     51.3568     80.4817   8.4920461564e+01   5.5613817107e+01    0.5345351    0.4665687 -45.03  0.001750739    1.185    0.156
        88  -8.6068    144.8994    103.1429   6.1213415035e+01   3.3057618886e+01    0.2267102    0.2074955 -81.88 0.0003489547    1.192    0.161
        89 -11.0925    120.1764     98.9603   6.6584359118e+01   3.9341188870e+01    0.6068368    0.2669275 -34.84  0.002045579    2.751    0.637
        90 -10.6440     80.3691    100.0296   7.9533380058e+01   4.6834703265e+01    0.3722015    0.2937407  12.40  0.000407234    1.345    0.257
        91 -10.3153     74.9208     99.2237   8.1238381791e+01   4.7925174104e+01    0.5733314     0.364978 -41.54   0.00259885    1.515    0.340
        92  -9.6311    131.9958     99.8402   6.3594232636e+01   3.6593082315e+01    0.2394224    0.2117779  87.01 0.0006807299    1.312    0.238
        93  -8.4413     14.8486     99.9657   1.0434462094e+02   5.4541782806e+01    0.2186395    0.1452978 -44.99 0.0005459654    1.281    0.219
        94  -9.4193     10.8417     97.5107   1.0545643539e+02   5.5387078210e+01    0.2558355    0.1989192  -9.10 0.0007474864    1.382    0.276
        95  -9.2418     15.5084     95.0051   1.0316101595e+02   5.5708809999e+01    0.2235753    0.1667024 -23.10 0.0006198987    1.327    0.246
        96  -9.0189     33.9844     99.0723   9.6707922016e+01   5.3243745410e+01    0.2090616    0.1840514 -40.65 0.0003257256    1.019    0.019
        97 -10.6995    105.3860     97.7562   7.0627915184e+01   4.2674726857e+01     0.604836     0.322153 -28.86  0.002184636    2.536    0.606
        98 -10.9167    106.7476     85.9546   6.6740262289e+01   4.4859913398e+01    0.6139675    0.2893788  45.19 0.0002968596    2.094    0.523
        99 -10.7031    110.6845     93.1538   6.7685661307e+01   4.2565645610e+01      0.46887    0.2991358  51.64  0.001510673    1.691    0.409
       100 -10.5179    108.1019     89.7156   6.7452930880e+01   4.3814722176e+01    0.4421647    0.3870713   1.99 0.0003400555    1.205    0.170
       101  -8.9344     61.8386     97.6040   8.5599834557e+01   5.0294792809e+01    0.3134213    0.2155486 -50.17    0.0015133    1.388    0.279
       102  -8.8371     64.8523     94.1433   8.3528187533e+01   5.0661767043e+01    0.2485251    0.2119138 -79.87 0.0006701958    1.509    0.337
       103  -9.1220     21.8767     96.8099   1.0099447837e+02   5.4824010181e+01    0.2945241    0.1867292  30.74  0.001526735    1.788    0.441
       104  -8.9383     31.4208     93.7150   9.6519280614e+01   5.4777123090e+01    0.4148261    0.2596605  73.72  0.001746814    2.909    0.656
       105  -9.2936     84.3827     93.6210   7.6318344022e+01   4.7582830837e+01    0.4853869    0.2365689  40.75  0.001829159    2.086    0.521
       106  -9.0794    134.7567     93.4245   6.1091017681e+01   3.7282233532e+01    0.2098877    0.1435235  37.30 0.0004132162    1.532    0.347
       107  -8.3232      1.2811     90.5400   1.0801190480e+02   5.7553083274e+01    0.2252149   0.09494929 -66.50 0.0005018118    1.952    0.488
       108 -10.0258    116.5347     88.8953   6.4725517355e+01   4.2195880634e+01    0.3875635    0.2348723 -19.84 0.0009882653    2.456    0.593
       109  -9.3427     15.5461     86.8801   1.0151291379e+02   5.7648723183e+01    0.5458066    0.3309731 -72.27   0.00277567    1.756    0.431
       110  -7.9385     11.6628     88.2663   1.0339957642e+02   5.7563202750e+01    0.1359233    0.1102147 -43.04 0.0004184895    1.027    0.026
       111 -10.8016    139.7241     83.0524   5.6932416377e+01   3.8143888027e+01    0.8652247    0.4051449 -41.50  0.002728676    2.170    0.539
       112 -10.5465    128.1153     80.0976   5.8970460087e+01   4.1330819476e+01    0.5638242    0.3642517  53.48 0.0002765541    1.548    0.354
       113 -10.4259    151.4443     67.7476   5.0006062999e+01   3.8073566136e+01    0.5322487    0.2665622 -43.42  0.001828273    2.045    0.511
       114 -10.9983    147.0682     67.6007   5.0879257713e+01   3.9122287508e+01    0.5291401    0.4571072 -58.53  0.001507478    1.207    0.171
       115 -10.9337    136.8747     77.3916   5.5994670125e+01   3.9823515833e+01    0.6033363    0.3770972  66.15  0.001674714    1.919    0.479
       116 -12.1293    140.1745     72.3643   5.3766369845e+01   3.9936869523e+01     1.048046    0.4948843  55.37 0.0007935761    2.091    0.522
       117  -8.4153    174.1162     86.8584   5.0617866973e+01   2.9589359478e+01    0.1969615    0.1792708  66.78            0    1.106    0.095
       118  -8.2409    177.4482     85.4841   4.9650425140e+01   2.9083625992e+01    0.2392317    0.1400693  55.90 0.0007820707    1.738    0.425
       119 -10.8055    126.4644     74.7214   5.7798322163e+01   4.2677877959e+01    0.6945868    0.3659059  47.67  0.002904063    1.812    0.448
       120  -9.5524    165.0494     84.7750   5.1845878018e+01   3.2016641266e+01    0.6491533    0.2389008  60.64  0.002075339    3.478    0.713
       121  -8.8245     88.6446     84.0176   7.1981968524e+01   4.8853677605e+01    0.2659577      0.20054  29.07 0.0003127388    1.310    0.236
       122 -10.1934     28.7281     82.7399   9.5010877604e+01   5.7595525303e+01    0.9898006    0.6205338 -89.81  0.004275921    2.900    0.655
       123 -10.3845      8.8895     43.6924   9.3344139000e+01   6.7370991936e+01    0.5551279    0.4490388 -76.38  0.003530291    1.852    0.460
       124 -10.4257     24.9448     68.5257   9.2914748115e+01   6.1089447183e+01     0.588949    0.2762067  25.15  0.002779281    2.209    0.547
       125 -11.3702     29.3309     61.8432   8.8906765643e+01   6.2085799721e+01    0.8324423    0.4490309 -40.10  0.004208571    1.606    0.377
       126 -11.2822     19.6889     56.6274   9.1907867631e+01   6.4017056492e+01     0.328255    0.2860365  14.76 0.0004880226    1.307    0.235
       127 -11.7053    178.8000    242.4048   8.2523489853e+01  -2.1980815364e+00    0.6165352    0.2913614  19.80  0.002716416    2.294    0.564
       128 -11.5694     39.6750     61.3820   8.3997046503e+01   6.1055938719e+01    0.5558385    0.4126248   0.39  0.001160949    1.277    0.217
       129 -10.8683     42.0610     54.1474   8.0430820743e+01   6.2152240509e+01    0.7299351    0.3579097  13.15  0.003079479    2.595    0.615
       130 -10.2855     38.1983     72.4204   8.8106568930e+01   5.8946615570e+01    0.4044381    0.3047622   1.66  0.001369351    1.300    0.231
       131 -11.0575     33.7348     70.4141   8.9486149067e+01   5.9851222770e+01    0.7894053    0.3683667 -34.92  0.001868581    2.093    0.522
       132 -10.5819     10.4983     32.3836   8.8464129724e+01   6.9326621863e+01    0.4253705    0.2290836 -43.08  0.001911675    1.611    0.379
       133 -10.1410      7.8065     35.9298   9.1291716348e+01   6.8894237648e+01    0.3168399    0.2257431  38.02  0.001317263    1.982    0.495
       134 -11.4463    175.9851    239.2273   8.2615757575e+01  -1.2601653481e+00    0.4645582    0.3084685 -45.17  0.002555902    1.696    0.410
       135  -8.9202    145.4688     83.4782   5.5702362420e+01   3.6747605283e+01    0.1475855    0.1436355  78.19 8.348823e-06    1.016    0.016
       136  -9.4901     40.7285     80.9088   8.9449948540e+01   5.6807470680e+01    0.4020366    0.1827997  23.52  0.001465404    2.299    0.565
       137  -8.1440      5.6498     75.3000   1.0329856803e+02   6.0903381163e+01    0.1954348    0.1091948  21.90  0.001031638    2.017    0.504
       138  -9.3205      8.9696     79.5022   1.0274233867e+02   5.9766644407e+01    0.5233486    0.1858884 -20.41  0.001837126    4.087    0.755
       139  -8.9879      9.4959     76.4583   1.0185709598e+02   6.0433870630e+01    0.2479699    0.2060323 -72.27  0.001165207    1.341    0.254
       140  -8.6146      2.0218     80.6803   1.0594777694e+02   5.9840477886e+01      0.17252    0.1447979 -32.38 0.0004443585    1.119    0.107
       141 -11.3424    176.0185     67.2033   4.5284027684e+01   3.2452841235e+01     1.134986    0.4100332  69.73   0.00320539    5.142    0.806
       142 -11.3148    173.4608     71.1077   4.6720043549e+01   3.2415389951e+01    0.9156938    0.4995855  87.00  0.003242723    3.491    0.714
       143 -11.0343    170.8080     76.6955   4.8635745830e+01   3.2100295001e+01    0.5749211    0.4426895  58.65  0.001105093    1.288    0.224
       144 -10.3062    163.3906     74.4083   4.9438443384e+01   3.4191913642e+01    0.4888232    0.3438556  84.62  0.002323204    1.746    0.427
       145  -9.4760    157.9190     77.4317   5.1336555488e+01   3.4945101505e+01    0.3155971    0.2112369  88.66  0.001364379    2.125    0.529
       146  -9.1848     16.2198     74.8224   9.8504103886e+01   6.0381911385e+01    0.3793583    0.2728518  56.95   0.00206706    2.049    0.512
       147 -11.1876    192.6695     71.1915   4.3600368904e+01   2.8082418138e+01    0.4926399    0.2538104 -62.43  0.002021186    2.545    0.607
       148 -10.2587    187.0608     71.9027   4.4643701270e+01   2.9211120962e+01    0.2441978    0.1923259 -46.75 0.0006867296    1.222    0.181
       149  -9.4473    181.9226     71.6720   4.5420227087e+01   3.0400245037e+01    0.1976229    0.1745642  83.63 0.0009896294    1.092    0.084
       150  -9.6483    199.8467     70.7868   4.2444830145e+01   2.6582814130e+01    0.1931271    0.1428471 -68.66 0.0004997939    1.350    0.259
       151  -9.4291     18.3136     65.8910   9.5251104535e+01   6.2193046004e+01    0.3148628    0.1752304 -21.31 0.0009516632    1.807    0.447
       152  -9.3613      7.6655     70.6899   1.0137586300e+02   6.1833811535e+01    0.2856496    0.1835441 -20.78  0.001629639    1.474    0.321
       153 -10.8281     11.3760     67.4259   9.8886949245e+01   6.2337079448e+01    0.3470135    0.2560372   2.50  0.002121238    1.391    0.281
       154  -8.6254     44.6221     68.7542   8.4186830063e+01   5.8964645208e+01     0.274739    0.1383396  -8.02 0.0009517501    3.653    0.726
       155  -9.1299    203.6468     68.6888   4.1427638932e+01   2.6093864022e+01    0.1269541    0.1050344  24.33 0.0007044611    1.726    0.421
       156  -9.9449      7.0271     87.9353   1.0523450178e+02   5.7899269053e+01    0.2130258     0.178691  -6.72 0.0003522499    1.283    0.221
       157  -8.7373     18.9648     70.7978   9.6258799335e+01   6.1079070803e+01    0.2865579    0.1836869  55.82  0.001393029    2.587    0.613
       158 -10.3482     97.0952     61.7059   6.1992693879e+01   5.1360601512e+01    0.4236296     0.258085  23.01  0.001043806    2.083    0.520
       159  -8.6320      1.6183     62.5830   1.0229763718e+02   6.3914574496e+01    0.1429704    0.1127002  11.33 0.0005801445    1.429    0.300
       160 -11.4290    204.1920     56.2831   3.8541057982e+01   2.7826107941e+01    0.3401428    0.2025528  60.54  0.001300889    1.703    0.413
       161 -10.3038    176.6788     60.7664   4.3544051460e+01   3.3291828603e+01    0.3721239    0.2032317  52.51  0.001734092    1.847    0.458
       162  -8.6519    221.0013    239.2745   7.3482889066e+01  -7.2080476199e+00    0.1799211    0.1367528   0.88  0.001168174    1.062    0.058
       163 -11.8744     46.3250     96.4386   9.1253431461e+01   5.2576962699e+01     1.605762     0.833083 -71.06  0.006183253    2.770    0.639
       164  -9.8182      3.2898     56.3094   9.9929226223e+01   6.5167683311e+01    0.3522528    0.2209998 -17.86  0.001477276    1.463    0.316
       165  -9.7825      3.4456     51.6871   9.8607381561e+01   6.6114196564e+01    0.3492345    0.2183388  -4.21  0.002079572    1.558    0.358
       166  -9.7312    175.2005     55.4596   4.2434485766e+01   3.4414785564e+01    0.2867509    0.2286765  10.68 0.0008608199    1.833    0.454
       167 -10.5067    210.1317     55.8447   3.7711217873e+01   2.6625416848e+01    0.2056723    0.1545141 -70.35 0.0003134299    1.223    0.182
       168  -9.9515    180.0178     56.0360   4.1833891008e+01   3.3226333373e+01    0.2170571    0.1903167 -80.09  0.001304813    1.048    0.045
       169  -9.4396     40.0157     96.5782   9.3764868699e+01   5.3243438581e+01    0.5283065    0.3065633 -86.93  0.001973776    3.364    0.703
       170 -11.8571    192.2623     44.4419   3.7329181597e+01   3.2074990916e+01    0.4600498     0.277872  74.66  0.001617976    1.608    0.378
       171 -11.3121    181.0558     48.3770   3.9782603872e+01   3.4069282337e+01    0.4224072    0.2783237  65.21  0.002126556    1.433    0.302
       172 -11.1850    198.9360     49.0581   3.7559272984e+01   2.9979784583e+01    0.3117725    0.2266247 -26.32  0.001765158    1.704    0.413
       173 -10.7479    203.2076     46.6845   3.6503302470e+01   2.9375778467e+01    0.2734701    0.1728345 -79.13  0.001462201    1.676    0.404
       174  -8.6602     21.8649     49.1022   8.8392984853e+01   6.5310945841e+01    0.1789323    0.1495172  78.88 0.0007855869    2.106    0.525
       175  -8.2866    110.9709     45.0035   5.2384305177e+01   5.0886744747e+01    0.1563298    0.1487304  -2.50 0.0003378624    1.128    0.114
       176  -8.9186     23.1910     43.8461   8.5871781380e+01   6.6168822564e+01     0.247364    0.1909703  14.56  0.001292792    1.289    0.224
       177 -12.2819    191.4051     49.0993   3.8535060017e+01   3.1635788192e+01     0.763032    0.3745604 -73.82  0.002913598    3.366    0.703
       178  -9.4132    109.6211     39.1252   5.0748382358e+01   5.1972153815e+01    0.4533012     0.245569  63.90  0.001675755    2.012    0.503
       179  -9.9355    111.5586     34.4644   4.8689252896e+01   5.2112908782e+01    0.4406473    0.3594911 -30.34  0.002219262    1.377    0.274
       180 -11.4567     30.8682     37.8275   7.9657775886e+01   6.6401914462e+01    0.2878991    0.2219529  -5.95 0.0005878404    1.061    0.057
       181  -9.2791     25.0523     38.5441   8.2920676483e+01   6.6924209037e+01    0.2332694    0.1787603  -7.10 0.0005650872    1.066    0.062
       182 -11.0719     87.8508     47.2174   5.9872856259e+01   5.5562692043e+01    0.7009469     0.503099 -51.23  0.003351018    1.806    0.446
       183 -11.5474    139.8112     54.8438   4.8731385635e+01   4.2805115611e+01    0.7293109    0.6763637 -78.56   0.00149302    1.119    0.106
       184  -9.5279    161.9410     34.8143   3.9120072755e+01   4.0252919258e+01    0.2186898    0.1891862 -43.09 0.0008534731    1.261    0.207
       185 -10.4176    192.0043    233.5096   7.8289628602e+01  -2.5181829643e+00    0.2915089    0.2615289  23.84  0.001873977    1.319    0.242
       186  -9.7399    245.2537    241.2849   6.9370833117e+01  -1.0279610710e+01    0.2108381     0.117947 -29.18  0.001168983    1.487    0.327
       187  -9.3603    179.8245     32.3773   3.6024579701e+01   3.6407051957e+01    0.1817199     0.103201  59.27 0.0005789343    1.666    0.400
       188  -9.1367    123.7851     31.8829   4.5079064709e+01   4.9594859043e+01    0.3052304    0.1666784  52.82 0.0009590942    1.582    0.368
       189  -8.4638    120.3032     31.3639   4.5656769900e+01   5.0465693956e+01    0.1757966    0.1382589   9.27 0.0006808997    1.546    0.353
       190 -10.2942    131.7054     30.4773   4.3043263128e+01   4.7898632441e+01    0.4178264    0.3225037  54.34  0.002163086    1.155    0.135
       191 -10.3671    125.4537     26.2534   4.2952163438e+01   4.9835008513e+01    0.3408995    0.3109106 -10.08  0.002177539    1.278    0.218
       192  -8.7102    154.6932     30.4360   3.9050166757e+01   4.2474632355e+01      0.18067    0.1099339  58.47 0.0009374134    1.472    0.320
       193  -8.8074    138.0195     28.9288   4.1402595494e+01   4.6584232214e+01     0.200892    0.1760021  64.02 0.0004033886    1.027    0.026
       194  -8.5890    115.6332     27.7353   4.5490327115e+01   5.1955680900e+01    0.2110509     0.131841  33.69 0.0006688872    1.765    0.433
       195 -10.3608    212.7001    216.5535   7.1139294286e+01  -2.4798648840e+00    0.2833413    0.1520491  22.77  0.001045005    1.914    0.477
       196  -8.4763    219.5231    210.0006   6.8628112842e+01  -2.2954045707e+00    0.1906915    0.1141541 -38.03 0.0005020496    1.532    0.347
       197 -11.6297    118.5527     62.7653   5.6180144133e+01   4.6506602849e+01    0.9138801    0.7216747 -11.61  0.002221023    1.488    0.328
       198  -8.7201    111.6680     22.7071   4.4682844776e+01   5.3403005327e+01    0.2099824    0.1636063  40.96 0.0005369487    1.199    0.166
       199 -10.1976    107.8612     25.0298   4.6347111258e+01   5.4027066191e+01    0.3293124    0.2265479  55.16 0.0003691262    1.246    0.198
       200  -9.5597    103.5098     23.9962   4.7028382256e+01   5.5118666855e+01    0.3288619    0.1989412  33.94  0.001114441    1.723    0.420
       201  -8.8767     24.0805     26.2276   7.8360532261e+01   6.9040101052e+01    0.4203806    0.1391105  22.04   0.00164749    3.513    0.715
       202  -9.2312    229.4012    203.2094   6.5530105109e+01  -2.4791623145e+00     0.172904    0.1099304 -43.64 0.0005872099    1.611    0.379
       203  -8.4992    120.7702     23.7583   4.3096335105e+01   5.1192628269e+01    0.1733038    0.1465052 -82.45  0.000632123    1.325    0.245
       204  -8.2250     94.5423     24.4082   4.9478887057e+01   5.7059088989e+01    0.3577392    0.1128081  56.42 0.0005651942    2.823    0.646
       205  -7.6673    101.2906    176.2485   9.0069689252e+01   2.4225633145e+01    0.1471774    0.1181502 -13.47 -0.000275831    1.476    0.323
       206 -10.5453      7.1852    166.3938   1.1526492552e+02   3.8106092976e+01    0.3028377    0.2540044   6.66  0.001887891    1.479    0.324
       207  -9.5847     85.4744     21.9859   5.1107641807e+01   5.9262106931e+01    0.4964827    0.1660552  49.51   0.00203415    2.398    0.583
       208 -10.2753    131.7671     20.9620   4.0125777891e+01   4.8907339379e+01    0.3682251    0.2461872 -77.15  0.001236034    1.858    0.462
       209 -10.8467      6.0651    158.7100   1.1488269044e+02   4.0138993706e+01    0.4771729    0.3013363 -62.13  0.002610201    1.382    0.277
       210  -7.8521     90.2558     12.6443   4.6190864088e+01   5.9153151534e+01    0.1149132    0.0957257 -68.29  0.000696435    1.611    0.379
       211  -8.8497      1.4000    158.7679   1.1617451367e+02   4.0428991710e+01    0.2041589    0.1103295 -77.41 0.0002861049    1.548    0.354
       212  -8.8887     37.4901    159.5161   1.0592282460e+02   3.7278653492e+01    0.1419346     0.128218 -73.77 2.729989e-05    1.009    0.009
