#   1 NUMBER                 Running object number                                     
#   2 MAG_AUTO               Kron-like elliptical aperture magnitude                    [mag]
#   3 X_IMAGE                Object position along x                                    [pixel]
#   4 Y_IMAGE                Object position along y                                    [pixel]
#   5 X_WORLD                Barycenter position along world x axis                     [deg]
#   6 Y_WORLD                Barycenter position along world y axis                     [deg]
#   7 A_WORLD                Profile RMS along major axis (world units)                 [deg]
#   8 B_WORLD                Profile RMS along minor axis (world units)                 [deg]
#   9 THETA_WORLD            Position angle (CCW/world-x)                               [deg]
#  10 FWHM_WORLD             FWHM assuming a gaussian core                              [deg]
#  11 ELONGATION             A_IMAGE/B_IMAGE                                           
#  12 ELLIPTICITY            1 - B_IMAGE/A_IMAGE                                       
         1 -11.2550     26.1266     13.5579   1.1945174162e+02   7.3977724751e+01     0.239954    0.1777721 -36.56 0.0003744934    1.183    0.155
         2 -11.4285     25.6933     19.8744   1.2289549471e+02   7.2736225058e+01    0.6665173    0.3167064 -24.55  0.002695152    3.201    0.688
         3 -10.1302    104.2011     18.6715   8.5666720822e+01   5.7967221374e+01    0.4299613    0.2056423 -10.30  0.001454428    3.280    0.695
         4 -10.9522    217.4418     16.1272   6.7398865935e+01   2.7721457300e+01    0.4804124    0.2110387  54.93  0.001755517    2.434    0.589
         5 -10.8999     20.0160     18.9947   1.2647321431e+02   7.3448230323e+01    0.2565007    0.2128877   1.46 0.0004369336    1.273    0.214
         6 -10.8012    130.7509     15.0135   7.7926061716e+01   5.1271101810e+01     0.308879    0.2642962 -41.27  0.000923896    1.223    0.183
         7 -11.2554    133.4103     11.7307   7.6070491279e+01   5.0882387233e+01    0.3095484    0.2571026  18.29 0.0008810384    1.339    0.253
         8 -10.3596     99.6942     13.4126   8.4356928679e+01   5.9777093572e+01     0.374159    0.2139084 -41.54   0.00163254    1.901    0.474
         9 -10.5155    119.0268     11.0473   7.8556146080e+01   5.4926584432e+01      0.25085     0.172368 -66.60  0.001134811    1.764    0.433
        10 -11.8176     81.0116      6.7349   8.6521909156e+01   6.5171601262e+01    0.4573088    0.2996868  17.03 0.0005550322    1.798    0.444
        11  -9.6770      8.8322      8.2497   1.3039238558e+02   7.6542121481e+01     0.244099    0.1168659 -20.36  0.001171088    2.516    0.603
        12 -11.0264     75.2769      4.8381   8.7425643067e+01   6.6731338285e+01    0.3292464    0.2313348 -13.50 0.0009321934    1.485    0.326
        13 -10.2912    127.2510      5.3805   7.4469920515e+01   5.3225496905e+01    0.2645117    0.1601429 -45.49 0.0009062109    1.783    0.439
        14 -10.0551     91.8362      4.7287   8.2052551268e+01   6.2749259529e+01     0.325222    0.1899257 -29.26  0.001500838    1.761    0.432
        15  -9.4942     61.0988      5.1921   9.3432590736e+01   6.9775913232e+01    0.1773924    0.0994367  48.07 0.0008388831    1.732    0.423
        16 -11.7338     26.6823      3.3039   1.1287947969e+02   7.5842842270e+01     0.376175    0.2822464  14.61  0.001409689    1.359    0.264
        17  -9.2769    117.6819      4.2851   7.5752201467e+01   5.5970467166e+01    0.1491957    0.1082175 -65.66 0.0001700657    1.588    0.370
        18  -9.5176     85.9959      1.1735   8.1761902467e+01   6.4570244439e+01    0.1845722   0.09984664  61.36 0.0003125023    1.754    0.430
        19 -10.2431     71.9972    243.9579   1.4223186721e+02   1.9180926105e+01       0.1674     0.120893  45.30  0.000709438    1.077    0.072
        20  -9.9109    243.0341    247.4933   1.1259090355e+02  -3.7183143851e+00    0.1473363    0.1146026   5.06 0.0005377344    1.344    0.256
        21 -10.9382    247.5389    249.9575   1.1224483050e+02  -4.4416458205e+00    0.4001979    0.1156267  31.35  0.002143773    2.590    0.614
        22 -10.5580    250.4886    244.0782   1.1101838711e+02  -4.3250858731e+00    0.2592701    0.1315181 -18.65  0.001839209    2.029    0.507
        23 -12.4017    226.7297    246.3743   1.1494858834e+02  -1.6413950102e+00    0.5479317    0.3333835  20.02  0.003691589    1.179    0.152
        24  -9.3209    168.2230    250.6381   1.2518986713e+02   5.6149426438e+00    0.1522152   0.07312222  31.06 0.0003595197    1.559    0.358
        25 -10.3679    127.9417    249.6231   1.3228396369e+02   1.1198340474e+01    0.1554409      0.13838  16.18 0.0009207118    1.371    0.271
        26  -9.5802     72.8864    250.0236   1.4243140043e+02   1.8184183042e+01    0.1421793    0.1171018  14.61  0.001114339    1.704    0.413
        27 -10.3805     32.5084    249.1929   1.4969777195e+02   2.2770283881e+01    0.2204647    0.1373784 -49.14  0.001511183    2.963    0.662
        28 -11.5818     27.8824    246.1010   1.5041982066e+02   2.3705063867e+01    0.2874746    0.1712489 -87.90   0.00215535    1.836    0.455
        29 -12.3148     21.1914    248.8831   1.5168476614e+02   2.3934718051e+01    0.5003452    0.1214538  42.66  0.002857436    2.160    0.537
        30 -11.5767     14.4227    244.6968   1.5276683668e+02   2.5214443200e+01    0.2331239    0.1064432  78.54  0.001554438    2.047    0.511
        31 -10.6254     11.1990    249.7969   1.5344091252e+02   2.4732211203e+01    0.2107558   0.04979131  43.70  0.001225594    2.129    0.530
        32 -11.5023     73.9570    238.6577   1.4152906206e+02   1.9742915764e+01    0.4922908    0.1969565  40.75  0.002840125    1.692    0.409
        33 -11.0666     73.6588    232.9072   1.4120835729e+02   2.0668911781e+01    0.2304404    0.1634262  62.37 0.0008604446    1.265    0.210
        34 -11.7365     19.7262    238.1765   1.5165040052e+02   2.5736654195e+01    0.4604468    0.1154331  34.74  0.002415542    2.644    0.622
        35 -10.8002    159.8130    235.9487   1.2503011436e+02   8.4820706692e+00    0.2106316    0.1244979  34.07 0.0007959172    1.227    0.185
        36 -11.0625    180.9941    248.5274   1.2274220975e+02   4.1161632000e+00    0.3031268    0.1599003 -23.75  0.001860134    2.769    0.639
        37  -9.5608     49.8448    240.4076   1.4618176155e+02   2.2279946800e+01    0.1369781   0.08210749  31.20 0.0004010487    1.587    0.370
        38 -11.3003    153.3596    233.9242   1.2598452206e+02   9.6558762882e+00    0.2091638    0.1541515  -0.50  0.001088487    1.727    0.421
        39 -10.6526    167.1068    233.8714   1.2345609081e+02   7.6915825815e+00    0.2006296    0.1442921  31.13 0.0008343584    1.007    0.007
        40 -10.3965     86.3074    233.4816   1.3878655207e+02   1.8986687936e+01    0.1900312    0.1112368  69.24  0.001188745    1.937    0.484
        41  -9.6728     53.6579    234.7058   1.4517659639e+02   2.2750204342e+01   0.09233584   0.07827207  16.43 0.0005374716    1.659    0.397
        42  -9.4015    240.5831    231.4909   1.1076161323e+02  -2.0780508359e+00    0.1066637   0.07199539  15.74 0.0001436768    1.034    0.033
        43 -10.0840     79.5435    231.2779   1.3994574707e+02   2.0190193127e+01    0.2080405    0.1135052  39.58 0.0005697143    1.343    0.256
        44  -9.6085    235.8790    230.2314   1.1131101303e+02  -1.3704190023e+00    0.1491264     0.090289  13.73 0.0005418424    1.326    0.246
        45 -10.4193    169.8669    228.8657   1.2233814596e+02   7.8966892163e+00     0.178962    0.1241767  22.98  0.001217576    1.236    0.191
        46  -8.9472    159.3210    229.3342   1.2433900608e+02   9.3736300440e+00    0.1151529   0.07541765  14.82 0.0004349195    1.703    0.413
        47 -10.8285    115.9778    227.3945   1.3243960115e+02   1.5897183551e+01     0.336385    0.1211409 -66.10  0.001407457    5.234    0.809
        48 -10.4901    129.8377    226.8380   1.2966945792e+02   1.3999000074e+01    0.3571522    0.1424944  47.84  0.001758411    2.243    0.554
        49 -10.4708    190.4164    226.4308   1.1833380948e+02   5.2091867986e+00     0.191961    0.1498802   9.01 0.0006800004    1.225    0.184
        50 -10.5132     88.1096    226.9256   1.3792207695e+02   1.9771364193e+01    0.1686737    0.1573487  88.10  0.001347572    1.372    0.271
        51 -10.8187     66.5680    226.4640   1.4217736014e+02   2.2566870728e+01    0.2773637    0.1257956  42.73  0.001512626    1.544    0.352
        52  -9.7349      6.6927    227.3195   1.5376988579e+02   2.8695506244e+01    0.1113425   0.04502858  55.28 0.0004706219    1.637    0.389
        53 -10.5774     81.4643    224.7770   1.3908224907e+02   2.0978062076e+01    0.2202768    0.1576755  55.57 0.0009407882    1.156    0.135
        54 -10.7165    181.8938    223.2626   1.1942716677e+02   6.8115438143e+00    0.2324158    0.1635888 -33.98  0.001601433    1.798    0.444
        55 -10.9240     13.2175    222.1779   1.5242074643e+02   2.8972989509e+01    0.1806978    0.1406868  44.02 0.0003469951    1.274    0.215
        56 -11.5479    141.4447    221.3999   1.2679770081e+02   1.3064665366e+01    0.4712906    0.2577285  16.29  0.002246977    2.926    0.658
        57 -10.9760    123.5138    221.3876   1.3033102427e+02   1.5707093960e+01    0.2585563    0.1919558  31.66 0.0009788591    1.186    0.157
        58  -9.1908     51.6733    222.6765   1.4491624861e+02   2.4945323805e+01   0.09341765    0.0837144   2.76 0.0004769836    1.691    0.409
        59 -10.3757    174.1868    219.9119   1.2038554440e+02   8.3596298637e+00    0.2165844     0.136826  28.39 0.0006520165    1.261    0.207
        60 -10.0285    165.8139    220.2103   1.2198386266e+02   9.5761079344e+00    0.1575263    0.1132282  19.15 0.0003969666    1.310    0.237
        61 -10.0320     21.9886    220.2493   1.5067150467e+02   2.8479126067e+01    0.1466442    0.0982867  49.88 0.0003513359    1.081    0.075
        62  -9.8063    250.3377    219.0590   1.0745253953e+02  -2.2136860713e+00    0.1460106    0.1024613   3.74 0.0005954162    1.142    0.124
        63  -9.0196    233.4969    219.4831   1.1012002386e+02  -6.4238927702e-02    0.1108528   0.07857707  17.24 9.076655e-05    1.006    0.006
        64 -10.8023    191.5335    216.9753   1.1682923244e+02   6.1303200947e+00    0.2102626    0.1584614  -8.90  0.001209549    1.442    0.306
        65 -10.0054    194.6761    215.3273   1.1603416561e+02   5.8567623633e+00    0.1872352    0.0899793  39.61 0.0004443353    1.688    0.408
        66  -9.6166     50.0213    218.4450   1.4501251899e+02   2.5852601082e+01    0.1700407   0.08544321  36.58 0.0007986596    1.581    0.368
        67 -10.6776     10.0738    217.0179   1.5288953035e+02   3.0140576422e+01    0.2846772    0.1277436  51.12  0.001476768    1.491    0.329
        68 -10.8096    201.6436    215.8077   1.1487810232e+02   4.7764178556e+00    0.2173915    0.1433254  21.74  0.001054111    1.223    0.182
        69  -9.5846    137.1887    215.6282   1.2695310887e+02   1.4528780925e+01    0.1771401   0.09126122  31.44 0.0009432534    1.688    0.408
        70  -9.9562     30.9874    215.4827   1.4871035070e+02   2.8413843824e+01    0.1684924   0.08183484  37.14  0.001038711    1.612    0.380
        71 -11.0435    208.9907    212.1584   1.1306800769e+02   4.1101174791e+00    0.1962853    0.1440758  19.82 0.0004873825    1.036    0.035
        72 -10.1739    170.2142    213.1899   1.2021677157e+02   9.8175703651e+00    0.1591094    0.1223099  45.00 0.0009010358    1.323    0.244
        73  -9.8129    142.7836    213.3953   1.2556736387e+02   1.4003885079e+01    0.1710391   0.09261076  31.27  0.000461364    1.590    0.371
        74 -11.4178     20.4634    211.2318   1.5066379113e+02   3.0200055970e+01    0.3204311    0.1320554  66.49 0.0007636181    2.045    0.511
        75 -11.7323      5.2740    207.6709   1.5360179957e+02   3.2203352159e+01    0.3836061    0.1613638  76.01  0.002317593    2.042    0.510
        76 -10.2532      1.5773    207.2125   1.5432547502e+02   3.2595209399e+01    0.1800993   0.08155272  83.82  0.001127657    1.974    0.493
        77  -9.1102    139.7082    208.3068   1.2554613396e+02   1.5227901932e+01    0.1182315   0.08217029  56.87 0.0006903139    1.579    0.367
        78  -9.7502    218.4287    206.7518   1.1063883639e+02   3.3271722465e+00    0.1508586   0.09446838  -9.10 0.0008542152    1.681    0.405
        79  -9.3524    150.2909    205.3194   1.2302216358e+02   1.4013962089e+01    0.1190148   0.08551104  12.67 0.0004429116    1.602    0.376
        80  -9.3761     27.5673    205.4924   1.4898695969e+02   3.0543694463e+01    0.1133947   0.07886956  57.17 0.0002662039    1.043    0.041
        81 -10.5112    193.3825    202.7834   1.1440051322e+02   7.5556761704e+00    0.1518778     0.103734 -13.89 0.0005419393    1.654    0.395
        82  -9.5620    238.7641    201.3778   1.0647368238e+02   9.9209116962e-01    0.1564782   0.08064891  27.99 0.0005808486    1.592    0.372
        83 -10.5696    210.3826    201.1866   1.1113537783e+02   5.1394066981e+00    0.1633779    0.1104483 -24.08  0.000670333    1.612    0.380
        84  -9.9761    196.6076    201.2421   1.1357837803e+02   7.2442417738e+00    0.1515233    0.1041706 -13.52 0.0006970647    1.610    0.379
        85  -9.7808     19.6642    200.6521   1.5044627602e+02   3.2197539563e+01   0.09442484   0.08201927 -42.16 0.0003678144    1.778    0.438
        86 -11.2501    227.2328    196.7226   1.0757087683e+02   3.1265441654e+00    0.3278021    0.1753476   8.28  0.001035383    2.254    0.556
        87 -11.5152    231.9875    191.7496   1.0596872363e+02   2.9651823283e+00    0.3316889    0.1742608  16.35  0.001797016    2.025    0.506
        88 -11.6412    192.2242    194.8109   1.1336287639e+02   8.7423987630e+00     0.300248    0.2581295  50.87  0.002033246    1.500    0.333
        89  -9.8411    203.0045    195.9936   1.1159959875e+02   6.8874851197e+00    0.1874693    0.1451613  18.40 0.0007380625    1.041    0.040
        90  -9.6030      7.0000    195.9696   1.5295182562e+02   3.4198942308e+01    0.1600095   0.05225386 -85.53 0.0006560002    2.923    0.658
        91 -11.7738    215.5463    194.0125   1.0908528304e+02   5.1811222483e+00    0.3067268    0.1635222 -29.35  0.001709307    2.037    0.509
        92  -9.2287     59.8353    192.6230   1.4119871778e+02   2.9380556967e+01    0.1739947   0.08125635  44.79 0.0005313034    1.634    0.388
        93  -9.6957    198.6315    191.2386   1.1161112419e+02   8.1700066273e+00    0.1588797    0.1067095 -16.72 0.0008952075    1.639    0.390
        94  -9.2519    205.5291    190.4537   1.1024265261e+02   7.1666881952e+00    0.1237475   0.09572147  19.94 0.0003014765    1.023    0.023
        95  -9.4796    179.3317    189.3282   1.1491490899e+02   1.1580965398e+01    0.1307691   0.08584852  12.96 0.0007051589    1.715    0.417
        96 -10.3649    163.4306    190.8030   1.1828374030e+02   1.4019616073e+01    0.2531513    0.1159161 -33.41  0.001143516    2.987    0.665
        97 -11.7014    187.6366    189.2019   1.1331023052e+02   1.0223782806e+01    0.3285102    0.2091836 -18.78  0.001859642    1.876    0.467
        98 -10.5010    168.1099    184.2433   1.1630501994e+02   1.4205103102e+01    0.4225156    0.2418504  61.38  0.001811356    3.158    0.683
        99  -9.4426     61.6222    184.8267   1.4015440424e+02   3.0671348192e+01    0.1657257    0.1027136  84.44 0.0009497828    1.706    0.414
       100 -10.0809    236.4784    182.4782   1.0365623136e+02   3.3059557582e+00    0.1178237   0.09187853  11.96  0.000385808    1.033    0.032
       101 -12.2943     17.0796    182.7568   1.5031242276e+02   3.5867215597e+01    0.4554775    0.3250993  30.41  0.003166101    1.487    0.328
       102 -10.3810    250.3301    190.0238   1.0280427140e+02   5.2000034458e-01    0.1577326    0.1157955  -3.40 0.0006065872    1.155    0.134
       103 -11.7744    224.1474    178.3712   1.0494482644e+02   5.6683803930e+00    0.2733866    0.2211867  14.12 0.0004938373    1.052    0.049
       104 -10.4649      2.2455    180.1186   1.5354973418e+02   3.7631786883e+01    0.1949849    0.1245891  47.30  0.000581254    1.245    0.197
       105 -11.8800    244.6732    177.9326   1.0156904951e+02   2.5792011682e+00    0.3252524    0.1704701   2.66   0.00167084    2.352    0.575
       106 -11.1340    200.3989    176.2386   1.0872211106e+02   9.8237407577e+00     0.253569    0.1703353  14.69  0.001097228    1.493    0.330
       107  -9.2021     70.2013    177.6103   1.3745518304e+02   3.1001572852e+01    0.1578033    0.1095496  29.91 0.0004028826    1.487    0.328
       108 -10.0397    100.9858    176.0199   1.2988719864e+02   2.6856504493e+01    0.1872236       0.1548  50.18  0.001155617    1.011    0.011
       109  -9.8721    211.3842    174.8306   1.0649905239e+02   8.1665891725e+00    0.1704754    0.1064696 -14.64 0.0009440127    1.737    0.424
       110 -10.4616    241.6394    173.2232   1.0119343979e+02   3.5445346100e+00    0.1634245   0.09500995 -13.82 0.0009453211    1.676    0.403
       111  -9.8617    183.5027    173.0014   1.1133851231e+02   1.3191092614e+01    0.1754316    0.1058917  -7.80 0.0007723684    2.458    0.593
       112 -11.6988    249.0765    182.2970   1.0166476030e+02   1.4805762208e+00    0.4193817    0.1935353  14.73  0.001949862    2.958    0.662
       113  -9.7292    193.3177    172.3431   1.0933909203e+02   1.1567493174e+01    0.1352266    0.0887257  11.10  0.000704902    1.717    0.418
       114  -9.5241     59.6251    171.8162   1.3948131831e+02   3.3550999409e+01    0.1702605    0.1063008  86.18 0.0009447722    1.671    0.402
       115  -9.6728     74.4811    171.4945   1.3577567524e+02   3.1663957660e+01     0.129045    0.1080373  55.25 0.0001259351    1.028    0.027
       116 -10.3915    197.1933    169.3854   1.0807483501e+02   1.1302147151e+01    0.1795364    0.1101219  46.56 0.0007534181    1.641    0.391
       117  -9.7713      4.5889    167.7292   1.5264929707e+02   3.9945628801e+01    0.2072441   0.09076102 -81.35  0.001141937    2.103    0.524
       118  -9.8694    209.9914    166.3264   1.0518138252e+02   9.4973078302e+00    0.1821367    0.1418493  23.79 0.0005174787    1.086    0.079
       119 -10.5509     41.0640    165.4172   1.4357820751e+02   3.7067827398e+01    0.2228449     0.137368  71.31 0.0004259387    1.474    0.322
       120 -10.7134     51.7598    164.5391   1.4079200203e+02   3.6040895902e+01     0.301064    0.2075177 -29.32  0.001600687    2.455    0.593
       121  -9.2352    229.5053    164.5381   1.0152259107e+02   6.4530943149e+00     0.125274   0.09915288  11.04 0.0001462021    1.031    0.030
       122 -11.4265    247.8270    158.8481   9.7572466252e+01   4.1914383150e+00    0.3873773    0.2204815 -30.20  0.002255103    1.727    0.421
       123 -10.6660     36.0351    161.3526   1.4455343313e+02   3.8471910008e+01    0.3413862    0.1789555 -86.47  0.001832526    1.864    0.463
       124  -9.5101    213.3090    162.3334   1.0384147209e+02   9.4488598645e+00    0.1337099   0.08628093  10.75 0.0004036515    1.672    0.402
       125  -9.4344    200.0325    162.7759   1.0631246652e+02   1.1717341017e+01    0.1701014   0.09538289  41.13 0.0003970883    1.606    0.377
       126  -9.4685     48.4022    158.8095   1.4114338334e+02   3.7668968028e+01    0.1619053    0.1088473 -66.12 0.0006197946    1.586    0.369
       127 -10.1715    238.4795    158.5279   9.8942920281e+01   5.7093714649e+00    0.1244307   0.09794472   7.87 0.0001237057    1.038    0.037
       128  -9.4068      7.8035    158.3995   1.5153662344e+02   4.1649745894e+01    0.1331462    0.1071051  18.98 0.0004114156    1.553    0.356
       129 -10.6264     22.1073    156.2069   1.4779919810e+02   4.0931482575e+01    0.3584194    0.1733669  37.44   0.00196875    1.784    0.439
       130  -9.4180     23.7073    152.6632   1.4716739548e+02   4.1561714715e+01    0.1876213     0.129714 -71.02 0.0005410031    1.488    0.328
       131 -10.1599    217.8167    154.6994   1.0157832811e+02   9.6620389430e+00    0.2652841   0.09442168  38.76  0.001086438    2.648    0.622
       132  -9.9056    197.0572    153.5303   1.0506758168e+02   1.3569599686e+01    0.2077755    0.1190177  42.24 0.0008264349    1.601    0.375
       133  -9.4841    151.4272    153.1857   1.1440504910e+02   2.2303934897e+01    0.1803166    0.1360633 -62.00 0.0009383109    1.708    0.414
       134  -9.3372    105.6931    153.6191   1.2549896308e+02   3.0564710256e+01    0.1358287    0.1085342 -11.33  0.000702437    1.789    0.441
       135 -10.6225     11.0432    152.8501   1.5048064645e+02   4.2589479007e+01    0.3483637    0.1444732  34.59  0.001390521    2.078    0.519
       136 -10.0836    205.2533    152.2815   1.0330853706e+02   1.2238319376e+01    0.2304928    0.1572424 -22.97   0.00127343    1.500    0.333
       137 -10.5788    178.3695    151.4294   1.0829706187e+02   1.7418971088e+01     0.289161    0.2299526  53.51  0.001619752    1.383    0.277
       138  -9.0474    154.6573    150.6951   1.1320383539e+02   2.2124481641e+01    0.1439751    0.1047659  12.74 0.0007041249    1.685    0.406
       139  -9.5556     92.8240    148.1669   1.2799899728e+02   3.3845059152e+01     0.181872    0.1643203  12.78 0.0009096391    1.336    0.251
       140  -9.3438    233.5284    146.9868   9.7450536707e+01   7.9198290020e+00     0.186557    0.1122568 -24.80 0.0008868714    1.577    0.366
       141 -10.4907    206.9803    145.9761   1.0171699182e+02   1.2803133865e+01    0.2498419    0.1722248  39.89 0.0007798033    1.359    0.264
       142  -9.4305     37.5324    146.4840   1.4297443852e+02   4.1597089811e+01     0.126356    0.1051844  68.83 0.0002027197    1.011    0.011
       143 -10.9003      7.2270    144.5580   1.5110973491e+02   4.4691736928e+01    0.2876557    0.1548513  71.16  0.001341302    1.556    0.357
       144 -10.5868      2.9634    143.8447   1.5221618411e+02   4.5148567186e+01    0.1993148    0.1820722  55.32 0.0008499975    1.237    0.191
       145 -10.2971    212.4880    141.5623   9.9827187332e+01   1.2391602964e+01    0.3621776    0.1746807  28.43  0.001525178    2.510    0.602
       146 -11.1010     12.1910    140.5681   1.4956819291e+02   4.5211063347e+01    0.2410808       0.1805 -88.44 0.0007933639    1.195    0.163
       147 -11.7493      9.2309    136.7457   1.5019072488e+02   4.6290455432e+01    0.2240154    0.2043113  54.99 0.0002152918    1.212    0.175
       148 -10.9503      2.9928    136.3411   1.5190825522e+02   4.6810470523e+01    0.3164929     0.159582 -75.00  0.001030149    1.807    0.447
       149 -10.4621      5.9933    133.5375   1.5094358688e+02   4.7241371954e+01    0.1993637    0.1406506  85.44  0.000360268    1.185    0.156
       150 -11.9210     57.6938    138.5183   1.3642958099e+02   4.1097266942e+01    0.3837999    0.2109535  57.64 0.0006018542    1.790    0.441
       151 -10.2401     44.0000    138.0310   1.4033999981e+02   4.2834552947e+01    0.2978064    0.1798504  81.17  0.001094106    1.655    0.396
       152 -10.0096     41.4867    135.5038   1.4081091625e+02   4.3694562731e+01    0.2174915     0.156695  43.00 0.0002973935    1.299    0.230
       153  -9.5402    236.0186    138.7650   9.5381887461e+01   8.5082852174e+00    0.1573627   0.09910227  42.48 0.0007289455    1.593    0.372
       154 -10.3094     21.7214    136.5496   1.4664062739e+02   4.5354685610e+01    0.2135006    0.1197724  21.44  0.001146517    2.046    0.511
       155  -9.9090    138.3938    135.2680   1.1388798814e+02   2.8199241796e+01    0.2769421    0.1663642  33.73 0.0007620045    1.705    0.413
       156 -10.5054     67.7181    133.8755   1.3288439646e+02   4.0837717688e+01    0.2174186    0.1985011  66.52 0.0004534064    1.055    0.052
       157 -10.1525     79.6647    133.0334   1.2926546293e+02   3.9283456480e+01    0.1902534    0.1708546  88.69 0.0004712922    1.093    0.085
       158 -11.9591     36.2078    130.4848   1.4186921151e+02   4.5417537531e+01    0.4699349    0.2778121  89.42   0.00243224    1.623    0.384
       159 -10.5148    249.5446    130.2085   9.1600315926e+01   7.2196667694e+00     0.217546    0.1941038 -43.36  0.001346977    1.464    0.317
       160 -10.3918     74.3065    129.0801   1.3020327815e+02   4.1002523490e+01    0.2378837    0.2242768  18.21 0.0006829222    1.251    0.201
       161  -9.2644     29.2977    130.3571   1.4393035797e+02   4.6115820522e+01    0.1241712   0.08840538 -48.12 3.742677e-05    1.702    0.413
       162 -10.0845    125.4128    130.0153   1.1604756483e+02   3.1836455129e+01    0.4206739    0.1964567  26.75  0.001303419    3.872    0.742
       163  -9.5370      1.1714    126.6807   1.5201567069e+02   4.9106717964e+01    0.2203945   0.07422225 -87.46 0.0009750461    2.574    0.612
       164 -10.6218     44.5682    125.8027   1.3880369211e+02   4.5638241357e+01    0.2202482    0.1756131  38.20 0.0005208388    1.275    0.215
       165 -10.5924    219.5458    124.5178   9.4947781937e+01   1.3399585891e+01    0.2452346    0.2139131   4.26 0.0005260581    1.021    0.021
       166 -11.7103      9.8006    122.5679   1.4923496073e+02   4.9501451656e+01    0.3911598     0.327492  -2.64  0.002132591    1.582    0.368
       167 -11.2272     17.5497    117.1565   1.4644314650e+02   5.0218558494e+01    0.5103148    0.2098267 -45.18  0.002126911    3.394    0.705
       168  -9.9886     19.7804    113.0007   1.4537235187e+02   5.1039513661e+01    0.1901632    0.1580848 -66.77 0.0006145245    1.234    0.190
       169 -12.2376     16.5075    108.5834   1.4607191659e+02   5.2343499077e+01    0.3951819     0.335956  65.59 0.0005656403    1.100    0.091
       170  -9.7488     20.7122    121.9051   1.4583061560e+02   4.8847125645e+01    0.1721872    0.1331078  82.62 0.0003525691    1.101    0.092
       171  -9.4438     56.4736    121.5010   1.3450825171e+02   4.5248252357e+01     0.137951    0.1193884  72.61 0.0008097521    1.041    0.040
       172  -9.5838     41.0551    120.4803   1.3926734691e+02   4.7290602303e+01    0.1803084    0.1251156  32.32 0.0003741081    1.491    0.329
       173  -9.3260    166.5010    119.0474   1.0373572885e+02   2.5313998063e+01    0.2075228    0.1464034 -35.32 0.0005018926    1.494    0.331
       174  -9.8826     54.9380    117.5031   1.3440651566e+02   4.6400263010e+01     0.198548    0.1310349  32.17 0.0006428032    1.563    0.360
       175 -10.1778    179.2841    116.1877   1.0036633097e+02   2.3011737025e+01    0.2417381    0.1858476  35.22 0.0004022503    1.261    0.207
       176 -10.8958    102.5685    114.3926   1.1897823960e+02   3.9622845134e+01    0.4425898    0.2787722 -19.32  0.001620722    3.239    0.691
       177 -11.0363     35.4545    114.0466   1.4031377858e+02   4.9413742146e+01    0.4072588    0.1927398 -78.68  0.001875843    2.019    0.505
       178 -10.9647     35.3809    108.3873   1.3964218319e+02   5.0795467443e+01    0.3421669    0.1459024 -85.28  0.001206479    2.613    0.617
       179 -10.1592     66.7001    113.0221   1.2985619917e+02   4.5903188859e+01    0.2167811      0.17311  57.12 0.0002118153    1.198    0.165
       180  -9.3369     16.5033    125.5145   1.4739574405e+02   4.8330013346e+01    0.1234454    0.1023457  77.38 0.0008104724    1.014    0.013
       181 -10.3478     42.3691    110.5161   1.3754914760e+02   4.9558674894e+01    0.2239852    0.1847208 -77.82 0.0003700898    1.127    0.112
       182  -9.7889    167.1799    109.1101   1.0115644360e+02   2.6920370281e+01    0.2293715    0.1978023  11.96 0.0005779078    1.238    0.192
       183 -10.1246    241.8121    108.0308   8.7875063586e+01   1.1309502000e+01    0.1689622     0.148903 -80.68 0.0008426667    1.582    0.368
       184 -10.9248     23.3005    106.8638   1.4360462972e+02   5.2241614299e+01    0.2629696    0.1872656 -70.01 0.0006792193    1.294    0.227
       185  -9.5553    133.4655    107.4770   1.0874804055e+02   3.4788235530e+01    0.1529792    0.1439279  30.32 0.0001850067    1.077    0.072
       186  -9.8917     76.2716    107.0248   1.2557833977e+02   4.5898789696e+01    0.2071495    0.1735227 -69.90 0.0004313922    1.179    0.152
       187  -9.0204     49.6338    107.3286   1.3460383811e+02   4.9513880693e+01      0.15084   0.09079494  63.87 1.236781e-05    1.810    0.447
       188 -10.5443      6.0103    106.0140   1.4939619190e+02   5.3637520125e+01    0.2723507      0.17573 -58.38  0.001165718    1.580    0.367
       189 -10.5174      2.5429    105.4424   1.5051819868e+02   5.3965724595e+01    0.2010368    0.1699294 -63.80 0.0005650339    1.262    0.208
       190  -9.4269     80.8277    106.2253   1.2392343327e+02   4.5352762060e+01    0.1935475    0.1710135 -30.20 0.0007157367    1.339    0.253
       191  -9.7625    223.1740    103.8799   8.9626543645e+01   1.5505961902e+01    0.1955315    0.1750004 -37.26 0.0004558715    1.192    0.161
       192 -10.3535     93.1973    104.1630   1.1950555405e+02   4.3684745262e+01    0.2130628    0.2019086  -1.08  0.000544373    1.214    0.176
       193 -11.2834     70.1174    102.7031   1.2674721477e+02   4.7882718726e+01     0.399014    0.2018049  30.65  0.001237691    2.153    0.535
       194 -10.6174    247.6177    102.1893   8.5776661488e+01   1.0948574536e+01    0.1858032    0.1091593 -16.05 0.0007282014    1.675    0.403
       195 -10.7983     61.6348     98.7258   1.2888326014e+02   5.0071966932e+01    0.3233121     0.245286  25.82  0.001377803    1.473    0.321
       196  -9.7348      9.9868    102.4642   1.4778868035e+02   5.4248776984e+01    0.1668586    0.1221966  19.74  0.001029044    1.596    0.373
       197  -9.8816    120.4110    101.2513   1.1067556819e+02   3.8909891968e+01    0.2755459    0.1842199  33.16 0.0004859875    1.639    0.390
       198 -10.0121     36.9870    101.4704   1.3814989677e+02   5.2329938884e+01    0.1920341    0.1258316  32.64 0.0006782416    1.585    0.369
       199  -9.8370     27.8729    100.9196   1.4133512693e+02   5.3310274325e+01    0.1731323    0.1588137 -68.15 0.0002789322    1.150    0.130
       200 -10.6244      4.0947    100.7982   1.4970298975e+02   5.4986131771e+01    0.2935275    0.1752875  35.70  0.001211847    1.708    0.415
       201 -10.8654     20.9053     98.3292   1.4354003107e+02   5.4505557600e+01    0.3957112    0.1660815 -87.42  0.001275795    2.402    0.584
       202  -9.3432     49.4956     98.0112   1.3309484663e+02   5.1812548570e+01    0.1896657    0.1075402  79.65 0.0004161165    2.280    0.561
       203 -10.2995     80.0274     96.7065   1.2206146105e+02   4.7736168554e+01    0.1985941    0.1828881  55.92 0.0002926915    1.064    0.060
       204 -12.4578      8.5998     94.3895   1.4762838417e+02   5.6276593970e+01    0.3667808    0.2106358 -61.77  0.002036569    1.613    0.380
       205  -9.8544    109.4397     92.7539   1.1159936848e+02   4.3062805505e+01    0.2984605    0.1499575 -53.09  0.001037905    2.143    0.533
       206 -10.7250      1.8627     92.9210   1.4996610231e+02   5.6981828143e+01    0.3725931    0.1469525 -66.72  0.001784836    2.144    0.534
       207  -9.4044    115.6888     91.2966   1.0934511664e+02   4.2044623016e+01     0.154862    0.1211036  83.88 0.0002952506    1.597    0.374
       208 -10.6270     96.5466     90.6544   1.1505314706e+02   4.6137885363e+01    0.3356281    0.2485053 -16.76  0.001502397    1.948    0.487
       209  -9.3807     21.2968     91.3599   1.4259199125e+02   5.6182938567e+01    0.1340955   0.08349421 -48.17 0.0006813746    1.707    0.414
       210  -9.1758      7.2661     88.6150   1.4763226192e+02   5.7747263681e+01    0.1326366   0.07574774  67.03 0.0006985197    1.695    0.410
       211 -10.4970     48.7085     85.3155   1.3096985046e+02   5.5027226567e+01    0.3278623    0.2221406 -88.53  0.001005043    1.618    0.382
       212 -11.1638     46.3027     83.3081   1.3150581512e+02   5.5804375759e+01    0.5891002    0.2216389 -60.33  0.002354697    2.330    0.571
       213  -9.8904     24.0271     85.3008   1.4074159820e+02   5.7465766217e+01    0.1726359    0.1653898  67.85     0.001148    1.131    0.116
       214  -9.8051      2.2364     85.5570   1.4929880134e+02   5.8733319862e+01    0.2414722    0.1169039  17.87 0.0008331299    2.375    0.579
       215 -10.9101    118.1540     83.1927   1.0628796224e+02   4.3202548426e+01    0.3315832    0.2747397  10.86 0.0009957529    1.489    0.329
       216 -11.0957     75.4683     81.5074   1.1984984950e+02   5.2087109145e+01    0.3662751    0.2282985 -64.59  0.001649832    1.712    0.416
       217 -11.9055     72.4877     78.3133   1.2008904095e+02   5.3332806714e+01    0.5641623    0.3703293 -16.65  0.001026347    2.595    0.615
       218 -10.0434     20.4540     82.4674   1.4178394238e+02   5.8430644055e+01     0.196653    0.1934779 -51.12 0.0005980361    1.171    0.146
       219 -11.0036     18.5230     79.5438   1.4217817257e+02   5.9284472371e+01    0.3332893     0.192446 -35.09  0.001691461    2.102    0.524
       220 -10.2077      7.3173     80.0440   1.4681938239e+02   5.9824972246e+01    0.2585765    0.1236203  48.67 0.0009522023    2.156    0.536
       221 -12.3868      5.0584     74.3376   1.4718492788e+02   6.1319213281e+01    0.5752096    0.4771678 -54.90  0.001775969    1.219    0.180
       222 -11.0608     59.1321     76.8452   1.2489038709e+02   5.5727577069e+01    0.4441279    0.3164843 -74.31  0.001525339    1.476    0.322
       223 -10.3611     54.7310     72.5457   1.2557798194e+02   5.7368117244e+01    0.2524962    0.2160838 -77.35 0.0003739048    1.158    0.137
       224 -10.5078     68.8626     67.1202   1.1824277371e+02   5.6531423991e+01    0.2630269    0.2457757  22.93  0.001071141    1.137    0.120
       225 -11.6927     62.3931     72.0489   1.2229984949e+02   5.6396975817e+01    0.4463433    0.3347612  61.89  0.001270559    1.518    0.341
       226 -10.1204     67.6072     72.4749   1.2033406568e+02   5.5491947681e+01    0.3169264    0.1944315 -46.18  0.001421436    1.632    0.387
       227 -11.3780     23.7678     78.0407   1.3977847281e+02   5.9275069033e+01    0.2341745    0.1945276 -78.21 0.0008245083    1.057    0.054
       228  -9.3025     36.0379     78.0007   1.3463250110e+02   5.8212115532e+01    0.1626814    0.1409074 -74.14 0.0003620694    1.042    0.040
       229 -11.0857     77.8749     72.1211   1.1626756820e+02   5.3844006208e+01    0.3550942    0.2661282  47.56 0.0007374905    1.364    0.267
       230 -10.7249     85.8683     82.5131   1.1640250203e+02   5.0018781209e+01    0.3492764    0.2098669 -65.21 0.0009610275    1.954    0.488
       231 -10.3245    107.8483     76.1621   1.0723072713e+02   4.6964726924e+01    0.3224583    0.2235015  38.86 0.0003218309    1.484    0.326
       232 -10.2576    109.9999     73.0183   1.0556593414e+02   4.7141926251e+01    0.2324079    0.2283346  55.86            0    1.011    0.011
       233 -10.1502     40.7971     73.1994   1.3162744672e+02   5.8900262974e+01    0.3498117    0.2189844 -76.51  0.001450264    1.613    0.380
       234 -11.3088     25.9840     68.5184   1.3719176294e+02   6.1442364288e+01    0.3370955     0.195523 -41.85  0.001701863    1.834    0.455
       235 -10.7568     30.9720     66.4825   1.3452253073e+02   6.1515342011e+01    0.3094501    0.2112516 -73.52 0.0008462981    1.354    0.262
       236 -11.0589    151.9215     72.1722   9.4195038791e+01   3.7146958248e+01    0.3795804    0.2154346  54.21  0.001546135    1.713    0.416
       237 -10.1655    150.5483     78.1575   9.6342630802e+01   3.6433264118e+01    0.2800175    0.2325637 -77.93 0.0009654642    1.424    0.298
       238 -10.7401     93.6022     64.9388   1.0824003679e+02   5.2384018217e+01    0.3172415    0.2314834  47.14 0.0005366238    1.369    0.269
       239 -11.1000     94.6784     68.8817   1.0919055535e+02   5.1322457316e+01    0.3944894    0.2660188 -35.23  0.001426402    1.634    0.388
       240 -11.2553     99.2840     65.9987   1.0666969698e+02   5.0956547880e+01    0.4259788    0.2102954  40.61  0.001101104    2.110    0.526
       241  -9.1872    215.3152     70.6904   8.2469549769e+01   2.1737928211e+01    0.1442411    0.1032471 -59.53 0.0004303388    1.633    0.388
       242  -9.5826    137.2919     70.3394   9.7091502933e+01   4.1158230753e+01    0.1596804    0.1239522  13.50 0.0004343025    1.648    0.393
       243 -10.9366     37.2699     68.2037   1.3205478058e+02   6.0490127377e+01    0.5203317    0.2235738 -49.34   0.00221683    2.219    0.549
       244 -10.2658     41.4692     64.4882   1.2927207845e+02   6.0942298251e+01    0.2358577    0.1900249 -79.50  9.28012e-05    1.243    0.196
       245  -9.3854    231.9682     69.0000   7.9862369620e+01   1.8244851416e+01    0.2053819   0.07774112  61.71 0.0007972672    2.907    0.656
       246  -9.3620    219.6011     68.5196   8.1317309818e+01   2.1047677990e+01    0.1379955     0.126676 -21.24 0.0001105321    1.033    0.032
       247 -10.6292     42.9616     68.0135   1.2948007287e+02   5.9923006796e+01    0.1720563    0.1468114 -65.35  0.001001048    1.076    0.071
       248 -10.0869      6.9309     67.9859   1.4568384548e+02   6.2775307770e+01    0.1819851    0.1620004 -69.52  0.001239225    1.087    0.080
       249 -10.4689    130.6801     65.7363   9.7272889431e+01   4.3652142213e+01    0.4830452    0.1915077 -47.20  0.001568442    2.869    0.651
       250  -9.8849     14.1972     66.6525   1.4222855709e+02   6.2718179751e+01    0.3168376    0.1776477 -21.53  0.001070023    2.339    0.573
       251 -11.1648      2.4013     65.0550   1.4739096399e+02   6.3677324032e+01    0.3920602    0.1358075 -60.02   0.00177398    2.315    0.568
       252 -10.2797    115.9025     71.0268   1.0314159532e+02   4.6198421725e+01    0.3480747    0.2244467 -43.18  0.001001499    1.584    0.369
       253  -9.1693    146.7035     66.2765   9.3513884635e+01   3.9500594453e+01    0.1542696    0.1221252 -77.41 0.0002204476    1.531    0.347
       254 -11.1467    120.0354     64.6891   9.9822046210e+01   4.6459095695e+01    0.6046463    0.3882565  -4.10  0.001084729    2.930    0.659
       255 -10.7205     21.1346     65.9971   1.3894197780e+02   6.2427546985e+01    0.2970232    0.1552825  36.26  0.001490214    2.031    0.508
       256 -11.4693    174.1809     63.8048   8.7081004147e+01   3.2809122824e+01    0.3127433    0.2741253 -72.96 0.0004756924    1.233    0.189
       257 -10.2809    165.8834     65.0039   8.9023167437e+01   3.4762922977e+01    0.2249578    0.2205265 -51.99 0.0003246868    1.031    0.030
       258 -10.4952    137.8930     65.1515   9.5245587065e+01   4.1945190142e+01    0.2363062    0.2102656 -85.26  0.000512634    1.228    0.185
       259 -11.4805     84.3829     63.0956   1.1091911397e+02   5.4637828994e+01    0.5118117    0.3932475 -60.34  0.002212918    1.389    0.280
       260 -11.0125     77.0662     65.1629   1.1438408708e+02   5.5558663203e+01    0.5040908    0.1987083  43.61  0.001830644    2.586    0.613
       261  -9.7120     46.3146     65.6564   1.2739504848e+02   6.0098504136e+01    0.1423035    0.1019726  72.66 0.0007047669    1.711    0.415
       262 -11.4710     50.3931     69.4736   1.2661138898e+02   5.8675229020e+01     0.473253    0.2369996 -50.15  0.002093099    1.891    0.471
       263 -10.9303     11.1045     62.2015   1.4300405693e+02   6.3974432618e+01    0.3035354    0.1924478 -54.48 0.0009332155    1.424    0.298
       264 -10.9130     65.5671     60.1461   1.1737529072e+02   5.8660237595e+01    0.5070007    0.2148743  44.95  0.001938609    2.553    0.608
       265  -9.6814     71.5743     61.5490   1.1536165401e+02   5.7337134904e+01    0.2261578    0.1860046  50.87 -1.618688e-06    1.279    0.218
       266 -10.9808     70.5356     58.0909   1.1460972475e+02   5.8285208580e+01    0.3535676    0.2335489 -40.14 0.0005554577    1.548    0.354
       267 -10.7436     27.2778     61.2465   1.3512908543e+02   6.3110765789e+01    0.3957663    0.1794679  22.78   0.00147841    2.444    0.591
       268 -10.1176     32.7305     60.3202   1.3231456324e+02   6.2849156413e+01    0.2764864    0.1975773 -41.16  0.001181244    1.417    0.294
       269  -9.9937     18.1246     59.1933   1.3913439863e+02   6.4291361421e+01    0.2285894    0.1662637  89.75 0.0006253668    1.356    0.262
       270 -11.6380    137.7180     55.4938   9.2000080180e+01   4.3663850758e+01    0.6091862    0.3824703  -7.63  0.002305248    2.472    0.596
       271 -11.3406    135.5260     50.1351   9.0622048077e+01   4.5123980310e+01    0.4879832    0.3074939 -64.71  0.001912881    2.208    0.547
       272 -10.7978    122.8733     56.8196   9.6271611780e+01   4.7222633189e+01    0.4820723    0.2956762  81.80  0.001713321    2.790    0.642
       273 -10.2248    114.2591     57.2973   9.8891086879e+01   4.9248577610e+01    0.4067102    0.1941492  45.80  0.001010794    2.078    0.519
       274  -9.5702     80.7464     56.9964   1.1014905598e+02   5.6649416153e+01    0.1997269    0.1838237 -48.53 0.0003674797    1.076    0.071
       275 -10.4077     98.7538     56.1654   1.0335476911e+02   5.3066715293e+01     0.486558    0.2337805  38.28  0.001739368    2.359    0.576
       276  -9.9461     96.2744     52.9835   1.0299827194e+02   5.4241490277e+01    0.2195817    0.2004912  -1.75 0.0002454583    1.181    0.154
       277 -11.5610     58.2149     58.8887   1.2013351609e+02   6.0089540292e+01     0.482594     0.257731 -52.13  0.002160123    1.750    0.429
       278  -9.5497    117.6189     54.7217   9.6976972015e+01   4.8903974336e+01    0.2121326    0.1445027 -46.82 0.0003785115    1.539    0.350
       279 -11.4219     38.3830     51.7654   1.2725442820e+02   6.4309462389e+01    0.6057351    0.3110623 -46.79  0.002824773    1.827    0.453
       280 -10.6343    157.2516     52.9930   8.6874904148e+01   3.8909184944e+01    0.2908159     0.253608  -3.76 0.0005752874    1.281    0.219
       281 -12.3441    127.8604     51.4492   9.2999934737e+01   4.6898026641e+01    0.3825136    0.3214636 -18.43 0.0003234285    1.305    0.233
       282 -12.0443      3.8329     52.8468   1.4522475888e+02   6.6562375141e+01    0.5952552    0.2562193 -34.27  0.002500596    2.631    0.620
       283 -11.3423     13.1158     49.8524   1.3990296454e+02   6.6848386646e+01    0.3703497     0.196838 -61.92   0.00164715    1.545    0.353
       284 -11.7174      8.7467     45.6534   1.4146028325e+02   6.8075201703e+01    0.4370482    0.3431687 -38.00  0.001611538    1.281    0.220
       285  -9.7331     86.9621     52.5309   1.0613789587e+02   5.6329252412e+01    0.2269789    0.1458824  45.18  0.001021017    1.560    0.359
       286 -10.0489     83.1103     51.3822   1.0714390476e+02   5.7349620516e+01    0.2524126    0.1978174 -32.17 0.0006786642    1.327    0.246
       287 -10.2043     72.8237     51.3689   1.1122961441e+02   5.9331390108e+01    0.2972001    0.2379716  44.91  0.001556333    1.289    0.224
       288 -10.0816     44.9116     51.1005   1.2380840613e+02   6.3699157148e+01    0.2732794    0.2186832 -22.91  0.001145522    1.375    0.273
       289 -10.0757     46.3008     47.0036   1.2174552543e+02   6.4456943622e+01    0.2348139    0.1641852 -63.77 0.0007441763    1.454    0.312
       290 -11.2156    101.8831     49.4086   9.9747009449e+01   5.3649619966e+01     0.415206    0.3103593  76.99  0.001895823    1.714    0.416
       291  -9.1613    104.3160     46.3139   9.7745630788e+01   5.3642886001e+01    0.2357809    0.1264307  32.03 0.0005497723    2.576    0.612
       292 -11.8465     51.5893     49.0039   1.1985575372e+02   6.3291002904e+01    0.6419845    0.3050803 -60.70  0.002345266    2.256    0.557
       293 -10.2352     55.3865     48.1927   1.1775704240e+02   6.2920999748e+01    0.2783563    0.1972095 -74.51  0.001360066    1.791    0.442
       294 -10.7217    115.0474     49.3327   9.5693477277e+01   5.0500919461e+01    0.2890151    0.2317239 -29.86  0.000743333    1.306    0.234
       295 -10.2480     77.0457     50.1050   1.0902486627e+02   5.8804659849e+01    0.2263899    0.1940358 -11.64  0.001194549    1.297    0.229
       296 -12.2082    142.8587     46.1906   8.7527416873e+01   4.3802212475e+01    0.5861731    0.4535716  83.05  0.002749418    1.442    0.307
       297 -10.7254    162.7388     47.8086   8.4099939774e+01   3.8213946416e+01     0.312252    0.2397948  48.82  0.001296196    1.303    0.233
       298 -11.9654    155.1180     47.3022   8.5377409478e+01   4.0338602089e+01    0.5473121    0.3118483  61.77  0.001796646    1.713    0.416
       299 -11.5173    121.8180     43.4775   9.1565693572e+01   4.9779204020e+01    0.6829274    0.3755017 -49.91  0.001578904    2.115    0.527
       300  -9.4331      7.2139     40.9905   1.4143072748e+02   6.9249981590e+01    0.2403235    0.1419016 -68.28 0.0009101005    1.401    0.286
       301  -9.8528    233.1571     45.1479   7.3663847651e+01   2.0866410955e+01    0.1903583    0.1707414  -3.59 0.0004657732    1.195    0.163
       302 -10.2799     86.3599     44.8860   1.0332717499e+02   5.7959567826e+01    0.2473279    0.1701006  41.23 0.0008075175    1.464    0.317
       303  -9.6238     98.8354     44.2101   9.8665890035e+01   5.5308506873e+01    0.2120778    0.1750847  19.91 0.0005912382    1.357    0.263
       304  -9.3739     75.0236     43.7556   1.0730315685e+02   6.0482266315e+01    0.1899152    0.1223992  43.32 0.0008783248    1.577    0.366
       305 -11.0562     64.0151     41.4471   1.1110891793e+02   6.2967882209e+01    0.2809828    0.2320796 -38.37 0.0001578071    1.165    0.142
       306 -11.0681     68.4265     38.2654   1.0777429621e+02   6.2816328392e+01    0.4204035    0.2645605 -37.73  0.001990529    1.579    0.367
       307  -9.6864    163.3160     42.2964   8.2153145805e+01   3.8839042735e+01    0.1578461    0.1145494  31.71 0.0002600799    1.606    0.377
       308 -10.1842     91.7455     46.4102   1.0199275944e+02   5.6504922819e+01    0.2660034    0.1810399 -52.61 0.0006156972    1.622    0.383
       309  -9.5170     56.4585     41.9341   1.1484402967e+02   6.4112805838e+01    0.1985339    0.1235937 -74.23 0.0008086347    2.659    0.624
       310 -10.1744     23.9135     41.4293   1.3193496129e+02   6.8108574233e+01    0.2299784    0.2050167  69.13   0.00135233    1.276    0.216
       311  -9.8578    226.6904     40.9014   7.3214826038e+01   2.2830193285e+01    0.1959531    0.1594638 -37.14  0.000536578    1.113    0.101
       312 -10.3712     95.9323     40.5632   9.8118166373e+01   5.6631232149e+01    0.2859647    0.2366507 -75.42 0.0009196826    1.491    0.329
       313  -9.9960     44.2358     40.0640   1.2027116511e+02   6.6270944132e+01     0.286902    0.1729085 -57.23  0.001290528    1.604    0.377
       314  -9.9720    194.6282     38.3152   7.6160276753e+01   3.1018491616e+01    0.1609667    0.1019016 -62.54  3.35923e-05    1.787    0.440
       315  -9.5835    123.5888     38.2666   8.9058836320e+01   5.0141499256e+01    0.2048835     0.152199 -14.74 0.0005128807    1.551    0.355
       316 -11.7883     82.7913     36.7431   1.0118516216e+02   6.0236306204e+01    0.4142474     0.349179  62.78 0.0009777327    1.320    0.243
       317  -9.3909     19.3807     37.8214   1.3353057886e+02   6.9293861247e+01    0.1815734   0.09563873 -54.93 0.0004670765    1.577    0.366
       318  -9.3321      1.2025     38.0173   1.4439317128e+02   7.0173991996e+01    0.1608576   0.08086937 -74.36 0.0003895737    1.652    0.395
       319 -10.6165    111.0484     33.6653   9.0503223096e+01   5.4092101844e+01    0.4765876    0.3575644 -30.64  0.001250801    1.378    0.274
       320 -11.0390    102.0838     36.9205   9.4559810238e+01   5.5799672997e+01    0.3756973    0.2298444  57.36 0.0006867141    1.657    0.396
       321 -10.9247    105.7851     34.1572   9.2237093444e+01   5.5339136204e+01    0.2926777    0.2665467 -11.87  0.000605749    1.145    0.126
       322 -11.0979     24.5011     35.4985   1.2976466319e+02   6.9425331357e+01     0.250349    0.2266767  51.94  0.000712552    1.282    0.220
       323 -10.9681    139.0450     34.0193   8.3845836238e+01   4.6613319736e+01    0.4835826    0.2267347  71.66  0.001695365    2.503    0.600
       324 -11.5307    145.2442     31.6615   8.1711979550e+01   4.5231454284e+01    0.3156987    0.2870484  34.92 0.0002666453    1.150    0.130
       325 -10.4526     81.8654     29.3145   9.8104858722e+01   6.1732609658e+01    0.2546154    0.2317981 -72.22  0.001238317    1.289    0.224
       326 -10.3199     76.1618     33.8193   1.0248270337e+02   6.2150563712e+01    0.3079405    0.2348874  18.85  0.001033807    1.503    0.335
       327 -10.2878     78.3753     29.8167   9.9705315871e+01   6.2397979138e+01    0.2771544    0.1889195 -15.29 0.0004748272    1.794    0.443
       328 -10.2629     53.1070     34.1600   1.1322056356e+02   6.6254278243e+01    0.3974913     0.219952  12.11  0.001482826    3.384    0.704
       329 -10.3257     56.8108     29.3666   1.0913694800e+02   6.6602819256e+01    0.2586208    0.1837956 -19.53 0.0007432777    1.607    0.378
       330 -11.1824     31.7173     33.9928   1.2494427789e+02   6.9079742486e+01    0.2834582    0.1892308  13.57 0.0008322151    1.716    0.417
       331 -10.9103      9.0285     34.0118   1.3882506548e+02   7.0801905019e+01     0.314605    0.2204771  35.65  0.001914899    1.658    0.397
       332  -9.4730      1.5424     31.4807   1.4298388051e+02   7.1689016029e+01    0.1747171    0.1179264  -1.49 0.0001379305    1.721    0.419
       333 -11.4930      6.0298     30.0236   1.3977406179e+02   7.1860927625e+01    0.4074365     0.219992 -47.38  0.001075465    1.583    0.368
       334 -11.0206      8.7591     26.0265   1.3690263639e+02   7.2650188113e+01    0.4108819    0.1799733 -36.70  0.001897111    2.257    0.557
       335 -11.1335     98.0107     31.5583   9.3493674663e+01   5.7653064579e+01    0.3435243    0.2750649  11.46 0.0003075422    1.434    0.303
       336  -9.0625     90.2636     31.3612   9.5998907648e+01   5.9509113833e+01    0.1506249     0.113311   7.82 0.0005038258    1.637    0.389
       337 -10.0501     63.4540     30.5681   1.0650664196e+02   6.5208188610e+01    0.2436717     0.180689  -1.27 0.0005478258    1.673    0.402
       338 -10.3240     50.0903     28.1172   1.1200884909e+02   6.7933748279e+01    0.3016247    0.1684806 -31.92   0.00103843    1.976    0.494
       339  -9.8545    124.2459     28.1148   8.4774533459e+01   5.1436839514e+01    0.2331013    0.1946832  31.08 0.0007636515    1.264    0.209
       340  -9.5764    172.6053     27.2772   7.5644032950e+01   3.8226678997e+01    0.1626457    0.1057947 -67.47 0.0006304154    1.746    0.427
       341 -10.8891    151.5126     26.7841   7.8761438472e+01   4.4117840677e+01    0.5131539    0.1609622  65.67  0.001610259    3.003    0.667
       342 -10.7375     70.8785     26.3986   1.0112870335e+02   6.4535129163e+01    0.4587077     0.209364  36.96  0.001789124    2.470    0.595
       343  -9.7473    131.2370     26.5843   8.2583546657e+01   4.9745660310e+01    0.2316122    0.1286622  51.69 0.0009488238    1.699    0.412
       344 -10.9966    113.1407     24.1453   8.5798994180e+01   5.4924106296e+01    0.5046477    0.2276603 -31.82  0.001248328    2.231    0.552
       345  -9.3271     90.5506     26.5408   9.3633590753e+01   6.0212863415e+01    0.1449887    0.1401788  23.96 6.052497e-05    1.019    0.019
       346 -11.1071     60.7659     23.9910   1.0450703321e+02   6.6901746892e+01    0.5427049     0.235469 -53.73  0.001873238    3.612    0.723
       347 -10.1669     54.1322     23.3316   1.0748477394e+02   6.8190298575e+01     0.230745    0.1736158 -25.54 0.0006017694    1.323    0.244
       348 -10.3977     17.6926     23.8413   1.3005325093e+02   7.2583050816e+01    0.1975654    0.1735903  10.18 0.0003471174    1.259    0.205
       349 -10.2866    100.2165     22.7596   8.8743522949e+01   5.8427505277e+01    0.3039324    0.2574366 -69.57  0.001191271    1.389    0.280
       350 -10.7125     84.0701     22.4955   9.3928452218e+01   6.2331218002e+01    0.2608019    0.2108269  19.31 0.0006207434    1.311    0.237
       351  -9.8308     86.6073     19.1701   9.1338659200e+01   6.2233747372e+01    0.2502796    0.1809048 -16.19 0.0004512325    1.493    0.330
       352  -9.1304     48.6393     23.3149   1.1041344688e+02   6.9088003183e+01    0.1305829    0.1087718  83.38 0.0007042505    1.755    0.430
       353  -9.8591    176.6667    249.6594   1.2361686001e+02   4.5798985421e+00    0.1106875   0.06585877  16.07 0.0007051351    1.751    0.429
       354  -9.6135    160.9292    250.0000   1.2639844724e+02   6.6755073310e+00    0.1839481   0.04456137  37.52   0.00048978    2.875    0.652
       355 -11.0769     67.0853     21.2942   1.0015258077e+02   6.6156310273e+01    0.3732148    0.2804177  17.83   0.00159393    1.476    0.322
       356 -10.2889    137.0508     20.0735   7.8798103760e+01   4.8947004495e+01     0.228881    0.2136482  86.30 0.0003259526    1.056    0.053
       357 -10.0667    137.2870    247.0087   1.3033174377e+02   1.0261421665e+01     0.146445    0.1157258  34.83  0.000708702    1.132    0.116
       358  -9.8576     45.0520     20.5451   1.1098830794e+02   7.0162858060e+01    0.1907805    0.1285786  34.32  0.000434247    1.548    0.354
       359 -10.1307    211.1662     19.6059   6.8907559407e+01   2.8918054010e+01    0.2649529    0.1041035  58.83  0.001051232    2.515    0.602
       360 -11.1680    156.1705    246.1018   1.2682434480e+02   7.7767337652e+00    0.1727114    0.1167024  24.40 0.0008441937    1.287    0.223
       361 -10.4354    166.7710     19.0018   7.3645593745e+01   4.0772480847e+01    0.2711055    0.2077401  77.21 0.0008284868    1.257    0.204
       362 -11.0202    159.7932     18.4851   7.4441027111e+01   4.2771046829e+01     0.255279    0.2465525 -58.56 0.0003125911    1.061    0.057
       363 -10.0762    108.0758     17.4441   8.4056054960e+01   5.7118352236e+01     0.304679    0.2105244  -2.98  0.001010233    1.734    0.423
       364  -9.5026     81.4599     18.9223   9.3046665471e+01   6.3457312631e+01     0.204576    0.1395342 -28.21 0.0003912516    1.488    0.328
       365 -10.7586      6.3377    245.0957   1.5418738817e+02   2.5886841775e+01     0.202029    0.1162178  72.88 0.0009141493    1.470    0.320
       366 -10.1521    188.4740     17.0008   7.0371588777e+01   3.5062861567e+01    0.2116864    0.1885252 -89.10  0.000418397    1.072    0.067
       367  -9.5507     57.0457     16.7155   1.0238788221e+02   6.8835673753e+01    0.1864352    0.1685841  27.71 0.0003699133    1.117    0.105
       368 -10.2334      9.8288     16.7891   1.3311049838e+02   7.4653032592e+01    0.1834148    0.1352576 -43.96 0.0004097089    1.144    0.126
       369 -11.8173      8.4633    241.6653   1.5374917864e+02   2.6229172309e+01    0.3376602    0.1264613  56.71  0.002217155    1.759    0.431
       370  -9.9060    115.3820    244.5035   1.3414147125e+02   1.3559166304e+01    0.1374137    0.1087124 -66.02  0.001057589    1.762    0.432
       371  -9.7614     76.1296     16.4651   9.3755887439e+01   6.5007845171e+01    0.2100862    0.1346368  49.88  0.001007873    1.525    0.344
       372 -10.1879     60.5607     15.2537   9.9822768649e+01   6.8412865497e+01      0.26667    0.1246011 -41.02  0.001135566    2.167    0.539
       373  -9.6752     71.3809     15.1352   9.4929457787e+01   6.6232420864e+01    0.1912785    0.1247771 -41.92 0.0005332298    1.639    0.390
       374  -9.9525    166.0213     14.5074   7.2188434358e+01   4.1456271395e+01    0.2297082    0.1403366  73.63 0.0007294788    1.564    0.360
       375 -11.3177    146.9833    244.0352   1.2826343857e+02   9.2954258002e+00     0.242455    0.1145561  37.05 0.0009809181    1.491    0.330
       376 -10.4866    124.0917     21.6117   8.2080303418e+01   5.2325944589e+01    0.2463414    0.2211136  -8.74 0.0003295173    1.194    0.163
       377  -9.7533    115.0409     13.0398   8.0329815155e+01   5.5789043450e+01    0.2320459    0.1712818 -63.04 0.0005862319    1.591    0.371
       378  -9.1763     90.2521     12.9991   8.6934710088e+01   6.2187814145e+01    0.1693228    0.1233048 -23.81 0.0003173181    1.416    0.294
       379 -10.4649    109.7790    243.2310   1.3508015483e+02   1.4482692999e+01     0.243599    0.1330907  56.26  0.001456723    1.835    0.455
       380 -11.6390     34.7610    241.7119   1.4902544168e+02   2.3687731809e+01    0.3768356    0.2132415  35.25  0.002677095    1.482    0.325
       381 -10.6164     31.7154    237.1965   1.4941968726e+02   2.4711144528e+01    0.2747335    0.1022021  56.81  0.001107408    1.981    0.495
       382 -10.4968     29.1019    232.8900   1.4975153867e+02   2.5668025084e+01    0.4699712   0.09288196  36.28  0.002249517    2.901    0.655
       383 -12.0989    155.6915    241.3699   1.2639431008e+02   8.4066386110e+00     0.343111    0.1819675  32.44  0.001375244    1.411    0.291
       384 -10.1474     88.6379    241.1405   1.3890686854e+02   1.7539473613e+01    0.1216172   0.09970552 -53.03 0.0009311137    1.760    0.432
       385 -11.3641    179.9917    243.9702   1.2237911469e+02   4.7378559167e+00    0.3571104    0.1628391  51.24  0.001715081    3.427    0.708
       386 -10.5861    174.2503    238.5943   1.2274346536e+02   6.1289136702e+00    0.3657635    0.1643231  28.52   0.00201526    1.927    0.481
       387 -11.4957    177.6645    235.0348   1.2170265455e+02   6.0530169553e+00    0.2789118    0.1802192  16.40  0.001279141    1.513    0.339
