#   1 NUMBER                 Running object number                                     
#   2 MAG_AUTO               Kron-like elliptical aperture magnitude                    [mag]
#   3 X_IMAGE                Object position along x                                    [pixel]
#   4 Y_IMAGE                Object position along y                                    [pixel]
#   5 X_WORLD                Barycenter position along world x axis                     [deg]
#   6 Y_WORLD                Barycenter position along world y axis                     [deg]
#   7 A_WORLD                Profile RMS along major axis (world units)                 [deg]
#   8 B_WORLD                Profile RMS along minor axis (world units)                 [deg]
#   9 THETA_WORLD            Position angle (CCW/world-x)                               [deg]
#  10 FWHM_WORLD             FWHM assuming a gaussian core                              [deg]
#  11 ELONGATION             A_IMAGE/B_IMAGE                                           
#  12 ELLIPTICITY            1 - B_IMAGE/A_IMAGE                                       
         1 -14.4278     68.6594    144.2986   9.9943596253e+01   3.7552101523e+01     4.873856      2.50233  70.01   0.01363062    4.224    0.763
         2 -13.2330    200.3629     41.5318   4.1633010485e+01   3.0107111409e+01     1.078451    0.9575381 -65.16  0.003144377    1.053    0.050
         3 -13.6205    210.7892     31.4256   3.8008326970e+01   2.9003857429e+01    0.9454675    0.8198926  38.85  0.001808222    1.491    0.329
         4 -12.8510    236.1366      5.7606   3.0272904924e+01   2.6436881073e+01    0.7999277    0.5696303 -89.76  0.005305052    1.229    0.186
         5 -10.9163    193.2255    195.2819   7.8880697459e+01   4.3289601565e+00    0.9307391    0.4745745 -61.08  0.002857419    5.439    0.816
         6 -10.8426    139.4128    249.9134   9.8966117871e+01   3.4719135521e+00    0.3824743    0.1907974  39.79  0.001949482    1.668    0.400
         7 -13.1335     54.2573    186.8728   1.1005226121e+02   2.8952094432e+01     1.794195     1.025357  72.18  0.008422448    2.033    0.508
         8 -14.2111     41.2915    196.1711   1.1410963316e+02   2.8322032459e+01      4.35166     1.668941  67.57   0.01275759    4.583    0.782
         9 -16.9797     15.9766    243.2608   1.2271254996e+02   2.1053780189e+01     6.477485     2.135113  26.42   0.02573573    4.530    0.779
        10 -11.1019    121.3822    197.1176   9.5240614499e+01   1.6521517439e+01     0.519343      0.27835 -67.09  0.001375918    2.507    0.601
        11 -10.8437    111.5427    204.4452   9.8699852223e+01   1.6572088019e+01    0.3579602    0.2608044 -85.81  0.001014712    1.708    0.415
        12 -16.0098      7.4356    202.1076   1.2198870057e+02   3.0398852653e+01     14.47589     1.148071 -76.06  0.006142301   10.406    0.904
        13  -9.4203    147.3984    187.1925   8.7375082541e+01   1.4064329190e+01    0.2001301    0.1414194 -61.52 0.0004692001    1.689    0.408
        14  -9.1164     79.6258    182.6605   1.0321233370e+02   2.6513579444e+01    0.2637859    0.1655529 -67.71 0.0008465488    1.597    0.374
        15  -9.5900     99.3600    180.8500   9.7952358426e+01   2.3881404073e+01    0.2620212    0.2089985  30.08 0.0006194931    1.314    0.239
        16  -9.6289    187.6805    176.1357   7.6225520186e+01   8.8769771338e+00    0.3232716    0.2924224 -43.73  0.001331104    1.205    0.170
        17 -12.1081     81.3110    159.4200   9.9064939983e+01   3.1921882251e+01    0.9838568    0.5926661  64.72 0.0005863356    2.192    0.544
        18 -12.9750     69.5158    154.3603   1.0146002754e+02   3.4906653028e+01    0.6635883     0.493337 -52.45  0.001099274    1.311    0.237
        19 -10.9309    125.6012    249.3775   1.0171115516e+02   5.6414040463e+00    0.3710416    0.2557689   2.08  0.001978546    2.180    0.541
        20 -10.4892    125.7291    173.1883   8.9946737179e+01   2.1099484209e+01    0.4640943    0.2077842  26.52  0.001509275    3.276    0.695
        21  -9.2238     34.7078    171.3646   1.1312244530e+02   3.4921204671e+01    0.2209866    0.1681626  69.04 0.0005770443    1.252    0.201
        22  -8.7833    193.8551    171.0725   7.3891044710e+01   8.7102183656e+00    0.2099674    0.2009533 -64.03 0.0009750543    1.264    0.209
        23 -10.6639    240.2529    169.9352   6.4974260457e+01   9.0537684658e-01    0.2195947    0.1864677  14.41 0.0008774169    1.208    0.172
        24  -8.5636    185.4569    168.4802   7.5095360699e+01   1.0780893751e+01    0.1463516    0.1360689  -9.02 0.0001002597    1.011    0.011
        25  -9.0001    110.8347    168.0673   9.2762994988e+01   2.4959099365e+01    0.2306273    0.1991921  81.41 0.0004405514    1.268    0.211
        26 -11.6636     88.6500    152.4663   9.5770548300e+01   3.2496139974e+01    0.7428252    0.4972752 -23.23  0.001919245    2.179    0.541
        27 -11.2983     55.4682    147.3128   1.0427458116e+02   3.8534723128e+01    0.8187041    0.4844472 -58.74  0.003925167    1.522    0.343
        28  -8.7062    111.1699    149.7497   8.9021973508e+01   2.9280840848e+01     0.266113    0.1666089  74.63 0.0009559402    2.821    0.646
        29  -9.0533    174.8359    148.8843   7.3081299320e+01   1.6829900705e+01    0.2076062    0.1849408 -76.72 0.0005441759    1.349    0.258
        30 -10.7025    133.7299    144.9437   8.1993314734e+01   2.6084467398e+01     1.112093    0.3148491 -54.31  0.002756243    4.952    0.798
        31  -9.1112     38.3995    146.0949   1.0896998803e+02   4.0787165295e+01    0.2790948    0.1528953  47.76  0.001322444    1.983    0.496
        32  -9.2016     33.4800    143.0705   1.0995028006e+02   4.2040617588e+01    0.3676055    0.1166362 -67.84  0.001360575    2.722    0.633
        33 -10.4049     28.4381    143.6545   1.1146581684e+02   4.2373872845e+01    0.2725743    0.2508553 -30.10  0.001406632    1.277    0.217
        34 -10.1898    102.1558    138.7625   8.9148490829e+01   3.3572978980e+01    0.5642233    0.3398694 -25.24  0.002107472    2.589    0.614
        35 -10.0358    105.8961    131.0406   8.6326424925e+01   3.4759645337e+01    0.4826395    0.3156768 -53.61  0.001850341    1.508    0.337
        36 -11.6038     89.6509    138.1858   9.2617606641e+01   3.5869768052e+01    0.3006318    0.2586078 -41.04 0.0003639897    1.173    0.148
        37 -10.4924    135.7171    128.0199   7.7446747677e+01   2.9541115525e+01     0.546408    0.2022666 -48.56  0.001759942    2.737    0.635
        38 -11.4505     68.5140    172.4323   1.0456629597e+02   3.0567486825e+01    0.4640975    0.2998179 -34.18  0.002145353    2.111    0.526
        39 -10.2643     29.0076    129.0437   1.0924543461e+02   4.5964639904e+01    0.2119951    0.1814693 -69.36 0.0009158009    1.006    0.006
        40 -10.7526     39.4857    126.3795   1.0558161128e+02   4.5618283921e+01    0.3971789     0.221057 -76.96  0.001806243    1.902    0.474
        41 -10.1494     98.7774    125.3363   8.7044588079e+01   3.7431852668e+01    0.3218268    0.2605688  -0.62  0.001548562    1.505    0.335
        42 -10.1408    118.1846    123.8785   8.1119305078e+01   3.4084706511e+01    0.4388596    0.2549254  25.34  0.001656598    2.290    0.563
        43  -8.9011     87.7424    121.3838   8.9421930515e+01   4.0309034556e+01    0.4308596    0.2394869  66.70  0.001363473    3.889    0.743
        44  -9.4411    111.3366    129.4655   8.4407524057e+01   3.4111389269e+01    0.3120495    0.2502604 -18.18 0.0007322737    1.472    0.321
        45 -11.1088     33.1475    118.7659   1.0628689629e+02   4.8138080929e+01    0.3874908    0.2268987 -37.60   0.00187215    1.849    0.459
        46  -9.2365    107.8562    118.5718   8.2715858683e+01   3.7346421601e+01    0.2446135    0.2011209 -36.19 0.0004140284    1.221    0.181
        47 -11.3778     72.8434    167.9113   1.0274685401e+02   3.1070222388e+01    0.4050608    0.2877967 -55.30 0.0009328643    1.380    0.276
        48 -10.0019    231.2543    113.7769   5.4411707309e+01   1.2089593110e+01    0.2504136    0.2467981  23.57 0.0007509259    1.151    0.131
        49  -9.2540    134.8189    112.6697   7.3724530947e+01   3.3138396217e+01    0.3100241    0.1179328 -42.23  0.001006614    2.624    0.619
        50  -9.3138    205.3430    110.2456   5.7834330679e+01   1.7989975416e+01    0.2844017     0.206774  46.17  0.001050464    1.493    0.330
        51 -10.2646    114.8662    109.0026   7.8181856324e+01   3.8150696106e+01    0.4398223    0.2008682 -35.85  0.001499574    2.608    0.617
        52  -8.7134     38.6280    211.3592   1.1607983113e+02   2.5208695155e+01    0.2005783    0.1129527  65.42 0.0005695479    1.697    0.411
        53 -10.5199    184.2641    213.3992   8.4060754202e+01   2.6235260497e+00    0.2438369    0.1636643  40.59 0.0009748153    1.484    0.326
        54  -8.2952    138.4439    105.4998   7.0851081059e+01   3.3877688135e+01    0.1552083    0.1518733 -55.96 0.0001503153    1.042    0.040
        55 -11.0901     41.9257    103.9147   1.0047163932e+02   5.0898186299e+01    0.3999186    0.2980365  52.11    0.0013967    1.623    0.384
        56 -10.7696    242.3773    102.2774   5.0260396312e+01   1.1883538214e+01    0.3037079    0.1850856 -72.91  0.001352043    2.622    0.619
        57 -10.2675     32.8146     99.6631   1.0277729206e+02   5.2828707229e+01    0.3213418    0.1898663  41.10  0.001605728    2.001    0.500
        58  -9.1325    125.8411     93.1855   7.0670746692e+01   3.9220644353e+01    0.2370501     0.211574 -82.98  0.001106822    1.307    0.235
        59  -9.2881     53.0074     91.0030   9.3454966781e+01   5.2662364044e+01    0.1772548    0.1492234 -44.36 0.0004876695    1.063    0.059
        60  -9.0033    156.0892     88.1818   6.1805864144e+01   3.3276704296e+01    0.2946774    0.1918851 -64.70 0.0008749847    2.077    0.519
        61 -11.6908    192.6812    205.6690   8.0942444095e+01   2.5842547886e+00     0.491257    0.2629079  14.54  0.001963984    2.820    0.645
        62  -8.3556     75.0001     85.0506   8.3931591217e+01   5.0819030464e+01    0.1713923    0.1579798 -20.51            0    1.008    0.008
        63  -9.1902    113.1916     82.6497   7.1030884981e+01   4.4076364142e+01    0.3146843    0.2408396 -77.29  0.001430099    1.875    0.467
        64  -8.7356    158.5472     82.5539   5.9682244149e+01   3.3729731688e+01    0.1484344    0.1464517 -83.33 0.0001205422    1.001    0.001
        65  -8.2326     70.2621     81.6904   8.4592362858e+01   5.2298465977e+01    0.1319906    0.1144039 -85.15 0.0002499114    1.531    0.347
        66  -8.4335     55.0669     65.9847   8.5338585647e+01   5.7798668403e+01    0.1920973    0.1684542  74.43  0.000676232    1.649    0.393
        67 -10.8071     13.1690     59.7835   1.0114794739e+02   6.3389462270e+01    0.2597345    0.2305609  88.52  0.000579763    1.507    0.336
        68 -11.1154    107.1818    203.2868   9.9547285554e+01   1.7527846401e+01    0.5113887    0.2352977  52.35  0.001807276    2.484    0.597
        69 -11.0854     14.4206     31.9302   9.1527886218e+01   6.8689267668e+01    0.2471118    0.1678335  17.98 0.0009968975    1.534    0.348
        70 -13.0719     21.1510    221.7415   1.2046614643e+02   2.4862178718e+01    0.5943157     0.498652 -46.46  0.001281803    1.665    0.400
        71  -9.2304    198.1808     23.3049   3.7414109720e+01   3.2848491258e+01    0.1967777    0.1735676 -29.23 0.0005436211    1.334    0.250
        72  -9.2110     89.6537    211.6086   1.0474694666e+02   1.8435118733e+01    0.2090284    0.1900445  73.13  0.001293729    1.051    0.048
        73  -8.7147    189.4897     14.9454   3.6285271297e+01   3.5786411848e+01    0.1771369    0.1231508 -33.64 0.0006425469    1.549    0.355
        74 -13.0416    190.4351     48.8285   4.4795729801e+01   3.1449813649e+01     1.075716    0.8341424  40.56  0.001728015    1.533    0.348
