#   1 NUMBER                 Running object number                                     
#   2 MAG_AUTO               Kron-like elliptical aperture magnitude                    [mag]
#   3 X_IMAGE                Object position along x                                    [pixel]
#   4 Y_IMAGE                Object position along y                                    [pixel]
#   5 X_WORLD                Barycenter position along world x axis                     [deg]
#   6 Y_WORLD                Barycenter position along world y axis                     [deg]
#   7 A_WORLD                Profile RMS along major axis (world units)                 [deg]
#   8 B_WORLD                Profile RMS along minor axis (world units)                 [deg]
#   9 THETA_WORLD            Position angle (CCW/world-x)                               [deg]
#  10 FWHM_WORLD             FWHM assuming a gaussian core                              [deg]
#  11 ELONGATION             A_IMAGE/B_IMAGE                                           
#  12 ELLIPTICITY            1 - B_IMAGE/A_IMAGE                                       
         1 -12.1239      3.9778    133.3622   1.2379450955e+02   4.6311545463e+01     2.071846    0.7180446 -66.45   0.01001642    2.133    0.531
         2 -11.1561    206.7957     13.8190   4.1503105668e+01   3.1678999992e+01    0.8442374    0.4726333  71.69  0.004181105    1.656    0.396
         3 -11.0194    206.2557      7.8951   4.0033911912e+01   3.2441966255e+01    0.8019457    0.4043171  66.74  0.003866005    1.804    0.446
         4  -8.5439    119.5916      9.0324   5.3042169611e+01   5.3961779972e+01      0.27711    0.2472148 -35.30  0.001690663    1.269    0.212
         5  -8.6246    133.8004     14.7153   5.2256071396e+01   4.9977171231e+01    0.2432411    0.2091151  -5.16 0.0003800329    1.259    0.206
         6 -10.0470    132.8520    235.8562   1.0674355837e+02   7.9659982608e+00    0.2827926    0.2029617  62.86  0.001385222    1.445    0.308
         7  -7.5424    151.2762    250.3461   1.0503612122e+02   2.7822072655e+00    0.1121654   0.08585998  10.79  0.000700403    1.629    0.386
         8  -9.6717    132.6920    248.5633   1.0827833852e+02   5.9449779951e+00    0.3018512    0.2071884 -61.03  0.001922468    1.829    0.453
         9 -10.1763    103.0177    249.7381   1.1387429929e+02   1.0228192719e+01    0.4566582    0.3864655  10.80  0.003159822    1.743    0.426
        10  -9.6426    104.5126    244.0034   1.1303658228e+02   1.0965885044e+01    0.2967755    0.1992657  18.61  0.001641867    2.373    0.579
        11 -10.4838    113.3168    247.3998   1.1174938088e+02   9.0876388588e+00    0.3072414    0.2592603  62.85 0.0002565739    1.116    0.104
        12 -10.1950    119.2085    244.5290   1.1034712345e+02   8.6655576080e+00    0.5426766    0.3191583 -68.70  0.003124892    2.174    0.540
        13 -17.8341     31.6440    237.2962   1.2559751272e+02   2.1705399053e+01     2.931171     2.452504  70.56   0.01408983    1.253    0.202
        14 -10.3550    146.0394    222.6738   1.0240831130e+02   8.0321306965e+00      0.42616     0.299354   9.51  0.002242794    2.072    0.517
        15  -8.5240    158.2157    218.7738   9.9395495898e+01   6.6309790234e+00    0.3358706    0.1974166  36.09   0.00174299    1.506    0.336
        16 -10.0900    153.4799    216.1654   9.9960033771e+01   7.8888595322e+00    0.4764624     0.363125   1.83   0.00237674    1.746    0.427
        17  -8.4567    142.9028    209.1998   1.0108806123e+02   1.0958274846e+01    0.2394999     0.170614 -19.96  0.001220801    2.093    0.522
        18  -7.5248    237.9997    235.7762   8.7107035003e+01  -8.5733996020e+00    0.1541559   0.07983329  34.19 0.0004583996    1.642    0.391
        19  -9.1849    224.0591    206.0336   8.4453243275e+01  -2.5707895137e+00     0.302192    0.2581602 -63.91  0.001414536    1.900    0.474
        20  -7.8320    185.8137    228.3683   9.5449001036e+01   4.7019137767e-01    0.2089622   0.09796217 -45.08  0.001004613    2.582    0.613
        21  -7.6224    113.1461    206.1892   1.0692098444e+02   1.6562975404e+01    0.1891536    0.1364578  63.05 0.0006368175    1.354    0.261
        22 -10.0157    140.9178    228.2564   1.0419277233e+02   7.9329188195e+00    0.3518043    0.2021052  53.86  0.001584849    1.728    0.421
        23 -10.1129     99.9693    200.7510   1.0901746384e+02   1.9774692921e+01    0.5765108    0.3260456  81.90  0.002520731    2.650    0.623
        24  -8.6653    135.5348    201.5798   1.0148612772e+02   1.3675320178e+01    0.3280699    0.2233896 -21.40  0.001552617    2.384    0.580
        25  -8.2460    225.7354    224.0182   8.7311214740e+01  -5.2991862748e+00    0.1940801    0.1437526  26.59 0.0003745721    1.149    0.130
        26  -9.1407    212.6759    201.1312   8.5679042858e+01   5.1385657464e-02    0.3559531    0.1888485  36.96 4.556624e-05    1.719    0.418
        27  -8.9804     89.9895    201.8181   1.1128784848e+02   2.1090306796e+01    0.3026077    0.2215527  53.26  0.001783933    1.199    0.166
        28 -10.2601    243.6666    199.1978   7.9673558095e+01  -4.7405000844e+00    0.2343234    0.1990665  16.44 0.0005115808    1.162    0.140
        29  -8.9398    213.3118    196.3539   8.4669829102e+01   6.7576103879e-01    0.2428557    0.2030529   5.94 0.0002458132    1.075    0.070
        30  -8.5140     83.1646    197.2154   1.1219888504e+02   2.3067834925e+01    0.2158201    0.1715492  71.21  0.000918636    1.114    0.103
        31  -8.6028     80.0459    194.1791   1.1251271769e+02   2.4168269263e+01    0.3004246    0.2303146 -85.29  0.001007004    1.243    0.195
        32  -9.5859     93.8021    193.8127   1.0945646720e+02   2.2188272629e+01    0.4585148    0.3063832  82.16  0.001378146    1.683    0.406
        33  -8.5662     97.5054    192.4994   1.0846504448e+02   2.1889334684e+01    0.3333391    0.2206248 -73.48  0.001765864    1.600    0.375
        34  -9.3372    213.9562    191.4475   8.3615869934e+01   1.3299826223e+00    0.2441412    0.1870126 -23.69 0.0003987198    1.294    0.227
        35  -8.3195    107.2191    188.3533   1.0571388989e+02   2.1204701225e+01    0.2659872    0.2025103  76.58  0.001456744    1.379    0.275
        36  -7.8164     11.8993    188.6775   1.2627367393e+02   3.3351521032e+01    0.2016519    0.1373806  13.43  0.001262456    2.407    0.585
        37  -9.9547    181.5655    187.3098   8.9269155128e+01   7.9280295934e+00    0.2483221    0.2403388   5.88  0.000373193    1.100    0.091
        38  -8.6804    134.1260    187.1541   9.9489258923e+01   1.6790435786e+01    0.2290666     0.197116  57.46 0.0003078029    1.105    0.095
        39  -7.7580     17.8656    187.9162   1.2503363496e+02   3.2961508604e+01    0.1534186     0.127904  87.80  0.000484533    1.169    0.145
        40  -8.9233    240.0748    186.7615   7.7913014403e+01  -2.4031681986e+00    0.2294476    0.1974663 -23.06 0.0006141608    1.225    0.184
        41  -9.6297    123.1163    184.8143   1.0157856930e+02   1.9239855780e+01     0.481681    0.3426821  36.90  0.002504392    1.388    0.280
        42  -8.3613    129.4521    185.8066   1.0031193003e+02   1.7907692392e+01    0.2877693    0.2098673  75.63  0.001029753    1.672    0.402
        43 -11.1883     75.0181    179.7849   1.1185942555e+02   2.8049296184e+01     1.056982    0.7227867  63.30   0.00582914    1.404    0.288
        44  -9.2966     66.7617    182.4899   1.1406655220e+02   2.8582383371e+01    0.2200623    0.1907943 -86.36 0.0004242981    1.101    0.092
        45  -8.1907    110.9843    183.6451   1.0415254693e+02   2.1584347183e+01    0.2297228    0.1806953 -88.24 0.0007628896    1.362    0.266
        46  -7.5356     84.9575    184.2975   1.1018001471e+02   2.5596524064e+01     0.182166    0.1512179  61.41 0.0002520595    1.090    0.082
        47  -7.9058     16.9979    183.9780   1.2493293678e+02   3.3888218115e+01    0.1594421    0.1293645  79.34 0.0003691149    1.101    0.092
        48  -8.7980     20.2970    183.3678   1.2421164003e+02   3.3709373996e+01    0.3333924    0.1580328  27.96     0.001772    2.628    0.619
        49  -8.2128    151.3774    181.0020   9.4573416578e+01   1.4840535718e+01    0.3644345    0.2169931 -70.43  0.001457936    2.767    0.639
        50  -8.8983    141.6283    181.6210   9.6860189970e+01   1.6546094166e+01     0.285941    0.1773062 -60.29 0.0006977553    1.878    0.468
        51  -9.0504    100.8455    180.4713   1.0599972044e+02   2.3959401933e+01    0.4963559    0.2703282  74.42  0.001639097    3.056    0.673
        52  -8.2829     95.3412    174.6190   1.0640462220e+02   2.6151067757e+01    0.3700698      0.19786  76.13  0.001353001    3.304    0.697
        53  -8.0701    189.3566    178.2812   8.5911607219e+01   8.0711704937e+00    0.3241765    0.2064506 -50.82  0.001531973    1.860    0.462
        54  -7.9228     13.9648    179.8817   1.2526567956e+02   3.5051445356e+01    0.1898595   0.07979739  23.22 0.0009028845    3.460    0.711
        55  -8.4577     23.6121    177.7774   1.2308394561e+02   3.4613827868e+01    0.2289066    0.2074796   6.39  0.001290458    1.636    0.389
        56 -10.0214     19.0986    174.0993   1.2375527294e+02   3.5853036952e+01    0.3915167    0.3188421  39.95  0.001243265    1.456    0.313
        57  -7.2488     19.2481    178.3115   1.2404986256e+02   3.4910942261e+01    0.1078259   0.07709731 -61.59 0.0002863618    1.513    0.339
        58  -8.6865     89.9011    174.9992   1.0774357399e+02   2.6921343341e+01    0.2556725    0.2075098  69.12  0.001236325    1.158    0.137
        59 -10.3618     33.6767    171.4456   1.2032928046e+02   3.5020455841e+01    0.3868454    0.2735122 -89.31 0.0009922924    1.176    0.150
        60  -8.6630    202.4645    171.4542   8.1872418275e+01   6.7702186116e+00    0.2339151     0.213526   7.31 0.0004686273    1.007    0.007
        61  -8.4634    131.9249    171.3533   9.7236103668e+01   2.0510278663e+01    0.2874683     0.213207 -45.23  0.001452678    1.450    0.310
        62  -8.3181     81.0455    170.0091   1.0912266856e+02   2.9400770522e+01     0.270766    0.1926327  43.65 0.0003293988    1.393    0.282
        63  -8.8502     85.5969    169.7864   1.0799987460e+02   2.8769831236e+01    0.3144303    0.2364832 -68.03  0.000717874    1.283    0.220
        64  -9.4283     88.9371    165.0717   1.0647370156e+02   2.9343528535e+01       0.4037    0.2771171 -35.92  0.001962314    1.981    0.495
        65  -8.3776    187.9385    169.1752   8.4358034445e+01   1.0009491160e+01     0.213796    0.1972611  74.74 0.0006950392    1.313    0.239
        66  -7.2141    248.6585    167.3074   7.2504769506e+01  -9.3993882670e-01    0.1202451    0.1059863 -65.00 0.0007043012    1.688    0.407
        67  -7.7514    111.8530    167.1403   1.0124775751e+02   2.5074144364e+01    0.1830327    0.1693193 -20.45 0.0002730407    1.302    0.232
        68  -9.5980     67.9075    166.8788   1.1183870163e+02   3.1986009126e+01    0.4331671    0.2110631  35.39  0.001997973    2.160    0.537
        69  -9.3731     20.7095    163.3838   1.2251021550e+02   3.8108825799e+01    0.2560385    0.1547844 -71.46 0.0006906767    1.396    0.283
        70  -8.4714    129.5168    163.8894   9.6415411810e+01   2.2586629205e+01    0.3051411    0.2105805  65.09 0.0007058934    1.715    0.417
        71  -9.4810     82.7984    161.4006   1.0741218610e+02   3.1138315924e+01    0.4982442    0.2561422  43.13  0.002266804    1.905    0.475
        72  -9.1870     59.2746    163.2887   1.1344751865e+02   3.3955380717e+01    0.3781823     0.172526  24.53  0.001545652    3.205    0.688
        73  -8.6114     11.2668    174.0911   1.2541701987e+02   3.6551360615e+01    0.2819267    0.1774616 -80.29  0.001452765    1.280    0.219
        74  -9.9489     73.5349    161.6372   1.0973690130e+02   3.2432548482e+01    0.4793829    0.2194235  41.35  0.002120906    2.139    0.533
        75  -8.8088     11.0232    161.3180   1.2451145139e+02   3.9409067902e+01    0.2828974    0.1424391  24.30  0.001148884    2.578    0.612
        76  -7.8350      5.8273    162.1900   1.2572467701e+02   3.9627811512e+01    0.1695204    0.1210855  75.84 0.0003579505    1.168    0.144
        77  -7.2674    135.4363    160.4123   9.4328640723e+01   2.2220540582e+01    0.1458023    0.1399727  53.59 0.0001195588    1.016    0.016
        78 -11.3014     44.5171    145.9530   1.1486946701e+02   3.9806802346e+01    0.6601753    0.5068629  -9.81  0.003763127    1.964    0.491
        79 -10.1819     22.4239    157.0130   1.2153615413e+02   3.9409607478e+01    0.5575805    0.1654873 -61.05  0.002386094    2.769    0.639
        80  -9.7567     32.0441    153.0283   1.1883687707e+02   3.9428205874e+01    0.3668365    0.2499451  59.70  0.002195069    1.443    0.307
        81 -11.4901     21.4545    141.4482   1.2020435235e+02   4.3113823020e+01    0.8547052    0.3901216 -51.70  0.004212161    2.247    0.555
        82 -10.3187     35.3856    149.2961   1.1759379398e+02   3.9972884181e+01    0.5754411    0.2579105  65.25  0.002420502    2.926    0.658
        83 -10.5622     34.7528    144.5915   1.1719506190e+02   4.1149472491e+01    0.4975896    0.2866271  26.08  0.002653323    2.144    0.534
        84 -11.3342     24.9128    146.9282   1.1992733484e+02   4.1527040653e+01    0.6453226    0.3660693 -55.47 0.0006569129    1.725    0.420
        85  -8.1762     94.9746    157.0605   1.0366208237e+02   3.0249036119e+01    0.2077114    0.1940119 -85.39 0.0003505294    1.041    0.040
        86  -8.4197     62.1880    155.1681   1.1163413169e+02   3.5496446938e+01    0.2008602    0.1769245 -61.85  0.001175946    1.195    0.163
        87  -9.3772     44.7241    154.9443   1.1595345832e+02   3.7649957291e+01     0.276034    0.1893581  36.02 0.0003288903    1.620    0.383
        88  -9.2689     99.2845    151.9661   1.0166730574e+02   3.0731786348e+01    0.3936807     0.301916 -48.41  0.001236877    1.361    0.265
        89  -9.5533      9.5464    153.5112   1.2421460445e+02   4.1292178423e+01    0.4788062    0.2492527 -75.72  0.002696066    1.514    0.339
        90 -11.5878     15.6576    139.1885   1.2142581146e+02   4.4116481154e+01     1.450231     0.357768 -68.24   0.00580868    2.901    0.655
        91  -9.4844    124.7322    247.3903   1.0962863184e+02   7.3563360997e+00    0.3005256    0.1857337 -51.78  0.001298935    2.028    0.507
        92 -10.2235      6.6731    145.4719   1.2421042140e+02   4.3342140233e+01    0.4644111     0.294141  53.37  0.002400064    1.604    0.377
        93  -9.2079    101.2161    144.1860   9.9700849930e+01   3.2240000810e+01    0.6646498    0.3827896  80.85  0.002277899    3.487    0.713
        94  -7.6919    160.1911    143.8191   8.4943744435e+01   2.0766497010e+01    0.2246239    0.2062995  82.86 0.0003197943    1.209    0.173
        95  -7.9876    114.6577    153.1184   9.7988805229e+01   2.7770742555e+01    0.3012933    0.1864287  61.35  0.001290135    1.945    0.486
        96  -9.0954    153.4967    223.9792   1.0110474141e+02   6.5581997830e+00    0.2232165    0.1694871   7.29  0.001275891    1.691    0.409
        97  -7.9758    126.9857    140.0356   9.2169120042e+01   2.8442815179e+01    0.2496411    0.1883754  79.63  0.001137455    1.690    0.408
        98  -8.9329    110.9941    135.9273   9.5430214699e+01   3.2448302381e+01    0.3654273    0.3008893 -54.28  0.001876984    1.186    0.157
        99  -9.1546     99.0219    136.7891   9.8809389307e+01   3.4374961027e+01    0.2568176    0.2398617   8.82 0.0003273355    1.243    0.196
       100 -12.3213     35.5668    119.3366   1.1352818485e+02   4.7119813621e+01     1.584586    0.8879832 -10.80  0.006818957    3.479    0.713
       101 -12.3815     35.2732    129.8640   1.1515034964e+02   4.4617074741e+01     1.156075    0.7164087  16.88  0.005390474    2.193    0.544
       102  -8.0126    116.5138    128.5102   9.2310955453e+01   3.3144760140e+01     0.262828    0.1496075  28.92  0.001021227    2.237    0.553
       103  -8.0105    104.4016    124.7777   9.4752347275e+01   3.6282913659e+01    0.2495187    0.1737939 -45.17 0.0003944465    1.429    0.300
       104  -7.6082     83.6403    130.3127   1.0172115611e+02   3.8444926842e+01    0.1522667    0.1074376  74.52 0.0005208544    1.747    0.428
       105  -9.6099    204.9584    117.3990   6.9039497563e+01   1.6146200167e+01    0.2967143    0.2389482 -33.93 0.0001420398    1.187    0.158
       106  -8.5064    148.6923    119.9381   8.1936521911e+01   2.8388048533e+01    0.2444934    0.2174699  41.03  0.001114151    1.136    0.120
       107  -9.6238     65.4473    115.1321   1.0392858604e+02   4.4744921302e+01    0.2974249    0.2028078  72.62  0.001429231    1.903    0.475
       108  -7.7609    111.2897    115.0489   9.0521858713e+01   3.7278637735e+01    0.2104312    0.1875296 -55.31 0.0001896708    1.088    0.081
       109  -9.0252    133.6638    149.3284   9.2497041244e+01   2.5022566461e+01    0.2970918     0.275663  21.77  0.001596994    1.158    0.136
       110  -8.0669    209.8755    113.8798   6.7246767666e+01   1.5694147153e+01    0.2235881    0.2007636   8.53 0.0004195329    1.185    0.156
       111 -10.2867     84.2287    151.4039   1.0543317651e+02   3.3283087453e+01    0.3757691    0.2611903 -41.53 0.0007360233    1.691    0.408
       112  -7.6855    207.0278    107.4995   6.6172186612e+01   1.7493195152e+01    0.2334832    0.1498623  50.16  0.001043615    1.629    0.386
       113  -7.8426    110.8445    106.1740   8.8377759945e+01   3.9403410656e+01      0.21571    0.1841276 -18.93 0.0008559257    1.313    0.239
       114  -8.6485     33.0153    109.4811   1.1271191062e+02   4.9719195771e+01    0.1734311    0.1304285  26.61 0.0006451316    1.600    0.375
       115 -11.1589     46.9003    131.4554   1.1218208766e+02   4.3032381185e+01    0.7235169    0.3943185  50.74  0.001873074    2.033    0.508
       116  -8.4207     55.9446     99.9502   1.0366899928e+02   4.9588337828e+01     0.205904    0.1814011 -57.16  0.000422913    1.009    0.009
       117  -8.0790     36.5783     97.0795   1.0936233781e+02   5.2339657117e+01    0.1904492    0.1730473  57.47 0.0005424079    1.276    0.216
       118  -8.4765     93.9266     95.2017   9.0433413035e+01   4.5042711390e+01    0.2587193    0.1996094 -40.65 0.0002207405    1.243    0.195
       119  -7.5238    151.2045     93.8139   7.4251500886e+01   3.3300108554e+01    0.2024898    0.1811623   8.39 0.0003210281    1.231    0.188
       120  -7.5837    126.4118     81.1965   7.6844479784e+01   4.1530896643e+01    0.2050231    0.1441817 -51.35 0.0001180393    1.513    0.339
       121 -10.4159    109.8983     74.8690   7.9535328741e+01   4.6335847949e+01    0.2668428    0.2441269  17.25  0.001434683    1.107    0.097
       122  -7.5676    121.1658     72.8827   7.5667467071e+01   4.4324594443e+01    0.2053826    0.1735104  -8.41 0.0003378744    1.287    0.223
       123  -8.8166    205.8823     69.5641   5.6452238546e+01   2.4318298353e+01    0.3786441    0.2496922 -23.19  0.001343639    1.711    0.416
       124  -7.6104    137.4966     66.4828   6.9295845269e+01   4.1768963497e+01    0.1551219      0.14529  14.73 6.045079e-05    1.082    0.076
       125  -7.7305    120.0786     61.9989   7.2374445153e+01   4.6588215750e+01     0.225913    0.1848861 -77.84 0.0004328436    1.623    0.384
       126  -7.3180    143.8131     59.6321   6.5549513929e+01   4.1430559598e+01    0.2116595     0.144058  67.30 0.0007901097    1.683    0.406
       127  -9.8660    168.6661     56.1449   5.9160116527e+01   3.5778714520e+01    0.4052771    0.3435182  66.52  0.001121513    1.174    0.149
       128  -9.9891    181.0125     49.7819   5.5013903128e+01   3.3599418884e+01    0.9635596    0.5200406 -63.18  0.003577601    2.713    0.631
       129 -10.7548    183.4168     41.3147   5.2139432250e+01   3.4189231561e+01    0.8085054    0.6831928 -63.36  0.003221421    1.197    0.164
       130 -10.0935    188.3024     36.0423   4.9871896935e+01   3.3651082694e+01    0.5012515    0.3846097  -1.02  0.001531045    1.686    0.407
       131  -7.5987    154.9966     47.7089   5.9232097685e+01   4.0530086352e+01    0.2042758    0.1821699  61.31 0.0002632571    1.092    0.084
       132  -7.6545     25.7723     43.3581   9.9897413248e+01   6.5046592750e+01    0.1545766    0.1051343  -1.88 0.0005970338    1.601    0.375
       133  -7.0831    222.2812     40.6324   4.6619091708e+01   2.4636391649e+01    0.1502494   0.09165223 -59.82 0.0004415243    1.689    0.408
       134  -7.1843    136.0023     27.0367   5.6198408315e+01   4.8064593216e+01    0.1686732    0.1517019  50.10 0.0003208391    1.033    0.032
       135  -7.3796    173.9779     18.7582   4.6885539994e+01   3.9396713704e+01     0.177468    0.1093297  67.45 0.0002115063    1.489    0.328
       136  -8.4531    166.2735     17.9241   4.7758542813e+01   4.1457781564e+01    0.2408439    0.1816089  60.42 0.0002323537    1.216    0.178
       137  -8.4739    137.3452    246.2894   1.0714531164e+02   5.5759049266e+00    0.1160661   0.08652748  18.29 0.0007024816    1.655    0.396
       138  -8.3273    246.4840    240.5297   8.6428913607e+01  -1.0301207145e+01    0.1174661   0.08543018  11.44 5.875819e-05    1.044    0.042
       139  -9.6142    133.7043    229.3507   1.0575990809e+02   8.9260016981e+00    0.2108085    0.1629792  66.59  0.001299308    1.365    0.268
