#   1 NUMBER                 Running object number                                     
#   2 MAG_AUTO               Kron-like elliptical aperture magnitude                    [mag]
#   3 X_IMAGE                Object position along x                                    [pixel]
#   4 Y_IMAGE                Object position along y                                    [pixel]
#   5 X_WORLD                Barycenter position along world x axis                     [deg]
#   6 Y_WORLD                Barycenter position along world y axis                     [deg]
#   7 A_WORLD                Profile RMS along major axis (world units)                 [deg]
#   8 B_WORLD                Profile RMS along minor axis (world units)                 [deg]
#   9 THETA_WORLD            Position angle (CCW/world-x)                               [deg]
#  10 FWHM_WORLD             FWHM assuming a gaussian core                              [deg]
#  11 ELONGATION             A_IMAGE/B_IMAGE                                           
#  12 ELLIPTICITY            1 - B_IMAGE/A_IMAGE                                       
         1 -13.2310     68.8863    145.0098   5.1101685442e+01   3.6958699692e+01     2.472504     1.420546  89.47   0.00532152    2.514    0.602
         2 -12.8280    222.5167     39.6485   3.5377449673e+02   2.6937950643e+01    0.7538927    0.7339695  77.55  0.003217665    1.391    0.281
         3 -12.6907    209.5645     49.5043   3.5706365081e+02   2.8143301980e+01     1.138239    0.9827927 -33.72  0.006320427    1.289    0.224
         4 -11.5870    248.2335     16.4010   3.4745376467e+02   2.5040442802e+01    0.7311128    0.3143882 -35.96  0.004342063    1.790    0.441
         5 -10.9785    120.1618      9.2806   3.5558677494e+02   5.3362804136e+01    0.5086595    0.4078146  71.74  0.001814398    1.153    0.133
         6  -9.7038      8.8105      9.5907   4.0192689342e+01   7.7494148278e+01    0.1748491    0.1049224  36.16 0.0009575564    1.711    0.415
         7 -10.2449    144.2398      5.5302   3.5154708862e+02   4.7781947782e+01    0.4609996    0.2105027 -26.87  0.002171731    2.308    0.567
         8  -8.6902    171.7464      2.7452   3.4852579694e+02   4.1599645639e+01    0.2036197   0.06428915 -40.32  0.000896714    2.438    0.590
         9  -8.9320     94.3057    242.5185   5.6713780939e+01   1.1669051446e+01    0.1917102    0.1128279 -60.55  0.001082535    2.054    0.513
        10  -8.2581    133.3132    250.3009   4.9167697708e+01   5.9093389038e+00    0.1176127   0.07799254  -4.34 0.0004358712    1.610    0.379
        11 -12.7203      3.4206    162.9658   7.4269555563e+01   3.9184192325e+01     1.821158     1.235634  73.03  0.005676553    1.327    0.247
        12 -14.2763     22.7297    200.4005   7.0855589111e+01   2.8290423609e+01     7.334241     1.550997  56.30   0.01912237    6.454    0.845
        13 -14.9310     32.4755    189.9173   6.7506618608e+01   2.9857679985e+01     10.67256     4.042634  74.43   0.03142679    3.937    0.746
        14 -15.4231      6.4499    232.8057   7.6280370348e+01   2.2592482355e+01     4.314572     1.264062  21.91  0.009862843    3.147    0.682
        15  -8.7237     76.5574    233.5384   5.9926488211e+01   1.5387010561e+01    0.2284663     0.184827  30.82  0.001391037    1.041    0.040
        16  -9.3332     70.5191    232.0944   6.1216068465e+01   1.6358257897e+01    0.3299923    0.2530403  82.51  0.001460215    1.530    0.346
        17  -8.9619     70.8706    226.8563   6.0670831053e+01   1.7362804172e+01    0.1889388    0.1653406   8.28 0.0006254956    1.221    0.181
        18 -11.1073    138.5025    231.8883   4.5860842354e+01   8.2806597853e+00    0.4511142    0.2157833  19.44  0.002199232    2.089    0.521
        19 -11.6814    123.9997    230.3400   4.8782723912e+01   1.0303548628e+01    0.5835323    0.5382939  53.64  0.003041704    1.322    0.244
        20 -10.2015    148.3339    229.2410   4.3464249431e+01   7.5386384271e+00    0.2427975    0.1970929   0.72 0.0008155794    1.083    0.077
        21 -10.9768    114.5672    230.4854   5.0887124029e+01   1.1429484080e+01    0.5325976     0.263258  44.43  0.002598375    2.128    0.530
        22 -10.8099    122.5418    205.7703   4.5870989285e+01   1.5054633528e+01    0.4556282    0.2140307  32.66  0.002091948    1.902    0.474
        23  -8.5787     72.2982    203.5965   5.8024761817e+01   2.2130538861e+01    0.2221727    0.1574919 -87.55 0.0006591777    1.657    0.396
        24  -8.2336     91.3864    199.8254   5.2666303049e+01   2.0501578386e+01    0.1882856    0.1222968 -48.05 0.0008927935    1.687    0.407
        25  -8.7482     83.1466    198.6006   5.4634418728e+01   2.1860528086e+01    0.2396774    0.1837866  79.29 0.0007791287    1.537    0.350
        26 -14.5778      8.2175    208.5647   7.5001586088e+01   2.7675434705e+01     5.232667      1.43051  24.54  0.009111218    3.051    0.672
        27  -9.3661    191.8051    193.0218   2.9457455745e+01   8.0409076242e+00    0.3757699    0.2006151 -60.35  0.001443959    4.705    0.787
        28  -8.9281     77.3295    192.1806   5.5387351282e+01   2.4076229217e+01    0.3035189    0.2119547 -31.44  0.001513652    1.791    0.442
        29  -9.7838     67.4162    191.6859   5.8007967778e+01   2.5463607377e+01    0.2474093    0.2114872  50.91 0.0003573709    1.087    0.080
        30  -9.4951    181.0104    179.3570   2.9096943335e+01   1.1763197515e+01    0.3700175    0.1677337 -46.75  0.001706882    2.224    0.550
        31  -8.7803     70.8953    177.8011   5.5353578880e+01   2.8340012838e+01    0.2887714    0.1747429  71.63  0.001240726    2.145    0.534
        32  -8.0467    122.5106    173.5080   4.0824306447e+01   2.1731429019e+01     0.139588    0.1338879  22.61 0.0002832394    1.038    0.037
        33  -9.6316    104.4281    172.5770   4.5309130577e+01   2.4747113891e+01    0.4529388     0.225514  47.05  0.001838357    2.167    0.538
        34 -10.5149     94.8999    163.5377   4.6405382982e+01   2.8343031027e+01    0.7910519    0.5734504 -31.97  0.001910478    1.623    0.384
        35 -10.8154     54.9186    149.4736   5.6351148740e+01   3.7699090347e+01     0.810118    0.4673881 -66.05 0.0006450149    1.709    0.415
        36 -12.5261     52.3687    128.8128   5.3969170119e+01   4.3598071146e+01     1.411475    0.9324858  57.51  0.004073632    1.635    0.388
        37 -12.0651     62.2351    150.5612   5.4137828183e+01   3.6439327193e+01    0.7190888     0.465571 -34.17 0.0007796767    1.960    0.490
        38  -8.5948    237.4736    249.5064   3.0461019715e+01  -4.3449795360e+00    0.1011951   0.06904689  -7.63 -6.498851e-05    1.003    0.003
        39  -7.9830    137.4936    156.5404   3.4049025575e+01   2.2939535606e+01     0.139005    0.1373317 -10.61 6.141394e-05    1.060    0.056
        40  -9.0280    105.7028    154.4435   4.1782070388e+01   2.8779740217e+01    0.3754942    0.2556139  85.02  0.001397671    2.234    0.552
        41  -8.8914     53.0731    154.6105   5.7668306767e+01   3.6571098721e+01    0.3109066    0.1980701  68.84 0.0009018244    1.779    0.438
        42 -13.4853     43.1709    181.1777   6.3723713815e+01   3.0887103133e+01     3.561288     1.415848  53.20   0.01342861    2.675    0.626
        43 -11.4249     83.0741    148.8141   4.7310961981e+01   3.3828816487e+01    0.7394362    0.5163211 -31.80  0.003345716    1.764    0.433
        44  -9.5858    134.0913    147.7061   3.3089876983e+01   2.5426020566e+01    0.6258093    0.2069558 -55.42  0.001890148    3.884    0.743
        45  -9.3558    133.5983    139.0681   3.1390090895e+01   2.7396533070e+01    0.4958417    0.2821247 -38.86  0.002125749    1.844    0.458
        46  -8.3349    142.2116    150.0102   3.1637667080e+01   2.3512016246e+01    0.1931129    0.1750305 -38.18  0.001087925    1.067    0.063
        47  -9.0362     44.2220    146.4368   5.9489339165e+01   3.9831640931e+01    0.3518168    0.1293615  29.36  0.001263732    2.529    0.605
        48  -8.7226     32.8071    142.4877   6.2905071612e+01   4.2162678876e+01    0.2799014    0.2649476  10.90  0.001243768    1.172    0.147
        49  -8.4652     43.6723    141.3059   5.8981714855e+01   4.1286370114e+01    0.1607425    0.1028871  59.75 0.0004526837    1.652    0.395
        50 -11.1858     85.3972    135.8861   4.4148779249e+01   3.6739256974e+01    0.3632349    0.3009975 -67.94 0.0004623937    1.228    0.186
        51 -10.1160     98.0844    137.1437   4.0544506755e+01   3.4259116145e+01    0.5443711    0.3771598  -9.68   0.00225116    2.230    0.552
        52  -8.2997     96.2848    133.0487   4.0219944130e+01   3.5583470304e+01    0.2700352    0.1966292 -67.92 0.0003621649    1.486    0.327
        53  -7.6809    143.7089    138.4105   2.8853864721e+01   2.5688060568e+01    0.1494285    0.1140636 -82.60  0.000365592    1.827    0.453
        54  -9.0052     37.4225    135.8848   6.0438642854e+01   4.3478649972e+01    0.4379143    0.1796028  53.86  0.001497835    2.916    0.657
        55 -10.6661    236.8437    108.2064   6.7260357192e+00   1.5046610059e+01    0.7358266    0.1705251 -47.63  0.002259317    5.544    0.820
        56 -11.4486    243.6956    124.1217   9.0036075514e+00   1.1743048246e+01    0.5628638    0.2054394 -45.88  0.002640611    2.483    0.597
        57  -9.4496    110.8489    168.0732   4.2855142757e+01   2.4776410898e+01    0.2839381    0.2154283 -72.70 0.0008519729    1.560    0.359
        58 -11.8331     75.0011    155.4552   5.0902913304e+01   3.3361002012e+01     1.235278    0.7341058  79.37 0.0004023419    2.503    0.601
        59 -10.9313     59.8951    167.5273   5.7248483447e+01   3.2346555411e+01    0.4257016    0.4097944  78.31  0.001744523    1.053    0.050
        60  -9.1873    109.1816    128.4700   3.5454841377e+01   3.4347365072e+01     0.326239    0.2502394  16.40 0.0008677142    1.592    0.372
        61  -9.2715    136.2981    127.2272   2.8096733274e+01   2.9460316845e+01    0.3719589    0.2421382 -62.35  0.001255325    1.808    0.447
        62  -7.8521    125.6604    126.9694   3.0674048225e+01   3.1563785001e+01    0.2468567    0.1243055 -68.65 0.0007043908    4.308    0.768
        63  -9.4623     96.0046    124.2318   3.8366051795e+01   3.7807896006e+01    0.3244948    0.2690176 -12.05  0.001076772    1.489    0.328
        64  -7.7947    115.3248    122.6380   3.2398815083e+01   3.4543792782e+01     0.160867    0.1206478  85.53 -2.508361e-05    1.786    0.440
        65 -10.9222     65.1953    163.2223   5.5064119081e+01   3.2750719962e+01     0.544021    0.3575877   5.59 0.0008380443    2.002    0.500
        66 -13.8152      5.4263    249.0620   7.6981581181e+01   1.9462824116e+01    0.6817144    0.3899741  38.79  0.002098373    1.297    0.229
        67  -8.7692     85.0357    118.1794   4.0452621828e+01   4.1294628652e+01    0.3457465     0.220522  82.08  0.001072318    2.530    0.605
        68  -8.6102    106.0862    118.0096   3.3897405225e+01   3.7414119238e+01    0.2183006    0.2154709 -45.43 0.0003039314    1.044    0.042
        69  -8.5892    229.0565    113.6006   8.7290406573e+00   1.5425978520e+01     0.192005    0.1329968 -44.60   0.00120597    1.206    0.171
        70 -10.6793     53.1210    111.3483   5.0382267323e+01   4.8218508218e+01    0.6217381    0.3319436 -62.52  0.002540272    1.812    0.448
        71 -10.7788     50.0693    105.7422   5.0403911434e+01   5.0147365391e+01    0.7030734    0.4294087 -18.56  0.001776992    2.573    0.611
        72  -8.9636     32.7887    111.2089   5.8501233595e+01   5.0781546727e+01    0.3411541   0.08061855  31.16  0.001039985    3.525    0.716
        73 -11.6164    236.8544    163.6694   1.7138741658e+01   6.8860409673e+00    0.4237736    0.2568976 -15.57  0.002552934    1.755    0.430
        74  -9.2036     59.5394    110.2089   4.7670714546e+01   4.7584431277e+01    0.3077356    0.2256807  61.74 0.0008429278    1.518    0.341
        75  -7.7525    223.0361    100.0439   6.6987326769e+00   1.8434340887e+01    0.1489995    0.1158815 -41.26 0.0003627297    1.030    0.030
        76  -7.7722    101.2193    100.6748   3.0901219357e+01   4.2441025132e+01     0.150025    0.1174037 -79.41 0.0001833985    1.501    0.334
        77  -9.9158     32.4919    157.5101   6.4659279240e+01   3.8140262231e+01    0.2677218    0.1744451  30.69  0.001240937    1.486    0.327
        78  -8.2818     46.5388     92.4475   4.8841127923e+01   5.4156077506e+01    0.1484547    0.1436963 -89.09 0.0001751079    1.029    0.028
        79  -7.6519    142.6347     91.1928   1.7610577252e+01   3.5585126600e+01    0.1896438     0.135152 -35.39  0.000258423    1.455    0.313
        80  -8.3256     23.2186     88.5863   5.8666255415e+01   5.7899038568e+01    0.2023587    0.1386556  -1.72  0.000956906    1.714    0.417
        81  -7.9956    234.4825     86.5061   2.6206838960e+00   1.8553357812e+01    0.1221145   0.09206887 -46.97 0.0008096804    1.060    0.057
        82  -8.4432    185.9911     69.4393   4.4707319346e+00   3.0035218432e+01    0.1955836    0.1556155 -45.95 0.0003238927    1.107    0.097
        83  -9.2379     95.0913    248.0041   5.7065130867e+01   1.0611525165e+01    0.2309383    0.1855509  -9.45  0.001537778    1.390    0.281
        84 -11.9635    199.8291     56.0963   3.5957344079e+02   2.9170846412e+01    0.7392777    0.6228157  46.19  0.002427464    1.552    0.356
        85  -8.4986     75.5981    248.1974   6.1399673196e+01   1.2750680339e+01    0.2495093   0.08853547 -54.14  0.001136957    3.260    0.693
        86  -8.1608     80.5005     32.9559   1.3887973034e+01   6.0326850938e+01    0.1913881    0.1400906 -36.64 -0.0006343728    1.452    0.311
        87  -7.8589    211.5235     28.4937   3.5209997306e+02   3.0388277555e+01    0.1203471   0.09514062 -56.94 0.0002973572    1.037    0.036
        88  -7.7333     96.2927     34.7303   1.0102238621e+01   5.6296406494e+01     0.139689    0.1053389 -77.64 0.0001786294    1.512    0.339
        89  -9.0799     48.4905    243.5238   6.7177526978e+01   1.6511282555e+01    0.3281694    0.1593467  51.12  0.001726248    1.860    0.462
        90  -7.7753     96.3706     18.5032   3.3851748435e+00   5.8360373172e+01    0.1333679    0.1231253  87.06 0.0001164307    1.039    0.038
        91 -14.1080     12.1139    244.3587   7.5386190645e+01   1.9801042007e+01    0.8653439     0.451227  89.37  0.005007785    2.053    0.513
        92  -8.5586    116.0046     12.4945   3.5737734157e+02   5.4087279114e+01    0.2134157    0.1687727  57.25  0.001231303    1.278    0.218
        93  -8.8880    248.3164    245.6613   2.8341075809e+01  -4.8024619899e+00   0.08136168   0.07059563 -13.66 0.0007048335    1.703    0.413
        94  -8.2366     79.5281    244.9642   6.0250130445e+01   1.2902781136e+01    0.1549689    0.1224663 -69.77 0.0008192151    1.550    0.355
        95  -9.0687     71.9479    243.1054   6.1807830845e+01   1.4087036574e+01    0.3033592    0.1583323 -54.84  0.001462412    2.266    0.559
