#   1 NUMBER                 Running object number                                     
#   2 MAG_AUTO               Kron-like elliptical aperture magnitude                    [mag]
#   3 X_IMAGE                Object position along x                                    [pixel]
#   4 Y_IMAGE                Object position along y                                    [pixel]
#   5 X_WORLD                Barycenter position along world x axis                     [deg]
#   6 Y_WORLD                Barycenter position along world y axis                     [deg]
#   7 A_WORLD                Profile RMS along major axis (world units)                 [deg]
#   8 B_WORLD                Profile RMS along minor axis (world units)                 [deg]
#   9 THETA_WORLD            Position angle (CCW/world-x)                               [deg]
#  10 FWHM_WORLD             FWHM assuming a gaussian core                              [deg]
#  11 ELONGATION             A_IMAGE/B_IMAGE                                           
#  12 ELLIPTICITY            1 - B_IMAGE/A_IMAGE                                       
         1 -14.4112    197.1238     16.2340   6.6722210342e+01   3.3751787058e+01     2.648018     1.703056  24.72   0.01012698    2.225    0.551
         2 -13.7786    202.6141      9.2044   6.4143624005e+01   3.3074756559e+01     1.704888    0.6843691  55.01  0.001385721    2.421    0.587
         3 -10.3166     32.8025      3.3868   1.0311369400e+02   7.1279731175e+01    0.2210819   0.07689989 -38.35  0.001034716    2.625    0.619
         4 -11.6948     75.9107    188.3248   1.3530094407e+02   2.7294210824e+01    0.2745091    0.2197458 -57.46 0.0008001365    1.494    0.331
         5 -11.4509    248.8848    248.7768   1.1119573169e+02  -1.0253538271e+01    0.3658836    0.2238965  -6.72  0.002450755    1.707    0.414
         6 -12.3113    140.4456    249.1952   1.2976138523e+02   6.4731738470e+00    0.4583486    0.2748706  56.09  0.002814498    1.499    0.333
         7 -12.7665    125.9961    244.1046   1.3176308312e+02   9.5031832989e+00    0.5236387    0.2970565  53.79  0.003136343    1.451    0.311
         8 -11.6297    120.0084    238.2387   1.3221160860e+02   1.1357097321e+01    0.3749151    0.2226108  82.18  0.001716396    2.414    0.586
         9 -12.9974    106.2450    247.0669   1.3553906732e+02   1.2066426134e+01    0.7270854    0.2967143  51.87  0.003820845    1.954    0.488
        10 -12.0462     98.0377    248.4838   1.3709015874e+02   1.3051790315e+01    0.4923643    0.2302443  57.21  0.001521731    1.830    0.454
        11 -12.0695    101.2500    246.0101   1.3631213257e+02   1.2973759111e+01    0.3859378    0.2133696  55.46 0.0003709704    1.428    0.300
        12 -13.0469     80.8936    247.7899   1.3996566944e+02   1.5592739001e+01    0.8093452    0.3237869  44.31  0.004471282    1.929    0.481
        13 -12.4598     81.4919    241.9993   1.3940027785e+02   1.6461792621e+01    0.9802195    0.3741896  69.28  0.003608496    5.085    0.803
        14 -13.4045     35.1072    229.4404   1.4647329746e+02   2.4534852482e+01     1.724631    0.4671913 -67.82  0.007325593    3.477    0.712
        15 -15.0115      5.4547     17.4168   1.2384807581e+02   7.1569856624e+01     19.96592    0.7432605 -55.95    0.0339971   20.965    0.952
        16 -15.9228      7.2138    239.8297   1.5147391817e+02   2.5673883257e+01     7.440011     1.145446 -71.96   0.03276259    5.050    0.802
        17 -15.5036     55.9078    216.9430   1.4195486025e+02   2.4328855476e+01     6.004461     2.447682  45.87   0.02246211    1.984    0.496
        18  -9.3456    125.0177    185.4788   1.2443880128e+02   1.9946124289e+01    0.1898089    0.1179822  21.69 0.0008102611    2.650    0.623
        19 -11.2457     84.3985    175.8945   1.3194230794e+02   2.8666984026e+01    0.3013538    0.2389941 -57.61 0.0005344978    1.413    0.292
        20 -13.2590     72.0128    173.6443   1.3440762452e+02   3.0956274029e+01    0.4535212    0.2702531 -46.80  0.001629898    2.226    0.551
        21 -11.0769    125.7540    174.4122   1.2251017789e+02   2.2036798266e+01    0.4162129    0.1652416  40.51  0.001620075    2.426    0.588
        22 -12.5574     90.4721    167.4074   1.2938881649e+02   2.9565875859e+01     1.603144    0.5567814  53.18  0.005695476    3.353    0.702
        23 -13.2453     67.1822    144.0388   1.3150501165e+02   3.8256786811e+01     1.278323    0.6703977  85.10  0.005230639    2.832    0.647
        24 -12.7019     58.5959    133.3026   1.3206256149e+02   4.1864567113e+01     2.290282    0.7163697 -75.36  0.005187362    8.633    0.884
        25 -10.0914    102.3312    150.9220   1.2392009945e+02   3.1262805906e+01     0.276583    0.2397508 -55.27 0.0007969063    1.230    0.187
        26  -9.3515    104.9938    146.7149   1.2250724946e+02   3.1743122771e+01    0.3177061    0.1833384 -36.56  0.001312386    2.528    0.605
        27 -12.1408     91.2799    150.3311   1.2651953803e+02   3.3236681169e+01    0.2673976    0.2461678 -49.27 0.0005604055    1.268    0.211
        28 -11.7675     46.2778    148.4751   1.3727715869e+02   3.9844975588e+01    0.3756525    0.2175166 -68.56  0.002071706    1.500    0.333
        29 -10.0558    134.3009    147.7207   1.1562499202e+02   2.5997103490e+01    0.5096901    0.1352273 -53.16  0.001429812    4.431    0.774
        30  -8.7954    192.2303    144.0460   1.0208156620e+02   1.4397148142e+01    0.1827185     0.122844 -36.70 0.0003788313    1.532    0.347
        31 -10.0427    112.3270    136.3211   1.1864842405e+02   3.2755462217e+01    0.2929709    0.2383834 -13.81 0.0009502365    1.729    0.422
        32 -10.6821     99.9982    133.5632   1.2124278753e+02   3.5599721519e+01    0.2890771    0.2368961 -29.06 0.0008704803    1.549    0.354
        33 -14.0555     11.4156    207.1571   1.4931587707e+02   3.1145435574e+01     1.287699    0.8591327  30.38  0.009156526    2.036    0.509
        34 -11.5885     50.3031    129.9783   1.3374451972e+02   4.3638077596e+01    0.2717214    0.2109939 -64.47 0.0006011297    1.176    0.149
        35  -9.3845    108.8454    123.6106   1.1682542093e+02   3.6276392575e+01    0.1970464    0.1746552  55.62 0.0004710375    1.132    0.116
        36 -13.3114     47.3143    229.1967   1.4437173717e+02   2.3146033271e+01    0.5226412    0.4149789  62.41  0.001687595    1.207    0.171
        37 -11.2061    168.2787    113.4645   9.9767058144e+01   2.5681212305e+01     0.414273     0.331158 -76.59 0.0009000004    1.536    0.349
        38 -10.5062    192.8038    194.3588   1.1209380545e+02   5.6977751411e+00    0.6816799    0.3595827 -64.61  0.001980394    7.092    0.859
        39 -11.6513     71.1745    195.3781   1.3704708056e+02   2.6515982619e+01    0.3505728    0.2461981 -47.10  0.002061191    2.010    0.502
