#   1 NUMBER                 Running object number                                     
#   2 MAG_AUTO               Kron-like elliptical aperture magnitude                    [mag]
#   3 X_IMAGE                Object position along x                                    [pixel]
#   4 Y_IMAGE                Object position along y                                    [pixel]
#   5 X_WORLD                Barycenter position along world x axis                     [deg]
#   6 Y_WORLD                Barycenter position along world y axis                     [deg]
#   7 A_WORLD                Profile RMS along major axis (world units)                 [deg]
#   8 B_WORLD                Profile RMS along minor axis (world units)                 [deg]
#   9 THETA_WORLD            Position angle (CCW/world-x)                               [deg]
#  10 FWHM_WORLD             FWHM assuming a gaussian core                              [deg]
#  11 ELONGATION             A_IMAGE/B_IMAGE                                           
#  12 ELLIPTICITY            1 - B_IMAGE/A_IMAGE                                       
         1 -14.0664     68.5061    144.7306   9.0058624275e+01   3.7435251754e+01      3.92594     1.833947  77.55  0.003074521    4.385    0.772
         2 -13.3134    222.8690     31.4205   2.7690253778e+01   2.4965844152e+01     1.364813    0.8910329  32.79  0.006555862    1.934    0.483
         3 -13.4556    209.2888     43.1169   3.2569552299e+01   2.6873234537e+01     2.216963     1.471841  25.41  0.008554026    1.933    0.483
         4 -11.7593    248.0901     10.3429   2.0006213822e+01   2.1364443741e+01    0.7539136    0.4073692 -45.68  0.003885911    1.575    0.365
         5 -11.1819    248.9919      2.4913   1.7972902118e+01   2.1910018072e+01     0.494217    0.3942274  68.17  0.003099223    1.427    0.299
         6  -9.4722      1.6393      4.7990   8.1404123016e+01   7.6287928796e+01    0.1656259   0.09437298 -61.18 0.0009500082    1.708    0.414
         7  -8.0867    224.2560    206.6745   6.8242714059e+01   1.6497726925e+00   0.09211838   0.08944587  17.40 0.0001874567    1.551    0.355
         8 -10.3609    102.2426    250.2318   9.4277424518e+01   1.3809154566e+01    0.2821445    0.1099851  40.86  0.001375379    1.878    0.468
         9 -11.0348    101.4781    244.0010   9.3900346768e+01   1.4768862861e+01    0.4549747    0.1658909 -57.37  0.002530329    3.452    0.710
        10  -9.3740     90.8749    250.1476   9.6158886711e+01   1.5266679117e+01    0.1303802    0.1039153  37.85  0.000444324    1.321    0.243
        11 -15.5442      8.8990    207.8194   1.0794838569e+02   3.1216305931e+01     8.244078     1.199322 -81.01   0.01500117    6.622    0.849
        12 -16.1728     11.8707    244.0174   1.0867863332e+02   2.4924528779e+01     6.326022     2.365206  26.21   0.03020545    5.042    0.802
        13  -9.5947    116.1313    186.9065   8.5096164413e+01   2.1766685258e+01    0.1937087    0.1507111  65.85 0.0007992801    1.280    0.219
        14  -8.5070    145.4711    183.9756   7.8734174830e+01   1.7482108504e+01    0.1602363    0.1108678 -83.40 0.0008075591    2.383    0.580
        15  -9.1128     99.3994    180.8880   8.7795414383e+01   2.5452731493e+01    0.2075777    0.1495569  52.99 0.0006058592    1.215    0.177
        16 -11.1120    232.4380    172.2907   6.0869870879e+01   4.3177796800e+00    0.4231076    0.3654595 -85.76  0.002609451    2.213    0.548
        17 -11.3557     60.3345    171.8241   9.5235041731e+01   3.2678298487e+01    0.3644412    0.2831492 -28.00  0.002200022    2.114    0.527
        18 -11.1881     65.4083    167.1617   9.3601995715e+01   3.2996494124e+01    0.2612856     0.248177 -30.22  0.001054705    1.452    0.311
        19 -11.6266     83.0811    152.0169   8.7528303635e+01   3.3761305350e+01    0.6796831    0.4810056 -49.50  0.003436617    1.607    0.378
        20 -12.3382     75.4703    158.0460   9.0174987722e+01   3.3563240405e+01    0.9613098    0.4578895  58.79  0.001527096    2.345    0.574
        21 -12.8143     62.4422    154.0287   9.2762295624e+01   3.6185492646e+01    0.4045187     0.338064 -43.46    0.0012444    1.555    0.357
        22  -9.5755    123.8054    201.8849   8.5512627136e+01   1.8015046470e+01    0.2362747    0.1579555 -68.71  0.001059991    1.881    0.468
        23  -8.7266     41.0010    164.9408   9.8904328746e+01   3.6395211510e+01    0.1957202    0.1094528  65.49 0.0004646944    1.634    0.388
        24 -11.1072     33.8187    158.0614   9.9948964782e+01   3.8633516986e+01    0.6401797    0.2386151  62.10  0.002764823    2.966    0.663
        25  -8.0578    125.2810    151.3605   7.7521394397e+01   2.6949351302e+01    0.1336477    0.1081586 -11.43 0.0007015026    1.672    0.402
        26 -10.1124    133.7592    144.9826   7.4389886446e+01   2.6656628123e+01    0.9412311    0.2400121 -54.75  0.002298015    6.895    0.855
        27 -10.5431    193.9607    196.4714   7.1664815493e+01   7.5570022162e+00     0.329868    0.2460232 -81.16  0.001577421    3.117    0.679
        28  -9.8587     54.5543    147.8001   9.3928557278e+01   3.8552520200e+01    0.3101639    0.1150683 -71.27  0.001308298    2.616    0.618
        29  -8.8001     47.9850    145.8085   9.5323742476e+01   3.9781184970e+01    0.1795512    0.1246305 -54.80  0.001040802    1.604    0.377
        30  -9.8164     29.1750    142.9895   9.9716901292e+01   4.2425725161e+01    0.3057025    0.2082176  23.10  0.001646556    1.912    0.477
        31  -8.2559     39.3104    147.2708   9.7627687132e+01   4.0424258355e+01    0.1094464   0.09062231 -48.09 0.0002102882    1.547    0.354
        32 -10.1026     98.5556    138.4895   8.1526487590e+01   3.4271708786e+01    0.4949603    0.3529291 -15.78  0.002291519    2.461    0.594
        33 -11.6391     85.3453    137.7289   8.4720683041e+01   3.6557081896e+01    0.2722448    0.2489689 -64.06 0.0004886835    1.157    0.136
        34  -9.8643     46.8005    169.1045   9.7977181911e+01   3.4868263211e+01    0.2513925    0.2435459  80.24  0.000898615    1.342    0.255
        35 -13.2674     33.3795    195.6639   1.0277218271e+02   3.1060550815e+01    0.8779633    0.5947921  64.73  0.005851985    1.128    0.114
        36 -10.2324    107.1694    130.1832   7.7778291313e+01   3.4604456730e+01     0.469159    0.3140473  27.13  0.002223826    1.881    0.468
        37  -9.3146    135.6072    130.7713   7.1006210665e+01   2.9133715885e+01    0.2068352    0.1353846 -57.64 0.0009558137    1.697    0.411
        38 -11.1366    239.6589    168.9359   5.9083093430e+01   3.5488870882e+00    0.3241024    0.1730974  48.56  0.001264001    2.178    0.541
        39  -9.6731     77.4860    124.4778   8.4467375555e+01   4.0767163997e+01    0.7777932    0.3536317  68.73  0.001985154    7.007    0.857
        40  -8.6495    110.6429    167.7607   8.3533038758e+01   2.6218708693e+01    0.1699758    0.1193582 -73.21 0.0004484009    1.614    0.380
        41  -8.8170     96.8277    124.4952   7.9288940169e+01   3.7662782904e+01    0.2043152    0.1839935 -32.27 0.0003200681    1.300    0.231
        42  -8.6763    162.3069    119.8436   6.2491084642e+01   2.5743451738e+01    0.2333071    0.1817415 -60.37  0.001150577    1.516    0.341
        43  -9.1517    106.1220    118.2132   7.5507804013e+01   3.7425845286e+01    0.1953899    0.1920935 -12.91  0.000337077    1.139    0.122
        44  -8.8380    158.8945    115.1404   6.2058809541e+01   2.7356038469e+01    0.2262956    0.1969856 -73.52 0.0006770854    1.351    0.260
        45  -9.8582    231.2334    113.7504   4.8463601214e+01   1.2212092619e+01     0.263304    0.2409261  14.55 0.0008106988    1.124    0.110
        46  -8.6173     35.8520    111.8308   9.4291426101e+01   4.9024479672e+01    0.1805862    0.1300936  65.92 0.0008417901    1.380    0.275
        47  -9.3413    205.2235    110.3811   5.1846128938e+01   1.8073757233e+01    0.3349666    0.2021836  37.93  0.001144103    1.752    0.429
        48  -8.5132     75.9067    111.4489   8.2394840775e+01   4.4046120485e+01    0.1929862    0.1361282  42.06 0.0004638509    1.499    0.333
        49  -8.9768     32.2101    109.1950   9.5009601749e+01   5.0018424136e+01    0.1819738    0.1292343  80.02  0.000574252    1.335    0.251
        50 -10.2150    240.8139    102.1496   4.4268477456e+01   1.1894762522e+01    0.1946756    0.1483826   5.88  0.001037301    1.342    0.255
        51  -8.1432     59.6875    100.2939   8.4979537810e+01   4.9013893128e+01    0.1387163   0.09889898  76.95 0.0002506215    1.594    0.373
        52 -10.0014    249.4199     90.7927   4.0350726834e+01   1.1684271047e+01     0.200204    0.1157067 -15.74 0.0009558843    1.696    0.410
        53  -9.9724     52.9003     90.7119   8.5139148252e+01   5.2196956975e+01    0.2491193     0.164792 -53.57 0.0006928007    1.370    0.270
        54  -8.5209    161.3135     84.3094   5.3071027771e+01   3.2509247940e+01    0.1578684    0.1204987  12.71 0.0004998355    1.629    0.386
        55  -9.0066     37.0575     63.7840   8.4415171879e+01   6.0463525515e+01    0.1906058    0.1667915  88.25 0.0006376551    1.243    0.195
        56 -14.2158     42.9126    186.8860   1.0027090068e+02   3.1715039878e+01     2.522204     1.120487  65.17   0.01166466    2.197    0.545
        57 -10.9692     12.8423     59.4384   9.3404304778e+01   6.3588282854e+01    0.3807518    0.2439534  64.05 0.0009343442    1.932    0.482
        58  -9.8904    190.8214    190.8173   7.1285076793e+01   8.8182105361e+00    0.3245042    0.2100991 -63.09  0.001569658    3.238    0.691
        59 -11.9052    199.9220     49.3001   3.5633792784e+01   2.8400796102e+01    0.7746238    0.5126209  40.68  0.001309139    1.704    0.413
        60 -11.0230    119.7085    245.0377   9.0901420652e+01   1.2204743466e+01    0.1978795    0.1689784 -58.43 0.0008943037    1.554    0.357
        61 -10.4271      5.4780     50.2034   9.4680692205e+01   6.6208970744e+01    0.2176069    0.1680815  15.32 0.0007093129    1.650    0.394
        62  -9.6188     39.6875     58.0940   8.1727919047e+01   6.1499183299e+01    0.2310161    0.1943114  65.34 0.0007092505    1.432    0.302
        63  -8.9989    197.9435     23.8689   2.8058840006e+01   3.2020204819e+01    0.2220169    0.1918953  20.55 0.0006316729    1.297    0.229
        64  -7.9330     23.3038     57.2893   8.8431058310e+01   6.3302216103e+01     0.130084   0.08135912 -41.28 0.0002530463    1.568    0.362
        65 -13.6923     55.7179    234.5985   1.0105182796e+02   2.1827653258e+01     1.493791    0.5760927 -88.93  0.006503859    3.668    0.727
        66  -9.1856     87.0862    206.5338   9.3158310108e+01   2.2558500868e+01    0.1628545    0.1346759  72.27 0.0003541095    1.123    0.109
