#   1 NUMBER                 Running object number                                     
#   2 MAG_AUTO               Kron-like elliptical aperture magnitude                    [mag]
#   3 X_IMAGE                Object position along x                                    [pixel]
#   4 Y_IMAGE                Object position along y                                    [pixel]
#   5 X_WORLD                Barycenter position along world x axis                     [deg]
#   6 Y_WORLD                Barycenter position along world y axis                     [deg]
#   7 A_WORLD                Profile RMS along major axis (world units)                 [deg]
#   8 B_WORLD                Profile RMS along minor axis (world units)                 [deg]
#   9 THETA_WORLD            Position angle (CCW/world-x)                               [deg]
#  10 FWHM_WORLD             FWHM assuming a gaussian core                              [deg]
#  11 ELONGATION             A_IMAGE/B_IMAGE                                           
#  12 ELLIPTICITY            1 - B_IMAGE/A_IMAGE                                       
         1 -11.1766    248.3397    107.7298   4.0421419162e+01   1.2712598789e+01    0.6678153    0.2261062 -33.65  0.003067428    2.289    0.563
         2  -8.2291     97.0194     14.7151   3.5633693759e+01   5.9096367048e+01    0.2656625    0.1633933 -39.26 0.0007083206    1.677    0.404
         3  -7.7768     83.5023     10.9963   3.7073392904e+01   6.2953331637e+01    0.1969266    0.1040458 -48.35  0.000440455    2.275    0.560
         4  -8.6182     55.5700      9.8547   4.5941142923e+01   6.9746269959e+01     0.247198     0.210127 -73.89 0.0007413641    1.535    0.348
         5  -7.9895     47.5979      9.8171   4.9632051908e+01   7.1461870593e+01      0.18818    0.1208811 -40.03 0.0006112349    1.665    0.399
         6  -8.4397    101.5728      7.8595   3.1322334998e+01   5.8586281404e+01    0.1960679    0.1240858 -37.17 0.0004826475    1.620    0.383
         7  -7.9524      5.6621      7.3544   7.9474094507e+01   7.8440021132e+01    0.1204789   0.09803928  67.40 0.0001561783    1.803    0.445
         8  -8.5865     33.3993      4.8058   5.3933292394e+01   7.4951195573e+01     0.308109    0.1810911 -49.69  0.001132518    2.301    0.565
         9  -8.6507     79.2009      3.5755   3.4030112184e+01   6.4764295027e+01    0.2843702    0.1543744 -39.04 0.0009626102    1.970    0.492
        10  -8.3513     90.9933      8.7616   3.4010950848e+01   6.1264981413e+01     0.258025    0.1688993 -39.30  0.000690985    1.601    0.375
        11  -8.2130     16.0062      3.2522   6.6114077528e+01   7.8032055490e+01     0.158562     0.104294  29.71 0.0008412906    1.541    0.351
        12  -7.7080    115.3269      1.7171   2.6202736309e+01   5.5446415267e+01    0.1465237   0.09811921 -61.76 0.0002686436    1.602    0.376
        13  -8.2997     62.5345      1.4680   3.7616209468e+01   6.9062054240e+01    0.2151817    0.1334174  77.97 0.0005642545    1.977    0.494
        14  -7.5075     39.5094      1.4827   4.7588673516e+01   7.4195441933e+01    0.1329272    0.1188132  13.37 -8.234962e-06    1.010    0.010
        15  -9.1725    146.7903    245.6828   8.1606617314e+01   8.6554837132e+00     0.163528     0.157182 -89.66 0.0008636277    1.618    0.382
        16 -10.1066    248.8615    243.7105   6.4361620261e+01  -2.2559765282e+00     0.546605    0.1679284 -31.25  0.002892168    3.157    0.683
        17  -9.4164    242.9612    246.8177   6.5642719304e+01  -1.9659036881e+00    0.3838308    0.1414477 -19.87  0.002201659    2.864    0.651
        18  -7.6004    125.3114    250.6584   8.6193488154e+01   1.0513162637e+01     0.106482    0.0697515  48.47 0.0007045837    1.698    0.411
        19  -8.4853     93.9437    249.1498   9.2153503669e+01   1.4304931727e+01    0.2062778    0.1343582  64.00  0.001219261    1.962    0.490
        20  -9.1025    120.2540    245.0259   8.6610870246e+01   1.1871091043e+01      0.27947    0.1664276  59.25  0.001607289    2.622    0.619
        21  -8.5626     67.4492    244.7321   9.7118773584e+01   1.7870890562e+01    0.1635092    0.1063531 -84.52 0.0007241102    1.982    0.495
        22  -8.6973    202.0007    243.3622   7.1559337512e+01   2.5938872169e+00    0.1607874    0.1360528 -25.79 0.0008921364    1.684    0.406
        23  -8.4984    139.5038    244.0571   8.2799802054e+01   9.7277997150e+00    0.1340143    0.1101654 -41.80  0.001025687    1.584    0.369
        24  -9.0245     78.1623    243.0439   9.4833866974e+01   1.6979301336e+01    0.2782127    0.1178011  54.06   0.00141609    2.690    0.628
        25  -7.9788     58.6645    244.3600   9.8867763695e+01   1.8847613861e+01    0.1197048   0.05860094  52.01 0.0007038869    1.812    0.448
        26  -8.4100     34.3891    243.7852   1.0371510718e+02   2.1325502496e+01    0.1204196   0.09600683 -73.46 0.0006763065    1.579    0.367
        27  -8.4172    168.9518    242.9876   7.7221096119e+01   6.3875455556e+00    0.1489055    0.1166338  41.73 0.0005318202    1.643    0.391
        28  -8.5093    153.4770    242.8100   8.0030225200e+01   8.2311497036e+00    0.1656642    0.1446976  12.64  0.001326008    1.237    0.192
        29  -9.2651    183.0309    240.0656   7.4354951789e+01   5.0948552553e+00    0.3013395    0.1980236  48.64  0.001893253    2.513    0.602
        30  -9.1991    160.1828    240.2952   7.8488626596e+01   7.7511578438e+00    0.2352689    0.1926655 -72.06  0.001083294    2.321    0.569
        31  -7.9175     88.3246    242.1301   9.2703890974e+01   1.5988456288e+01    0.1317175   0.09922551  84.65 0.0006408399    1.758    0.431
        32  -7.8994     49.4054    242.2517   1.0061989750e+02   2.0126776340e+01    0.1395948   0.08866499  72.41  0.000947463    1.706    0.414
        33  -9.0561    242.9797    236.0203   6.4140170166e+01  -9.8585955384e-01     0.254699    0.1102458   6.79  0.001374765    2.852    0.649
        34  -9.1204    193.9679    239.3265   7.2372186325e+01   3.9261143963e+00    0.1541245    0.1323758  16.77 0.0005065342    1.439    0.305
        35  -8.3484    146.3221    239.3800   8.0974395887e+01   9.5301359388e+00    0.1915671    0.1300481  52.08 0.0009163131    2.040    0.510
        36  -8.8221    135.6029    238.6707   8.2951758316e+01   1.0920350784e+01    0.1670181    0.1316513  80.36 0.0008049021    2.212    0.548
        37  -8.3174    129.4730    238.4620   8.4124341440e+01   1.1690500972e+01    0.1597622     0.112827 -73.98 0.0009304404    2.433    0.589
        38  -9.2268    231.2137    237.0602   6.6049355583e+01   1.1204219676e-01    0.2089865    0.1964715  51.70  0.001587791    2.660    0.624
        39  -8.0643    209.3692    238.2176   6.9657614645e+01   2.3262275773e+00    0.1224673   0.08951411 -29.07 0.0004302773    1.673    0.402
        40  -9.1356    216.7000    235.3757   6.8080999249e+01   1.8207267847e+00    0.1881576    0.1457993  33.60  0.001181236    1.781    0.439
        41  -9.2732    213.6551    231.6150   6.8042013681e+01   2.5490001680e+00     0.230666    0.1929226  44.65  0.001182969    2.193    0.544
        42  -8.9233    203.1949    234.7757   7.0202732486e+01   3.3818158060e+00    0.1966449    0.1594832 -44.79  0.001095323    2.147    0.534
        43  -9.8705    175.7629    233.3556   7.4767911223e+01   6.7461240489e+00    0.3490126    0.1992477 -50.28  0.002079743    2.805    0.643
        44 -10.0280    120.9066    234.5000   8.5397025353e+01   1.3298759930e+01    0.2732038    0.1811789  21.24 0.0008451669    1.297    0.229
        45  -9.5776    109.7108    234.5750   8.7669232651e+01   1.4644273248e+01    0.5029528    0.1637467  42.71  0.002281158    2.767    0.639
        46  -8.1362     58.4397    237.0000   9.8461394379e+01   2.0068224056e+01    0.2524922   0.05006012  28.62 0.0009375439    3.957    0.747
        47  -7.9769     25.2207    236.1875   1.0525715279e+02   2.3437326520e+01    0.1553825   0.06850368  77.32 0.0008671456    2.518    0.603
        48  -8.9642    247.8956    234.3480   6.3185114182e+01  -1.3196029173e+00    0.1942184    0.1019527 -17.19 0.0009372975    1.595    0.373
        49  -9.4237    246.6128    228.5553   6.2533164787e+01  -6.5147336512e-01    0.3050113    0.1449911 -24.67  0.001623705    1.858    0.462
        50  -7.8069    170.4048    235.5206   7.6019437948e+01   7.1230784512e+00    0.1095205   0.08367495  16.77  0.000189316    1.055    0.052
        51  -8.3953     99.9987    234.4816   8.9648818427e+01   1.5818582784e+01     0.218211     0.109734  61.01  0.001027321    3.363    0.703
        52  -8.9774     78.7533    234.2791   9.4039164773e+01   1.8309306452e+01    0.2224237    0.1377375  77.23  0.001119519    2.213    0.548
        53  -9.2744      7.9538    234.9912   1.0870628052e+02   2.5119721669e+01    0.1313773   0.09431349  47.77 0.0005570603    1.011    0.011
        54  -8.2303    144.9883    233.1702   8.0495979318e+01   1.0527002532e+01    0.1822816    0.1049727  46.36  0.001062364    2.019    0.505
        55  -9.8676     68.7788    232.2272   9.5975547449e+01   1.9756431264e+01    0.4518552    0.1930206  59.81  0.002150851    3.073    0.675
        56  -8.3215    194.2702    232.3719   7.1380661586e+01   4.6733371483e+00    0.1757369    0.1117284  29.40 0.0005634311    1.385    0.278
        57  -9.1932    186.5178    230.4404   7.2461745227e+01   5.8109235313e+00    0.2465046    0.2231694  85.65  0.001469436    2.352    0.575
        58  -8.3273    132.4772    232.0531   8.2815670129e+01   1.2231087515e+01    0.1405534    0.1150557 -47.10 0.0005762614    1.569    0.363
        59  -8.4667     92.7574    231.5697   9.0881522485e+01   1.7133307566e+01    0.2930354    0.1166497  48.99   0.00120297    2.680    0.627
        60  -9.6634    236.1524    229.9438   6.4284527354e+01   2.9118297644e-01    0.3433452    0.1417387 -26.98  0.001412246    2.250    0.555
        61  -8.7353      1.7990    230.6862   1.0984294816e+02   2.6357959484e+01    0.2107525   0.07944036  58.02  0.001094547    2.037    0.509
        62  -9.8908    149.5668    225.9305   7.8711407376e+01   1.0952944194e+01     0.452007    0.3220565  89.82  0.002350018    3.792    0.736
        63  -8.4222    140.1657    230.0564   8.1062213874e+01   1.1558206241e+01    0.2083706    0.1187933  46.28 0.0008833582    1.975    0.494
        64  -7.9231    229.7632    228.5800   6.5060161119e+01   1.1028412609e+00    0.1285911   0.08111586  29.37  0.000606979    1.572    0.364
        65  -8.7307    162.3111    227.6904   7.6499098011e+01   9.1113482942e+00    0.2440987    0.1681149  48.77   0.00147823    1.979    0.495
        66  -8.7318    127.7319    227.0136   8.3186239159e+01   1.3560013397e+01    0.2593667    0.1587016  49.45  0.001281479    1.880    0.468
        67  -7.9368    120.1857    227.7721   8.4810626443e+01   1.4392046101e+01    0.1840457    0.1031173  57.08 0.0008401062    2.720    0.632
        68  -8.6419    206.1356    225.8399   6.8452124909e+01   4.0327220344e+00    0.1929526    0.1421702 -39.15 0.0007422368    1.944    0.486
        69  -8.1960     49.6291    226.6393   9.9677759967e+01   2.2750949402e+01    0.2224762    0.1049418  67.48  0.001166394    2.511    0.602
        70  -7.5864    223.2719    226.6690   6.5793378876e+01   2.0042989383e+00   0.08680476   0.07626592   3.44 0.0002553342    1.589    0.371
        71  -8.6373    200.0863    225.6182   6.9438706678e+01   4.7652889359e+00    0.2212652    0.1345499 -27.37  0.001377196    1.666    0.400
        72  -8.8290     94.3003    224.0685   8.9850965159e+01   1.8171216604e+01    0.3265632    0.1672749  58.83  0.001620466    2.710    0.631
        73  -7.9273     72.3499    225.2981   9.4684191073e+01   2.0534156154e+01    0.1097136   0.08387082  -2.39 0.0007035731    1.686    0.407
        74  -9.0606    216.4736    223.2045   6.6370017310e+01   3.1346569448e+00    0.2299566    0.1708776 -23.08   0.00123028    1.467    0.318
        75  -8.6729    180.3631    224.0326   7.2671264961e+01   7.3379240396e+00    0.1769013    0.1359776  37.02 0.0006677179    1.526    0.345
        76  -8.4345    173.3046    223.2494   7.3850583954e+01   8.3155375666e+00    0.1834141    0.1521271  55.89  0.000661783    1.975    0.494
        77  -8.8915    104.6584    223.4070   8.7577169729e+01   1.7010726120e+01    0.2897416     0.188058  66.08  0.001621713    2.191    0.544
        78  -7.6734     38.2996    224.3042   1.0198296850e+02   2.4298414408e+01   0.09779657   0.08401342 -13.56 0.0003069874    1.589    0.371
        79  -9.2112    160.6608    221.2248   7.5949332668e+01   1.0187301474e+01    0.4748861    0.2197101  49.01  0.002074247    3.726    0.732
        80  -9.1383    239.2097    221.0224   6.2507510517e+01   8.5131997264e-01    0.2591776    0.1495015 -27.19  0.001289264    1.674    0.403
        81  -9.5274    225.7384    221.7383   6.4677633971e+01   2.2476810693e+00    0.1881187    0.1669385   9.90  0.001526208    1.637    0.389
        82  -9.4281    192.4962    221.2842   7.0122504624e+01   6.1854119800e+00    0.2285009    0.2037067  40.50  0.001064465    1.736    0.424
        83  -8.2337    140.4157    222.2596   8.0053003580e+01   1.2645861262e+01    0.1304302      0.11611 -66.99 0.0006647553    1.621    0.383
        84  -9.2884    249.2808    218.7008   6.0677606963e+01   1.9247547246e-02    0.2448365    0.1662981 -21.37   0.00157458    1.445    0.308
        85  -8.7793     82.7098    220.1275   9.1989523794e+01   2.0227647979e+01    0.2867662    0.1481452  50.23  0.001034319    1.878    0.468
        86  -8.5999     73.2046    220.4941   9.4106500397e+01   2.1272146269e+01    0.2704133    0.1251442  61.53  0.001261287    2.948    0.661
        87  -9.3168      7.2161    221.4011   1.0850398616e+02   2.7591012836e+01    0.2903264   0.03923624  43.56  0.001260623    3.110    0.678
        88  -8.1819    202.6955    219.9434   6.8169467576e+01   5.1112474989e+00    0.1496542    0.1142206  -3.97 0.0004321474    1.139    0.122
        89  -9.1755    120.4568    218.9720   8.3747297108e+01   1.5722460575e+01     0.380215    0.1830584  51.35  0.001791737    2.781    0.640
        90  -7.9831     27.4785    220.0711   1.0411813492e+02   2.6091213549e+01    0.1551905    0.1028522 -87.72  0.001041868    1.620    0.383
        91  -8.3954    210.1817    218.8415   6.6751000208e+01   4.3481412516e+00    0.1671269    0.1280807 -23.56 0.0007068394    1.451    0.311
        92  -7.8752    135.3100    218.6220   8.0626508293e+01   1.3848518515e+01    0.1716777   0.09805401  40.29 0.0005546783    1.598    0.374
        93  -8.8263    132.0355    214.9980   8.0840480480e+01   1.4834114725e+01    0.2688895    0.2092278  71.21  0.001107113    1.981    0.495
        94  -8.4632     62.2924    217.2442   9.6262766326e+01   2.3082219012e+01    0.2756014    0.1072293  50.63  0.001168686    2.443    0.591
        95  -9.0615     51.7566    217.2925   9.8614906054e+01   2.4210571493e+01    0.2462291    0.1322979  75.09  0.001056734    2.229    0.551
        96  -8.4852    143.0535    216.5322   7.8783529820e+01   1.3146680877e+01    0.2176647     0.174244  62.58  0.001278598    1.838    0.456
        97  -8.7098    169.2322    215.7532   7.3556238759e+01   9.8252307888e+00    0.1957027    0.1799714  69.29 0.0009808912    1.795    0.443
        98  -8.7036    232.3579    214.4200   6.2539494592e+01   2.2795588763e+00    0.1834428    0.1646691  -1.71  0.001064111    1.662    0.398
        99  -8.1822    154.6415    215.2823   7.6304371363e+01   1.1801388708e+01    0.1687392    0.1321937  54.18  0.001088641    1.792    0.442
       100  -8.9626     93.2042    213.8114   8.9062492938e+01   2.0049575048e+01    0.3578829    0.1593033  50.80  0.001675094    2.512    0.602
       101  -8.2931     41.2319    215.1774   1.0083172882e+02   2.5682430004e+01     0.170579    0.1053654  53.42 0.0009169766    1.367    0.268
       102  -7.8855    197.5025    213.9727   6.8167494769e+01   6.4551255775e+00    0.1595856   0.08022492 -12.61 0.0008099811    2.552    0.608
       103  -8.2259    185.4976    214.0947   7.0309888125e+01   7.9501151386e+00    0.1499273    0.1049208 -30.27 0.0006653406    1.531    0.347
       104  -9.5560     73.0310    211.4533   9.3366716814e+01   2.2916280692e+01    0.6183344    0.2206462  54.72  0.002360645    3.897    0.743
       105  -9.5839    213.9438    211.6794   6.5039401944e+01   4.7180738291e+00    0.3097955    0.2491342 -21.16  0.001673344    1.428    0.300
       106  -8.0433    225.0009    212.3343   6.3361244672e+01   3.3414991213e+00    0.1508488     0.110164   9.41 0.0005047598    1.095    0.087
       107  -8.5484    161.7107    212.0422   7.4465899226e+01   1.1327082016e+01    0.1734689    0.1685873 -62.01  0.001000051    1.535    0.348
       108  -7.7664    106.5061    212.5628   8.5994853354e+01   1.8575689143e+01    0.1230553   0.09838579  37.04 0.0008059292    1.083    0.077
       109  -9.0004    204.2607    210.6161   6.6492940870e+01   6.0230481985e+00    0.2150277    0.1734856 -22.67 0.0008805643    1.409    0.290
       110  -9.4006    175.3254    209.6282   7.1513236684e+01   9.8572709831e+00     0.278127    0.2223378  58.45  0.001345081    2.119    0.528
       111  -8.6737    147.9839    210.3176   7.6943856597e+01   1.3418039171e+01    0.2315241    0.1920852  84.22  0.001260681    2.060    0.514
       112  -8.9775    116.2968    210.1160   8.3570974452e+01   1.7706428578e+01    0.2781302     0.183093  67.34 0.0009366937    2.402    0.584
       113  -9.5201      5.3599    206.3112   1.0848505630e+02   3.0588091376e+01    0.3733208    0.1636218  71.68  0.002056227    2.098    0.523
       114  -8.4126    192.2322    209.9984   6.8486687839e+01   7.6117911760e+00    0.1796243    0.1276665 -37.94 0.0009494255    1.719    0.418
       115  -8.3662     85.4311    209.2989   9.0345160872e+01   2.1816381153e+01     0.270242    0.1296803  53.76  0.001293596    2.376    0.579
       116  -8.2995     32.0058    209.4028   1.0259096058e+02   2.7678774034e+01    0.2225884    0.1015327  73.74  0.001129401    2.442    0.590
       117  -9.2876    236.4764    207.7415   6.0867402990e+01   2.5230361588e+00    0.3030756    0.1805068 -33.57  0.001768735    1.873    0.466
       118  -8.3437     46.3570    209.1793   9.9293653013e+01   2.6296654837e+01    0.1605544   0.09875948  80.33 0.0009470654    1.783    0.439
       119  -9.5979    246.4948    207.1358   5.9285776317e+01   1.4702893406e+00      0.24359    0.1465935 -18.23 0.0006257513    1.355    0.262
       120  -9.4373    250.1772    201.8412   5.7907105005e+01   1.6092330787e+00    0.3467357    0.1359283 -27.65  0.001399529    2.193    0.544
       121 -10.2779    246.0115    193.8130   5.7189688454e+01   2.9217371896e+00     0.393997    0.2425822 -30.92  0.002011555    1.658    0.397
       122  -8.2573    139.1146    207.6808   7.8398413652e+01   1.5026232264e+01    0.1792705    0.1710364 -79.95 0.0007315286    1.433    0.302
       123  -7.9117    126.4247    208.2299   8.1149957961e+01   1.6662141792e+01      0.14381    0.1207076 -76.75 0.0007602889    1.669    0.401
       124  -9.1725     99.3350    205.8052   8.6817778582e+01   2.0681520011e+01     0.325859    0.2101554  75.17  0.001159582    2.388    0.581
       125  -8.7753     56.7442    205.5961   9.6627979890e+01   2.5874944727e+01    0.3190918    0.1229438  52.82  0.001426925    2.621    0.618
       126  -8.4858     11.7746    206.5784   1.0705405143e+02   3.0021416875e+01    0.1646551   0.07695585  39.10 0.0007448787    1.614    0.380
       127  -8.3077    109.0011    204.7765   8.4523558596e+01   1.9589094281e+01    0.1942857    0.1579605  83.86 0.0006972283    1.631    0.387
       128  -8.2905     25.4649    204.9827   1.0386524848e+02   2.9148597937e+01    0.1706733   0.06896426  65.61 0.0006071262    2.538    0.606
       129  -9.3361    194.8863    203.3697   6.6982225970e+01   8.1133911023e+00    0.2590692    0.2327539   5.72  0.001228811    1.349    0.259
       130  -9.1613    192.4579    197.1007   6.6404313127e+01   9.2528492331e+00    0.2923903    0.2577543 -64.65  0.001427688    2.059    0.514
       131  -8.9057    183.6007    203.6290   6.9058011269e+01   9.5684755023e+00    0.2358055    0.1941874  47.10  0.001168218    1.731    0.422
       132  -9.5639    163.9493    202.8783   7.2675766641e+01   1.2341025853e+01    0.3851032    0.2322745  50.15  0.001421145    2.341    0.573
       133  -8.6213    131.2657    203.7824   7.9519865492e+01   1.6728337334e+01    0.2239501    0.1701534  55.76 0.0009493027    1.639    0.390
       134  -8.3837    211.0291    201.9937   6.3988473484e+01   6.2159320486e+00    0.1459224    0.1393531 -20.25 0.0006641475    1.703    0.413
       135  -8.9285    140.6771    201.0597   7.7138785067e+01   1.5860251953e+01    0.3071604    0.2161225  61.55  0.001587119    2.208    0.547
       136  -8.1560     72.6281    201.8084   9.2570150504e+01   2.4774707442e+01    0.1490627    0.1131403  86.91 0.0004296053    1.515    0.340
       137  -8.5150     48.3992    202.1634   9.8330098655e+01   2.7447110051e+01    0.1669876    0.1017446  79.30 0.0009484552    1.813    0.448
       138  -7.7564     41.3307    202.6857   1.0003462435e+02   2.8076405565e+01    0.1307312   0.06867037  53.81 0.0007045149    1.678    0.404
       139  -9.0057    243.1314    200.5089   5.8712726861e+01   2.5365899089e+00    0.2269073    0.1280015 -21.28 0.0008901121    1.480    0.324
       140  -8.0493    222.1938    201.2017   6.2036982304e+01   4.9267706722e+00    0.1382512    0.1163274 -12.21 0.0004969496    1.370    0.270
       141  -8.7498     79.7419    200.6977   9.0784360422e+01   2.4119010520e+01    0.3269884    0.1438916  54.04  0.001432328    2.692    0.629
       142  -8.1182     10.0023    202.0000   1.0729832461e+02   3.1067918351e+01    0.1798743    0.0559881  23.98 0.0007994506    2.922    0.658
       143  -9.4731    149.6206    198.4038   7.4882252009e+01   1.5021127544e+01    0.3745362    0.2742503  69.37  0.001524846    2.538    0.606
       144  -8.8078    124.1955    199.0464   8.0405903244e+01   1.8503561504e+01    0.2719914    0.1937097  75.21   0.00121416    2.351    0.575
       145  -9.2305    237.0852    197.7036   5.9152853102e+01   3.5380264271e+00     0.331919    0.1283778 -31.96  0.001776676    2.367    0.578
       146  -8.4031    177.0827    198.6953   6.9493917413e+01   1.1129995430e+01    0.1785291    0.1581838 -26.32 0.0005549749    1.363    0.266
       147  -9.3801    112.8740    198.0956   8.2807042839e+01   2.0241759158e+01    0.3690909     0.223342  59.56  0.001843332    2.315    0.568
       148  -9.0625     88.7307    198.2665   8.8407096077e+01   2.3442488112e+01    0.3323714    0.2184826  68.97  0.001331198    1.948    0.487
       149  -8.2313    202.2967    197.4648   6.4732374342e+01   7.8981107626e+00    0.1622726     0.135519 -40.63 0.0005693476    1.716    0.417
       150  -9.2344     61.2072    196.2126   9.4782349279e+01   2.7215519397e+01    0.4884248    0.2847766  88.35  0.002250199    2.120    0.528
       151  -7.9951     54.1588    196.7538   9.6535297515e+01   2.7901951084e+01    0.2243024   0.08705006  55.12 0.0009462631    2.799    0.643
       152  -8.6257     12.5290    196.3978   1.0650645791e+02   3.1989713843e+01    0.3140697    0.1036948  74.96  0.001323192    3.376    0.704
       153  -8.6303    215.9321    195.4240   6.2099076845e+01   6.3888510679e+00    0.1852139    0.1454704 -33.28 0.0007271285    1.602    0.376
       154  -7.8667     36.3183    196.6425   1.0083988391e+02   2.9790942293e+01    0.1342892   0.06887147  56.07 0.0007044769    1.756    0.431
       155  -8.7835    224.4911    193.7271   6.0436008823e+01   5.5131751288e+00    0.2642157    0.1507312 -37.32  0.001528567    1.993    0.498
       156  -7.5637    209.2851    195.6132   6.3234616089e+01   7.2193231957e+00   0.09731899   0.09174819 -38.78 0.0007008103    1.746    0.427
       157  -8.8499    185.2610    194.6957   6.7318888152e+01   1.0559062381e+01    0.1943188    0.1871533  37.49 0.0007178023    1.544    0.352
       158  -8.0461    132.8744    195.4031   7.7989178002e+01   1.7895857861e+01    0.1647256    0.1470427  38.26 0.0005271549    1.188    0.158
       159  -8.4155    231.0066    193.7907   5.9428588194e+01   4.7030956765e+00    0.1849087       0.1251 -32.85 0.0007870877    1.655    0.396
       160  -8.9566     76.9199    193.6864   9.0726294177e+01   2.5830685556e+01    0.2130814    0.1736164  77.45 0.0005287573    1.343    0.256
       161  -8.7520     43.9418    193.1632   9.8747366866e+01   2.9730441626e+01    0.4086468    0.1818828  63.47  0.001879994    2.539    0.606
       162  -8.4439    172.7932    191.7619   6.9192889720e+01   1.2727740314e+01    0.1943688    0.1664962 -75.43 0.0009590562    2.059    0.514
       163  -9.0595    139.4743    190.4080   7.5808663369e+01   1.7782480646e+01    0.3070117    0.2394728  78.40  0.001191466    2.125    0.529
       164  -8.0243    156.5777    207.8131   7.4864333736e+01   1.2626712254e+01    0.1387928    0.1172811 -53.89 0.0006939213    1.651    0.394
       165  -7.8732    205.3510    191.2938   6.3177528939e+01   8.2817063438e+00    0.1457507    0.0991534 -33.71  0.000536258    1.576    0.366
       166  -8.1381    198.8544    191.2025   6.4288451893e+01   9.1680551744e+00    0.1646435    0.1457497   0.56 0.0007225786    1.272    0.214
       167  -8.7425    160.8943    193.9394   7.1893001244e+01   1.4105038655e+01    0.2376273    0.2102178  79.99 0.0009700498    1.820    0.450
       168 -10.4377     92.4569    188.6916   8.6384666781e+01   2.4791363345e+01    0.9276292    0.2289176  42.85  0.003148713    3.715    0.731
       169  -8.5391    148.6934    189.2909   7.3665095274e+01   1.6613439065e+01     0.196579    0.1614645 -61.04  0.001209167    1.678    0.404
       170  -8.9009    129.3246    188.4527   7.7743114972e+01   1.9606685614e+01    0.2477102    0.1999182  60.48 0.0008281369    1.556    0.358
       171  -9.6480    120.7551    186.2571   7.9358795889e+01   2.1255482418e+01    0.4231627    0.2718031 -78.46  0.002007992    2.774    0.640
       172  -9.1324     34.2684    187.7818   1.0076941501e+02   3.1830832385e+01    0.3591225    0.1598569  61.84  0.001702288    2.297    0.565
       173  -8.3404    237.1606    188.1586   5.7539585296e+01   4.5936720819e+00    0.1687831     0.115615  -6.24 0.0006423591    1.134    0.118
       174  -8.8252    216.5689    187.5326   6.0657184331e+01   7.2715745339e+00    0.2032802    0.1677676 -11.03 0.0007329282    1.223    0.182
       175  -8.8838    191.5273    187.1907   6.4912279743e+01   1.0721194332e+01    0.2327906    0.1904188 -54.83 0.0009781853    1.965    0.491
       176  -9.2978    156.0251    187.2835   7.1811219312e+01   1.5854824650e+01    0.2676609    0.2343613 -65.56 0.0009469346    1.642    0.391
       177  -9.2745     54.5427    186.3806   9.5553437086e+01   2.9991584332e+01    0.4189135      0.21684  70.44  0.001620276    2.389    0.581
       178  -8.3849    230.7994    187.0654   5.8318285407e+01   5.5045716378e+00    0.1610093      0.13255 -13.97 0.0006471675    1.305    0.234
       179  -8.7235    165.0090    186.5855   6.9867905171e+01   1.4636816367e+01    0.2198129    0.1966466 -87.08 0.0009487012    1.801    0.445
       180  -9.1862    109.5665    185.7851   8.1900993510e+01   2.2965320223e+01    0.3630016    0.2431157  73.16  0.001037209    2.340    0.573
       181  -9.5892    249.0393    185.3045   5.5317753704e+01   3.4885182924e+00    0.2589062    0.1962919  11.68  0.001504471    1.230    0.187
       182  -8.7457    182.9511    184.5547   6.6039975230e+01   1.2316282979e+01    0.2043964    0.1663996 -43.82 0.0007004146    1.591    0.371
       183  -9.3276     66.8400    184.3803   9.2245094209e+01   2.8967011009e+01     0.370812    0.1965021  52.66  0.001098726    1.871    0.466
       184  -8.6472    224.1431    183.6084   5.8757184562e+01   6.7641063048e+00    0.1828756    0.1333406 -25.75 0.0005438149    1.353    0.261
       185  -8.9344    210.1066    183.9916   6.1113200246e+01   8.5795747998e+00    0.1977463    0.1439548 -19.47 0.0007057522    1.232    0.188
       186  -8.8125    174.2955    183.4179   6.7497059129e+01   1.3749048205e+01    0.2136737     0.208114 -57.00 0.0008018031    1.484    0.326
       187  -8.1169     11.5201    184.0101   1.0625153686e+02   3.4657262487e+01     0.183202   0.06758387  66.17 0.0008102567    2.634    0.620
       188  -8.6249    202.8752    184.5034   6.2436310369e+01   9.5025685127e+00    0.1978415    0.1550505 -38.06 0.0007708268    1.592    0.372
       189  -8.0382    197.1809    183.2390   6.3213150544e+01   1.0467038476e+01    0.1474231    0.1364625  -5.06 0.0004768997    1.355    0.262
       190  -9.0401     44.5106    182.0895   9.7747194924e+01   3.2003261716e+01    0.3763109    0.1972596  61.68  0.001209555    1.956    0.489
       191  -7.9140      1.7599    183.5579   1.0864864019e+02   3.5497966210e+01    0.1673103   0.08287181  39.58 0.0009402826    1.618    0.382
       192  -9.1015    147.5510    180.3932   7.2455694565e+01   1.8263798034e+01    0.2733893    0.2327629  67.98  0.001129715    1.658    0.397
       193  -9.4474     25.7074    178.8790   1.0238188431e+02   3.4556124147e+01    0.6219071    0.1958226  66.86  0.002130695    4.441    0.775
       194  -8.7118    137.5700    178.9594   7.4403454047e+01   2.0042203339e+01    0.2577379    0.2073609  68.84  0.001025992    1.763    0.433
       195  -9.4317    191.5847    178.0981   6.3306618621e+01   1.1984752094e+01    0.2476493    0.2368191  74.01 0.0006644735    1.676    0.403
       196  -9.3824     36.0639    176.6223   9.9519794852e+01   3.4065284047e+01    0.5632921    0.2117497  68.57  0.002079512    3.744    0.733
       197  -9.5964    248.4735    176.2443   5.3821307835e+01   4.5555833282e+00    0.3840012    0.1894675 -36.72   0.00140698    2.141    0.533
       198  -8.6381    250.5311    172.4824   5.2865075554e+01   4.7248134064e+00    0.1977608    0.1081655 -26.39 0.0005591807    1.507    0.337
       199  -8.9042    231.2367    176.9384   5.6474426171e+01   6.6467125688e+00    0.2176044    0.1304438 -34.84 0.0007671355    1.721    0.419
       200  -7.9215    169.4727    178.5045   6.7589617456e+01   1.5222804911e+01    0.1257941    0.1100292  11.78 5.228051e-05    1.085    0.078
       201  -8.7087    129.3719    177.2422   7.5977707411e+01   2.1610689355e+01    0.3020479    0.2086319  75.79  0.001019298    2.683    0.627
       202  -8.5352    217.6066    177.0927   5.8648605544e+01   8.4420588360e+00    0.1746744    0.1503119  14.64 0.0006748247    1.289    0.224
       203  -8.5720    205.0271    177.3385   6.0793686491e+01   1.0156665356e+01    0.1656573    0.1352924   7.66 0.0005237248    1.086    0.079
       204  -8.1714     97.7648    177.2070   8.3558617889e+01   2.6334625158e+01    0.1809264    0.1504278   0.55 0.0006987281    1.366    0.268
       205  -9.1191     89.2140    176.6844   8.5638902352e+01   2.7647723064e+01    0.2802933    0.1853181  57.55 0.0008164343    1.661    0.398
       206  -9.4092     58.3139    174.9601   9.3476897185e+01   3.2006000344e+01    0.4729321    0.1941843  62.41  0.001695856    3.742    0.733
       207  -9.4752     56.0039    170.7683   9.3659528549e+01   3.3203907688e+01    0.7760025    0.2989364  63.21  0.002466141    4.737    0.789
       208  -8.9656     13.0770    176.4168   1.0551932168e+02   3.6179692938e+01    0.2904581    0.1462721  64.48  0.001003078    1.789    0.441
       209  -8.4358    211.5464    176.0527   5.9458026936e+01   9.4113446782e+00    0.1721962    0.1028708 -29.71 0.0006460581    1.551    0.355
       210  -8.9043    183.0708    175.7476   6.4460786144e+01   1.3586804969e+01    0.2208869    0.1931981 -38.62 0.0006260799    1.427    0.299
       211  -9.2199    158.7643    174.8385   6.9122345216e+01   1.7458912549e+01     0.294754    0.2409606  77.23  0.001044659    2.050    0.512
       212  -9.2960    104.3988    174.5299   8.1520735926e+01   2.5907785881e+01    0.5301626    0.2770772  58.96   0.00195672    2.975    0.664
       213  -9.8652     81.3770    155.4171   8.4692519145e+01   3.3352289230e+01    0.5070814     0.467546 -37.11   0.00186045    1.199    0.166
       214 -10.7746     76.1650    171.1774   8.8303905332e+01   3.0587766841e+01    0.9668448    0.4495293 -85.84   0.00332292    4.394    0.772
       215  -9.6035     74.0346    160.4636   8.7466234009e+01   3.3239303672e+01      0.29557    0.2137763 -13.68   0.00148537    1.939    0.484
       216  -8.4669    224.3289    174.0350   5.7021369419e+01   7.9157125641e+00    0.1656813    0.1225357 -18.44 0.0005953261    1.175    0.149
       217  -9.4853    175.7208    171.9825   6.5185359875e+01   1.5277813427e+01    0.3157555    0.2117015 -32.50  0.001033151    1.485    0.326
       218  -8.3295    143.1077    172.6442   7.2101218521e+01   2.0295172225e+01    0.2079958    0.1815392 -57.91 0.0007477226    1.425    0.298
       219  -8.5033    134.8535    171.7269   7.3799639187e+01   2.1765528484e+01    0.2237993    0.1776201  85.28 0.0008835308    1.952    0.488
       220  -9.5823    121.3217    170.1277   7.6696232471e+01   2.4196428525e+01     0.355379    0.2687531 -88.54 0.0009106791    1.990    0.497
       221  -9.1959     45.2203    170.8488   9.6589757700e+01   3.4401207030e+01    0.3694945    0.1998008  73.32  0.001181011    2.120    0.528
       222  -8.8764    230.1651    169.0424   5.5204342296e+01   7.7472206691e+00    0.3380727     0.117924 -40.55  0.001457157    3.417    0.707
       223  -8.4083    205.8708    169.8662   5.9279128326e+01   1.1046145109e+01    0.2055758    0.1494435 -50.23 0.0008311328    2.071    0.517
       224  -8.5324    198.3658    169.9157   6.0592376060e+01   1.2142928474e+01    0.2067296    0.1816793 -44.50 0.0008859316    1.569    0.363
       225  -8.6170    149.9702    169.4153   7.0022951544e+01   1.9767903583e+01    0.2199033    0.1913618 -68.16 0.0008534336    1.567    0.362
       226  -8.6586    244.6182    169.1392   5.3094199829e+01   5.8437067232e+00    0.1676776    0.1171336 -29.08 0.0005852646    1.413    0.292
       227  -8.4610    237.2940    169.1069   5.4148360578e+01   6.7929130150e+00    0.1644328    0.1187606 -18.35 0.0007629502    1.157    0.136
       228  -9.2240    166.9919    168.4489   6.6269986188e+01   1.7207681878e+01    0.2661877    0.2125301  61.61   0.00104398    1.851    0.460
       229  -8.2266     88.7547    168.5797   8.4636808277e+01   2.9410910279e+01    0.2215823    0.1607545  75.39  0.001049436    1.705    0.414
       230  -8.5624    218.8591    167.9854   5.6776646321e+01   9.4367638524e+00    0.2028453    0.1419257 -28.20 0.0006578612    1.343    0.255
       231  -7.9721    211.4784    167.9909   5.7983636295e+01   1.0487174824e+01    0.1548965   0.09920248 -50.33 0.0008097065    2.512    0.602
       232  -8.7233    111.6398    167.1356   7.8566019104e+01   2.6294733997e+01     0.324913    0.2198035  69.10  0.001142254    2.188    0.543
       233  -8.9660    191.8827    166.3212   6.1078627544e+01   1.3637917628e+01    0.2948088     0.159362 -35.85  0.001107985    1.809    0.447
       234  -8.7681    185.0236    166.4885   6.2378546286e+01   1.4672987545e+01    0.2192199    0.1681965 -43.07 0.0006437033    1.549    0.354
       235  -8.2320     13.3339    167.6515   1.0502088630e+02   3.8119010577e+01     0.140765    0.0692234  56.30 0.0007048174    1.774    0.436
       236  -9.7208    137.1083    164.4330   7.1995352483e+01   2.2746139628e+01    0.5971006    0.2705863  51.98  0.002179839    3.306    0.698
       237 -10.0002     95.1381    162.2168   8.2006570154e+01   2.9835842542e+01    0.8547148    0.5412818  86.94  0.003151878    2.553    0.608
       238  -8.9692     20.3469    165.9628   1.0301584385e+02   3.7925793425e+01    0.3001324    0.1231894  50.69  0.001389396    2.122    0.529
       239  -7.5836    251.0000    164.9417   5.1438166082e+01   5.5175186082e+00    0.1795828   0.05139524 -30.62  0.000569148    2.894    0.654
       240  -8.2658    234.0128    164.9463   5.3865713764e+01   7.7308869277e+00    0.1594912     0.133743 -39.44 0.0006421512    1.660    0.398
       241  -8.8985    159.6320    164.0628   6.6968553835e+01   1.9121794782e+01    0.2325416    0.1997748 -52.62 0.0008293936    1.454    0.312
       242  -9.7993     33.6940    163.2802   9.9114204342e+01   3.7319112994e+01    0.6042581    0.1806864  48.22  0.002295022    3.031    0.670
       243  -8.3014    240.2760    163.8834   5.2750449079e+01   7.0235521247e+00     0.173778    0.1215113 -31.86 0.0005841297    1.461    0.316
       244  -8.6647    212.9624    163.4253   5.6874618396e+01   1.0883439098e+01    0.2078212    0.1511402 -36.68 0.0003750171    1.514    0.340
       245  -8.0911     55.3776    164.3136   9.3138079647e+01   3.4733326214e+01    0.1335315   0.09975326 -24.19 0.0007028015    1.799    0.444
       246  -9.5369    243.2167    149.5910   4.9622268926e+01   8.3448058653e+00    0.2638808    0.1624807 -26.28  0.001216368    1.333    0.250
       247  -8.8016    246.1732    162.8598   5.1723391943e+01   6.3732598353e+00     0.213714    0.1261522 -23.94 0.0006537614    1.373    0.272
       248 -10.0179    241.5555    153.9898   5.0701465781e+01   8.0401538777e+00    0.3884681    0.3119904 -73.09  0.001851203    2.919    0.657
       249  -9.6810    250.1760    157.6717   5.0206311027e+01   6.4575362573e+00    0.2784771    0.1293964 -29.29 0.0008305652    1.762    0.432
       250  -8.5975    245.2755    158.6099   5.1056404171e+01   6.9890737002e+00     0.175852    0.1197475 -32.55 0.0006046752    1.473    0.321
       251  -8.6286    246.5696    155.4864   5.0288174083e+01   7.1865544202e+00    0.1717744    0.1293071  11.89 0.0005791867    1.242    0.195
       252  -8.5820    204.9199    162.4644   5.8039608024e+01   1.2207551374e+01    0.2105341    0.1584199 -38.99 0.0006464738    1.526    0.345
       253  -9.2940      3.2618    162.1302   1.0750460330e+02   4.0128836084e+01    0.4207626    0.1470215  52.76  0.001801388    2.381    0.580
       254  -9.0664    177.5376    160.4617   6.2650519649e+01   1.6793469235e+01    0.2319348    0.2224168 -63.79 0.0008846604    1.446    0.308
       255  -8.7369    151.6661    160.8107   6.8057184819e+01   2.0998399313e+01    0.2341265    0.2038271 -85.86  0.001012165    1.668    0.401
       256  -8.8617     60.9577    160.1490   9.1088859014e+01   3.5010830626e+01    0.3614203    0.1855632  60.45   0.00130163    2.322    0.569
       257  -8.9138    227.4556    158.9278   5.3716107200e+01   9.3865049373e+00    0.2631857    0.1789659 -46.53  0.001005762    2.081    0.519
       258  -7.4361    242.2923    159.6951   5.1679647464e+01   7.2556559456e+00     0.101058   0.08328002 -35.95 0.0002767489    1.576    0.365
       259  -8.3428    237.1342    158.6868   5.2229450806e+01   8.0721788938e+00    0.1966531    0.1312441 -29.61  0.000692576    1.376    0.273
       260  -8.2802    128.0705    158.9777   7.3123171529e+01   2.5270843325e+01    0.2116781     0.167813  71.66 0.0007317896    1.722    0.419
       261  -9.6367    105.7838    157.6752   7.8470567686e+01   2.9158913916e+01    0.4387436    0.2917131  70.35  0.001249367    2.236    0.553
       262  -8.6842    196.5311    157.6596   5.8565056467e+01   1.4183886010e+01    0.2224184    0.1902716 -35.38 0.0008053197    1.358    0.263
       263  -8.1541    188.0632    157.4702   6.0063455099e+01   1.5557970786e+01    0.1952828    0.1540761 -25.95 0.0005324049    1.208    0.172
       264  -9.2484    167.3964    156.8921   6.3970512315e+01   1.9043746394e+01    0.2762188    0.2338947 -58.15 0.0007899446    1.577    0.366
       265  -8.6954    217.9244    156.3474   5.4703124384e+01   1.1101132401e+01    0.2568754    0.1498639 -41.97  0.001010544    1.974    0.493
       266  -9.2795    157.8371    155.9644   6.5783213414e+01   2.0811832453e+01    0.2776302    0.1937457 -54.43 0.0008901407    1.828    0.453
       267  -9.2780    119.5854    154.7888   7.4431550156e+01   2.7512698470e+01    0.3855982    0.2780457 -87.37    0.0012757    2.200    0.545
       268  -9.3548     49.6800    154.9465   9.3718921869e+01   3.7573459861e+01    0.4609071    0.2268705  58.69   0.00155973    2.265    0.558
       269  -7.9761    204.7232    155.1529   5.6643500425e+01   1.3265504189e+01    0.1818439    0.1398999 -37.99 0.0005954495    1.448    0.309
       270  -8.4887    144.5653    154.5842   6.8431624290e+01   2.3321782786e+01    0.2478324    0.1956738  77.80  0.000870232    1.969    0.492
       271  -9.6362     68.2724    153.7546   8.8168087749e+01   3.5547632280e+01     0.471726    0.2375405  61.30  0.001393626    2.662    0.624
       272  -8.3177    233.0191    153.8408   5.1901672959e+01   9.2430661639e+00    0.2024134    0.1307557 -36.75 0.0007493227    1.609    0.378
       273  -9.7112    132.8207    152.7241   7.0801399189e+01   2.5686462629e+01    0.4228302    0.3159716  73.51   0.00115022    2.044    0.511
       274  -9.1168    133.7851    148.1347   6.9663203799e+01   2.6413586655e+01     0.358198    0.2107077 -41.17  0.001472378    1.763    0.433
       275  -9.6312     29.7294    150.7200   9.9199586260e+01   4.0670823452e+01    0.4718743    0.1998191  60.73  0.001944777    2.586    0.613
       276  -8.8494     19.9867    152.1928   1.0220853539e+02   4.1183795368e+01    0.2156903    0.1458168  58.57  0.001220985    1.324    0.245
       277  -9.6559    248.8585    149.2199   4.8781607166e+01   7.6213495546e+00    0.2805508    0.1478748 -26.32  0.000805649    1.527    0.345
       278  -8.1755    182.6209    151.3013   5.9842945861e+01   1.7404318832e+01    0.1789002    0.1574276 -69.18 0.0007490671    1.694    0.410
       279  -8.8906     98.3557    150.6424   7.9225399933e+01   3.1847122545e+01    0.2959446    0.2145998  67.40 0.0008152281    1.710    0.415
       280  -8.2446    213.1304    149.7886   5.4172816586e+01   1.2714490118e+01    0.1716396    0.1547431 -16.53 0.0004778231    1.244    0.196
       281  -8.7578    189.4200    149.8286   5.8272450895e+01   1.6503449785e+01    0.2199612     0.195103 -48.52  0.000792924    1.455    0.313
       282  -8.0596    162.6970    150.3756   6.3629769777e+01   2.0948498350e+01    0.1952893    0.1659576  78.25 0.0007136051    1.763    0.433
       283  -8.4215    198.8951    148.7052   5.6347041966e+01   1.5120788269e+01    0.2109642    0.1500961 -40.64 0.0006357557    1.530    0.346
       284 -10.0110     89.3212    146.0921   8.0938441997e+01   3.4278105923e+01    0.6763369    0.3914362  85.21  0.002456609    3.446    0.710
       285  -9.5875     39.9638    147.6768   9.5817982694e+01   4.0386642939e+01     0.522168    0.2274188  56.38   0.00177876    2.516    0.603
       286  -9.3731    233.4692    147.4726   5.0588716987e+01   9.9813407712e+00    0.2536415    0.1398247 -30.34  0.001045466    1.548    0.354
       287 -10.5736    149.0392    144.9589   6.5468509567e+01   2.4318025078e+01    0.5312948     0.388821  83.19  0.001808857    2.584    0.613
       288  -9.4914     56.8535    135.3364   8.8974306464e+01   4.1454955966e+01    0.3530643    0.2121314  20.18  0.001526019    1.904    0.475
       289  -8.3783    223.3008    146.5557   5.1919996831e+01   1.1600199659e+01    0.2191987    0.1400749 -27.61 0.0006625301    1.348    0.258
       290 -10.2092    106.6101    144.3363   7.5833074175e+01   3.1876083216e+01    0.7058618    0.4250358  71.70  0.002467688    3.233    0.691
       291  -8.1312    105.3125    138.3489   7.5014199459e+01   3.3404202270e+01    0.2261875    0.1374112  29.52  0.001008493    1.714    0.417
       292  -9.1692     78.0850    146.9904   8.4315541303e+01   3.5756062707e+01    0.2738597    0.2085311  68.66  0.001122114    1.448    0.309
       293  -9.0040     13.5252    146.2273   1.0373413218e+02   4.3139400578e+01    0.3449137    0.1671735  52.19  0.001123042    1.865    0.464
       294  -8.1870    206.5393    146.0245   5.4491116019e+01   1.4278305490e+01    0.1875664    0.1107667 -31.73  0.000679231    1.534    0.348
       295  -8.3656    175.7665    146.0796   6.0084987331e+01   1.9409007797e+01    0.1895527    0.1798806 -44.37 0.0006176546    1.300    0.231
       296  -9.8378    139.0912    144.7832   6.7718277512e+01   2.6126640387e+01    0.4202271     0.261259 -61.18  0.001278297    2.262    0.558
       297 -10.5652     54.9678    144.2531   9.0823258420e+01   3.9507888427e+01    0.9020123    0.4599302  71.53  0.003487373    2.821    0.646
       298  -9.8790    240.4209    145.0153   4.9115816086e+01   9.2941882563e+00    0.6082346    0.3063372  -3.27    0.0027482    3.027    0.670
       299  -8.3537    238.7715    140.9969   4.8546633953e+01   1.0028963884e+01    0.1871287    0.1175282 -43.69  0.001080487    1.930    0.482
       300  -9.7572    125.0912    142.5948   7.0671323180e+01   2.9050809419e+01    0.5044435    0.3595038 -88.91  0.001563473    2.404    0.584
       301 -10.1429     73.2386    128.8038   8.2662944244e+01   4.0797268881e+01    0.4536548    0.3224739 -86.77  0.001655662    1.666    0.400
       302 -10.8274     69.8614    141.0721   8.5812516319e+01   3.8321857603e+01    0.5972823    0.4603356 -83.04  0.002350202    1.389    0.280
       303  -9.9274     69.8672    134.0468   8.4654107936e+01   4.0014273720e+01    0.4281327    0.2478677  16.90  0.001808861    2.242    0.554
       304  -9.1323    247.0997    143.6509   4.7936902865e+01   8.5253055293e+00    0.2178507    0.1333074 -20.99 0.0005091514    1.310    0.237
       305  -8.7435    165.8218    143.6915   6.1583433293e+01   2.1553040695e+01    0.2443229    0.1909032 -44.66 0.0007524429    1.399    0.285
       306  -7.5775    194.3520    143.7219   5.6112751697e+01   1.6612907248e+01    0.1162691    0.1062238 -79.66 0.0003487318    1.646    0.393
       307  -7.5676    235.2999    142.6595   4.9367546095e+01   1.0324523990e+01    0.1113104   0.08660924 -44.64 0.0007035995    1.668    0.400
       308  -7.8344    230.6585    142.3069   4.9964596357e+01   1.1053588126e+01    0.1098682   0.09157464 -49.35  0.000704265    1.687    0.407
       309  -9.2049      2.6788    141.4953   1.0676178090e+02   4.5046498856e+01    0.3893286    0.1508003  63.80  0.001460591    2.461    0.594
       310  -8.2504    250.4785    140.4960   4.6872339530e+01   8.4358712998e+00    0.1961914   0.08500221 -36.81 0.0007478747    2.115    0.527
       311  -8.2626    182.0316    141.3021   5.7861462690e+01   1.9096317844e+01    0.1808723    0.1653152   4.70 0.0004875444    1.091    0.083
       312  -9.7500     23.5267    137.9079   9.9989294734e+01   4.4374284812e+01    0.5844805    0.2428449  60.26  0.002116563    2.626    0.619
       313  -8.8453    241.5573    137.1475   4.7391298284e+01   1.0104261215e+01    0.2892301   0.09785554 -23.57  0.001145431    3.245    0.692
       314  -7.6413    218.5389    138.4608   5.0993529924e+01   1.3424890218e+01    0.1252518    0.1039428 -13.67 0.0004859373    1.047    0.045
       315  -8.4492    207.4049    137.3565   5.2533947907e+01   1.5379924634e+01    0.2227426    0.1411909 -37.94 0.0008546918    1.546    0.353
       316  -8.5334    197.5084    137.2698   5.4185098465e+01   1.7053181447e+01    0.2118242    0.1690935 -42.29 0.0006366147    1.409    0.290
       317  -8.6898    172.2443    137.8726   5.9021671099e+01   2.1395574042e+01    0.2420542    0.2039388 -74.82 0.0006404776    1.760    0.432
       318  -9.1242    150.6663    135.9242   6.3155809338e+01   2.5695913673e+01    0.4783577    0.2567088  22.55  0.001855589    2.709    0.631
       319  -9.1116    248.4500    134.9388   4.6034429260e+01   9.3856861178e+00     0.259975    0.1633986 -29.73 0.0008435102    1.328    0.247
       320  -8.7034    250.8027    129.8740   4.4716525395e+01   9.6606983195e+00    0.4111815   0.08667713 -28.43  0.001386086    4.465    0.776
       321  -8.3557    162.6633    136.1738   6.0608772514e+01   2.3432855994e+01    0.2083334    0.1697614 -52.22 0.0006525262    1.440    0.306
       322 -10.4074     83.4494    132.8652   8.0259206694e+01   3.8259544007e+01    0.5354934    0.3453464 -77.03  0.001291615    1.936    0.483
       323  -8.9750     39.2448    135.8008   9.4705408362e+01   4.3391568619e+01    0.2983863    0.1804055  59.70 0.0008456716    1.694    0.410
       324  -8.2509    187.6646    135.2440   5.5497381918e+01   1.9071959430e+01    0.1901015    0.1133757 -26.34 0.0005209548    1.628    0.386
       325  -8.0839    231.4639    133.9044   4.8129640322e+01   1.2019688260e+01    0.1813043    0.1006753 -29.00 0.0004682395    1.506    0.336
       326  -8.6050    179.1950    133.4795   5.6691360192e+01   2.0869809369e+01    0.2610266    0.1670687 -50.21   0.00072047    1.910    0.477
       327  -8.9552    112.8507    133.0238   7.1854466718e+01   3.3246530191e+01    0.3453454    0.2593156  73.91 0.0007735297    1.812    0.448
       328  -8.0994    237.5014    133.0234   4.7105225996e+01   1.1218574730e+01    0.1851709   0.09756583 -30.93 0.0008364985    1.577    0.366
       329 -10.3546    133.7614    109.2165   6.0720700353e+01   3.4186044124e+01    0.6898582    0.3537348 -42.49  0.002670048    1.928    0.481
       330 -10.1400    132.2343    131.0697   6.6407089078e+01   3.0086316525e+01     0.527944    0.3436473 -69.52  0.001595339    2.471    0.595
       331  -9.7062    134.5593    123.9835   6.4196357397e+01   3.1066134896e+01     0.436279    0.3278702 -16.31  0.002130998    1.565    0.361
       332  -9.4735    130.6686    118.1606   6.3759665692e+01   3.3006312934e+01    0.4697915    0.3073812 -66.62   0.00140801    2.246    0.555
       333  -9.3838    142.9483    131.2787   6.3878754775e+01   2.8022181470e+01     0.316781    0.2681757 -67.60 0.0006439455    1.473    0.321
       334 -10.2038     98.2553    128.5413   7.4992533324e+01   3.6817690075e+01     1.119933      0.37493 -47.67  0.003762897    3.053    0.672
       335 -10.5612     60.1278    124.8353   8.6219412028e+01   4.3639084871e+01    0.9027398    0.4745566  76.00   0.00317979    3.305    0.697
       336  -8.8768     59.3886    115.1216   8.4711454566e+01   4.6186858506e+01    0.3662036    0.2380083  -6.08  0.001536642    2.424    0.587
       337 -10.0103     12.7446    128.5977   1.0274178963e+02   4.7568982101e+01    0.5734821    0.2435985  73.00  0.002003602    2.558    0.609
       338  -8.5360    247.0022    129.9884   4.5223285434e+01   1.0194283107e+01    0.1834249    0.1373002 -19.15 0.0005434534    1.046    0.044
       339  -8.0689    204.7535    130.1498   5.1412929178e+01   1.6871504578e+01    0.1989027    0.1369301 -64.62  0.000804244    2.760    0.638
       340  -8.1544    192.8561    130.0741   5.3420980904e+01   1.8959261263e+01    0.1925215    0.1694248 -41.89 0.0005007761    1.296    0.228
       341  -9.3904    168.4527    129.4171   5.7889422513e+01   2.3535223196e+01    0.2655532    0.2392115 -76.26 0.0007026761    1.472    0.321
       342  -9.5769    152.8891    128.3130   6.0934809958e+01   2.6688066550e+01    0.5384284    0.2288806 -44.72  0.001442747    2.413    0.586
       343  -8.6063     25.1509    129.6672   9.8677311863e+01   4.6305980679e+01    0.2797074    0.1531055 -20.57  0.001159584    2.975    0.664
       344  -7.6588      1.6686    130.2823   1.0650811245e+02   4.7869938236e+01    0.1372271   0.07752971  55.58 0.0004941957    1.610    0.379
       345  -7.1701    220.6900    129.6881   4.8813146287e+01   1.4278497532e+01    0.1287088   0.08631714   1.76 0.0006673049    1.626    0.385
       346  -8.4724    211.3108    128.8627   5.0075577562e+01   1.5943526416e+01    0.2006366    0.1440908 -43.37 0.0008322414    1.538    0.350
       347  -7.6661    186.6601    129.3405   5.4367299742e+01   2.0185527317e+01    0.1307156    0.1078304 -68.13 0.0007049762    1.769    0.435
       348 -10.8186     44.9032    123.1483   9.1121273652e+01   4.5970100758e+01     1.237564    0.5498723  71.16  0.003875132    4.221    0.763
       349  -9.8507    117.7719    124.7305   6.8684749660e+01   3.4128117177e+01    0.5412068     0.389859 -86.05  0.001113819    2.178    0.541
       350  -9.4091    164.9378    125.3834   5.7673353590e+01   2.4904439594e+01    0.3041928    0.1854341 -19.18  0.001347975    2.008    0.502
       351  -8.0077    228.4312    125.1971   4.6727221077e+01   1.3635046882e+01    0.1763139   0.09818374 -37.60 0.0009418345    1.665    0.399
       352  -8.9612    179.2083    124.5338   5.4652064296e+01   2.2337477309e+01    0.2608128    0.2426596 -64.03 0.0007863769    1.346    0.257
       353 -10.2854     28.5920    122.1541   9.6677286417e+01   4.7917608769e+01    0.8539097    0.3392054  66.64  0.002860825    3.733    0.732
       354  -8.0325    188.5563    123.8119   5.2764538908e+01   2.0714722507e+01    0.1837093    0.1183461 -43.51  0.000492139    1.618    0.382
       355  -8.9258     85.3324    122.3212   7.7570346989e+01   4.0458272823e+01    0.4976768    0.2415626  18.13  0.001555652    3.918    0.745
       356  -7.9023    203.0320    121.9263   4.9860946215e+01   1.8381949228e+01     0.161083    0.1352286 -18.29 0.0004535915    1.033    0.032
       357  -8.1351    194.8660    121.8497   5.1208404248e+01   1.9863632954e+01     0.181131    0.1445657 -42.06 0.0004696432    1.328    0.247
       358  -8.9732    171.9557    121.4124   5.5319526259e+01   2.4240471333e+01    0.2549135    0.1841152 -48.26 0.0005074973    1.529    0.346
       359  -9.3459    158.7017    121.3775   5.8031212420e+01   2.6828465006e+01    0.2942825    0.2375036 -86.22 0.0009800754    1.847    0.459
       360  -9.6963     71.1141    119.5020   8.1568741964e+01   4.3396065613e+01    0.4474266    0.2630385 -77.21  0.001221092    2.143    0.533
       361  -9.9707    141.5094    117.9039   6.1049102017e+01   3.0895454868e+01    0.5520853    0.2928353 -52.95  0.001549205    2.267    0.559
       362  -9.6449      3.1469    117.2302   1.0522950697e+02   5.1082203171e+01    0.5805416    0.1972593  59.60  0.002190364    3.111    0.679
       363  -8.2299    231.4335    117.2526   4.4600666828e+01   1.4196199675e+01     0.175219   0.09662449 -37.79 0.0008268525    1.652    0.395
       364  -8.3288    185.8951    115.9357   5.1393107453e+01   2.2463970703e+01    0.2053245    0.1620393 -59.37 0.0005569487    1.638    0.389
       365 -10.0055    109.3924    114.0612   6.8456741768e+01   3.8043648937e+01    0.5258824    0.3699516 -75.68  0.001397581    2.000    0.500
       366  -8.3349    192.9864    115.1868   4.9975805567e+01   2.1237326872e+01    0.1968677    0.1742464 -44.38 0.0005476565    1.253    0.202
       367 -10.0377     92.8084    112.5136   7.3027803795e+01   4.1484286969e+01    0.5386333    0.3540616 -70.05  0.001262034    1.889    0.471
       368  -8.6385     93.2604    104.6872   7.0944579184e+01   4.3225622184e+01    0.4691799    0.2871796   2.50  0.001531565    3.741    0.733
       369  -9.9514     78.9740    112.2262   7.7412583981e+01   4.3939059603e+01    0.6176393    0.3940365  88.74  0.001991536    2.459    0.593
       370  -8.3712     78.3809    104.8372   7.5884281547e+01   4.5834725761e+01    0.2819563    0.2013312  -3.68 0.0007608608    2.059    0.514
       371  -8.2086    167.3323    114.1257   5.4471857210e+01   2.6400162327e+01    0.2233764    0.1680227 -20.41  0.000685506    1.346    0.257
       372  -9.8455    121.9083    112.2013   6.4538350664e+01   3.5987065933e+01     0.363056    0.2905959 -74.84 0.0005926709    1.580    0.367
       373  -8.4837    174.8510    111.5512   5.2364163696e+01   2.5336617796e+01    0.2772207    0.1685939 -49.26  0.000692718    1.869    0.465
       374  -8.6329    159.2009    111.6142   5.5516103742e+01   2.8486511919e+01    0.2496541    0.1833023 -45.36 0.0005552154    1.395    0.283
       375  -9.9951     66.3883    110.2692   8.1278577392e+01   4.6403957962e+01    0.5074324    0.3351938  77.07   0.00174578    2.045    0.511
       376  -8.9545     66.9937    105.3210   7.9979952780e+01   4.7550987093e+01    0.3154397    0.2100821  11.81  0.001376334    2.012    0.503
       377  -9.6076     14.3386    110.9651   1.0062824637e+02   5.1987927435e+01    0.4467967    0.2103083  63.87  0.001607319    2.317    0.568
       378  -9.2538    233.1352    246.5013   6.7058606576e+01  -9.7574474995e-01     0.339014    0.1782925 -20.11  0.002163681    1.724    0.420
       379  -8.9683     43.5285    108.8763   8.9324305610e+01   4.9808360362e+01    0.3530211    0.1698798   9.18  0.001249278    3.387    0.705
       380  -8.2997    189.4072    107.6890   4.8782382093e+01   2.3087162504e+01    0.2527685    0.1185772 -37.57 0.0007437699    1.944    0.486
       381  -8.4505      5.8059    108.6240   1.0362636964e+02   5.3148142849e+01    0.1835498     0.110806  34.78  0.000599813    1.677    0.404
       382 -10.2545    117.8491    104.4594   6.3611521092e+01   3.8445937774e+01    0.6806632    0.4385309  70.18  0.002673413    2.484    0.597
       383 -10.0651    108.5969     98.4054   6.4574070697e+01   4.1642168040e+01    0.5436248    0.3763728  73.47  0.001019101    2.144    0.534
       384  -8.9271    107.8284     92.2798   6.3047452451e+01   4.3127999205e+01    0.4911937    0.2679648  29.63  0.001827672    2.435    0.589
       385 -10.6633     22.7480    102.1790   9.6340043372e+01   5.3644134521e+01    0.8498817    0.3950183  69.22  0.002546992    2.796    0.642
       386  -9.5356    150.6363    102.9245   5.5102272409e+01   3.1851471077e+01    0.4079067    0.2608453 -59.65  0.001160992    2.115    0.527
       387  -9.3133    139.9517    104.3288   5.7924581455e+01   3.3853248981e+01    0.3403188    0.2707394 -81.11  0.000898294    1.720    0.419
       388 -10.4718     45.5669    101.9820   8.7282926191e+01   5.1356888388e+01    0.8078852    0.4094275  66.39   0.00290061    3.091    0.676
       389  -9.1316     46.2982     92.2289   8.4972400430e+01   5.3794567211e+01    0.5319221    0.3109988 -11.41  0.002019922    2.988    0.665
       390  -8.5776    166.8327    104.0694   5.2022062074e+01   2.8237833024e+01    0.2195935    0.1892615 -56.14 0.0006309926    1.306    0.234
       391 -10.2888    128.7253    101.2906   5.9866158526e+01   3.6832787103e+01    0.5462928    0.3346938 -41.23  0.001610494    1.611    0.379
       392  -8.8777      6.9575    102.6800   1.0267154713e+02   5.4630107708e+01     0.338089    0.1578665  67.06  0.001209234    2.289    0.563
       393  -7.8040    175.5829    101.8051   4.9762890249e+01   2.6805716416e+01    0.2042292    0.1225942 -44.59 0.0007118382    1.687    0.407
       394  -8.1747    159.7257    100.6141   5.2546596981e+01   3.0334098015e+01    0.2411965    0.1648842 -53.00 0.0005954538    1.668    0.401
       395  -9.2935     82.1476     99.8742   7.3354268236e+01   4.6380472309e+01    0.3643831    0.2623595 -75.08 0.0008798307    1.678    0.404
       396  -9.1292     94.9429     96.8849   6.8324992055e+01   4.4704182287e+01    0.3036678    0.2561804 -67.32 0.0006094777    1.275    0.216
       397 -10.0550     64.0672     95.7086   7.8787926335e+01   5.0407059758e+01    0.5986593    0.3736074  81.94  0.001509846    2.573    0.611
       398  -8.1075    164.9492     94.0065   4.9716265601e+01   3.0356366410e+01    0.2229748    0.1708868 -63.95  0.000479005    1.628    0.386
       399  -8.0739    151.6452     94.6859   5.2632709926e+01   3.3135347108e+01    0.1553192    0.1148419  10.89 0.0007045162    1.738    0.425
       400  -7.7683    183.0000    108.9812   5.0222746085e+01   2.4140511105e+01    0.2276001   0.07368249 -35.11 0.0005385829    2.851    0.649
       401  -8.0937    176.4792     93.0318   4.7300578920e+01   2.8047049048e+01     0.221362    0.1297935 -36.35 0.0007481812    1.570    0.363
       402  -9.6246    139.1103     91.4614   5.4538333339e+01   3.6496792995e+01    0.5457897    0.2880076 -50.57  0.001662863    2.139    0.533
       403 -10.0263    124.5660     90.6469   5.7908148033e+01   3.9872121139e+01    0.4336509    0.3305173 -69.39  0.001002876    1.660    0.398
       404  -9.4613     34.9429     89.8586   8.9237163026e+01   5.5735457870e+01    0.4714227    0.2619121  80.98    0.0016265    2.486    0.598
       405  -8.0265    157.8251     91.3824   5.0413613361e+01   3.2362213603e+01    0.2045963    0.1757044 -41.56 0.0005254215    1.138    0.122
       406  -9.0944     22.8452     89.7422   9.4449665511e+01   5.6919391798e+01    0.3273493    0.2560214   0.37  0.001081046    1.505    0.336
       407  -8.2349    151.1360     88.9130   5.1109691203e+01   3.4280933337e+01    0.2784439    0.1609125 -42.94 0.0009630338    1.693    0.409
       408 -10.0602     86.4783     85.8581   6.7942250810e+01   4.8869334063e+01    0.6561158     0.419504 -63.44  0.001713463    1.850    0.460
       409  -8.5649     65.4618     87.2753   7.6059769333e+01   5.2280300742e+01    0.3571025    0.2212648  -9.81  0.001285457    3.100    0.677
       410  -7.7095    188.5124     93.4624   4.5353859308e+01   2.5467839784e+01    0.1393661    0.1254308 -31.74 0.0002441051    1.057    0.054
       411  -8.0816    164.3722     87.1608   4.7935374569e+01   3.1634725635e+01    0.2098734    0.1255686 -43.44 0.0004148032    1.636    0.389
       412  -9.6796     48.4416     84.0141   8.2135131586e+01   5.5625395495e+01    0.5630628    0.3367157  70.70  0.001743367    2.547    0.607
       413  -9.9406    104.8618     83.0593   6.1133246587e+01   4.5726208591e+01    0.4732126    0.3386107 -70.34 0.0009349682    1.855    0.461
       414  -8.5521    158.0367     83.6680   4.8176632726e+01   3.3639089710e+01    0.2503709    0.1880729 -43.70 0.0003871857    1.301    0.232
       415  -9.4275      5.4697     91.8430   1.0223735161e+02   5.7556737786e+01    0.3797035    0.2058603  56.27   0.00141435    1.922    0.480
       416  -7.7237    170.6515     83.3156   4.5691650425e+01   3.0872805333e+01    0.1491041    0.1100068 -66.27 0.0007047479    1.725    0.420
       417  -9.2488    140.8890     82.5366   5.1486222937e+01   3.7747446012e+01     0.332231    0.2052294 -41.21 0.0008232388    1.569    0.363
       418  -7.8266    185.3173     82.2986   4.2927074610e+01   2.7833350394e+01    0.1404203    0.1058237  12.67 0.0003021628    1.614    0.380
       419  -7.9883     64.0253     82.3339   7.5235437953e+01   5.3725476231e+01    0.2071439    0.1926932  52.78  0.000602648    1.117    0.105
       420  -8.1320     35.3301     82.3512   8.7489196933e+01   5.7654214062e+01    0.1556689   0.09904847 -36.04 0.0007047622    1.771    0.435
       421  -9.6356     24.6724     80.3589   9.1957837720e+01   5.9234222122e+01    0.4740176    0.2734361  78.26  0.001448791    2.178    0.541
       422  -9.1916      9.9270     80.8760   9.8941447588e+01   6.0194594280e+01    0.4052692    0.1676933  56.88  0.001508119    3.006    0.667
       423  -8.7083    119.4857     80.0970   5.6019303490e+01   4.3101189516e+01    0.3472263    0.2303322 -60.49 0.0008988559    1.876    0.467
       424  -8.8714     74.6555     80.2164   7.0474460424e+01   5.2398585966e+01     0.347251    0.2198253 -71.51 0.0009410001    2.150    0.535
       425  -8.4128    150.1158     79.9206   4.8687129542e+01   3.6087989415e+01    0.2844092    0.1766295 -49.58  0.001010027    1.718    0.418
       426  -8.3184    166.8170     79.2246   4.5224430577e+01   3.2386751797e+01    0.2181159    0.1847022 -48.38 0.0005167705    1.183    0.155
       427  -8.2025    184.3532     78.1808   4.1962074080e+01   2.8657447295e+01    0.2085591    0.1144233 -39.83 0.0008213063    1.670    0.401
       428  -7.4142    179.3266     85.6547   4.4821174230e+01   2.8607003432e+01    0.1481312    0.1057744 -61.44 0.0007050418    1.746    0.427
       429  -9.2932    128.0860     75.1120   5.2198172068e+01   4.2074765233e+01    0.3593689    0.2558097 -57.03 0.0005786655    1.595    0.373
       430  -7.8831    150.2870    109.6550   5.6947766411e+01   3.0677931010e+01    0.1454588    0.1166833 -71.88 0.0002723206    1.650    0.394
       431  -8.7153    140.5752     74.9610   4.9220157901e+01   3.9173245075e+01    0.2889858    0.1707775 -47.34 0.0006996894    1.750    0.428
       432  -9.9443     63.1782     73.3999   7.2866712122e+01   5.6022721529e+01    0.4912745    0.3247975 -69.84  0.001367158    1.827    0.453
       433  -9.7334     82.4952     72.4203   6.5035265748e+01   5.2682332457e+01    0.4476299    0.3062977 -66.44 0.0009718147    1.834    0.455
       434  -7.9671    163.5046     73.0365   4.4019693255e+01   3.4130366787e+01    0.2260734    0.1366601 -34.27 0.0007284032    1.548    0.354
       435  -8.1661    151.5027     73.0107   4.6303445265e+01   3.6935569548e+01    0.2147595    0.1145483 -54.18 0.0005699069    2.373    0.579
       436  -8.5713    115.7533     72.7526   5.4629482915e+01   4.5385519098e+01    0.3001029    0.1997205 -48.21 0.0006898309    1.538    0.350
       437  -7.7650    175.4798     72.4785   4.1792224184e+01   3.1477574131e+01    0.1427987    0.1327205 -22.45 0.0001205824    1.043    0.041
       438  -9.1493    105.9375     71.4859   5.6999538426e+01   4.7873167453e+01    0.2830402    0.2088427 -56.92 0.0006963548    1.494    0.331
       439  -9.2805     95.1977     70.8453   6.0123389708e+01   5.0376535489e+01     0.410754    0.2526725 -56.62 0.0009625757    1.884    0.469
       440  -9.4253     51.5388     69.4112   7.6648362740e+01   5.8835699440e+01    0.4804121     0.276088 -76.45  0.001426084    2.584    0.613
       441  -8.9126     28.9680     70.1981   8.7665098594e+01   6.1471962254e+01    0.2337142    0.1456408 -25.15 0.0005501338    1.992    0.498
       442  -9.1515     16.6349     69.6144   9.3781869272e+01   6.2704446178e+01    0.3115831    0.1922622  89.32 0.0009056338    1.756    0.431
       443  -9.0082    146.9153     68.2815   4.5753508912e+01   3.8806833863e+01    0.3529866    0.2118728 -36.16  0.001157819    1.589    0.371
       444  -9.0223    138.7718     66.1156   4.6770560603e+01   4.1125322003e+01    0.3148397    0.1870092 -46.32 0.0008252687    1.715    0.417
       445  -8.8788    121.9281     65.9754   5.0687693658e+01   4.5201405190e+01    0.3160115    0.2151319 -53.97 0.0007984583    1.627    0.385
       446  -9.3213    109.8210     63.6527   5.3111602867e+01   4.8496322802e+01    0.3831248    0.2875783 -16.11   0.00158893    1.588    0.370
       447  -8.9393     64.6417     63.1058   6.8736552012e+01   5.8162201069e+01    0.6019883    0.3586269  -8.14  0.001903609    4.117    0.757
       448  -8.7864     37.2652     63.8662   8.1766596270e+01   6.2149273497e+01    0.3254925    0.2198013  89.66  0.001077258    1.976    0.494
       449  -7.9344    157.4056     69.5276   4.4087582787e+01   3.6112089902e+01    0.1478703    0.1362704 -44.23 0.0001489892    1.051    0.049
       450  -8.0797    158.4281     61.5465   4.1427254532e+01   3.7109284775e+01    0.1466134    0.1365306 -46.02 0.0001227055    1.034    0.033
       451  -9.3684     97.4916     60.3955   5.5590137065e+01   5.1967301726e+01    0.2988728    0.2646483  82.67 0.0009311922    1.281    0.219
       452  -9.7087     73.4585     59.2182   6.3657506329e+01   5.7350374890e+01    0.4897209    0.2764202 -56.47   0.00125791    2.059    0.514
       453  -8.3349     89.3748     59.2626   5.7819357081e+01   5.4005882471e+01    0.2188321     0.139195 -50.97 0.0005985055    1.670    0.401
       454  -8.8354    130.9801     57.5024   4.5564987545e+01   4.4459679789e+01    0.2928003    0.1944932 -50.16 0.0006469824    1.590    0.371
       455  -9.7214     23.5224     56.2620   8.6870763574e+01   6.5551146502e+01    0.4923148    0.2877257  74.26  0.002051913    2.646    0.622
       456  -9.5776      7.4848     56.7123   9.6209228164e+01   6.6642775184e+01    0.3597074    0.2116448  82.69  0.001717247    1.938    0.484
       457  -8.4087    140.0340     55.8415   4.3053755932e+01   4.2483914385e+01    0.2774591    0.1724197 -46.05 0.0006204548    1.624    0.384
       458  -9.3133    119.1144     55.0903   4.7503756908e+01   4.7785434081e+01    0.4541509    0.2289931 -46.59  0.001235706    2.106    0.525
       459  -8.3581    108.5399     56.4665   5.0814159435e+01   5.0114402529e+01    0.2588854    0.1480515 -38.07 0.0008096988    1.722    0.419
       460  -8.6028    106.0169     53.0206   5.0198978576e+01   5.1329283455e+01    0.2845401    0.2062012 -59.16 0.0007333762    1.611    0.379
       461  -8.8273     44.1808     54.7761   7.5198278175e+01   6.3422982106e+01    0.4394478    0.2198664 -64.09  0.001412402    2.387    0.581
       462  -9.0571     62.7336     54.2907   6.6183549866e+01   6.0461401476e+01    0.3280512    0.2209075 -54.95 0.0006831061    1.558    0.358
       463  -9.0523     54.1740     53.8023   6.9898623100e+01   6.2078201278e+01    0.3941536    0.2297008 -65.02  0.001157674    2.259    0.557
       464  -8.0101    250.6808     53.3561   2.8168741092e+01   1.8686280812e+01    0.1289699   0.06916422 -48.99 0.0002786471    1.755    0.430
       465  -9.5019     92.5925     50.3874   5.3206156508e+01   5.4970226305e+01    0.4915415    0.2758576 -53.29  0.001178147    2.161    0.537
       466  -8.4819     74.6449     51.7012   6.0162994164e+01   5.8666108548e+01    0.2429248     0.181025  -0.27  0.001103471    1.793    0.442
       467  -8.5975    144.8535     48.8329   3.9713622390e+01   4.2334534724e+01    0.2099697    0.1644231 -53.84 0.0005226455    1.305    0.234
       468  -8.2602    129.7244     48.9371   4.2771172439e+01   4.6130487877e+01    0.2188752    0.1874761 -36.40 0.0006082928    1.148    0.129
       469  -8.2942    120.8858     47.2099   4.4111990928e+01   4.8623954659e+01    0.2276104    0.1996516 -62.50 0.0005933449    1.199    0.166
       470  -8.5125    112.4268     46.7524   4.6005684883e+01   5.0813347279e+01    0.2736254    0.1384002 -38.70 0.0006701914    1.933    0.483
       471  -9.0215     82.1699     46.1880   5.4975066435e+01   5.8107235726e+01    0.3559365    0.2413068 -56.76 0.0008374813    1.766    0.434
       472  -8.4737     44.8821     44.3326   7.0638338473e+01   6.5687791287e+01    0.2398255    0.1877426 -58.79 0.0007564316    1.349    0.259
       473  -8.8684     16.8972     44.6507   8.7355901405e+01   6.9025788688e+01     0.249804    0.1876004 -73.36 0.0005975894    1.344    0.256
       474  -8.6578    132.8848     42.9280   3.9907032514e+01   4.6217026465e+01    0.2764643    0.1936557 -39.53 0.0007384713    1.392    0.282
       475  -9.3926     69.6638     41.3339   5.7578065912e+01   6.1715160916e+01    0.4798752    0.2812118 -55.40  0.001398479    2.158    0.537
       476  -8.7520     58.0207     42.1961   6.3091180854e+01   6.3864997740e+01    0.3483951    0.2005992 -55.14 0.0009988288    2.037    0.509
       477  -7.7853     32.9688     44.0000   7.7184404210e+01   6.7466403666e+01    0.2152396   0.07992696  29.38 0.0005428318    2.872    0.652
       478  -9.4286      5.3132     42.0964   9.4280099579e+01   7.0461221989e+01    0.3285963    0.1971714  81.18  0.001061046    2.061    0.515
       479  -8.0814    140.2438     40.9480   3.7787472447e+01   4.4611998513e+01    0.1905002    0.1214722 -31.23 0.0004969877    1.528    0.346
       480  -8.7855    105.9518     41.1537   4.5419466076e+01   5.3311371259e+01    0.2323784    0.2006382 -68.33 0.0005571299    1.278    0.218
       481  -8.6192     36.8143     40.5031   7.3451261891e+01   6.7738487639e+01    0.2658491    0.1830608 -69.69 0.0008376256    1.830    0.454
       482  -8.8330     95.6845     37.8713   4.6879826431e+01   5.6358700689e+01    0.2781569    0.1895032 -48.02  0.000746925    1.574    0.365
       483  -8.7557     93.1122     42.5211   4.9706650889e+01   5.6224570110e+01    0.3076806     0.205282 -12.03  0.001316433    1.959    0.490
       484  -8.2550     80.4637     36.2744   5.1060804020e+01   6.0231866823e+01    0.2071543    0.1363153 -46.20 0.0009346805    1.613    0.380
       485  -9.2800     26.2259     35.2912   7.7698030376e+01   7.0285992634e+01    0.3082074    0.2268442 -77.52 0.0008914483    1.736    0.424
       486  -8.1449    126.0164     35.3283   3.8398683128e+01   4.9037529286e+01    0.2051422    0.1851314  70.13  0.000370482    1.104    0.094
       487  -8.7114    111.9799     34.5097   4.1122049396e+01   5.2769180175e+01    0.2925987    0.1913693 -48.82 0.0006629522    1.636    0.389
       488  -7.8465     88.6334     33.8891   4.7206453177e+01   5.8689490484e+01    0.2177325     0.129198 -43.30 0.0009388665    1.756    0.430
       489  -8.4794    119.2240     32.9732   3.8864749161e+01   5.1112342707e+01    0.2713953    0.1617447 -39.62 0.0006852092    1.661    0.398
       490  -8.8868     60.7977     32.3263   5.6944340572e+01   6.5193212632e+01    0.2427292    0.1892041 -46.51 0.0005827135    1.347    0.258
       491  -8.8385     48.5255     32.9333   6.3254754605e+01   6.7434590780e+01    0.2443372    0.2199214  89.99  0.000688302    1.420    0.296
       492  -9.0962     72.0121     30.5077   5.1322779866e+01   6.3096998941e+01    0.3266971    0.1930285 -48.80 0.0009305726    1.946    0.486
       493  -8.8917     12.9397     30.0372   8.4834977814e+01   7.2846340297e+01    0.3414313    0.1874189 -75.54  0.001248612    2.262    0.558
       494  -8.9143    156.0423     29.9015   3.1425353615e+01   4.1967291564e+01    0.2371645    0.2050779 -15.89 0.0003873922    1.223    0.182
       495  -8.5735    101.6500     29.1856   4.1336061112e+01   5.6141338221e+01    0.2334173    0.1723068 -49.18 0.0006314904    1.448    0.310
       496  -7.5329     42.2929     29.7021   6.4962047686e+01   6.9144723068e+01    0.1299674     0.112912 -88.78 0.0004430792    1.563    0.360
       497  -9.0544     81.5728     27.2746   4.6255674216e+01   6.1377502707e+01    0.3239436    0.2307354 -52.14 0.0008099232    1.616    0.381
       498  -8.9783      3.7645     27.2990   9.0996824160e+01   7.4143128525e+01    0.2704643    0.1924504  86.37 0.0008889447    1.706    0.414
       499  -8.9502     91.8714     26.2559   4.2597813109e+01   5.9003202080e+01    0.3157832    0.1880029 -44.54 0.0007995401    1.802    0.445
       500  -8.0776     34.7614     22.9416   6.5684563958e+01   7.1679761268e+01    0.2091187    0.1623404 -76.86  0.001063675    1.993    0.498
       501  -8.4245    104.4922     22.5263   3.7615894391e+01   5.6265513710e+01    0.1444193    0.1403047  56.98 0.0001125595    1.002    0.002
       502  -9.1051     63.6944     20.8141   4.9337696030e+01   6.6449412305e+01    0.3284471    0.2196527 -48.35 0.0009054824    1.728    0.421
       503  -8.9213     48.4766     21.5194   5.6845983927e+01   6.9508366606e+01    0.2592089    0.2339306 -65.48  0.000749034    1.374    0.272
       504  -7.3951    121.2822     21.2950   3.3648899978e+01   5.2008286643e+01    0.1459805    0.1067773  32.60 0.0004031179    1.538    0.350
       505  -7.6648    117.2905     21.6621   3.4547992716e+01   5.3019018002e+01    0.1538583    0.1047546 -58.58 0.0003225797    1.641    0.391
       506  -8.2906     19.7753     21.2128   7.5293789111e+01   7.4108070552e+01    0.2037518    0.1411128  72.41 0.0008233016    2.695    0.629
       507  -8.8994     74.1160     19.1396   4.4454007905e+01   6.4287687339e+01    0.3260987    0.2078706 -43.26  0.000711503    1.700    0.412
       508  -8.1678     39.0040     18.2830   6.0148197274e+01   7.1812514636e+01    0.1881456    0.1724728   9.85 0.0004994501    1.058    0.055
       509  -8.2082     87.7307     17.2354   3.9241411898e+01   6.1188340455e+01    0.2236904    0.1706146 -49.16 0.0005624695    1.438    0.304
       510  -7.7245    112.7475     16.6616   3.3248875026e+01   5.4767445204e+01    0.1457164    0.1058728  27.32 0.0002207416    1.570    0.363
       511  -8.1423     30.4572     15.9872   6.4168710106e+01   7.3649928624e+01    0.2001647    0.1246241 -43.80  0.000667258    1.579    0.367
       512  -8.0130    191.7719    249.5727   7.4067730454e+01   3.0574690438e+00    0.1422961   0.07638407  33.93 0.0006017723    1.679    0.404
       513  -7.8156      7.6908     15.3413   8.2294567449e+01   7.6583566131e+01    0.1215412   0.09916483  69.20 0.0005641512    1.692    0.409
       514  -7.8264     17.3081     13.6953   7.2740459998e+01   7.5930343709e+01    0.1185578    0.1046043  75.44 0.0003283547    1.607    0.378
       515  -9.0263    175.7417    247.5207   7.6570420591e+01   5.0750327406e+00    0.2275391    0.1848466  59.30  0.001293762    2.379    0.580
       516  -7.9988    113.3821    248.6247   8.8296634576e+01   1.2168597724e+01    0.1597724    0.1021226 -85.66 0.0009471539    3.021    0.669
       517  -9.2597    103.9493    246.8870   8.9986331477e+01   1.3500180191e+01    0.3435636    0.2100459  86.86  0.001968644    3.163    0.684
       518  -8.6078    218.5952    247.3416   6.9409809527e+01   4.2101748782e-01    0.2154592    0.1074575 -34.06  0.001305646    2.294    0.564
       519  -8.5436    156.1358    247.7234   8.0110099348e+01   7.3068813753e+00     0.152759    0.1387367  22.38 0.0007108345    1.382    0.276
       520  -7.8009    152.5039    248.5366   8.0868737071e+01   7.6286537520e+00     0.110124   0.08019142  19.83 0.0008094676    1.018    0.018
       521  -8.7190    132.3762    247.8413   8.4561221335e+01   1.0066696467e+01    0.2363304    0.1364691  44.24  0.001058201    1.758    0.431
       522  -9.0337     64.7597    248.3078   9.7887700221e+01   1.7594591030e+01    0.2430212   0.05259516  35.30  0.001091517    2.762    0.638
       523 -10.0362    223.9315    243.9360   6.8119335612e+01   1.9942687175e-01    0.3404972    0.1826851 -37.43  0.002247784    2.481    0.597
       524  -9.1257    210.8919    246.2428   7.0489288036e+01   1.3375092337e+00    0.1724203    0.1356762 -33.09 0.0007721012    1.893    0.472
       525  -9.6292     10.9132    245.1343   1.0837929860e+02   2.3170662354e+01    0.4500083   0.08246589  55.86  0.001963737    3.874    0.742
