#   1 NUMBER                 Running object number                                     
#   2 MAG_AUTO               Kron-like elliptical aperture magnitude                    [mag]
#   3 X_IMAGE                Object position along x                                    [pixel]
#   4 Y_IMAGE                Object position along y                                    [pixel]
#   5 X_WORLD                Barycenter position along world x axis                     [deg]
#   6 Y_WORLD                Barycenter position along world y axis                     [deg]
#   7 A_WORLD                Profile RMS along major axis (world units)                 [deg]
#   8 B_WORLD                Profile RMS along minor axis (world units)                 [deg]
#   9 THETA_WORLD            Position angle (CCW/world-x)                               [deg]
#  10 FWHM_WORLD             FWHM assuming a gaussian core                              [deg]
#  11 ELONGATION             A_IMAGE/B_IMAGE                                           
#  12 ELLIPTICITY            1 - B_IMAGE/A_IMAGE                                       
         1  -8.9503     18.7064     17.6539   1.1500258024e+02   7.0873329959e+01    0.3187208    0.1473198 -30.58  0.001706226    2.009    0.502
         2  -7.6671    131.0336     15.0430   7.4413818875e+01   5.1082555551e+01    0.2222657    0.1629175 -63.63  0.001130766    1.695    0.410
         3  -8.9816     80.4525     13.0018   8.6445892025e+01   6.2641374528e+01    0.3158525    0.2049696 -39.58  0.001090767    1.788    0.441
         4 -10.0247     50.3181     11.7268   9.7031145760e+01   6.8009727260e+01    0.2753249    0.2358346 -42.15  0.001847079    1.549    0.354
         5  -8.4090    250.0000     10.4986   5.8496401231e+01   2.1724058814e+01    0.2583715   0.06606595 -29.05 0.0009159046    3.784    0.736
         6  -8.7509     92.3301      9.6099   8.1336540461e+01   6.0584446384e+01    0.2637788     0.183312 -76.07   0.00126559    2.600    0.615
         7  -7.7933     72.3003      9.3541   8.7421216410e+01   6.4602585529e+01    0.1351862   0.08476546  15.13 0.0002456452    1.701    0.412
         8  -8.7850     27.6272      8.5365   1.0603669145e+02   7.1409417712e+01    0.2716179    0.1071304 -29.22  0.001281531    2.545    0.607
         9  -8.3745     30.9914      8.0000   1.0405682995e+02   7.1100049555e+01    0.2577683    0.1091208  26.68 0.0009971447    2.618    0.618
        10  -9.0914    109.8086      7.9646   7.6185723213e+01   5.6864642406e+01     0.205401    0.1213898  39.67 0.0004788132    1.579    0.367
        11  -9.5155     39.6955      7.2042   9.9434308786e+01   7.0108411294e+01    0.2882087    0.2240407  53.77  0.001126201    2.077    0.519
        12  -9.1595     77.1174      5.1689   8.3804849073e+01   6.4126545526e+01    0.3562043    0.2540317 -35.63  0.002095973    1.613    0.380
        13  -9.5446     14.2373      3.5591   1.1069290000e+02   7.3483877520e+01    0.4245009    0.1992144 -28.18  0.002417151    1.898    0.473
        14  -7.6978     18.4420      2.5383   1.0778489338e+02   7.3232970138e+01    0.1518954   0.09143925  10.54 0.0005050816    1.687    0.407
        15  -7.6965    155.5187      6.5168   6.7210494090e+01   4.5688884035e+01    0.1384619    0.1246884  74.82 0.0008100044    1.027    0.026
        16  -8.5012     56.5208      5.3077   9.1193640989e+01   6.7819309411e+01    0.2891379    0.1830297 -54.19  0.001403796    3.175    0.685
        17  -8.4259    125.5642      5.5487   7.1899549791e+01   5.3332880001e+01    0.1355457    0.1202395  47.86 6.271925e-05    1.009    0.009
        18 -10.2290     60.0996      2.7966   8.8504453470e+01   6.7491770026e+01    0.2163408    0.1913205  13.34  0.000278213    1.160    0.138
        19  -7.4109     34.6039      4.7592   1.0055665059e+02   7.1094909274e+01    0.1187695   0.07362169   5.38  0.000692614    1.668    0.401
        20  -7.2146    151.2745      3.3443   6.6774195231e+01   4.7063127655e+01     0.141277   0.09376026  36.40 0.0002914221    1.622    0.384
        21  -8.7109    106.1895      3.1435   7.5003302717e+01   5.8129387759e+01    0.1756459    0.1564829 -60.26  0.001078858    1.377    0.274
        22  -7.5591    179.2964      5.3223   6.3716400207e+01   3.9631443044e+01    0.1390909   0.09641172  41.01 0.0004410649    1.620    0.383
        23  -8.3795    116.0127      1.6470   7.2261501915e+01   5.5964825631e+01    0.1966671     0.154761  54.06  0.001065208    1.125    0.111
        24  -8.6276     40.4196      1.9144   9.6246843607e+01   7.0670664747e+01    0.3419944    0.1402151  34.10  0.001707251    2.432    0.589
        25  -7.4674     87.5291      1.4593   7.8954357801e+01   6.2368341816e+01    0.1300447    0.1080452  27.76  2.48264e-05    1.030    0.029
        26  -7.7831     67.3038      1.4692   8.5219077034e+01   6.6346970338e+01    0.1534135    0.1162822  56.38 0.0009367586    1.570    0.363
        27  -9.5069    159.9177    235.5738   1.2278427584e+02   4.7656729695e+00    0.2957303    0.1825143  23.60  0.001244833    1.982    0.496
        28  -9.3347    249.0594    249.7203   1.0921108625e+02  -1.0767505132e+01    0.2811244    0.1597225  24.49  0.001831892    1.402    0.287
        29  -9.4775    225.6833    250.3385   1.1316761614e+02  -7.5337339492e+00    0.3590934    0.1067448  42.08  0.001400819    2.853    0.649
        30 -10.1831    208.3194    249.8540   1.1605989758e+02  -4.8911501767e+00    0.5755166     0.142649  44.18  0.002224849    3.636    0.725
        31  -9.5993    219.5165    248.4561   1.1393588165e+02  -6.4165262562e+00    0.2913215    0.2042907  33.99  0.002003532    1.166    0.142
        32  -9.3539    186.5762    245.7414   1.1930054523e+02  -9.9712823764e-01    0.3017153    0.1897184 -39.92  0.001874134    1.998    0.500
        33  -8.5954    188.4768    250.4680   1.1960803801e+02  -1.8993400394e+00     0.234031    0.1159678  37.41 0.0008306825    1.578    0.366
        34  -9.9191    192.9327    248.3408   1.1853229269e+02  -2.3314827541e+00    0.2813367    0.2164876  32.03  0.001029206    1.003    0.003
        35  -8.9257    183.9664    249.3087   1.2024911759e+02  -1.0429699806e+00    0.2452537    0.1596711  28.36  0.000778473    1.372    0.271
        36  -8.6786    180.5065    249.4919   1.2088760470e+02  -5.1949641003e-01    0.2146207    0.1437422   6.82  0.001257642    2.068    0.516
        37  -8.7345    175.5059    249.9160   1.2183297207e+02   2.1778478606e-01    0.1402165    0.1183698 -35.81 0.0005002915    1.511    0.338
        38  -8.6314    169.9775    250.0079   1.2283108427e+02   1.0840649811e+00    0.2103679    0.1483846   0.67  0.001265817    2.083    0.520
        39  -9.0220    171.4993    245.8299   1.2201720242e+02   1.4060856693e+00    0.1927004    0.1382384  27.91  0.000927859    1.305    0.234
        40 -10.0736    163.8566    247.0042   1.2354825391e+02   2.4733842816e+00    0.4833831    0.2644588  19.04  0.002181961    3.272    0.694
        41 -10.2864    156.4384    246.4155   1.2481715295e+02   3.7490893406e+00    0.3521469    0.2830932  -9.29  0.001622964    1.727    0.421
        42  -9.6916    150.6572    245.0693   1.2570330949e+02   4.8743438148e+00    0.2821576    0.2005605 -14.20  0.001474508    2.385    0.581
        43  -8.0772    144.6773    247.3024   1.2705786580e+02   5.5042736421e+00     0.134603    0.1157316 -34.04 0.0003952707    1.563    0.360
        44  -7.4940    133.2801    250.6758   1.2949631026e+02   6.8024089284e+00    0.1155425   0.07596119  64.17 0.0002491422    1.591    0.372
        45  -7.5190     25.3289    250.3284   1.4798343507e+02   2.1524511845e+01   0.08362228   0.07655124 -78.16 0.0007051142    1.708    0.415
        46  -7.7294    243.9829    235.0339   1.0773993866e+02  -8.5171908931e+00    0.1372211    0.1044924  15.23 0.0004811779    1.012    0.012
        47  -7.8434     18.3278    237.3268   1.4849853744e+02   2.4528649482e+01   0.08680459   0.07585853 -70.50 0.0002315437    1.701    0.412
        48  -8.4295    178.7215    235.1268   1.1923858340e+02   1.7106974885e+00    0.2295594    0.1364324  22.14 0.0006236151    2.009    0.502
        49  -8.4079      6.6790    235.3562   1.5029730148e+02   2.6057664877e+01    0.1147287   0.04837867  65.28 0.0007045705    1.760    0.432
        50  -7.6498    232.9618    234.5302   1.0951124868e+02  -6.8404379772e+00    0.1659753   0.07911124  22.26  0.000806674    2.350    0.574
        51  -7.5332    204.5166    234.4763   1.1446334301e+02  -2.4143707795e+00    0.1237227   0.09488633  23.76 2.814509e-05    1.097    0.088
        52  -7.4657    130.5350    234.4755   1.2816031216e+02   9.7703955918e+00    0.1242217   0.09836201  51.74 0.0001616094    1.014    0.014
        53  -8.5947      1.7619    233.9727   1.5102818803e+02   2.6776739666e+01    0.1303422   0.06512184 -87.08 0.0008898366    1.646    0.393
        54  -7.5939    248.5362    233.4343   1.0672769969e+02  -8.9955959607e+00     0.117048   0.08547079  14.55 0.0001134732    1.065    0.061
        55  -8.9158    170.8757    232.8961   1.2037553391e+02   3.3355874731e+00     0.186151    0.1462326  25.20 0.0005183079    1.243    0.196
        56  -7.5723    146.4666    236.5029   1.2541666261e+02   6.8468562779e+00    0.1239252   0.09891472  46.23 -9.074733e-06    1.002    0.002
        57  -7.4222    134.3344    232.3035   1.2718069576e+02   9.5063787972e+00    0.1168246   0.09136902  18.41 0.0007037438    1.662    0.398
        58  -7.3436    140.3462    233.3055   1.2616639432e+02   8.3571437259e+00    0.1189753   0.09040847  18.37 0.0005226108    1.695    0.410
        59  -7.4455    122.3237    231.3005   1.2934231523e+02   1.1621640389e+01    0.1129587   0.09250908  18.54 0.0002693248    1.632    0.387
        60  -7.7892    115.2675    230.9792   1.3064665140e+02   1.2800921511e+01    0.1392363    0.1051086 -70.15 0.0008908139    1.527    0.345
        61  -7.5468    246.2887    230.3112   1.0658833887e+02  -8.3277288143e+00    0.1176252   0.07250148  10.08 0.0002430264    1.581    0.368
        62  -7.8361    241.4694    229.7399   1.0729889016e+02  -7.5574275617e+00    0.1524125   0.09734052 -10.16 0.0009399859    1.610    0.379
        63  -7.4403    213.7272    231.3011   1.1233563008e+02  -3.4817536018e+00    0.1038471   0.09069026  55.29 0.0003867348    1.533    0.348
        64  -7.8184    158.5080    229.4650   1.2222294541e+02   5.9304726782e+00    0.1263786    0.1027625  39.63 2.919415e-05    1.045    0.043
        65  -8.1606    195.8403    228.1865   1.1506820689e+02  -1.6494347474e-01    0.1752529     0.127111  18.08  0.001070968    1.369    0.270
        66  -7.9061    151.6520    227.7252   1.2329117727e+02   7.3616773635e+00    0.1821703    0.1374148  13.17 0.0009694264    1.746    0.427
        67  -7.8511    109.1868    227.1268   1.3137888784e+02   1.4429139834e+01    0.1698553    0.1212896  66.42  0.000466716    1.292    0.226
        68  -7.9724    184.8450    225.8960   1.1674818863e+02   2.0001713440e+00    0.1882069    0.1490366  16.31  0.000796428    1.285    0.222
        69  -7.8304    167.7635    224.9906   1.1983246862e+02   5.0463194110e+00    0.1709715    0.1446421  38.08 0.0004871594    1.031    0.030
        70  -8.0511    127.4920    224.4981   1.2753278211e+02   1.1940590150e+01    0.2071545    0.1076928  33.96 0.0008196398    2.022    0.506
        71  -7.6963    248.8091    223.3880   1.0501507816e+02  -7.9129564490e+00    0.1637929   0.08799011  27.67 0.0004407219    1.627    0.385
        72  -7.0687     99.6658    223.6567   1.3283485239e+02   1.6528210332e+01    0.1103332   0.09735603   1.79 0.0007050388    1.761    0.432
        73  -7.9876    207.0105    222.0898   1.1206894624e+02  -1.1889676618e+00    0.1977703    0.1303555  13.62  0.000818363    1.677    0.404
        74  -7.7559    200.6032    222.2236   1.1325958661e+02  -1.3860356686e-01    0.1608642    0.1121491 -17.64 0.0009385934    1.693    0.409
        75  -8.0585    174.7024    221.6201   1.1801202779e+02   4.3687348779e+00    0.1872194    0.1331118  15.30 0.0007138031    1.683    0.406
        76  -7.5055      8.6547    221.6656   1.4937984590e+02   2.8354056678e+01   0.09121898   0.07421626 -63.01 0.0007049548    1.767    0.434
        77  -7.5303    242.4828    220.4424   1.0557335657e+02  -6.6260172150e+00    0.1230049   0.09138899  13.33 0.0005009058    1.111    0.100
        78  -7.9318    116.1931    220.9885   1.2931142412e+02   1.4404573965e+01    0.1826656    0.1468505 -16.61  0.001071604    2.057    0.514
        79  -7.8702    194.8167    218.7485   1.1377148151e+02   1.3320146508e+00    0.2072781    0.1220712  10.58 0.0009383236    2.689    0.628
        80  -7.7124    140.3960    219.2909   1.2433164260e+02   1.0668053098e+01    0.1272428   0.09483977  17.28  0.000700222    1.785    0.440
        81  -7.1493    237.6833    220.6913   1.0643014464e+02  -5.9237097771e+00    0.1241894   0.07763676  11.39 0.0005074989    1.634    0.388
        82  -7.9883    204.7798    215.6452   1.1141817768e+02   7.4252201315e-02    0.1961219    0.1335231  25.80 0.0007099466    1.342    0.255
        83  -7.9527    150.9670    216.3194   1.2183238768e+02   9.3477807375e+00    0.1864258    0.1411934  40.83 0.0004269136    1.136    0.119
        84  -7.6910    144.4151    215.4376   1.2300327807e+02   1.0637392527e+01    0.1282299    0.1097146  42.11 0.0001938323    1.080    0.074
        85  -7.9453    136.9828    214.9849   1.2441970197e+02   1.1999383301e+01    0.1964395    0.1561177   8.63  0.001129263    1.771    0.435
        86  -7.9464    119.6445    215.1340   1.2790617727e+02   1.4899036234e+01    0.1576921    0.1166009 -47.37 0.0004135015    1.701    0.412
        87  -7.9294    248.7912    215.3746   1.0364165989e+02  -6.9748889930e+00    0.1629569    0.0916893  28.22 0.0003186848    1.567    0.362
        88  -7.2987    112.4730    212.5292   1.2902053280e+02   1.6558552557e+01    0.1282167    0.1078637  57.22 5.358451e-05    1.040    0.039
        89  -8.3462    187.1632    210.6531   1.1389770642e+02   3.8677264708e+00    0.2479027    0.1634557  -6.09  0.001233199    2.246    0.555
        90  -7.5581    180.5344    211.4498   1.1530248703e+02   4.9194674458e+00    0.1313594    0.1106666  32.22 0.0002086296    1.031    0.030
        91  -8.2239    170.1377    210.8985   1.1723803617e+02   6.8591002283e+00      0.20154    0.1504216   8.13  0.001110774    1.713    0.416
        92  -7.9168    108.0431    209.4452   1.2953655858e+02   1.7860746068e+01    0.1613279    0.1106644  18.90 0.0003297972    2.334    0.572
        93  -7.4853     77.5419    209.4416   1.3570229505e+02   2.2513757714e+01    0.1226823    0.1004817  67.43  0.000125676    1.049    0.047
        94  -7.7390    203.8300    208.1868   1.1033184854e+02   1.3067069059e+00      0.17714     0.134556  14.04 0.0004804175    1.311    0.237
        95  -8.2071    147.4303    208.4724   1.2138856138e+02   1.1321283162e+01    0.1322559    0.1133067  50.32 6.275472e-05    1.024    0.024
        96  -7.7099    163.4569    207.4853   1.1801955528e+02   8.6228934770e+00    0.1330841    0.1145083  35.63  0.000117838    1.063    0.059
        97  -8.2457    248.0585    205.9416   1.0209119067e+02  -5.7139827301e+00    0.2007125    0.1236771  11.01  0.001120755    1.696    0.410
        98  -7.8822    100.2521    210.5679   1.3125332896e+02   1.8886788546e+01    0.1709303    0.1125969  34.63 0.0009411911    1.646    0.393
        99  -9.5255    124.0160    205.9906   1.2581284776e+02   1.5860167334e+01    0.1874366     0.158226  56.80   0.00115912    1.004    0.004
       100  -7.8325     12.4959    206.4973   1.4795185964e+02   3.0882694653e+01    0.1115368    0.0783261  74.75 -4.537344e-05    1.013    0.013
       101  -7.8148    139.8466    205.0916   1.2243011352e+02   1.3271500084e+01    0.1725696    0.1510752  20.33 0.0004903307    1.329    0.248
       102  -7.5277    105.3023    205.2887   1.2958182095e+02   1.9105570000e+01     0.113646    0.1024984   6.94 0.0006982505    1.564    0.360
       103  -8.0170     87.8017    204.1769   1.3305711925e+02   2.2056059883e+01    0.1542999    0.1506238  50.59 0.0007010913    1.358    0.264
       104  -7.8098    175.5049    202.4776   1.1480827033e+02   7.2721427926e+00    0.2309293    0.1131878  33.64 0.0008648203    2.077    0.519
       105  -7.7107     97.4841    202.4783   1.3085493533e+02   2.0905195418e+01    0.1301318      0.10839  65.00 6.523354e-05    1.007    0.007
       106  -8.6944    250.4140    198.3660   1.0031234344e+02  -5.1260695789e+00    0.3369447    0.1394731 -23.59  0.001476552    2.814    0.645
       107  -7.5490    193.3922    200.2842   1.1093461995e+02   4.3618526704e+00    0.1399257   0.09394212  16.35 0.0005237106    1.757    0.431
       108  -8.2945    243.4406    197.3991   1.0130708025e+02  -3.8881092950e+00    0.2868413    0.1540429 -17.99  0.001434414    2.103    0.525
       109  -8.2341    150.9398    198.7554   1.1917163871e+02   1.2427111880e+01    0.2042094    0.1750265  20.00 0.0006818273    1.307    0.235
       110  -8.6313    230.5654    197.9836   1.0364702186e+02  -1.8392817761e+00    0.2452479    0.1502722  24.15 0.0007244035    1.604    0.377
       111  -7.2543    162.2748    197.3503   1.1661294133e+02   1.0589299074e+01    0.1314793    0.1037493   3.30 0.0004362313    1.636    0.389
       112  -7.8141    224.4352    195.8068   1.0433568580e+02  -4.8805762749e-01    0.1780849    0.1138928 -16.86 0.0009403077    1.728    0.421
       113  -7.7455    191.4652    196.0166   1.1055080187e+02   5.3932918204e+00    0.1795995    0.1128353 -11.29  0.000436926    2.423    0.587
       114  -8.3914    203.0255    194.9724   1.0813923052e+02   3.4391963361e+00    0.2154211    0.1483503  12.29 0.0007607476    1.690    0.408
       115  -7.2975    195.7020    194.2708   1.0941443762e+02   4.8916223148e+00    0.1229543    0.1036854  67.83 0.0002001739    1.524    0.344
       116  -7.6097    144.8289    194.3967   1.1974641032e+02   1.4352583100e+01    0.1968579    0.1194067  34.41 0.0009441907    1.678    0.404
       117  -7.2725    209.3457    193.2852   1.0663656643e+02   2.5522500598e+00    0.1373629    0.0936872  14.13 0.0007018904    1.647    0.393
       118  -8.2443    237.4800    192.0011   1.0131850519e+02  -2.1787495672e+00    0.1805618     0.116832 -26.87  0.000491539    1.528    0.346
       119  -7.6656    232.4307    189.8306   1.0178845072e+02  -1.0178234496e+00    0.1745957    0.1130331 -16.56 0.0006940013    1.631    0.387
       120  -7.9823    224.6666    189.6426   1.0313561632e+02   3.6011543342e-01     0.196666    0.1326935   9.11  0.000608795    1.660    0.398
       121  -8.5885    243.4799    187.7670   9.9480004237e+01  -2.6017771714e+00    0.3211736    0.1601101 -22.59  0.001379694    2.203    0.546
       122  -7.8322    199.4271    188.8032   1.0768670008e+02   5.0767525196e+00    0.1789755    0.1250974 -20.57 0.0006490215    1.637    0.389
       123  -7.9368    191.8056    189.2139   1.0924635245e+02   6.4393516973e+00    0.1952481    0.1488076  18.38 0.0009812387    1.373    0.272
       124  -7.8745    173.0037    187.9744   1.1279041905e+02   1.0226406504e+01    0.2094869    0.1614912   8.00 0.0005246407    1.600    0.375
       125  -8.4656    238.0928    185.5292   9.9972935487e+01  -1.3816251372e+00    0.3154472    0.1619139 -16.72  0.001390093    2.552    0.608
       126  -7.8880    215.1738    185.8014   1.0413618573e+02   2.6377081680e+00    0.1871575     0.141736  13.30   0.00037471    1.331    0.249
       127  -8.7932    230.2067    184.9453   1.0124211444e+02   6.9503846013e-02     0.208702     0.168978  27.27 0.0003956745    1.133    0.117
       128  -7.1305    151.3403    185.3063   1.1684863016e+02   1.4857725702e+01    0.1388177    0.1087744   9.87 0.0007041955    1.682    0.406
       129  -8.7214    249.9561    182.4687   9.7363214311e+01  -2.9538081758e+00    0.2559384    0.1646357   0.78 0.0007500885    1.722    0.419
       130  -7.7364    211.5639    182.2026   1.0411339486e+02   3.8632105760e+00    0.1797837     0.123982 -19.46 0.0006676844    1.592    0.372
       131  -7.5416    224.2730    181.3531   1.0160388052e+02   1.6593809350e+00    0.1366946   0.09483375   3.18 0.0004900153    1.638    0.390
       132  -7.9827    182.8300    180.2014   1.0934369322e+02   9.6992411535e+00    0.1913325    0.1564777  10.89  0.000522058    1.342    0.255
       133  -7.7585    235.3034    179.0487   9.9187998180e+01   3.0789564224e-02    0.2134555    0.0980422 -15.59 0.0007040169    4.272    0.766
       134  -8.4898    242.6543    176.0490   9.7323484506e+01  -8.2067140539e-01    0.3273023    0.1822467 -16.48  0.001545741    2.098    0.523
       135  -7.8957    189.8861    176.1879   1.0714279089e+02   9.0188527489e+00    0.1994963    0.1546226  20.90 0.0007337332    1.350    0.259
       136  -7.7814    176.9722    176.5108   1.0983565248e+02   1.1511286839e+01    0.2160572    0.1305633  42.48 0.0004871237    1.527    0.345
       137  -9.5853    246.3092    167.1322   9.4901231513e+01  -1.7206879629e-01    0.2371998    0.1880791  18.44 0.0002807617    1.194    0.163
       138  -8.0906    237.3834    167.1200   9.6414251141e+01   1.4242517337e+00     0.226642    0.1636646  25.84 0.0006550181    1.361    0.265
       139  -7.0864    246.3004    157.3086   9.2859108522e+01   1.2771384715e+00    0.1359071   0.09506302   4.94 0.0002644336    1.599    0.375
       140  -8.3601    121.9399    148.0529   1.1663831757e+02   2.8296378602e+01    0.2167226    0.2037116  70.94 0.0003427336    1.017    0.017
       141  -7.3172     85.5700    147.4984   1.2567725849e+02   3.4796948578e+01    0.1386966    0.1263247 -83.09  1.40562e-05    1.054    0.051
       142  -8.1441     65.0205    141.9685   1.3008171309e+02   3.9090061361e+01    0.2209177    0.1465189  75.11  0.001124837    1.650    0.394
       143  -7.5470    230.3680    141.2580   9.2065022506e+01   6.8293566292e+00    0.1436753    0.1029271  15.73 0.0005673321    1.640    0.390
       144  -7.9015    248.1620    134.6272   8.7638475769e+01   4.3874048006e+00    0.2679705   0.08788312 -36.35 0.0009807351    2.736    0.634
       145  -7.9399    241.7594    132.5010   8.8185604232e+01   5.9682476005e+00    0.3034647    0.1618605 -20.40  0.001269528    2.262    0.558
       146  -7.6798    119.0534    133.4380   1.1429938356e+02   3.2151563694e+01    0.1915913    0.1350792  13.80 0.0004852435    2.227    0.551
       147  -8.4095    231.8037    129.0742   8.9047127899e+01   8.5362642140e+00    0.2777337    0.1770281  21.83    0.0012346    2.097    0.523
       148  -8.1998    240.0323    123.2782   8.6358606217e+01   7.7890896397e+00    0.2959358    0.1747563  -6.57  0.001173833    2.728    0.633
       149  -7.5144    224.6616    119.6725   8.8051234987e+01   1.1618510373e+01    0.1513522    0.1112907  10.29 0.0007051723    1.730    0.422
       150  -8.4112    248.3015    116.3608   8.3482610148e+01   7.2119933150e+00    0.3122327    0.1972451  -9.19  0.001414576    2.109    0.526
       151  -8.2381    219.0884    113.6888   8.7564615014e+01   1.3865080074e+01    0.3174735    0.1652492  30.98  0.001143732    2.929    0.659
       152  -7.9740    194.3185    110.3625   9.1286300390e+01   2.0161478656e+01     0.160918    0.1210898   8.89 0.0007041641    1.770    0.435
       153  -7.8220    201.0000    109.0219   8.9664246620e+01   1.8834831917e+01    0.2573982   0.08485429 -36.91 0.0008050281    2.960    0.662
       154  -8.0803    134.1947    107.9739   1.0421023036e+02   3.4676806078e+01    0.4323953    0.1096331 -50.90  0.001021533    5.245    0.809
       155  -8.1651    241.5085    105.5556   8.1980167063e+01   1.0326191683e+01    0.2416739     0.131245 -22.44  0.000634443    2.132    0.531
       156  -9.7972      4.1045    105.7384   1.4189007702e+02   5.3462447304e+01    0.3116563    0.1569494  52.36  0.001003915    2.303    0.566
       157  -7.4803    247.6181    101.6922   8.0171964573e+01   9.6522559070e+00    0.1432078    0.1050479  14.39 0.0001180963    1.794    0.443
       158  -7.6254    248.6772     96.3137   7.8757063096e+01   1.0268270572e+01    0.1427097    0.1007852 -61.83 0.0003016865    1.659    0.397
       159 -10.3771      6.4285     94.3258   1.3974088641e+02   5.5916272096e+01    0.2734015    0.1997371 -87.25  0.001315191    1.248    0.199
       160  -7.7978    241.8514     91.7812   7.8637512516e+01   1.2435503897e+01    0.2378193    0.1483044  15.64 0.0009460188    2.888    0.654
       161  -8.4949     22.8514     91.8234   1.3409160455e+02   5.5381272045e+01     0.183105    0.1397848 -52.32 0.0004556368    1.182    0.154
       162  -7.7063    212.3417     84.6821   8.1353626907e+01   2.0368251545e+01    0.1582119    0.1122115 -68.65 0.0005479687    1.714    0.417
       163  -9.7585      2.6483     80.2768   1.3892710397e+02   5.9271587084e+01    0.2966651    0.1173058 -72.96   0.00083183    2.065    0.516
       164  -8.1755    184.3114     77.9459   8.4451740590e+01   2.8459726830e+01     0.223592    0.1951196 -36.85 0.0006382887    1.147    0.128
       165  -9.4476      1.3791     57.5760   1.3537129517e+02   6.4260372993e+01    0.4948104    0.1015549 -69.37  0.001461142    4.663    0.786
       166  -8.2480    243.4348     57.7110   7.0179544219e+01   1.7207612779e+01    0.1810019    0.1289691 -22.91 0.0005123235    1.538    0.350
       167  -7.5932     66.5791     58.1849   1.0986931833e+02   5.7902239290e+01    0.1808843    0.1148301 -35.63 0.0003039403    1.483    0.326
       168  -9.3555     33.1846     57.5660   1.2255948766e+02   6.2068892843e+01    0.2197915    0.1735122 -45.69 0.0002794247    1.042    0.040
       169  -8.6231     94.9878     52.6136   9.8161688468e+01   5.4020097258e+01    0.2499532    0.1858895 -50.36 0.0005478754    1.490    0.329
       170  -8.4094     44.2493     51.8503   1.1632321165e+02   6.2086102879e+01    0.1859909    0.1685817  28.59 0.0004844365    1.299    0.230
       171  -8.7442     95.6786     45.5847   9.5319353415e+01   5.5078961368e+01    0.2777502    0.2299674  43.35 0.0009694891    1.235    0.190
       172  -9.5042      2.7694     44.9141   1.3193643280e+02   6.6820981827e+01    0.2921751    0.1377729 -35.85  0.001401827    1.945    0.486
       173  -7.9355     54.5794     44.2013   1.0945806622e+02   6.2263068983e+01    0.1816446    0.1060506 -34.70 0.0004951304    1.568    0.362
       174  -7.8547     77.2938     40.0098   9.9248849399e+01   5.9458389964e+01    0.1841973    0.1576448 -18.56 0.0002868863    1.069    0.065
       175  -8.8507     21.2005     40.0706   1.2229237331e+02   6.6614865172e+01     0.177314    0.1513966 -25.89 0.0004066344    1.123    0.110
       176  -9.3433     51.9879     38.4649   1.0830242775e+02   6.3642879415e+01    0.2219908    0.1590291 -35.98 0.0004631846    1.227    0.185
       177  -7.8721     14.6565     38.7426   1.2485188717e+02   6.7356369413e+01    0.1184505   0.06944866 -30.37 0.0002722125    1.588    0.370
       178  -7.4155     73.4550     37.4807   9.9598925959e+01   6.0536435254e+01     0.133929    0.1174225  -8.05 0.0008086138    1.012    0.012
       179  -9.3428      9.0778     32.3496   1.2544083099e+02   6.8950658585e+01    0.2714901    0.1487694 -67.89  0.001082627    2.129    0.530
       180  -8.4982      6.4904     27.5519   1.2512077072e+02   7.0010295735e+01    0.1996083    0.1000183 -23.55 0.0001386037    2.096    0.523
       181  -9.2016      5.6924     34.3036   1.2767883504e+02   6.8774203921e+01    0.1915683    0.1475094  30.54 0.0005637133    1.684    0.406
       182  -9.1856      3.0000     32.8891   1.2854210147e+02   6.9191525710e+01     0.473013   0.05993736 -56.41    0.0017884    3.791    0.736
       183  -9.2823     15.1530     34.2025   1.2314637755e+02   6.8194752242e+01    0.1960629    0.1737234 -41.16  0.001468831    1.188    0.158
       184  -8.6708    140.0027     33.8559   7.9390522303e+01   4.6639723424e+01    0.2357703    0.2091893 -25.67 0.0003655146    1.184    0.155
       185  -7.3084    124.5381     34.5022   8.3116230133e+01   5.0350017431e+01    0.1431501    0.1351223  33.01 4.615832e-05    1.004    0.004
       186  -8.4052     94.9198     33.6960   9.0875379399e+01   5.7072098318e+01    0.2174294    0.1742031  -3.69 0.0002866133    1.263    0.208
       187  -9.2962     21.8575     32.0549   1.1921083808e+02   6.8076979504e+01    0.1732515    0.1405322 -31.20 0.0002885035    1.043    0.042
       188  -7.7481      9.8045     27.3745   1.2339925878e+02   6.9837059384e+01    0.1392627   0.09265772 -11.06 0.0001562183    1.550    0.355
       189  -7.9224    172.6619     25.2626   7.0667051666e+01   3.9257801069e+01    0.1475313    0.1040965 -73.12 0.0002392537    1.587    0.370
       190  -8.9391     91.6740     24.8933   8.8209831822e+01   5.8948214078e+01    0.2732649    0.2127527  19.04 0.0004364316    1.254    0.203
       191  -8.1854    155.8119     24.4142   7.3118640247e+01   4.3758684134e+01    0.2114974    0.1180583  52.73 0.0005797942    1.657    0.396
       192  -7.7267     77.2342     23.7297   9.2394141500e+01   6.1916419627e+01    0.2029707    0.1008058 -19.39 0.0008755659    2.375    0.579
       193  -8.2096      2.8461     23.2204   1.2548960406e+02   7.1018586538e+01     0.185792    0.1594665  59.23  0.001148302    1.783    0.439
       194  -7.5204    137.2714     21.9846   7.5715861497e+01   4.8777598204e+01    0.1631554    0.1255527 -24.06 0.0002768789    1.390    0.280
       195  -7.5199    127.6948     22.3045   7.7827571280e+01   5.1113627818e+01    0.1385945    0.1079346 -68.09 0.0003634598    1.601    0.375
       196  -9.0706     84.7092     21.5123   8.8925212605e+01   6.0782153860e+01    0.2261607    0.2109545 -11.82 0.0005522827    1.156    0.135
       197  -7.5090     59.5083     22.5319   9.8432865013e+01   6.5115315886e+01    0.1279428    0.1064304  -3.89 9.986784e-05    1.025    0.025
       198  -7.6212     11.8605     20.8325   1.1989768872e+02   7.0874266381e+01     0.137321    0.1180212 -44.39 0.0002997213    1.279    0.218
       199  -9.4989    202.7247    248.6820   1.1686395121e+02  -3.8958352547e+00    0.2734258    0.1579093  21.93  0.001575263    1.788    0.441
       200  -7.4944    233.3747     19.2985   6.1897316604e+01   2.4560581135e+01    0.1313849   0.09688412  42.09  0.000559715    1.749    0.428
       201  -7.9735    161.4688     19.0332   7.0413771553e+01   4.2891688117e+01    0.1973671    0.1436155 -21.53 0.0005292459    1.526    0.345
       202  -7.2767     31.2976     19.6256   1.0955885992e+02   6.9317651837e+01    0.1050696   0.09235694 -64.21 0.0007026957    1.746    0.427
       203  -7.7090     27.9902     17.9577   1.1042039988e+02   6.9936858097e+01    0.1395556    0.1112393 -14.64 0.0003845321    1.057    0.054
       204  -7.4610    151.6871     17.7538   7.1584318410e+01   4.5567752783e+01    0.1434493   0.09681923  41.71 0.0002618669    1.512    0.339
       205  -7.7037     96.2648     17.3582   8.3630715628e+01   5.8909496287e+01    0.1394803   0.09322254  17.52 0.0001716604    1.633    0.388
       206  -9.0429     74.9516     16.6076   8.9948924494e+01   6.3261326457e+01     0.241571    0.2079759  56.16 0.0005686893    1.437    0.304
       207  -7.2753     62.6977    247.6778   1.4167497287e+02   1.7510139392e+01   0.08835489   0.08648127  52.27 0.0007028457    1.632    0.387
       208  -9.3662    237.9795    246.9906   1.1061043842e+02  -8.9459449441e+00    0.2249208    0.1128755  20.19 0.0004727146    2.055    0.513
       209  -8.6557    224.4579    246.4656   1.1280026695e+02  -6.9270011890e+00    0.1170549   0.08615146  21.28 0.0008073509    1.064    0.060
       210  -7.8661    151.0389     12.7297   6.9986082628e+01   4.6252334806e+01    0.1934387    0.1665272  64.48 0.0003945412    1.054    0.051
       211  -8.3844    146.1511     14.2144   7.1313737141e+01   4.7358116803e+01    0.2022916    0.1727238  46.94 0.0003490375    1.118    0.106
       212  -8.2845    136.0325    246.0488   1.2848413827e+02   7.0666038166e+00     0.172425    0.1344853  17.23 0.0008585387    1.697    0.411
       213  -7.8781    104.5062    245.9623   1.3418811913e+02   1.1948785522e+01    0.1292585   0.09935911 -30.61 0.0006837281    2.302    0.566
       214  -7.5800     15.5326     10.5943   1.1347432561e+02   7.2294152458e+01    0.1121151   0.08495967 -22.32 6.331093e-05    1.016    0.016
       215  -9.5848      4.0574    248.7625   1.5121937446e+02   2.3994614157e+01    0.1875226    0.1269777  64.95  0.001557728    1.099    0.090
       216  -9.4625    177.0688    243.5770   1.2071164680e+02   8.1441056635e-01    0.2816004    0.1635596 -22.66   0.00146989    2.794    0.642
       217  -8.8627    219.9929    244.2726   1.1323406764e+02  -6.0121163669e+00    0.1686773    0.1158712  30.15  0.000584944    1.132    0.117
       218  -9.1788    211.9780    246.2488   1.1490723655e+02  -5.0265547378e+00    0.1825884     0.152808   7.36 0.0007606523    1.188    0.159
       219  -8.9963    237.8270    242.6834   1.0997392737e+02  -8.4638264437e+00     0.189129    0.1122722  23.72  0.001187858    1.402    0.287
       220  -9.1410    245.1377    242.6769   1.0876229486e+02  -9.5035082137e+00    0.3334411   0.07757886  37.11  0.001341727    3.569    0.720
       221  -9.8350    168.8517    241.7800   1.2196267575e+02   2.3959461980e+00    0.2223859    0.1723771  18.13 0.0008896297    1.409    0.290
       222  -7.6442    113.7984    242.4451   1.3215294397e+02   1.1113387889e+01    0.1591447   0.09738868  35.96 0.0004644961    1.612    0.380
       223  -9.4488    143.3460    250.2883   1.2764434715e+02   5.2779218529e+00    0.5632007    0.1193955  40.04  0.001976268    3.965    0.748
       224  -8.0921    201.5898    240.1812   1.1583739062e+02  -2.6731716349e+00     0.147738    0.1054892 -12.75 0.0005658894    1.659    0.397
       225  -7.5009     84.3749    240.2727   1.3729373034e+02   1.5837770309e+01    0.1019851   0.08700021  25.41  0.000543097    1.687    0.407
       226  -8.1744    146.6340    242.5853   1.2613758797e+02   5.8919860958e+00    0.1678729    0.1292894  20.98 0.0007321814    1.541    0.351
       227  -7.5888    214.5071    239.4763   1.1346015463e+02  -4.6104794463e+00     0.119753   0.09201067  24.40 2.578614e-05    1.021    0.021
       228  -9.6856    186.8208    239.1791   1.1833798219e+02  -1.7271464545e-01    0.5866529    0.3196481   3.79  0.001985912    6.186    0.838
       229  -9.3463    184.4836    235.4683   1.1823100102e+02   7.1258886027e-01    0.2748434    0.1939666  13.26  0.001214258    1.637    0.389
       230  -9.5207    189.6882    235.3209   1.1726111213e+02  -1.2128715678e-01    0.3385088    0.2253467  20.98  0.002012677    1.552    0.356
       231  -9.4204    188.5004    231.4971   1.1691373220e+02   5.9697534922e-01    0.3728231    0.2079488 -19.27   0.00172029    2.984    0.665
       232  -8.7653    248.9525    237.4787   1.0731260301e+02  -9.4903006274e+00    0.3100419    0.1236957  25.55   0.00145132    2.745    0.636
       233  -8.2624    194.9050    236.7979   1.1653422799e+02  -1.1670617571e+00    0.1856221    0.1355017  20.13 0.0006742819    1.304    0.233
