#   1 NUMBER                 Running object number                                     
#   2 MAG_AUTO               Kron-like elliptical aperture magnitude                    [mag]
#   3 X_IMAGE                Object position along x                                    [pixel]
#   4 Y_IMAGE                Object position along y                                    [pixel]
#   5 X_WORLD                Barycenter position along world x axis                     [deg]
#   6 Y_WORLD                Barycenter position along world y axis                     [deg]
#   7 A_WORLD                Profile RMS along major axis (world units)                 [deg]
#   8 B_WORLD                Profile RMS along minor axis (world units)                 [deg]
#   9 THETA_WORLD            Position angle (CCW/world-x)                               [deg]
#  10 FWHM_WORLD             FWHM assuming a gaussian core                              [deg]
#  11 ELONGATION             A_IMAGE/B_IMAGE                                           
#  12 ELLIPTICITY            1 - B_IMAGE/A_IMAGE                                       
         1 -15.9346     25.3651     89.2829   1.3280631348e+02   5.5765088373e+01     3.896342     1.734536 -78.98   0.01682237    2.694    0.629
         2 -18.1423    161.6244    162.8357   1.1040357564e+02   1.7205663209e+01     5.993646     5.437968  29.39   0.03342504    1.114    0.102
         3 -14.4541     51.5539     98.6162   1.2610383790e+02   5.1041944904e+01     1.572765    0.6745048 -45.89  0.006703682    2.310    0.567
         4 -18.2222    141.1007    113.9637   1.0403506658e+02   3.1861852800e+01     7.235252     4.406795 -57.99   0.02960485    1.888    0.470
         5 -17.2188    184.7048    117.6502   9.5072100372e+01   2.1046597567e+01     4.472672      2.85307 -42.61   0.01966641    1.561    0.359
         6 -14.5623     83.6655     50.4528   1.0107159225e+02   5.6536561177e+01     2.042795      1.10659 -24.21  0.008635339    2.311    0.567
         7 -15.0291     65.1294     42.4579   1.0467650687e+02   6.1049521437e+01     2.428149     1.257571 -13.10  0.008232214    4.438    0.775
         8 -16.6647    172.3995     66.5675   8.3423817174e+01   3.3429516226e+01     4.460865     2.002789  63.34   0.01585316    2.460    0.593
         9 -14.6716     72.2211     45.6443   1.0327315109e+02   5.9360608555e+01       2.0568    0.6672163 -38.47  0.007548096    2.979    0.664
        10 -13.6698     13.2710      8.1835   1.1356754450e+02   7.2865794000e+01    0.8615028    0.3922021 -19.64  0.004300811    2.745    0.636
        11 -13.2661     55.9514      5.7985   9.1674463520e+01   6.7856714733e+01    0.6080534    0.3659403  18.49  0.003399686    1.714    0.417
        12 -12.2874    188.2335    222.0200   1.1551904781e+02   1.9845200219e+00    0.3140985    0.2255024  41.09  0.001537715    1.193    0.162
        13 -11.8497    122.1826    221.9491   1.2825366845e+02   1.3257900928e+01    0.2309852    0.1736488  36.63  0.001211995    1.333    0.250
        14 -17.3097     78.7267    193.1853   1.3370303496e+02   2.5649875002e+01     5.203052      2.74753  40.13   0.02671389    1.817    0.450
        15 -12.0198    130.4875    240.5225   1.2887247572e+02   8.8059357847e+00    0.5160799    0.2415348  62.26  0.002257989    3.071    0.674
        16 -12.6456    122.7365    236.4907   1.2985718182e+02   1.0690916472e+01    0.3391996     0.241485  61.00  0.002163304    1.269    0.212
        17 -12.1446     85.0933    108.5418   1.1799666644e+02   4.4038015946e+01    0.5027001     0.328299 -51.80  0.001848749    1.427    0.299
        18 -12.6030    143.9405    234.7193   1.2566601034e+02   7.5408569325e+00    0.3389997     0.306837  35.08  0.002393435    1.192    0.161
        19 -10.4808     60.5135    106.5124   1.2495854965e+02   4.8094255337e+01    0.1369409    0.1205287 -62.57 0.0001383672    1.025    0.024
        20 -12.4915     86.8322    118.6822   1.1977995274e+02   4.1379639777e+01    0.5540845    0.2083548 -57.39  0.002014029    2.563    0.610
        21 -13.7521    211.4134     93.8294   8.3889841260e+01   1.9048110745e+01    0.6165008    0.4986407  68.88  0.003139759    1.339    0.253
        22 -12.5321    129.9587    231.8550   1.2795685101e+02   1.0294409964e+01    0.2451627    0.1788106 -69.28  0.001538254    1.658    0.397
        23 -13.9593    104.1307     86.0110   1.0634665957e+02   4.5685659434e+01    0.6975998    0.6162457  29.11  0.003434077    1.203    0.169
        24 -13.7869    104.0575     75.9163   1.0328845057e+02   4.7798850853e+01    0.7250613    0.4779086  44.68  0.003400004    1.570    0.363
        25 -14.8396    101.2893     70.2796   1.0231495722e+02   4.9475894821e+01     1.516744    0.9314146  35.40  0.006847619    1.774    0.436
        26 -11.7411     82.2204     85.3183   1.1291070852e+02   4.9783594372e+01    0.4852524    0.3758677  -1.64  0.002475712    1.668    0.400
        27 -11.6004     59.6720    159.8185   1.3395614437e+02   3.5634223073e+01    0.3396994    0.2137758  79.53  0.001472134    1.642    0.391
        28 -12.9766    109.8995    216.1507   1.2997714575e+02   1.6300731212e+01    0.3367277    0.2857976 -85.38  0.002224273    1.241    0.194
        29 -14.3750     49.4233     84.3319   1.2358652360e+02   5.4569259163e+01    0.7866327    0.5014746 -70.94  0.003180997    1.663    0.399
        30 -16.2764    115.4139    147.9141   1.1822184858e+02   2.9562657264e+01     3.454185     2.117898  58.46    0.0153984    1.786    0.440
        31 -12.9538     81.5392    143.1100   1.2596242301e+02   3.6448910784e+01    0.5827872     0.423594 -41.71  0.003027652    1.641    0.391
        32 -12.6188     86.1855    168.3446   1.2881271117e+02   2.9924202504e+01    0.2878565    0.2168919  65.34  0.001030756    1.243    0.196
        33 -12.6082    206.2540    229.4978   1.1338465495e+02  -2.0498725546e+00    0.4421459    0.2512344  24.34  0.002389291    1.785    0.440
        34 -13.5779    217.3370     70.8410   7.6942061681e+01   2.1394838044e+01     0.741721    0.3432946 -17.78  0.002314805    3.953    0.747
        35 -12.5038    222.4790     63.5314   7.4298620268e+01   2.1271478376e+01    0.3760162    0.2606408  23.69  0.001707571    2.118    0.528
        36 -12.2325    117.9300     69.7859   9.7296292214e+01   4.6093417427e+01     0.501038    0.3351429  62.75   0.00222493    1.805    0.446
        37 -12.5134    106.4027    214.2290   1.3044681105e+02   1.7218295835e+01    0.2999135      0.19603 -65.05  0.001732279    1.693    0.409
        38 -13.5339     12.3137    228.6670   1.4908745816e+02   2.6703053704e+01    0.6145148    0.2573881  54.45  0.003858743    1.750    0.429
        39 -14.0939     51.9357     47.0254   1.1155566900e+02   6.2086980402e+01     1.158864    0.6187875 -21.11  0.005061584    2.686    0.628
        40 -12.6186    123.2745    228.4721   1.2882915675e+02   1.1948355038e+01    0.2953226    0.2655529  71.21  0.002063983    1.156    0.135
        41 -11.7740    221.3730    159.5439   9.7667638572e+01   5.6264348444e+00    0.2714506    0.1695689 -30.65  0.000946587    1.595    0.373
        42 -12.2873     71.4064    133.7227   1.2701813993e+02   4.0161700878e+01    0.4251032    0.4177389   2.63   0.00266869    1.244    0.196
        43 -13.3182    152.4701    221.0658   1.2221426889e+02   8.2985235598e+00    0.4728286    0.3841671  74.48  0.002953469    1.428    0.300
        44 -12.4345     18.1729    154.3135   1.4318029587e+02   4.1377462108e+01    0.3204453    0.1784536  87.68  0.001575292    1.557    0.358
        45 -12.3105    106.7233    125.1950   1.1571292674e+02   3.6389662162e+01    0.2740008    0.2348231 -50.35 0.0006731983    1.169    0.145
        46 -10.9943    233.3384     55.3094   7.0792272762e+01   1.9885289679e+01    0.1379443    0.1084892  26.64 0.0007043984    1.685    0.407
        47 -12.7051     84.2732    150.3348   1.2648320887e+02   3.4338667762e+01    0.4335552    0.2938921 -85.19  0.001947137    1.592    0.372
        48 -13.2975    219.7386    109.5434   8.6435717753e+01   1.4430110952e+01    0.6637341     0.356412 -37.90   0.00283818    1.753    0.429
        49 -12.1575    120.6653     47.5163   8.8867588294e+01   4.9354451268e+01    0.4414108    0.2892181 -47.72  0.002041622    1.704    0.413
        50 -13.2174    124.7725     41.7064   8.5709898082e+01   4.9276516662e+01    0.6002749    0.4733713  59.72  0.003116147    1.291    0.225
        51 -13.2995    171.0316     46.4940   7.7545170713e+01   3.6906487475e+01    0.4485875    0.3542801  42.95  0.002252959    1.326    0.246
        52 -14.0590    162.4648     43.3986   7.8134563178e+01   3.9580793367e+01     1.093271    0.6365896 -81.92  0.004015643    2.843    0.648
        53 -12.7314    180.5148     46.0626   7.5779813876e+01   3.4490883415e+01    0.3592191    0.2604811  -6.37   0.00166902    1.786    0.440
        54 -14.5217    100.4462    116.9685   1.1555650116e+02   3.9442729664e+01    0.8997917    0.7425299  18.36  0.004067108    1.492    0.330
        55 -11.2572    194.6287     35.4702   7.0527435538e+01   3.2252730797e+01     0.272885    0.2311208 -52.35  0.001353111    1.156    0.135
        56 -11.5911    160.7680     34.8867   7.5694675369e+01   4.1179099531e+01    0.3989268    0.2377172 -49.07  0.001755673    1.845    0.458
        57 -11.5852    113.4964     42.8257   8.9062210339e+01   5.1716622135e+01    0.3380684    0.2760362 -15.21   0.00146197    1.264    0.209
        58 -12.0437    152.8752     34.6393   7.7074186661e+01   4.3257473190e+01    0.4448597    0.1684341  62.16  0.001585192    2.520    0.603
        59 -13.3711    130.0912    219.0074   1.2632605616e+02   1.2463022151e+01    0.5248815    0.1956498 -46.04  0.002158636    3.596    0.722
        60 -13.5425    103.4264    108.0485   1.1255954015e+02   4.0946272540e+01    0.7250687    0.4800692  85.37   0.00292416    2.468    0.595
        61 -12.7408    134.0057    215.5174   1.2508619673e+02   1.2415174334e+01    0.2879106    0.2049854  37.96  0.001133022    1.311    0.237
