#   1 NUMBER                 Running object number                                     
#   2 MAG_AUTO               Kron-like elliptical aperture magnitude                    [mag]
#   3 X_IMAGE                Object position along x                                    [pixel]
#   4 Y_IMAGE                Object position along y                                    [pixel]
#   5 X_WORLD                Barycenter position along world x axis                     [deg]
#   6 Y_WORLD                Barycenter position along world y axis                     [deg]
#   7 A_WORLD                Profile RMS along major axis (world units)                 [deg]
#   8 B_WORLD                Profile RMS along minor axis (world units)                 [deg]
#   9 THETA_WORLD            Position angle (CCW/world-x)                               [deg]
#  10 FWHM_WORLD             FWHM assuming a gaussian core                              [deg]
#  11 ELONGATION             A_IMAGE/B_IMAGE                                           
#  12 ELLIPTICITY            1 - B_IMAGE/A_IMAGE                                       
         1 -12.7570     91.2039     26.5374   3.3744310594e+01   5.7240480312e+01    0.3011382    0.2450008 -18.58 0.0005023586    1.348    0.258
         2 -11.2871    130.8995     22.2276   2.3070586242e+01   4.9062067203e+01    0.3688112    0.2989154   3.65  0.001752753    1.509    0.337
         3 -11.2820     35.7685     12.1882   4.7496723800e+01   6.8194890776e+01    0.3258669    0.2564346  59.57  0.002026118    2.640    0.621
         4 -10.8766     35.6306      8.1591   4.5738940015e+01   6.8644266386e+01     0.206702    0.1439618  12.70 0.0002424741    1.113    0.102
         5 -11.7384     33.3045     23.0831   5.3309406657e+01   6.7202515666e+01    0.3843782    0.2916672 -40.36 0.0006981204    1.755    0.430
         6 -11.5206     33.8765     17.1751   5.0530750715e+01   6.7869102150e+01    0.4179352    0.2446529  44.92  0.002389173    2.388    0.581
         7 -10.6307     14.9081     15.9575   5.9036619300e+01   7.0147762546e+01    0.3158497     0.198699  -9.92  0.001829538    1.300    0.231
         8 -10.9269     44.0298     18.5477   4.6765315682e+01   6.6331346994e+01    0.3817461    0.1909821  18.37   0.00195162    2.212    0.548
         9 -10.6729    148.0444     16.8874   1.8564178996e+01   4.5624779027e+01    0.2101995    0.1711795 -52.92 0.0008186824    1.378    0.275
        10 -11.6453     91.0253     10.1601   2.7874423793e+01   5.8850010554e+01    0.2216995    0.1981311  36.32            0    1.124    0.110
        11 -10.6135     95.7456     10.6079   2.6860337838e+01   5.7841433083e+01    0.3837077    0.2513447 -36.53  0.002278913    1.882    0.469
        12 -10.5808    135.4999     11.8206   1.9179541719e+01   4.8990539457e+01    0.3722226     0.200939 -81.44  0.001601476    3.072    0.675
        13 -11.5482    126.0303     10.9763   2.0588883123e+01   5.1217860109e+01    0.2168335    0.1853625  78.84  0.001432293    1.183    0.155
        14 -12.4646     55.0450      9.6749   3.8682929268e+01   6.5564014739e+01    0.4003764    0.2234129  29.41  0.002365733    1.518    0.341
        15 -11.1354     44.1453     10.3203   4.3143783914e+01   6.7207000394e+01    0.5274048    0.2605845   3.02  0.002493802    2.911    0.656
        16 -11.4654     39.5100      3.0504   4.1753306614e+01   6.8594848716e+01    0.2793444    0.1780826  13.88  0.001076973    1.321    0.243
        17 -10.3082     43.3463      3.6783   4.0487800105e+01   6.7966137215e+01    0.1963407    0.1648539  27.27 0.0009039456    1.314    0.239
        18 -10.6527     48.5091      4.5043   3.8855031844e+01   6.7092349169e+01    0.2573927    0.1811822  43.90   0.00103631    1.470    0.320
        19 -11.0580     49.0732      1.4412   3.7278980015e+01   6.7267856131e+01    0.2340049    0.1297926  36.74 0.0005148691    1.425    0.298
        20 -10.3098    225.9988     11.2602   8.3980356766e+00   2.8646705041e+01    0.1648487    0.1205394 -84.21 0.0002334157    1.067    0.063
        21  -9.8673    100.9065     11.0996   2.5805038286e+01   5.6718204761e+01    0.1720164    0.1492383  62.67            0    1.199    0.166
        22 -10.8687     80.3677     10.1396   3.0726573277e+01   6.0971458064e+01    0.2211838    0.1691838  39.47 0.0002612064    1.057    0.054
        23  -9.6079    176.8584      9.8458   1.2871788976e+01   3.9628350417e+01    0.1613466     0.120461 -77.02 0.0002720033    1.262    0.207
        24 -10.8329    116.5032      8.9573   2.1764897191e+01   5.3516884104e+01    0.2467495    0.2156612  59.87  0.001570391    1.086    0.079
        25  -9.4929    188.5191      9.5658   1.1518160284e+01   3.7001891745e+01    0.1230723   0.09794281  85.56 7.294345e-05    1.015    0.014
        26  -9.0264    168.2970      9.3004   1.3766391063e+01   4.1648137266e+01    0.1203227   0.08281549  47.59 0.0002162736    1.576    0.366
        27 -10.0205      7.8255      8.4882   5.9405433350e+01   7.1767052890e+01    0.1630786    0.1240299 -40.48 0.0006199272    1.850    0.459
        28 -12.9227     29.6161      4.9248   4.6914913202e+01   6.9779435393e+01     0.322687    0.2239553 -11.07  0.000482251    1.275    0.216
        29  -9.8386    141.0047      6.9945   1.6925341521e+01   4.8144885374e+01     0.146755    0.1247863  67.35 0.0003950706    1.045    0.043
        30 -10.2748     61.9400      6.4924   3.4934046079e+01   6.4682247812e+01    0.2077902     0.135245  12.08 0.0005080318    1.486    0.327
        31 -10.0734    221.9880      6.4594   7.8011885904e+00   3.0005853793e+01    0.1665563   0.09379328  79.07 1.183489e-05    1.489    0.328
        32  -9.6682    111.9534      6.0270   2.1727326714e+01   5.4751837240e+01    0.1550903    0.1176098  55.86 0.0009390401    1.069    0.065
        33 -10.4500     66.1147      5.3639   3.3107315769e+01   6.4037593675e+01    0.2330476    0.1750369 -34.95  0.001017891    1.751    0.429
        34 -10.9020     70.6967      4.9909   3.1536787352e+01   6.3231841801e+01    0.2117705    0.1462088  37.42 0.0001609523    1.135    0.119
        35  -9.3060    247.2944      5.7323   5.8212022093e+00   2.4954577188e+01     0.113903   0.06211632 -70.51 0.0001887674    1.512    0.339
        36 -11.2239    193.8580      4.8391   9.9425009584e+00   3.6269335170e+01     0.200295    0.1596565  82.02 0.0003128342    1.081    0.075
        37 -11.2531     80.6084      5.1292   2.8745943403e+01   6.1335792245e+01    0.2425283    0.1316478  45.55 0.0003001434    1.441    0.306
        38 -11.9125     19.9159      2.6062   5.0406941807e+01   7.1211529259e+01    0.3204545    0.1716371   1.59  0.001390217    1.881    0.468
        39  -9.8176    224.8653      2.8954   6.9005777971e+00   2.9777981877e+01     0.159007    0.1312153  82.04  0.000442209    1.253    0.202
        40 -10.7398    204.8359      2.5839   8.4628480992e+00   3.4072312346e+01    0.2039955    0.1465751 -72.06  9.38161e-05    1.200    0.167
        41  -9.3644    170.7735      3.6111   1.2095720608e+01   4.1599116311e+01    0.1109948   0.08444439  39.55  0.000688511    1.629    0.386
        42 -10.9324    148.6303      2.4370   1.4579653480e+01   4.6772961257e+01    0.2232319    0.1765049  71.47 0.0005318091    1.018    0.017
        43 -10.6006    245.2787      1.4496   5.2116703326e+00   2.5813028279e+01     0.161423   0.09910402  80.76 0.0003470136    1.394    0.283
        44 -10.2260    210.8255      1.9930   7.8357610995e+00   3.2836072711e+01    0.1713536    0.1296418 -83.00 0.0003258112    1.028    0.028
        45 -10.5059     19.7521      9.3769   5.3674567739e+01   7.0471882984e+01    0.2948281    0.1319066  23.86  0.001012535    2.022    0.505
        46  -9.7865     11.6684      1.9287   5.4282518772e+01   7.2182100797e+01    0.1457313    0.1148851  53.58 0.0009007709    3.399    0.706
        47  -9.0985     95.0042    107.7725   5.8557798569e+01   4.2693791191e+01     0.183853    0.1251173  36.80 0.0003586024    1.502    0.334
        48  -9.6581    109.9987    250.7854   8.1180633868e+01   6.4079009648e+00    0.1755231   0.09425066  38.35 0.0004368195    1.622    0.383
        49 -11.5838     24.3044    249.1476   9.8288566537e+01   1.8484403835e+01    0.3067963    0.1954109  63.28  0.001966221    1.260    0.206
        50 -11.8264     16.8177    248.7583   9.9636397779e+01   1.9388792519e+01     0.515558    0.2935839  13.92  0.002481341    3.881    0.742
        51 -11.1403      1.4679    233.9106   1.0155969228e+02   2.4033019021e+01    0.5151231    0.1206898 -82.77  0.001822582    4.620    0.784
        52 -12.2646     10.1031    244.8128   1.0061651443e+02   2.0905033825e+01    0.4577605    0.2259408 -61.42  0.002593324    2.226    0.551
        53 -11.5396      3.4873    248.2830   1.0198745804e+02   2.0867405494e+01    0.4561224    0.2848755  52.35  0.003099423    1.366    0.268
        54 -12.2159      5.2957    243.2650   1.0139328038e+02   2.1710443075e+01    0.4661302    0.2472105  74.26  0.002809422    1.569    0.363
        55 -10.7791     89.3639    105.3221   5.9671309587e+01   4.4250565574e+01    0.2714321    0.2558386 -11.21 0.0004134678    1.026    0.026
        56 -10.1384    249.5517    105.5152   2.4638612366e+01   1.0155758503e+01    0.1337778    0.1105139 -55.03 8.624082e-05    1.011    0.011
        57  -9.5452     38.6343    104.8192   7.6616602746e+01   5.1380219396e+01    0.1807243    0.1190163 -66.40 0.0003250971    1.551    0.355
        58 -10.6188    109.0435    103.5048   5.3142147654e+01   4.0954869051e+01     0.274497    0.2200957 -41.56  0.001353848    1.236    0.191
        59 -10.3940    112.7877    102.1098   5.1661754629e+01   4.0498763788e+01    0.2649069    0.2173036  32.98 0.0003017812    1.230    0.187
        60  -9.7198     44.4736    103.4860   7.4288351740e+01   5.1077317223e+01    0.1388252    0.1193678 -39.72 9.392416e-05    1.013    0.013
        61  -9.7442     23.2897    102.6481   8.1484234868e+01   5.3254395196e+01    0.1246301   0.09687872  80.05 0.0007026574    1.671    0.402
        62  -9.8244    104.1120    101.4245   5.4034423625e+01   4.2376469352e+01    0.2287213    0.1469673  37.13  0.001009676    1.575    0.365
        63 -11.4077     20.9067     98.9039   8.1564374655e+01   5.4296491802e+01    0.4858841    0.2707103  -0.14  0.002440417    2.264    0.558
        64 -11.1279     17.8872     94.9715   8.1836376565e+01   5.5407664720e+01    0.4427992    0.2806655 -55.56  0.002526859    1.289    0.224
        65 -10.3204     45.8592     97.0634   7.2271964428e+01   5.2388068777e+01    0.1925086    0.1752003 -72.47 0.0002895467    1.279    0.218
        66 -10.4403     37.8820     97.2069   7.5155818418e+01   5.3200741101e+01    0.1884259    0.1784494 -67.17 0.0005493758    1.213    0.175
        67 -11.6802     66.7010     92.1513   6.3611416119e+01   5.0786042037e+01    0.3929765     0.218843 -48.80  0.001124799    1.699    0.412
        68  -9.9907    217.9548     98.3481   2.7668354947e+01   1.7710249331e+01    0.1901614    0.1732066  79.80 0.0005646512    1.136    0.120
        69  -9.6137    125.3163     93.0106   4.5591102209e+01   3.9727423259e+01    0.2031557    0.1898001 -30.90 0.0002002201    1.087    0.080
        70 -10.4536     93.0415     92.9101   5.5041645505e+01   4.6276369673e+01    0.3611935    0.2091525  29.66 0.0007726753    1.886    0.470
        71 -11.4839     74.6241     92.9963   6.1120949722e+01   4.9403965053e+01    0.2415567    0.2023111  25.00 0.0003332267    1.215    0.177
        72 -12.0896     57.8090     91.3289   6.6522219893e+01   5.2197511805e+01    0.3376941    0.2673025 -22.77   0.00117329    1.210    0.173
        73 -10.2998    105.8633     91.8219   5.0777832430e+01   4.4040464699e+01    0.1993051    0.1826987 -87.68 0.0004152521    1.307    0.235
        74 -10.4405    145.6701     91.0272   3.9866318339e+01   3.5534387840e+01    0.2023846    0.1928443 -41.74 0.0005306366    1.077    0.071
        75  -9.7804      7.7496     91.1720   8.4719959924e+01   5.6904364912e+01    0.1710856     0.109876 -40.18 0.0004634675    1.317    0.241
        76  -9.6836    139.7181     98.0312   4.3245766266e+01   3.5521431939e+01    0.2139795    0.1952773 -49.83 0.0003758227    1.115    0.103
        77  -9.9676      1.5078     89.8192   8.6704681792e+01   5.7534165307e+01    0.1810527   0.09461883 -60.05  0.000627695    1.484    0.326
        78 -11.9673     31.1332     87.2705   7.5253551836e+01   5.6046912371e+01    0.2207807    0.1837848 -36.82 0.0003030126    1.004    0.004
        79 -13.7992     65.3653     81.9731   6.1167553597e+01   5.3108070141e+01    0.4842167    0.4775428  35.64 0.0008321523    1.241    0.194
        80  -9.6120    144.4822     86.5380   3.8907947675e+01   3.6654911084e+01    0.1495873    0.1447229  50.80  6.24808e-05    1.019    0.019
        81 -10.3239     92.0029     85.2083   5.3108466068e+01   4.8034113884e+01    0.2247601    0.1940909 -30.71 0.0002569856    1.134    0.118
        82 -10.3177     54.7671     84.8985   6.5847889885e+01   5.3963823585e+01    0.1950805    0.1576246 -25.18 0.0003072656    1.121    0.108
        83  -9.9003      7.2931     83.9746   8.3453070277e+01   5.8507741139e+01    0.1805965    0.1283901 -49.68 0.0006034046    1.100    0.091
        84 -10.9929     10.2374     80.7735   8.1659747267e+01   5.9024221059e+01    0.2665396    0.1676046  20.03  0.001583584    1.830    0.454
        85 -10.2861     47.4464     79.0090   6.6904124175e+01   5.6088966453e+01    0.4090845    0.2331397   5.78  0.001819123    2.247    0.555
        86 -10.0958    176.8641     76.8364   2.9506963567e+01   3.0763462636e+01    0.2724226    0.1939129  66.49  0.001347399    1.396    0.284
        87 -12.2134      4.7888     72.9954   8.2051033334e+01   6.0971058027e+01    0.3787826    0.2819467  42.52 0.0003397157    1.847    0.459
        88 -10.1843     14.7816     74.9930   7.8560617185e+01   5.9951683954e+01    0.2179029    0.1629775  31.09 0.0008168938    1.648    0.393
        89 -11.6250     10.9302     72.9834   7.9607276593e+01   6.0618341463e+01    0.3412901    0.2282442 -73.05  0.001754288    1.822    0.451
        90  -9.7117     34.4866     74.4494   7.0620366453e+01   5.8426664121e+01    0.2706049     0.109555 -51.25  0.001203263    2.153    0.536
        91 -12.2561     75.0327     76.6541   5.6147304604e+01   5.2660260323e+01    0.2479203    0.2265669 -14.28 0.0003369165    1.055    0.052
        92  -9.5203    105.7785     71.6794   4.4728169125e+01   4.7868925510e+01    0.1943855    0.1276618  52.67 0.0006204336    1.612    0.379
        93  -8.9878     75.6306     71.2910   5.4251449131e+01   5.3570710534e+01    0.1317016    0.1120093  71.32 0.0007024927    1.716    0.417
        94 -12.3031     81.1616     66.8046   5.0909236632e+01   5.3431077301e+01    0.3136273    0.2539127 -24.83 0.0003528729    1.203    0.169
        95  -9.4715    154.2302     67.0579   3.1332674033e+01   3.7738871920e+01    0.1755885    0.1216227 -36.09 0.0003015229    1.549    0.355
        96  -9.1031     50.3367     67.2746   6.2272509139e+01   5.8039588766e+01    0.1356895   0.09021574 -11.38 0.0003312008    1.606    0.377
        97 -11.8528     16.2748     65.1852   7.5446997334e+01   6.1835266728e+01     0.346238    0.2724597 -21.67 0.0005053055    1.108    0.097
        98 -11.9476     11.8125     59.5579   7.5792931298e+01   6.3241278064e+01    0.2708229    0.1986201 -17.66 0.0003396931    1.208    0.172
        99  -9.5287    105.0129     66.5085   4.3323215092e+01   4.8911055643e+01    0.1962927      0.12625  69.42  0.000810207    2.518    0.603
       100  -9.1166    166.4920     64.4619   2.8222817916e+01   3.5235718829e+01    0.1421557    0.1316113  71.75 0.0008091618    1.034    0.033
       101  -9.8636     52.0325     63.7361   6.0483045790e+01   5.8475517436e+01    0.1820345    0.1514344  -0.78 0.0004416617    1.080    0.074
       102  -9.3836    128.5011     63.5541   3.6116852083e+01   4.4286861539e+01    0.1433319    0.1329164  47.16 7.597471e-05    1.011    0.011
       103  -9.4507     86.6664     62.7007   4.7735535046e+01   5.3140293455e+01     0.143895    0.1012264   8.12 0.0004122926    1.651    0.394
       104  -9.5655     97.5763     60.7810   4.3680317134e+01   5.1357188073e+01    0.1768557    0.1324487 -45.78 0.0004062825    1.527    0.345
       105 -12.7757     20.8450     57.0137   7.1175814536e+01   6.3051774193e+01    0.3767563    0.1905565 -48.04  0.002043841    1.694    0.410
       106 -11.8729     77.8574     58.0516   4.9110050695e+01   5.5490746733e+01    0.2247165    0.1904074  -0.94 0.0002909194    1.087    0.080
       107 -11.2551     58.3212     58.9537   5.6478630836e+01   5.8457348143e+01    0.2304374    0.1723997  21.17 0.0002053562    1.268    0.211
       108 -10.0112     41.9431     58.7245   6.2857346367e+01   6.0637842731e+01    0.1781253    0.1497174 -12.95  0.001146281    1.040    0.039
       109  -9.8029    216.9783     58.3651   1.8978149333e+01   2.4507719376e+01    0.1776479    0.1477777  86.29 0.0005319678    1.108    0.097
       110  -9.1244    115.7345     58.6861   3.7867078746e+01   4.7887102352e+01    0.1390829    0.1050242  15.27 0.0002198984    1.544    0.352
       111  -9.4406    120.8201     57.6708   3.6233108787e+01   4.6921065809e+01    0.1897272    0.1243147  58.92 0.0002577068    1.558    0.358
       112 -10.6608     30.3394     56.9104   6.7088981947e+01   6.2214822746e+01    0.2031447    0.1511594   0.15  0.000269572    1.253    0.202
       113  -9.8548     62.4071     55.2403   5.3665177348e+01   5.8478752207e+01    0.1866647    0.1703635  75.59 0.0006991182    1.687    0.407
       114 -12.5590     62.0366     49.6951   5.1849598104e+01   5.9427282647e+01    0.2818151    0.2169851 -27.41 0.0004218965    1.263    0.208
       115 -10.0398    182.2044     54.2160   2.2905477291e+01   3.3049868060e+01    0.1922539    0.1745557  67.44 0.0004051972    1.126    0.112
       116 -10.3330     86.6118     54.4967   4.4993435510e+01   5.4468251257e+01    0.2624429    0.1977988   3.13 0.0008624632    1.415    0.293
       117 -10.9600    115.0539     52.7839   3.6175740141e+01   4.8913409555e+01    0.3063586    0.2109377  41.17 0.0008013724    1.343    0.255
       118 -11.6043    105.0315     51.9941   3.8621302619e+01   5.1174425044e+01    0.2168413    0.2044413 -22.88   0.00132303    1.162    0.139
       119 -10.5413    101.9951     48.1025   3.8182881307e+01   5.2361399920e+01    0.2535529    0.1945578 -24.35 0.0003132396    1.396    0.284
       120 -11.4167    103.1076     41.5068   3.5658942504e+01   5.3015907120e+01     0.508948    0.2958012 -20.01  0.002466619    2.071    0.517
       121 -11.4258    109.3007     41.2471   3.3928126298e+01   5.1731953508e+01    0.4711425    0.2688748  60.85  0.001915722    1.879    0.468
       122  -9.5608     67.5585     52.5248   5.0820183526e+01   5.8109565027e+01    0.2306534    0.1118172  27.33  0.001010691    2.245    0.555
       123 -10.4983      4.1919     51.3735   7.6839394066e+01   6.5259936626e+01     0.228883    0.1002679 -37.79 0.0009148509    1.769    0.435
       124 -10.6601     84.2478     50.4818   4.4372751307e+01   5.5517684916e+01    0.3896621    0.2043622  28.06  0.001728085    2.151    0.535
       125 -11.3482     78.3536     50.0239   4.6160943485e+01   5.6659761428e+01    0.2339274    0.1871164  32.12   0.00023685    1.162    0.140
       126 -10.1255     53.9899     50.0828   5.5069611732e+01   6.0555236790e+01    0.2486454    0.1749524 -61.56 0.0008974515    2.509    0.601
       127 -10.2675    142.8572     49.1826   2.8634285307e+01   4.3082452720e+01    0.2178349    0.1813069 -55.21    0.0003852    1.323    0.244
       128 -10.3629    138.4336     50.1931   2.9856499322e+01   4.3978344413e+01     0.236898    0.1768796  55.25 0.0003973557    1.209    0.173
       129  -9.5587     92.8407     50.1505   4.1559473032e+01   5.3920901857e+01    0.1845043    0.1420639  18.60 0.0003650707    1.286    0.222
       130  -9.6656    155.2197     47.4128   2.5725912341e+01   4.0401937486e+01    0.1938884    0.1233142  73.39 0.0009341647    1.630    0.387
       131 -10.2707     17.1995     46.1983   6.9382236175e+01   6.5298199774e+01    0.2102118    0.1200409 -34.88  0.000582224    1.414    0.293
       132 -10.3388      9.8614     45.6509   7.2557954969e+01   6.5942102579e+01    0.2122801    0.1260014 -57.53  0.001027218    1.904    0.475
       133 -11.0860      2.6157     45.9412   7.5982803073e+01   6.6343591506e+01    0.1902452     0.140722  -7.96   9.6088e-05    1.258    0.205
       134  -9.3765    221.4848     44.9840   1.5591696781e+01   2.5440211319e+01    0.1751603   0.08403035 -60.38 0.0003857134    2.174    0.540
       135 -12.3222     85.8367     42.4759   4.1051521150e+01   5.6354065134e+01    0.3167639    0.2320946 -21.53 0.0003650394    1.425    0.298
       136 -11.8884     91.5910     40.4221   3.8567149412e+01   5.5507408594e+01    0.3267373    0.2456454 -45.74 0.0006130741    1.662    0.398
       137 -11.5666     38.2599     41.7593   5.8489194618e+01   6.3926448752e+01    0.2937761    0.2201623  26.98 -0.0001301154    1.406    0.289
       138 -10.5408     27.1904     42.7006   6.3678843666e+01   6.4988884121e+01    0.2686501    0.1382184  23.28  0.001484193    1.918    0.479
       139 -10.4038    183.5079     40.5487   1.9362893709e+01   3.4615878136e+01    0.4146817    0.2124836  81.96  0.001654873    2.315    0.568
       140 -11.8175    141.6353     40.9963   2.6513937285e+01   4.4446100041e+01    0.2860098    0.1782372  64.04 0.0004020791    1.490    0.329
       141 -10.4073    116.1354     39.4215   3.1622346302e+01   5.0469648955e+01    0.2919225    0.1622149 -47.81  0.001062078    2.308    0.567
       142 -10.1765     61.9595     41.0113   4.8701880478e+01   6.0737961380e+01    0.1881598    0.1543934   7.80            0    1.015    0.015
       143  -9.8794     50.4215     40.8731   5.3113350515e+01   6.2481746585e+01    0.2151556    0.1130356 -41.02  0.001108899    2.018    0.504
       144 -10.5979     19.5561     39.7358   6.6099699511e+01   6.6193017835e+01    0.3105824    0.1762805 -13.66  0.001788006    1.721    0.419
       145 -10.2973     22.9435     34.9920   6.2801860617e+01   6.6637984568e+01    0.2138885    0.1344142 -31.17 0.0004756761    1.343    0.255
       146  -9.9009      2.8695     39.7814   7.3973196244e+01   6.7416611716e+01    0.1593851    0.1212277  38.90  0.001083965    1.983    0.496
       147 -10.3681     81.1699     38.8397   4.1228974828e+01   5.7717103164e+01    0.1789325    0.1635139  24.05 0.0002761931    1.147    0.128
       148 -10.0339     56.2749     38.3341   4.9847893667e+01   6.1996667702e+01    0.1967592    0.1136517  31.53 0.0002551456    1.585    0.369
       149 -11.5606    121.6794     37.0964   2.9578720868e+01   4.9517640688e+01     0.305128    0.2510114 -21.99  0.001023111    1.375    0.273
       150  -9.5244    118.2768     34.7140   2.9605998838e+01   5.0562815415e+01     0.139076    0.1153194  39.27 0.0008215391    1.107    0.096
       151  -9.2524    238.7531     37.2999   1.2287507028e+01   2.2846681910e+01    0.1222489    0.0729624 -66.30 0.0006867308    1.490    0.329
       152  -9.2677     30.2663     37.3854   6.0359776616e+01   6.5516175595e+01     0.142593    0.1010972  22.90 0.0006363058    1.414    0.293
       153  -9.4383    150.5951     36.1430   2.3453304898e+01   4.2936832074e+01    0.1555786    0.1312642  -3.49 0.0003059344    1.497    0.332
       154 -11.3397     67.3803     35.7079   4.4730543453e+01   6.0576834916e+01    0.3016349    0.1998673  41.84 0.0001927477    1.473    0.321
       155  -9.6886     37.4117     35.7835   5.6600978464e+01   6.4937554638e+01    0.1717609   0.09502654 -26.16 0.0009462149    1.693    0.409
       156 -11.1131    112.4999     34.2275   3.0819098852e+01   5.1895727677e+01    0.3324065    0.2351825 -54.47  0.001253363    1.869    0.465
       157  -9.3563      7.4393     34.4600   6.9997889368e+01   6.8017033843e+01    0.1164524   0.08289455 -22.31 0.0008057288    1.046    0.044
       158 -12.0838     11.0085     29.7875   6.6563240321e+01   6.8497006374e+01    0.2566089    0.1709124  21.78  0.001233727    1.604    0.377
       159  -9.9204    117.2960     29.5211   2.8168628438e+01   5.1371052513e+01    0.2084822    0.1203299 -26.51  0.000802747    1.997    0.499
       160  -9.8958     99.2068     30.5896   3.2980917841e+01   5.5153860706e+01    0.1837232    0.1025067  42.67 0.0002754355    1.552    0.356
       161  -9.2420    161.5163    249.4323   6.9963177542e+01  -1.5997271288e+00    0.1336834    0.1143773  26.84  8.19393e-05    1.010    0.010
       162 -10.1488     40.0332     29.8245   5.3126124293e+01   6.5455544310e+01     0.220302    0.1358758  24.14  0.001327931    1.455    0.313
       163  -9.1375    154.7166     29.7109   2.0983203045e+01   4.2716420572e+01    0.1275484   0.09224647  40.13 0.0006947168    1.530    0.346
       164 -10.2449    135.7507     29.0774   2.4178394214e+01   4.7223647285e+01    0.1810612    0.1630756  83.74 0.0003426998    1.147    0.128
       165 -10.8551     80.3661     27.4988   3.7301549414e+01   5.9249691877e+01    0.3287977    0.2393806  24.16  0.001991258    1.237    0.192
       166  -9.3702     69.6934     28.9914   4.1353801823e+01   6.1020376879e+01    0.1400294    0.1062176 -16.08 0.0008649285    1.330    0.248
       167 -12.3034    216.9673     25.6243   1.2054169244e+01   2.8913522102e+01    0.2609198    0.1880649  87.14 0.0003147826    1.173    0.147
       168 -11.9478    213.0203     23.9298   1.2095977080e+01   2.9974581887e+01    0.2401108    0.1769726 -74.96 0.0002859025    1.155    0.135
       169 -10.9058    183.0137     25.5555   1.5835949104e+01   3.6556107931e+01    0.2065182    0.1874168 -79.91 0.0001954508    1.135    0.119
       170 -10.7165     31.8374    248.0827   9.6805057064e+01   1.7838647707e+01    0.2021081    0.1805891 -72.64 0.0008060909    1.399    0.285
       171 -10.5329     60.0509     25.9797   4.3593819899e+01   6.3008492467e+01    0.1971299    0.1505186  28.65 0.0003337323    1.148    0.129
       172  -9.8910    229.9603    247.6286   5.5778362561e+01  -1.1476699755e+01    0.1702986    0.1322152  10.99 0.0005763413    1.101    0.092
       173  -9.8453     48.9943    249.0000   9.3565868922e+01   1.5547846563e+01    0.1885213   0.06200212  35.68 0.0003695934    2.847    0.649
       174  -9.6424    131.3124    247.6726   7.6195033553e+01   3.6098376971e+00    0.1364055   0.09673754  63.97 0.0006623719    1.666    0.400
       175  -9.7596    116.3662    247.1535   7.9355722128e+01   6.1154710278e+00    0.1797498    0.1252886 -77.70 0.0009481782    1.789    0.441
       176  -9.3839     25.7335     25.3060   5.7702783051e+01   6.7777987752e+01   0.09456675   0.08764366  -7.55 0.0001640358    1.531    0.347
       177  -9.9643     52.6541     23.7071   4.5470160592e+01   6.4448513829e+01    0.1951994    0.1450374  27.51 0.0006858052    1.184    0.155
       178 -10.6197     47.8365     23.3624   4.7235567783e+01   6.5211378142e+01    0.2008227    0.1449452 -10.30 0.0003762137    1.256    0.204
       179 -10.8447    100.9496     21.7424   2.9468218235e+01   5.5729641615e+01    0.3093755    0.2349224  59.16  0.001381167    1.279    0.218
       180  -9.4608    103.4028     17.8208   2.7523161402e+01   5.5588948107e+01    0.1521576    0.1144337   6.74 0.0003144893    1.502    0.334
       181  -9.9482     15.5121     21.4950   6.1071809337e+01   6.9336788340e+01     0.191091    0.1401922 -24.83  0.001042962    1.224    0.183
       182  -9.6858    147.3405    243.3159   7.2087076931e+01   1.8196804032e+00    0.1376962     0.101889   1.24 0.0007048245    1.706    0.414
       183 -10.7060    163.3632     20.2051   1.7154202518e+01   4.1717137743e+01    0.2451798    0.1915933  55.39 0.0009729061    1.242    0.195
       184  -9.8203    106.9121     21.2401   2.7849718422e+01   5.4508044041e+01    0.1717843    0.1343943  44.14 0.0002476674    1.075    0.070
       185  -9.7369     64.7777     21.1995   3.9988950536e+01   6.2760187230e+01    0.1716471     0.116754  20.41 0.0003431887    1.311    0.237
       186  -9.6738     38.4388    242.2705   9.5094724308e+01   1.8268593720e+01    0.1688372   0.09791438  85.75 0.0009332002    1.639    0.390
       187  -9.5591     26.5184     21.4660   5.5739620452e+01   6.8211795462e+01    0.1178206   0.08604565  -2.90 6.682638e-05    1.047    0.045
       188  -9.7770     21.9602     22.0000   5.8127341114e+01   6.8632734830e+01    0.1656976   0.05606694  28.68 0.0004685694    2.801    0.643
       189  -9.7796    113.5547     20.6848   2.6150402655e+01   5.3115338539e+01    0.2363274    0.1022527  58.78  0.001073287    1.986    0.496
       190  -9.9602     77.4755     18.9072   3.4938577990e+01   6.0709759763e+01    0.2776262    0.1504519 -44.47  0.001300095    2.748    0.636
       191 -10.1148    207.7951     17.8747   1.1351357788e+01   3.1817795969e+01     0.169373     0.145105  82.75 0.0004047037    1.172    0.147
       192  -9.6646     32.3041    232.9890   9.5578214975e+01   2.0988262261e+01    0.1671812    0.1338489  76.48 0.0004900486    1.019    0.019
       193 -10.1059    142.9254     17.4485   1.9545019211e+01   4.6759054709e+01    0.1837344    0.1632678 -76.26  0.001204551    1.213    0.176
       194 -10.0608     70.4606     18.0964   3.6839688697e+01   6.2084726589e+01     0.181385    0.1412864  32.75 0.0006835108    1.080    0.074
       195 -10.2368    214.7441     16.2787   1.0360774798e+01   3.0480949995e+01    0.2260453    0.1383494 -77.79 0.0009179121    1.481    0.325
       196  -9.2827     24.9384     17.5414   5.4806181611e+01   6.8897686753e+01    0.1534052   0.09228517  20.92 0.0009794522    1.453    0.312
       197  -9.4412    178.6940     15.7170   1.4040859533e+01   3.8620552447e+01    0.1201203    0.0851834  49.16 0.0002535026    1.560    0.359
       198 -11.0735     25.5371    232.7912   9.6907277588e+01   2.1797743058e+01    0.3258185    0.1699012  20.97  0.001571734    3.037    0.671
       199 -11.0122     55.7734    231.0277   9.0559602838e+01   1.8515632098e+01    0.2859811    0.2223671   8.98    0.0015979    1.950    0.487
       200  -9.9432    153.1682     12.7807   1.6682655107e+01   4.4824911613e+01    0.1825025    0.1464431  87.45 0.0003561528    1.170    0.146
       201 -11.9034      2.7203    221.2018   1.0056605484e+02   2.6649980736e+01    0.4965741    0.2075603  81.44  0.001965466    2.359    0.576
       202 -10.0646     66.2562     13.2040   3.6262408459e+01   6.3316023649e+01     0.177899   0.08766187  55.92  0.000697792    2.401    0.584
       203 -10.2096     24.9533     12.9777   5.2786831099e+01   6.9458425614e+01    0.1805767    0.1296385   3.41 0.0006135697    1.046    0.044
       204  -9.6437    207.2947    222.3673   5.5764714431e+01  -4.1259204095e+00      0.14298   0.09507996  -8.06 0.0007029033    1.720    0.419
       205  -9.4861    210.3651    215.8041   5.3928593117e+01  -3.4482979093e+00    0.1908435    0.1152753 -30.01 0.0006474923    1.639    0.390
       206  -9.3071     16.5011    213.4584   9.7271200307e+01   2.7056267499e+01    0.1242122   0.09794268  82.57 0.0003012042    1.005    0.005
       207  -9.9021    237.7143    186.6109   4.3024995342e+01  -2.5253282887e+00    0.2424198    0.1417747 -30.12 0.0006212312    1.604    0.377
       208  -9.8288      1.5697    170.1907   9.6999191021e+01   3.8540334282e+01    0.1839467   0.08853781 -64.88  0.000745285    1.674    0.403
       209  -9.2624    229.5023    165.5156   4.0240400767e+01   2.7338391001e+00    0.1408405    0.1240632 -32.38 0.0008104112    1.019    0.019
       210  -9.7496     13.5096    164.5247   9.3520688371e+01   3.8993750040e+01    0.1301526     0.105497 -83.04 -3.363629e-05    1.032    0.031
       211  -9.5181    213.1936    155.2074   4.1088904715e+01   7.7149925151e+00    0.1954416    0.1679384 -64.72   0.00104724    1.306    0.234
       212  -9.3879    203.4741     11.4920   1.0432339138e+01   3.3463762200e+01    0.1214076   0.09681517 -89.45 -2.77871e-06    1.029    0.028
       213 -10.2673      7.1184    153.8669   9.4012832221e+01   4.2093043553e+01    0.1955309     0.149262  81.84 0.0006878605    1.257    0.204
       214 -10.0433     23.0146    148.4567   8.9076367510e+01   4.2174693516e+01    0.2766688    0.1443733 -56.08 0.0009607301    1.628    0.386
       215 -11.0867      4.0364    145.0556   9.3855493201e+01   4.4448645870e+01    0.3086346    0.2630449  29.00  0.002077108    1.445    0.308
       216  -9.1223    164.3461     10.6569   1.4602291057e+01   4.2433014189e+01    0.1326374   0.08232941 -73.38 0.0007045571    1.794    0.442
       217  -9.5229    206.5252    145.4524   4.0235842383e+01   1.0982899919e+01    0.1481828    0.1373067 -41.63 0.0001527941    1.009    0.009
       218  -9.4881     32.0263    140.9929   8.5428471672e+01   4.3222819760e+01    0.1600804    0.1364043 -65.86            0    1.002    0.002
       219  -9.9365     54.2355    139.9967   7.8648525957e+01   4.1062608830e+01     0.192626    0.1698372 -57.79  0.000297027    1.024    0.023
       220  -9.6373     69.0036    136.0052   7.3385375181e+01   4.0115774358e+01    0.1794532    0.1573233 -56.17 0.0003656881    1.053    0.050
       221  -9.9806     70.6570    130.4073   7.1695220603e+01   4.1276766159e+01    0.2498043    0.1564275 -40.20  0.001103121    1.626    0.385
       222 -10.5916     74.9723    126.9492   6.9587016261e+01   4.1493199769e+01     0.344666    0.1868564 -49.29  0.001210326    1.700    0.412
       223  -9.8837     44.6166    125.8640   7.8963730706e+01   4.5706912650e+01    0.1984992    0.1241896 -72.93 0.0009380921    1.687    0.407
       224 -13.3741     83.1364    119.7642   6.5342181614e+01   4.1953965332e+01    0.3961945    0.3622966 -36.51 0.0006904098    1.039    0.037
       225 -11.3616     24.3253    121.3193   8.4585348083e+01   4.8750486963e+01    0.3822764    0.2046627 -76.46    0.0014647    1.988    0.497
       226 -10.5998     27.0545    116.9707   8.2944658879e+01   4.9571906714e+01    0.1976056    0.1652293 -52.30 0.0003252687    1.020    0.019
       227 -10.3083     74.7931    121.9783   6.8504480362e+01   4.2733333134e+01    0.2360585    0.2103803  26.89 0.0006097645    1.191    0.160
       228 -10.7359      9.9982    121.1694   8.9044376978e+01   4.9831381538e+01    0.2347973    0.1969462  58.96 0.0008966355    1.415    0.293
       229 -11.2429     15.4674    117.5213   8.6766231940e+01   5.0335413333e+01    0.4186305    0.1510609 -45.80  0.001775606    2.435    0.589
       230  -9.6377     92.4874    117.5555   6.1881605778e+01   4.0891559630e+01    0.1502561    0.1462099 -40.42 8.974935e-05    1.039    0.037
       231  -9.8158     61.7332     12.5086   3.7506537896e+01   6.4171129124e+01    0.1497012    0.1033498  48.88 0.0003374808    1.511    0.338
       232 -10.7657     69.7751    115.4245   6.8571165927e+01   4.5052018735e+01    0.3497477    0.2375057  28.52  0.001692464    1.581    0.367
       233 -12.2951      1.5625    104.6360   8.9202338683e+01   5.4194043821e+01    0.3188669    0.1811916 -49.92 0.0004676966    1.398    0.285
       234 -11.2809      5.8215    113.5889   8.9212239213e+01   5.1882959883e+01    0.3435382    0.1435988 -49.00  0.001659293    1.929    0.482
       235 -10.7644      2.6082    111.7759   8.9959341078e+01   5.2486588799e+01    0.2965948    0.1898226  89.95 0.0001998901    1.750    0.428
       236 -10.8880     40.1918    112.3775   7.7704916174e+01   4.9443760731e+01    0.2400021    0.1578866 -48.48 0.0007650748    1.308    0.236
       237 -10.7677     23.2183    113.3588   8.3544710503e+01   5.0749319798e+01    0.2117732    0.1533998 -45.08 0.0004485375    1.208    0.172
       238 -10.9278     25.9441    111.0000   8.2204421394e+01   5.1088200702e+01    0.2374736    0.1807788 -84.82  0.000937935    1.493    0.330
       239  -9.6414    127.9960    112.2149   5.0147310686e+01   3.5123687092e+01    0.1979087    0.1268787  43.92 0.0003610817    1.564    0.361
