#   1 NUMBER                 Running object number                                     
#   2 MAG_AUTO               Kron-like elliptical aperture magnitude                    [mag]
#   3 X_IMAGE                Object position along x                                    [pixel]
#   4 Y_IMAGE                Object position along y                                    [pixel]
#   5 X_WORLD                Barycenter position along world x axis                     [deg]
#   6 Y_WORLD                Barycenter position along world y axis                     [deg]
#   7 A_WORLD                Profile RMS along major axis (world units)                 [deg]
#   8 B_WORLD                Profile RMS along minor axis (world units)                 [deg]
#   9 THETA_WORLD            Position angle (CCW/world-x)                               [deg]
#  10 FWHM_WORLD             FWHM assuming a gaussian core                              [deg]
#  11 ELONGATION             A_IMAGE/B_IMAGE                                           
#  12 ELLIPTICITY            1 - B_IMAGE/A_IMAGE                                       
         1 -14.6331    229.1293    103.3271   4.9265516619e+01   1.4865348153e+01     5.767165     2.683826 -49.15  0.004514738    2.015    0.504
         2 -14.7607    178.6492     77.9703   5.1331553952e+01   3.0046501446e+01     5.509643     2.835088 -68.36  0.001533729    4.048    0.753
         3 -12.6785    249.7168     26.4177   3.1063729385e+01   2.2185867187e+01     1.575856    0.2970818 -34.16  0.005268412    5.480    0.818
         4 -10.4128    231.3521     28.0883   3.2845916761e+01   2.5606475861e+01      1.81343    0.8444251 -54.29  0.009496157    1.882    0.469
         5 -14.7097    239.7580     54.8886   3.7583410583e+01   2.0388400470e+01     4.522265    0.7385394  55.60    0.0138615    6.440    0.845
         6 -14.5081    217.0027     75.0024   4.4623395307e+01   2.2020590614e+01     7.392564     4.407773 -38.77   0.03741867    1.561    0.359
         7 -12.1774      2.5837     40.6374   9.8486530146e+01   6.8163964676e+01    0.9678109    0.3046296 -61.89  0.003898147    3.570    0.720
         8 -12.1795    233.8014     19.6677   3.0945032281e+01   2.6110186951e+01    0.5744868    0.4359625  43.47  0.003215789    1.975    0.494
         9 -11.6533    140.7470      8.0671   3.8001702774e+01   4.8248758811e+01    0.8275481    0.4229152  14.78  0.003308466    3.985    0.749
        10 -11.5065    134.2477     20.3814   4.2831375220e+01   4.8624622174e+01     0.499007    0.3018843 -19.19  0.001742442    2.019    0.505
        11 -11.1352    135.3383     13.2371   4.0416703701e+01   4.9062731366e+01    0.4117064    0.2112127 -34.13  0.002057482    2.131    0.531
        12 -11.0669    143.9947     21.0369   4.1377399271e+01   4.6237328818e+01    0.3203384    0.2450728 -29.61   0.00188061    1.480    0.324
        13  -9.4225    204.6670     10.6302   3.1424590214e+01   3.3246113966e+01    0.3789029    0.1970387 -20.61  0.001885548    2.796    0.642
        14 -10.4344    202.7380     17.9247   3.3230382971e+01   3.2887288831e+01    0.5118605    0.2973317 -79.10  0.002347808    1.711    0.416
        15  -9.8081      1.4613     15.0652   8.9577721725e+01   7.2744100439e+01    0.2485968   0.09723021 -49.77 0.0009361212    2.494    0.599
        16  -9.3415      1.4071     10.6938   8.7615853675e+01   7.3426475525e+01    0.2417043   0.09909844 -47.80 0.0009423274    2.412    0.585
        17  -8.3353    183.7343     11.9324   3.3716463115e+01   3.7806714445e+01    0.1295619    0.1067521 -38.38 0.0002892507    1.358    0.264
        18  -8.6609    181.5628      3.7978   3.1962942495e+01   3.9091610789e+01    0.2017145    0.1243479 -20.12  0.001129234    2.122    0.529
        19  99.0000    212.8989     23.5305   3.3521412700e+01   3.0028386845e+01     1.850272    0.6467632 -46.61  0.003273601    2.492    0.599
        20 -10.7487    118.5327      3.5938   4.0165651140e+01   5.3821445399e+01    0.4226461    0.1739553  72.30  0.001815514    2.458    0.593
        21  -8.2366    236.4702      2.6996   2.7450479308e+01   2.7439404698e+01    0.1391565    0.1089687  53.90 0.0008751405    1.755    0.430
        22  -8.6143    159.4918      1.4946   3.3701214500e+01   4.4399088111e+01    0.2030736    0.1095659  51.48  0.000779491    1.844    0.458
        23  -9.8640    235.5354    179.5310   6.4221506216e+01   3.3685102308e-01    0.2286201    0.2075034 -37.16 0.0005913987    1.280    0.218
        24  -9.2054    249.4089    249.7977   7.4421173083e+01  -1.2005226537e+01    0.1598825   0.08418983 -22.21 0.0008460908    1.664    0.399
        25  -9.0663    190.7353    236.4814   8.3233712135e+01  -2.6325378654e+00    0.2384846    0.2044626  60.83  0.001208118    1.791    0.442
        26 -10.2031    211.0608    230.8025   7.8259277635e+01  -4.5866883413e+00    0.2184877    0.1775451 -25.57 0.0004929916    1.248    0.199
        27 -12.0319     21.5641    160.5522   1.1324392841e+02   3.8611477285e+01    0.9485915    0.5135802 -79.70  0.004647494    1.667    0.400
        28 -11.6597     17.0178    151.0216   1.1345930225e+02   4.1401704373e+01    0.7793654     0.239983 -60.06  0.003097284    2.525    0.604
        29 -11.4204     67.5819    144.3092   9.7532131167e+01   3.7665581601e+01     1.944658    0.8524219  43.13  0.006878518    2.445    0.591
        30 -12.5116     33.2922    153.5259   1.0914762285e+02   3.9319414761e+01     0.668245    0.5332196 -88.27  0.001431554    1.170    0.145
        31 -13.1664     43.6464    149.1869   1.0553333320e+02   3.9365955310e+01     1.214882    0.9725487  -0.28  0.004969187    1.553    0.356
        32 -10.0184    134.0000    145.9586   7.8838992356e+01   2.5768450152e+01    0.9172955    0.2675455 -53.14  0.002461451    4.035    0.752
        33 -11.1872    176.9778    148.2511   6.9032361017e+01   1.6617650057e+01    0.6010304    0.3777378  33.05  0.002637901    1.760    0.432
        34  -9.3714    222.6831    145.0954   5.9389880798e+01   8.5728549324e+00    0.2213976    0.1962782  78.07 0.0003281705    1.464    0.317
        35  -9.8165    192.2108    143.9276   6.4845477553e+01   1.4498298681e+01     0.292279     0.233905 -26.26 0.0005107187    1.236    0.191
        36  -9.0837    145.1595    147.2716   7.6280176234e+01   2.3235785660e+01    0.3180893    0.2180977 -75.56  0.001263297    2.221    0.550
        37 -10.6188    249.1655    156.7088   5.7440202864e+01   2.1596882626e+00    0.3759685    0.2399942 -46.79  0.002060091    1.516    0.340
        38  -8.9499    158.5453    143.0070   7.2025599817e+01   2.1479931313e+01    0.2453136    0.2126467  39.37 0.0007753988    1.187    0.157
        39 -10.7863    176.3396    139.1533   6.7077950907e+01   1.8662549673e+01    0.4329353    0.3061136 -80.26  0.001789102    2.314    0.568
        40  -8.1502    121.1197    145.0717   8.2085130997e+01   2.8492075077e+01    0.1940482    0.1778744 -86.45 -0.0009232552    1.198    0.165
        41 -10.3249    156.6352    136.8612   7.1028891063e+01   2.3234377280e+01    0.5123663    0.3092063  46.70   0.00214869    1.733    0.423
        42  -9.5565    178.9993    230.6680   8.4693951897e+01   5.7738675114e-02     0.337608    0.1946262  33.30  0.001356382    1.576    0.366
        43  -9.1244    180.0156    226.0161   8.3709019719e+01   7.0917821821e-01     0.195417    0.1718764  10.25  0.001211665    1.057    0.054
        44 -11.1261    190.5147    153.7563   6.7385965664e+01   1.2839905387e+01    0.5076395    0.3868702  82.81  0.001562725    2.083    0.520
        45 -12.6047    249.2552     60.7872   3.7838971945e+01   1.7719836492e+01    0.4820344    0.2496126 -46.47 0.0003169527    1.568    0.362
        46  -8.5914    166.6852    134.3150   6.8079391835e+01   2.1689400495e+01    0.1547653    0.1242892 -83.75 0.0004638036    1.644    0.392
        47 -10.1434    225.5788    129.9076   5.5625271727e+01   1.0828369229e+01    0.4009857    0.2707047 -68.71  0.001046343    2.134    0.531
        48  -8.9977     70.0078    225.0287   1.0818332802e+02   1.7603543050e+01     0.158578    0.1393756  73.44 0.0007189158    1.058    0.055
        49 -10.6520    160.7166    128.4295   6.8024355725e+01   2.4217506623e+01    0.4728001    0.3329169 -53.11  0.002042836    1.470    0.320
        50 -10.6587    163.0214    121.0531   6.5665484934e+01   2.5297327568e+01    0.5188646    0.2785113 -50.48  0.002036263    1.934    0.483
        51  -9.2498    136.0324    128.8011   7.4218482939e+01   2.9353540350e+01    0.4151394    0.1994199 -46.68  0.001428987    2.039    0.510
        52  -8.0564     92.6087    128.1494   8.6460661684e+01   3.7888078450e+01    0.2198207     0.136624 -42.86 0.0004184736    1.604    0.377
        53 -10.2266    208.4844    127.1475   5.7934606104e+01   1.4585704358e+01    0.3172481    0.2129953  36.05  0.001111436    1.747    0.428
        54 -13.2263    177.8765     91.5483   5.4996227012e+01   2.7821805125e+01     1.975619      1.34933  53.77  0.009469084    1.508    0.337
        55 -10.5455    227.0635    119.4190   5.3101738562e+01   1.2439789688e+01     0.280903    0.2148647 -48.39 0.0004010703    1.182    0.154
        56 -12.2297    198.9295     82.0841   4.8940234084e+01   2.4761107058e+01    0.9419622    0.5863933  48.29  0.004542225    1.784    0.439
        57  -9.2226    177.8943    121.9129   6.2628098512e+01   2.1911937451e+01    0.2539681    0.2114231 -55.18 0.0004204155    1.217    0.179
        58 -10.1137    213.7930    120.7230   5.5555019316e+01   1.4747322594e+01    0.3207145    0.2694033   2.96  0.001234987    1.448    0.310
        59  -9.1987    135.0474    120.2086   7.2306261142e+01   3.1513781258e+01    0.2962678    0.2186282 -44.70  0.001349886    1.328    0.247
        60 -10.1047    205.1626    114.6375   5.5648821663e+01   1.7608230165e+01    0.4668572    0.2507875  30.74  0.001762406    3.075    0.675
        61 -11.3063    204.8581    110.4706   5.4730014965e+01   1.8445873178e+01    0.7038308    0.5013915   5.26  0.003179408    2.265    0.559
        62 -10.8832    168.6666    113.9701   6.2626429596e+01   2.5534744303e+01    0.5795549    0.4411823 -83.21   0.00264161    1.768    0.434
        63 -10.1551    134.6475    107.6250   6.9087544123e+01   3.4375498170e+01     1.196704    0.1982322 -44.05  0.002626025    5.955    0.832
        64  -9.5034    135.4681     99.0946   6.6528684728e+01   3.5998830470e+01    0.3213018    0.2597664  75.24 0.0009905474    1.501    0.334
        65  -7.9488     28.5500    114.4737   1.0473007026e+02   4.9746319167e+01    0.1370943    0.1192243 -62.83 0.0001381443    1.041    0.039
        66  -7.9000     69.9973    113.2740   9.0218515623e+01   4.5208891145e+01    0.1657589    0.1327051  28.22 0.0002197027    1.327    0.246
        67 -10.1688    119.8633    102.8723   7.1799223133e+01   3.8577363535e+01    0.2479993    0.2444102 -31.43 0.0009707416    1.026    0.025
        68 -10.3231    127.1176    104.4610   7.0229937279e+01   3.6688664483e+01    0.5260483    0.2719516 -47.96  0.002027704    1.960    0.490
        69  -7.7554    108.7226    110.7227   7.7185201665e+01   3.9090257356e+01    0.1522602    0.1214282  -9.59  0.000229171    1.499    0.333
        70  -9.0193      6.5154    107.5119   1.1119928103e+02   5.3037542199e+01     0.130173    0.1072955 -64.61 -7.422733e-05    1.030    0.029
        71  -7.9646    143.3154    106.3461   6.6531521377e+01   3.2741690713e+01    0.1615843    0.1248732  -0.67 0.0006101508    1.719    0.418
        72  -9.6467    149.8860    103.4958   6.4165759985e+01   3.1866256655e+01    0.3231312    0.2813511  29.91 0.0007676599    1.230    0.187
        73 -10.6784    160.9629     98.7538   6.0362313921e+01   3.0309670660e+01    0.6086198    0.3946103  43.13  0.002710821    1.623    0.384
        74  -8.8900    173.3633    174.9906   7.5631350333e+01   1.1677999802e+01    0.2749833    0.2097931  56.39  0.001089589    1.617    0.382
        75 -10.3036     88.2924     95.2604   7.9315433857e+01   4.6463024660e+01    0.2568105    0.2400491 -17.20 0.0002818567    1.021    0.020
        76 -10.2768    143.8232     93.9239   6.2995953318e+01   3.5168431243e+01    0.3460523    0.3116043  76.62  0.001273012    1.200    0.167
        77 -10.5842    117.5750     91.9353   6.9320386993e+01   4.1386517966e+01    0.3994128    0.2797488 -64.22  0.001737207    1.852    0.460
        78 -11.3815    159.6719     89.9360   5.8270751954e+01   3.2299913580e+01    0.3523096    0.2921162 -28.49  0.001618364    1.283    0.221
        79  -9.8685    113.5060     95.0940   7.1411740763e+01   4.1583214191e+01    0.2555265    0.2254095  72.10  0.001291538    1.318    0.242
        80 -10.8400    149.3925     80.1954   5.7818152620e+01   3.6487465519e+01    0.5112923     0.346572 -36.16  0.002379144    1.514    0.339
        81 -11.6003    143.1693     77.8209   5.8552595191e+01   3.8367141545e+01     1.097582       0.2421  46.99  0.002902303    4.561    0.781
        82 -10.0910    136.8932     73.5499   5.8771375516e+01   4.0587075398e+01    0.3249285    0.1984607 -32.08  0.001071341    1.770    0.435
        83 -10.1796    150.8947     71.4577   5.4987846654e+01   3.7666838382e+01    0.2641737     0.246712 -46.71 0.0004547827    1.088    0.081
        84 -10.1027    135.0834     62.7767   5.5933489203e+01   4.2832281204e+01     0.294845    0.1956347  37.59  0.001369172    1.627    0.385
        85 -10.3179    125.1090     58.8677   5.7102764554e+01   4.5777471764e+01    0.3182911    0.2596569 -31.95 0.0006398001    1.289    0.224
        86 -10.4771    153.6521     56.0703   4.9984459446e+01   3.9470948557e+01    0.4298328    0.2660182 -53.01  0.001635422    1.793    0.442
        87 -10.1508    142.3335     55.1535   5.2001856079e+01   4.2309401210e+01    0.3136789    0.1854286 -20.40   0.00134877    2.229    0.551
        88  -9.7582    176.7843     49.9782   4.4294863042e+01   3.4847165758e+01    0.3994898    0.2795197 -33.83  0.002105837    1.519    0.342
        89 -10.6528     14.7082     51.4811   9.5738170421e+01   6.5252134977e+01    0.2482272    0.1696052  -4.78  0.001508094    1.437    0.304
        90  -8.8705    181.1512    221.5793   8.2717888258e+01   1.3155369141e+00    0.1979069    0.1796593 -35.14 0.0004729191    1.265    0.209
        91  -9.5356    244.8833    220.1845   7.0179748456e+01  -7.4099444136e+00     0.214019    0.1386351  49.40  0.001028475    2.750    0.636
        92  -9.5729    191.4202     42.6674   4.0354245444e+01   3.2439333612e+01    0.4722138    0.2011082 -50.56  0.002001101    2.402    0.584
        93  -8.7181     33.3348    218.3068   1.1568748553e+02   2.3557209261e+01    0.1156858   0.09348795 -40.74 0.0007040759    1.671    0.401
        94 -11.7559    119.9182     39.1266   5.1883019245e+01   4.9828010458e+01     0.626146    0.4591819 -17.70  0.001425896    1.567    0.362
        95  -9.9099     15.1461     38.5694   9.1217540752e+01   6.7692315625e+01    0.2527583    0.1129942 -27.03  0.001198952    2.286    0.563
        96 -10.4744    203.8818     33.3335   3.6637533861e+01   3.0822985519e+01    0.3298634    0.1842212 -35.56  0.001045529    1.819    0.450
        97  -9.3611    190.0034     35.3529   3.8734271965e+01   3.3710580061e+01    0.2219221    0.1800989 -42.24 0.0001468816    1.280    0.219
        98 -11.9057      2.7231    167.6739   1.1880733912e+02   3.8326878331e+01    0.8178106    0.3013613 -77.73  0.003597246    2.260    0.558
        99 -13.5598    232.1918     68.9412   4.1370829983e+01   1.9837874175e+01     1.501509    0.7110171  63.23  0.002139773    2.300    0.565
       100  -9.5532    158.7193     25.6744   4.0434027908e+01   4.2220449906e+01    0.4719251    0.2307067  55.00  0.001411423    1.873    0.466
       101  -9.9261    179.5616     24.2689   3.7253287302e+01   3.7452671567e+01    0.4207739    0.3089405 -85.05  0.002014209    1.283    0.220
       102  -9.8320    188.3130     23.0490   3.5924919052e+01   3.5566331218e+01    0.2282933     0.185855 -53.72 0.0006508164    1.206    0.171
       103  -9.8114    147.7844    215.2748   8.8958729140e+01   7.8296988324e+00    0.2295614    0.2159003   4.79 0.0003147163    1.053    0.050
       104  -9.6009     37.9158    213.5638   1.1429057913e+02   2.4119342456e+01    0.2452403    0.1397731  48.00  0.001314623    1.574    0.365
       105 -10.0545    245.7740    209.1376   6.8044717655e+01  -5.8705017860e+00    0.3269973    0.2286032  50.38  0.001195333    2.390    0.582
       106  -8.1815     99.6515    210.2728   9.9478475910e+01   1.6616080784e+01    0.1708367    0.1279068 -52.39 0.0002331904    1.429    0.300
       107  -8.0551    221.5669    205.5359   7.1741011995e+01  -1.9946600709e+00    0.1303831    0.1095267 -11.31 0.0001150651    1.046    0.044
       108  -8.9624    249.8241    203.8418   6.6387060071e+01  -5.5823660731e+00    0.1554905    0.1344475 -27.26 0.0005140029    1.314    0.239
       109  -7.7200    207.3183     16.3119   3.2445394527e+01   3.2058254749e+01    0.1805743    0.1719607 -39.31 0.0006779057    1.346    0.257
       110  -9.3655    237.5861    172.7539   6.2529576284e+01   1.1865421521e+00     0.194731    0.1706218  73.34 0.0009071638    1.751    0.429
       111  -8.4891    167.0565     16.3494   3.6750765108e+01   4.1237932988e+01    0.1743985    0.1402062  85.00 0.0004828408    1.090    0.083
       112  -8.8116    170.4987    200.9849   8.1351980931e+01   6.8919585986e+00    0.2030459    0.1766207  17.39 0.0003225278    1.074    0.069
       113  -9.7867    239.6200    198.8773   6.7220322797e+01  -3.4505374420e+00    0.3279037    0.2271674  54.67  0.001746589    2.509    0.601
       114  -8.8290    117.5403     12.5250   4.3369654096e+01   5.3300390555e+01    0.1744374    0.1165123 -38.64 8.351892e-05    1.717    0.418
       115  -7.9925    190.2955     14.6925   3.3704716256e+01   3.6025227542e+01    0.1293744    0.0796627 -67.81 0.0003047549    1.587    0.370
       116  -8.3322    231.8365     13.0775   2.9780360438e+01   2.7253531586e+01    0.1334381    0.1166015 -56.58 0.0003994901    1.258    0.205
       117  -9.3788    194.4864    197.9874   7.5655737673e+01   3.4876939792e+00    0.4133217    0.2292447 -54.88  0.001772034    2.495    0.599
       118  -9.6527    191.2831    191.7327   7.5116246868e+01   5.1895606137e+00    0.5939641     0.342904 -64.71  0.002133473    3.832    0.739
       119  -9.3305     31.9940    197.0795   1.1420327468e+02   2.8600326460e+01    0.1882337    0.1634566  83.87  0.001202624    1.044    0.042
       120  -8.0476    200.6948    182.2850   7.1312768425e+01   5.4017229621e+00    0.1267085    0.1146767 -86.76 0.0002682432    1.562    0.360
       121  -8.8062     34.3530    181.4137   1.1210613613e+02   3.2158560375e+01    0.2066496     0.176024 -57.37  0.000719294    1.255    0.203
