#   1 NUMBER                 Running object number                                     
#   2 MAG_AUTO               Kron-like elliptical aperture magnitude                    [mag]
#   3 X_IMAGE                Object position along x                                    [pixel]
#   4 Y_IMAGE                Object position along y                                    [pixel]
#   5 X_WORLD                Barycenter position along world x axis                     [deg]
#   6 Y_WORLD                Barycenter position along world y axis                     [deg]
#   7 A_WORLD                Profile RMS along major axis (world units)                 [deg]
#   8 B_WORLD                Profile RMS along minor axis (world units)                 [deg]
#   9 THETA_WORLD            Position angle (CCW/world-x)                               [deg]
#  10 FWHM_WORLD             FWHM assuming a gaussian core                              [deg]
#  11 ELONGATION             A_IMAGE/B_IMAGE                                           
#  12 ELLIPTICITY            1 - B_IMAGE/A_IMAGE                                       
         1 -13.1773     58.7095    132.1983   1.0707492834e+02   4.1412672069e+01     1.540061    0.5171053 -76.30  0.004619468    4.583    0.782
         2 -12.9486    219.7910     18.1947   4.1038230411e+01   2.8071105833e+01    0.8209399    0.8021899  46.63  0.004371904    1.216    0.178
         3 -11.7011    212.9023     25.8008   4.3713274004e+01   2.8827050141e+01     0.542944    0.3990544  45.10  0.001069686    1.625    0.385
         4 -12.1366      2.1669      3.3008   9.8352779041e+01   7.7917166060e+01    0.6854776    0.5017588  70.92  0.004018808    2.317    0.568
         5 -12.1812      2.0000     22.6142   1.0747651111e+02   7.3807988929e+01     2.244643    0.1483596 -66.77  0.003999696   14.450    0.931
         6  -9.5287     33.0000     10.9863   8.0459762484e+01   7.3005376161e+01    0.2161628   0.06572834 -41.85   0.00080239    2.942    0.660
         7  -9.6840     47.5314      2.5020   6.6834216121e+01   7.1813266490e+01      0.13134    0.1147714  -2.61 0.0008098494    1.002    0.002
         8 -13.0920    205.8972     33.5282   4.6586910807e+01   2.9570499678e+01    0.9644032    0.9183028 -78.42   0.00441544    1.121    0.108
         9  -8.5874     99.5225    180.5319   1.0343392565e+02   2.4971719684e+01    0.1276208    0.1116664  54.89 7.015838e-05    1.014    0.014
        10 -10.7191    140.2457    249.0944   1.0327754301e+02   8.3514459374e+00    0.2150211    0.1794059  58.56   0.00173118    1.427    0.299
        11 -14.0092     85.3370    225.9293   1.1118905764e+02   1.8703901810e+01     2.226808     0.767046  43.25  0.006094159    2.188    0.543
        12 -14.9159     73.8821    247.7579   1.1494233159e+02   1.6647040363e+01     8.277596     2.323711  27.54   0.02626698    7.281    0.863
        13 -16.1210     10.7932    241.0882   1.2580378365e+02   2.4204524602e+01     6.669014     2.110227 -85.14   0.03718827    3.232    0.691
        14 -10.7622    110.5759    173.4617   9.9957185585e+01   2.4692047768e+01    0.3862596    0.1680036  50.30  0.001628248    2.432    0.589
        15 -13.0593     73.1038    132.4659   1.0301008938e+02   3.9378000724e+01     1.186008    0.5190214 -60.52  0.004968778    2.158    0.537
        16 -12.2697     85.0069    158.6937   1.0388858754e+02   3.1636046475e+01    0.8621535    0.4555212 -51.29  0.001997669    2.061    0.515
        17 -13.1708     74.3512    155.1335   1.0607905913e+02   3.3945371778e+01     1.868711    0.7289121  60.38  0.005870841    4.623    0.784
        18 -12.9224     68.4842    144.3381   1.0611555577e+02   3.7225581052e+01    0.8963739    0.5708333  73.27  0.002722679    1.751    0.429
        19  -8.2991    125.9983    154.9927   9.3404375741e+01   2.5840892451e+01    0.1569194    0.1547649  75.79            0    1.046    0.044
        20 -10.4557    133.9263    143.6816   8.9417884353e+01   2.6707402697e+01    0.8601581    0.1969982 -51.70   0.00231798    5.355    0.813
        21 -11.4004     33.1342    156.2213   1.1679458922e+02   3.8664654528e+01    0.3652675    0.2199365  89.38  0.001344627    1.516    0.340
        22 -11.0150     32.6044    145.0809   1.1593859152e+02   4.1307869185e+01    0.4419285    0.1468988 -78.13  0.001742984    2.914    0.657
        23 -11.9096     86.8063    141.8250   1.0082391562e+02   3.5140587997e+01    0.5876889    0.3168742  39.84  0.002715645    1.802    0.445
        24  -9.6703     99.3465    143.2953   9.7806007120e+01   3.2813957315e+01    0.2662257    0.2087231  50.86 0.0008968432    1.233    0.189
        25  -9.0267    102.0273    140.2001   9.6557969984e+01   3.3057942430e+01    0.3310017    0.2297191 -19.40  0.001491403    2.331    0.571
        26 -11.1026     31.4558    137.1584   1.1548571811e+02   4.3312218215e+01    0.2982565    0.2608626 -46.39  0.001913192    1.411    0.291
        27 -11.1223     22.4895    136.7489   1.1797222864e+02   4.4254319256e+01    0.2499579    0.1938335 -66.79  0.001343003    1.306    0.234
        28  -9.5763    106.0178    130.9983   9.3742645875e+01   3.4428620571e+01    0.3379497    0.2598898  57.57  0.001493052    1.341    0.254
        29 -10.4450     32.6509    129.6050   1.1434343800e+02   4.5028859340e+01    0.3249026     0.114171 -79.64  0.001233895    2.886    0.653
        30 -12.6953     46.5932    222.2957   1.1843626118e+02   2.3846940778e+01    0.9427133    0.3969649  63.68  0.001315631    2.351    0.575
        31  -9.8672    110.1392    131.7930   9.2831488838e+01   3.3523759862e+01    0.3311373    0.2523404 -12.16  0.001063282    1.889    0.471
        32  -9.9639     97.5222    127.7253   9.5351308436e+01   3.6640246538e+01    0.2715575    0.2354116  -8.38 0.0007510699    1.466    0.318
        33  -9.8590    116.1798    125.1982   8.9875126384e+01   3.3878206839e+01    0.2063661    0.1734215  80.62 0.0008171037    1.335    0.251
        34 -11.7548     47.8316    128.7022   1.0975121610e+02   4.3604985390e+01    0.4762856    0.3456925  -7.04  0.002455548    2.144    0.534
        35  -9.9998    135.0000    119.5157   8.3879656988e+01   3.1452044736e+01    0.3265896   0.08262905 -45.66 0.0009311659    3.906    0.744
        36 -12.7090     66.4138    160.2701   1.0874902175e+02   3.3866891051e+01    0.4991471    0.4255243 -46.99  0.001328338    1.421    0.296
        37  -9.1418    107.0812    119.9581   9.1112204882e+01   3.6725489095e+01    0.2090756    0.2042554 -73.82 0.0003262457    1.039    0.038
        38 -14.5058      9.8486    207.5168   1.2493184100e+02   3.0166678863e+01       1.2489     1.117348  26.03  0.006026391    1.516    0.341
        39 -10.8507     17.9938    110.5010   1.1678557625e+02   5.1095431806e+01    0.2217357    0.1540391 -81.99   0.00127567    1.201    0.168
        40  -9.0150    205.7760    110.3947   6.7365176434e+01   1.8617826833e+01    0.1822684    0.1263682  35.77  0.000490902    1.563    0.360
        41  -9.2941    114.4819    110.0340   8.6785995321e+01   3.7554426408e+01    0.2177889    0.1262313 -28.62 0.0008101692    2.589    0.614
        42  -9.5775     33.0000    108.9564   1.1164176631e+02   5.0143369889e+01     0.225136   0.06749501 -70.87 0.0005756096    2.904    0.656
        43  -9.0549    168.4595    113.1433   7.4881806449e+01   2.5802294561e+01    0.2721327    0.2002548  72.59  0.001004598    1.862    0.463
        44  -9.1283     41.3978    103.1992   1.0791394957e+02   5.0720193177e+01    0.1950346    0.1186584 -82.11 0.0003610847    1.608    0.378
        45  -8.9182     33.0000     96.9594   1.0980575484e+02   5.3190561400e+01    0.2347782   0.06808045 -69.27 0.0008076087    2.978    0.664
        46  -8.9579    128.4618     95.5252   7.9291995250e+01   3.7821996323e+01    0.1518204    0.1463144 -44.80 5.390336e-05    1.015    0.014
        47  -9.6817     11.8345     92.8431   1.1689486749e+02   5.6011657290e+01    0.1782027    0.1326247  68.31 0.0006922789    1.311    0.237
        48  -9.8152     74.2424     84.9927   9.2448271535e+01   5.0737957136e+01     0.206431     0.117181 -55.23 0.0008904422    1.627    0.385
        49 -11.4970     78.8090    164.2745   1.0617584338e+02   3.1307888481e+01    0.5470948    0.2599638  41.98 0.0003648347    1.895    0.472
        50  -9.9652     51.0316     63.8853   9.5064986827e+01   5.9345023650e+01    0.3795968    0.1974732  51.05  0.001585267    2.477    0.596
        51 -10.1681     13.2434     60.0589   1.1110020195e+02   6.4195834636e+01    0.2226578    0.1806604 -65.70 0.0007146641    1.020    0.020
        52 -10.3055    140.8091     46.3057   6.0385090655e+01   4.4079999633e+01    0.3813131    0.2502808 -70.19  0.001052843    2.043    0.510
        53 -12.6250    196.3463     39.8759   4.9510198633e+01   3.1061544400e+01    0.7563336    0.6133514 -51.90  0.002388929    1.162    0.139
        54 -15.4868     47.5344    198.5558   1.1671890384e+02   2.8131486106e+01     7.923813     2.497797  64.64   0.02644863    5.439    0.816
        55 -13.0710     38.6229    207.4239   1.1914958529e+02   2.7399393076e+01    0.8136888    0.5445458  28.77  0.001396615    1.622    0.384
        56  -9.5032     64.0290    202.7414   1.1354751945e+02   2.5414159511e+01    0.1832136    0.1462929  74.44 0.0004805204    1.158    0.136
        57 -10.1394    193.2335    193.0273   8.6397158952e+01   8.4337424180e+00    0.5146441    0.2899947 -46.13  0.002817322    2.270    0.559
        58  -8.6931    189.6787     15.3212   4.2758902175e+01   3.5543918403e+01    0.1532887   0.08995225 -55.19 0.0007044929    1.672    0.402
        59 -11.1588     64.6679    179.5387   1.1129401702e+02   2.9937668811e+01    0.3597927    0.2666864 -33.08    0.0012257    2.014    0.503
        60  -9.1601    143.8017     41.1847   5.7930391926e+01   4.4093448787e+01    0.2767318    0.1463635 -63.09 0.0009570995    2.904    0.656
        61 -11.2672     69.6765    174.0195   1.0954106631e+02   3.0454361619e+01    0.3313883    0.2859638 -15.84 0.0009199663    1.626    0.385
