#   1 NUMBER                 Running object number                                     
#   2 MAG_AUTO               Kron-like elliptical aperture magnitude                    [mag]
#   3 X_IMAGE                Object position along x                                    [pixel]
#   4 Y_IMAGE                Object position along y                                    [pixel]
#   5 X_WORLD                Barycenter position along world x axis                     [deg]
#   6 Y_WORLD                Barycenter position along world y axis                     [deg]
#   7 A_WORLD                Profile RMS along major axis (world units)                 [deg]
#   8 B_WORLD                Profile RMS along minor axis (world units)                 [deg]
#   9 THETA_WORLD            Position angle (CCW/world-x)                               [deg]
#  10 FWHM_WORLD             FWHM assuming a gaussian core                              [deg]
#  11 ELONGATION             A_IMAGE/B_IMAGE                                           
#  12 ELLIPTICITY            1 - B_IMAGE/A_IMAGE                                       
         1 -12.1195    119.6418     37.5632   2.5960389890e+01   5.0511994354e+01    0.9355065     0.429814 -47.68  0.003363975    2.887    0.654
         2 -11.8150    164.2338     27.6556   1.2450050092e+01   4.0585138634e+01    0.4583192    0.3750423 -26.14 0.0003851981    1.271    0.213
         3 -11.9320     20.1611     21.9293   5.7222271340e+01   6.9030367082e+01    0.6127749    0.3491144 -37.70  0.003003059    1.402    0.287
         4  -9.7998     22.1615      2.9414   4.7827424521e+01   7.2154480522e+01    0.2226692    0.1378126 -40.64  0.001135076    1.399    0.285
         5 -10.5892      9.3315     30.7622   6.5326835639e+01   6.8042435425e+01     0.561536    0.3251466 -19.47  0.003435118    1.915    0.478
         6 -10.6741     12.8578      8.6074   5.5588642483e+01   7.1992809340e+01     0.317272     0.204026 -50.99  0.000844856    1.437    0.304
         7 -12.4023     15.6209     14.6631   5.6666624424e+01   7.0712432274e+01    0.9517338    0.3414805 -34.19  0.004364703    2.716    0.632
         8 -12.2311     22.8955     10.8355   5.1240708005e+01   7.0786770503e+01     0.477127    0.3757857   1.33  0.002363212    1.289    0.224
         9 -11.2786      6.2123     10.6700   6.0071585952e+01   7.2065405352e+01    0.5639079    0.3950753 -56.05  0.003942537    1.377    0.274
        10 -12.1444    104.7214     13.8590   2.0318003833e+01   5.7107400854e+01     0.526785    0.3763533  -3.80     0.002066    1.435    0.303
        11 -13.4545    105.4548     20.2692   2.2882610190e+01   5.6156427386e+01     0.414921    0.3771575 -16.95 0.0006459281    1.137    0.120
        12 -12.5480    113.4091     25.6203   2.2921671107e+01   5.3656469504e+01    0.9239557    0.4238458  34.88  0.003480017    2.566    0.610
        13  -9.7015    187.5065     22.9909   7.1838699841e+00   3.4888046109e+01     0.329903    0.2262433  22.64  0.001349023    1.803    0.445
        14 -10.9998    135.9177     21.9851   1.6008588107e+01   4.8668444753e+01    0.6165364    0.4542192  55.77   0.00309117    1.291    0.225
        15 -11.3549    134.7580     15.0071   1.3572215362e+01   4.9763055662e+01    0.7453618    0.2920504  53.49  0.002851512    2.207    0.547
        16 -10.7461    128.6236     12.7848   1.4010390433e+01   5.1547172842e+01     0.374809     0.287988 -54.05  0.001281556    1.594    0.373
        17 -11.6990     35.4545     18.1847   4.8313273110e+01   6.8278452823e+01    0.6581599     0.244964 -37.99   0.00259323    2.304    0.566
        18 -10.8703     68.0996     19.4024   3.4852901439e+01   6.3581919459e+01    0.3661136    0.3347217 -28.86  0.002355915    1.273    0.215
        19 -12.1797    165.0351     17.9421   9.0008765479e+00   4.1499341658e+01    0.6341296    0.3158281  40.69  0.002512312    2.163    0.538
        20 -11.6643    238.7220     16.5829   3.5943333689e+02   2.2409966250e+01    0.4412897    0.2483712  57.13  0.001872545    1.832    0.454
        21 -11.1929    184.9498      6.6405   2.4290004941e+00   3.7296982890e+01    0.4630756    0.2942453 -41.72  0.001860675    1.626    0.385
        22 -10.4407    186.8750     15.0205   4.7893814740e+00   3.5935972908e+01    0.2995727     0.219089  48.23 0.0003573819    1.357    0.263
        23 -10.7872    188.1907      2.2947   6.9595793878e-01   3.6835539489e+01    0.5103097    0.2834338 -61.74  0.002095065    2.126    0.530
        24 -10.1275    191.4892     13.9910   3.8659207192e+00   3.4807439493e+01    0.2919728    0.1542445 -46.44 0.0009324603    2.001    0.500
        25 -11.5713    192.5514      8.4446   2.0492275172e+00   3.5087257536e+01    0.8416597      0.46328  28.22  0.003444237    2.502    0.600
        26 -11.5264    219.3268     13.1157   4.1410382534e-01   2.7602993376e+01     0.724985    0.1830555  65.82  0.002407656    3.391    0.705
        27 -11.5674    228.6851     15.9531   2.3137497865e-01   2.4940479521e+01    0.4086775    0.2432101  57.99 0.0003564258    1.689    0.408
        28 -10.8567    225.6922     13.6932   3.5992838435e+02   2.5931228078e+01    0.2785657     0.226316  -7.09 0.0004977404    1.428    0.300
        29 -10.1937    147.9177     16.2159   1.1410868937e+01   4.6233447937e+01    0.4553968    0.2047028  42.98   0.00156776    2.233    0.552
        30 -11.1138     85.7419     14.3775   2.6247151533e+01   6.1059002088e+01    0.4487332    0.2803433  -6.02  0.001965209    1.756    0.431
        31  -9.8677    120.4633     17.0864   1.7625896619e+01   5.3067806960e+01    0.5075985    0.1850637 -18.01  0.001678764    3.478    0.713
        32 -12.2689     48.8057     12.9644   3.9755161306e+01   6.7487222403e+01    0.5292744    0.3108467  40.88  0.002924919    2.001    0.500
        33 -11.5931    206.7035      2.7715   3.5882983384e+02   3.1897937223e+01    0.6651751    0.3170714  84.23  0.002734408    2.271    0.560
        34 -11.5349    223.6481      2.7523   3.5722097046e+02   2.7557816211e+01    0.5545502    0.2932844  83.42 0.0003686415    1.926    0.481
        35 -11.9504    212.1060      9.5161   1.6940228141e-01   2.9831853760e+01    0.6941034    0.4257631   4.81  0.002970902    2.315    0.568
        36 -10.8170    218.5631      3.8270   3.5797033737e+02   2.8739453294e+01    0.3068024    0.2967221  84.45 0.0009253537    1.093    0.085
        37  -9.2623     98.6621     11.5166   2.0976223889e+01   5.8718578482e+01    0.2381261    0.1224062 -24.92  0.001044738    1.926    0.481
        38  -9.4527     65.8058     10.5811   3.1522457121e+01   6.5221949004e+01     0.212552    0.1559886  53.23 0.0008313165    1.795    0.443
        39 -10.4096    168.6515      9.7300   5.6546586341e+00   4.1381766286e+01     0.555162    0.1905612  54.74   0.00200149    2.472    0.595
        40 -10.4022    164.0287      6.7300   5.3286880108e+00   4.2912658146e+01    0.6364213    0.2867389  -4.00  0.002249341    3.290    0.696
        41  -9.6894    145.1515      9.9831   9.6225402011e+00   4.7606798250e+01    0.2641263    0.1841001  20.99 0.0008506986    1.583    0.368
        42 -10.3000      1.1683      7.3402   6.1556250124e+01   7.2951080567e+01    0.3322237   0.05888988 -53.38  0.001379919    3.284    0.695
        43 -10.8998      2.1574      2.1513   5.8828431625e+01   7.3817924641e+01    0.3251223     0.180037 -16.46  0.002071306    1.822    0.451
        44  -9.4628    245.7911      1.3354   3.5506236303e+02   2.2308309950e+01     0.187032    0.1192035  79.91   0.00030058    1.538    0.350
        45 -11.4615    242.8663      3.9795   3.5592949147e+02   2.2735960518e+01    0.4533986    0.2442669 -72.79  0.001683721    2.038    0.509
        46 -11.2171    232.0077      6.6968   3.5751138135e+02   2.5087685317e+01    0.3499545     0.243551 -64.77  0.001307505    1.405    0.288
        47 -11.7082    233.3602      2.4860   3.5632138486e+02   2.5175757452e+01    0.4803675     0.257841 -60.27 8.353792e-05    1.918    0.479
        48  -9.1027    153.1161      7.2889   7.2473486548e+00   4.5771365912e+01    0.4158293    0.1444294  46.65  0.001141745    2.719    0.632
        49 -10.6894    157.4200      4.1784   5.4509231280e+00   4.4915668693e+01     0.414637    0.2472505 -18.54   0.00178481    1.822    0.451
        50 -10.5025    122.0564      5.5834   1.2517056056e+01   5.3903125540e+01    0.2595188    0.1774006 -15.14 0.0009957771    1.525    0.344
        51  -8.6838     89.3227      7.3095   2.1797860608e+01   6.1182586970e+01    0.1441859   0.09057109  21.19 0.0007036709    1.649    0.394
        52  -9.5849     77.8893      7.3547   2.5523377623e+01   6.3455089875e+01     0.187047    0.1761637  -8.88 0.0006726955    1.246    0.197
        53 -10.4499     74.1882      3.2320   2.4740570183e+01   6.4635732433e+01    0.5050045    0.2374563  43.60  0.002411561    1.995    0.499
        54 -10.1111     62.9974      6.5779   3.0602155261e+01   6.6221846553e+01    0.2467485    0.1670092 -18.80  0.001195093    1.324    0.245
        55 -11.6314    133.4542      2.5448   8.9599842770e+00   5.1328904981e+01    0.5565164    0.3275734  68.28   0.00258064    1.689    0.408
        56 -10.3670    141.5170      3.6874   7.9152550174e+00   4.9150818268e+01    0.3106977    0.2524337  42.21  0.001538022    1.133    0.117
        57 -10.6556    113.2790      2.7700   1.3306771960e+01   5.6291169239e+01    0.4562245    0.3339447  80.19   0.00176665    1.718    0.418
        58 -10.1072     41.5303      3.7926   3.8422901292e+01   6.9818504986e+01    0.3011601    0.1884597  -8.13     0.001281    1.607    0.378
        59  -9.6608     29.5356      2.1355   4.3491184479e+01   7.1517208914e+01    0.2026893   0.09749643 -41.31 0.0005763377    1.877    0.467
        60 -10.1111     13.4102      2.4260   5.2431618086e+01   7.3003031669e+01    0.2165966    0.1858115  -2.57 0.0009804742    1.303    0.233
        61  -8.9714     52.4791      1.9695   3.2500424191e+01   6.8501466434e+01    0.1501343   0.09902529 -47.56  0.000395168    2.220    0.550
        62 -10.0025    152.5750      1.4353   5.2316296311e+00   4.6445930909e+01    0.2760683    0.1318071  68.44 0.0006491026    1.957    0.489
        63 -10.8104    177.3490      5.9539   3.1919662205e+00   3.9404758412e+01    0.3510675    0.2135397  80.85 0.0005822555    1.692    0.409
        64  -8.8767     33.5252      1.5051   4.1109585781e+01   7.1151636926e+01    0.1208111   0.09208924 -14.44 0.0008100874    1.015    0.014
        65 -10.3568    105.3853      1.8790   1.4820690296e+01   5.8221435596e+01    0.3539943    0.2446785  76.37  0.001357157    1.875    0.467
        66  -9.2567     81.0689      1.0000   2.1310235073e+01   6.3544597565e+01    0.2027331   0.06989215  53.25 0.0006131363    2.853    0.650
        67  -9.5054     56.2896    121.9833   6.8229865751e+01   4.3883268414e+01    0.1811094    0.1482904 -76.28 0.0004598908    1.066    0.062
        68 -10.5532     44.2093    117.8702   7.0859229248e+01   4.6162361350e+01    0.4814937    0.2447673 -78.37  0.002360624    1.964    0.491
        69  -8.9573     58.4532    118.5097   6.7088845607e+01   4.4415210374e+01    0.1291964    0.1127132 -73.09 0.0001430661    1.043    0.041
        70 -10.1610     36.8022    117.0805   7.2746752206e+01   4.7081154524e+01    0.3158199    0.2073217 -21.58  0.001697609    2.479    0.597
        71 -10.8248     15.8688    109.3106   7.7428274303e+01   5.0577799333e+01     0.371354    0.2646892 -58.09   0.00248498    1.324    0.245
        72 -10.0571     36.1339    102.7653   7.0841172461e+01   5.0395421530e+01    0.5097101    0.2969742  -0.04  0.002478319    3.062    0.673
        73 -10.7639      7.4026    115.4895   8.0306305476e+01   4.9792428293e+01    0.4002483    0.2422329 -47.80  0.001655264    1.847    0.459
        74 -12.1914      2.4807    111.9736   8.1244301943e+01   5.0870333916e+01    0.3939973    0.2225257 -75.42  0.001101477    1.348    0.258
        75 -11.2473      4.7172    105.2404   8.0004665282e+01   5.2212414234e+01    0.3421893     0.306076  47.33  0.002686184    1.366    0.268
        76 -11.6403     24.9618    108.0701   7.4781222459e+01   5.0161896327e+01    0.6642244    0.3480642 -41.22  0.003469961    2.367    0.577
        77 -11.6401     21.8810    114.4800   7.6414049269e+01   4.8969839583e+01    0.5922617    0.3238289  10.77  0.002923928    2.878    0.653
        78 -11.1636     28.3222    113.1446   7.4517275491e+01   4.8738632455e+01     0.347073    0.2840087  14.06  0.001480223    1.624    0.384
        79  -9.5630     79.3384    114.7896   6.0668868283e+01   4.2469470801e+01    0.2515605    0.1610438 -51.44  0.001273204    1.500    0.333
        80  -9.3118     67.5497    114.7978   6.3940807224e+01   4.4112454361e+01    0.1878701    0.1178777 -77.28 0.0009318831    1.697    0.411
        81  -9.1414     57.7516    114.1218   6.6547342435e+01   4.5501626265e+01    0.2597803    0.1399034 -87.25  0.001122574    2.547    0.607
        82  -9.4117    104.6772    112.9500   5.3333801203e+01   3.8752709995e+01    0.1978751    0.1797549 -73.94 0.0004465875    1.090    0.082
        83  -8.8768     86.2997    113.6602   5.8514836202e+01   4.1671237263e+01    0.1427873     0.104207  82.35 0.0007035612    1.666    0.400
        84  -9.8975     48.9447    112.1644   6.8681156117e+01   4.6957582064e+01    0.2282599    0.1968843  52.03  0.001227501    1.260    0.206
        85  -9.9998    102.6528    108.9200   5.2959664379e+01   4.0005764102e+01    0.5092573    0.2823471  19.57  0.001792173    3.518    0.716
        86 -11.6444     79.9928    108.2733   5.9158862187e+01   4.3853664770e+01    0.4738644    0.3217811  39.07 0.0007847253    1.572    0.364
        87  -8.7215     60.7038    110.7234   6.5121922877e+01   4.5919674301e+01    0.1244313   0.09551553 -36.47 0.0002270796    1.530    0.347
        88  -9.0430    120.2888    109.3424   4.8314561096e+01   3.6598252473e+01     0.148931    0.1182036 -10.89 0.0007022996    1.648    0.393
        89  -8.8452    142.6682    105.3475   4.1578865277e+01   3.2738848640e+01    0.1593883    0.1231642 -86.16 0.0007049182    1.766    0.434
        90 -10.1306     89.0742    104.7929   5.5810809633e+01   4.3232025208e+01    0.4100416    0.2174506  32.77 0.0007010823    2.177    0.541
        91  -9.9783     85.5686    103.5018   5.6522953948e+01   4.4081433228e+01    0.2428522    0.1971301 -54.98  0.000610745    1.154    0.133
        92  -9.6606     46.0132    104.3331   6.8221345973e+01   4.9061630483e+01    0.5119471    0.1162428 -49.68  0.001641231    4.484    0.777
        93 -11.0049     52.1038     99.3567   6.5529661275e+01   4.9538289982e+01    0.6032094    0.2356022 -47.83 0.0009996428    2.537    0.606
        94  -8.9572    182.5301    104.5251   3.2258490780e+01   2.3658461494e+01    0.1530984    0.1493849  20.03 7.250058e-05    1.030    0.029
        95 -10.4789     35.2350     92.0838   6.9343209213e+01   5.2908077524e+01    0.4382307    0.3553102 -26.76  0.002841599    1.483    0.325
        96 -11.6696      7.3718     88.4715   7.7329713279e+01   5.5765757204e+01    0.4598856     0.391841  26.97  0.002598185    1.502    0.334
        97 -12.3567     17.4587    100.7008   7.5939733129e+01   5.2389173494e+01    0.2842623    0.2697424 -45.48 0.0004864465    1.289    0.224
        98 -11.8994      9.5654     96.9966   7.7741675747e+01   5.3741611471e+01     0.426339    0.4117996  -9.14 0.0007753923    1.360    0.264
        99 -11.9920     20.6616     92.6508   7.3891480925e+01   5.3967193852e+01    0.7893461    0.4312732  73.03  0.002496348    2.335    0.572
       100 -11.1064     27.0897     86.2779   7.0890928363e+01   5.4914024198e+01    0.5191258    0.4394351  35.97  0.002434138    1.420    0.296
       101 -11.7743     68.1925     96.0241   5.9991934132e+01   4.8313128288e+01    0.5874839    0.4546222 -10.54  0.002752676    1.739    0.425
       102 -10.8992     90.0541     87.8379   5.1362538726e+01   4.6845823265e+01    0.7883077    0.3874143 -40.69  0.003243032    2.129    0.530
       103 -11.0899     76.3586     79.9405   5.3522181800e+01   5.0754468528e+01    0.9833144      0.70193  89.33  0.004740292    2.083    0.520
       104 -10.2532     77.9628     96.7297   5.7208161946e+01   4.6771832762e+01    0.3126968    0.2305411  58.80  0.001026115    1.560    0.359
       105 -11.3038     79.5733     92.6340   5.5754635350e+01   4.7452547744e+01    0.6962988    0.5780857  87.20  0.003232622    1.382    0.276
       106  -8.7505    120.3328    101.3078   4.6276182742e+01   3.8309109619e+01    0.1514565    0.1197057  -1.23  0.000301235    1.668    0.401
       107  -8.8750     28.2803    100.3330   7.2760485767e+01   5.1638112849e+01    0.1233183   0.07653201 -48.11 0.0005339464    1.610    0.379
       108  -8.7047    210.3229     98.2767   2.5189834825e+01   1.8100498674e+01    0.1544107    0.1127906  19.99 0.0003414927    1.582    0.368
       109 -10.0104     30.7374     96.4100   7.1432814435e+01   5.2320659718e+01    0.4184086     0.214096  62.76  0.001990006    2.688    0.628
       110 -10.7329     43.0596     93.5982   6.7200595270e+01   5.1816928415e+01    0.4373646    0.2866742 -68.55  0.002496776    1.331    0.249
       111 -10.5409    125.8313     94.7879   4.3065683200e+01   3.8549466630e+01    0.2625392    0.2506643 -49.69 0.0002414244    1.048    0.046
       112 -10.7615    121.6745     93.5309   4.3836436915e+01   3.9678883373e+01    0.7299211    0.2406622 -51.44  0.002164001    3.679    0.728
       113 -11.3634     98.4366     91.0193   4.9711004897e+01   4.4699459223e+01    0.2801872    0.2398374  46.77 4.583987e-05    1.228    0.185
       114 -10.2809     49.8455     91.6418   6.4717827670e+01   5.1550236955e+01    0.2923186    0.2487587  35.12  0.001257771    1.355    0.262
       115  -9.7966     66.4621     88.6368   5.8852321393e+01   5.0217581212e+01    0.3207278    0.2145482 -15.41  0.001442349    2.286    0.563
       116  -9.4199    111.6925     88.4033   4.5176580022e+01   4.2772998803e+01    0.2281245    0.1809267  84.24  0.001096187    1.658    0.397
       117 -10.4308    103.9432     86.7100   4.6929295477e+01   4.4622603745e+01    0.2863114    0.2017327 -50.20 0.0006550432    1.382    0.277
       118  -9.7046     51.9931     87.0268   6.3080521275e+01   5.2359957438e+01    0.1937732    0.1622873 -60.60 -0.005334738    1.031    0.030
       119 -11.5387     44.2915     84.8070   6.5091446353e+01   5.3689086236e+01    0.5129804    0.4019429  22.32  0.002399304    1.537    0.349
       120 -10.0189     37.2505     86.1992   6.7636077124e+01   5.4058567087e+01    0.2497558    0.1526156  40.73 0.0009131539    1.883    0.469
       121 -11.0656    143.2154     84.5488   3.5650865788e+01   3.6750594133e+01     0.270799    0.2553887 -31.10 0.0002980966    1.061    0.058
       122  -9.0783    133.8045     85.1924   3.8237118091e+01   3.8771230842e+01    0.2513093    0.1696435 -84.61 0.0009311835    2.746    0.636
       123 -11.0064    112.2931     82.9710   4.3452994938e+01   4.3792064506e+01    0.5724023    0.2955459  57.24  0.002052497    2.608    0.617
       124 -10.0919     66.7713     81.7733   5.7091412235e+01   5.1714175880e+01    0.3242062    0.2650855  -9.90  0.001721456    1.473    0.321
       125  -9.5580     46.9794     74.5716   6.1931304881e+01   5.5706064847e+01    0.4224292    0.1720847 -58.13  0.001371502    2.064    0.516
       126 -11.2535     53.3876     76.0170   6.0097146353e+01   5.4672724258e+01     0.610051    0.3177854 -63.09  0.002909337    1.849    0.459
       127 -10.9405     58.0300     77.8099   5.8978085207e+01   5.3721099009e+01    0.4163913    0.2529517 -71.83  0.001263478    1.923    0.480
       128  -8.9516    119.6172     80.3068   4.0601595721e+01   4.2834288369e+01    0.1558473     0.121473  89.44 0.0002183992    1.794    0.442
       129  -9.5009    103.0309     79.5443   4.5145403622e+01   4.6310557323e+01    0.2842305    0.1913377 -31.77 0.0007329144    1.599    0.375
       130 -10.3228     89.2732     77.8764   4.8854042097e+01   4.9136126687e+01    0.6096277    0.2993574  46.39  0.002545555    2.275    0.560
       131  -9.7455     94.5740     76.2654   4.6737819204e+01   4.8554151252e+01    0.3740302    0.2528839  43.12  0.001825722    1.571    0.363
       132  -9.6231     92.9973     72.5104   4.6100655199e+01   4.9620672754e+01    0.3023513    0.2386108  88.63 0.0009918044    1.785    0.440
       133 -11.2493     14.2522     74.6848   7.3114454677e+01   5.8415783903e+01    0.3830285    0.2249705 -73.32  0.002162733    1.425    0.298
       134  -8.9061    182.0245     76.2339   2.4469311900e+01   2.8718004048e+01    0.1983208    0.1292012  53.68  0.000320523    1.520    0.342
       135  -9.2392    112.7429     75.3882   4.1050071866e+01   4.5253831833e+01    0.2099871      0.14079  34.91  0.000951666    1.603    0.376
       136  -9.7151    103.3431     74.8793   4.3654326564e+01   4.7219028087e+01    0.2608848    0.2009176  54.17  0.001308764    1.452    0.311
       137  -9.5960     24.9979     74.1013   6.9370714279e+01   5.7805926078e+01    0.2931052    0.1290917 -57.15 0.0009472257    1.741    0.426
       138 -10.0090     81.2621     72.6806   4.9898379792e+01   5.1565148511e+01    0.4988348    0.2729983 -31.44  0.001937736    2.258    0.557
       139  -8.8703     78.4221     67.8342   4.9387446395e+01   5.3039213935e+01    0.8753144    0.3160751  46.39  0.003112631    3.471    0.712
       140  -9.3506     66.0442     74.5181   5.5446164191e+01   5.3413994287e+01    0.1875198    0.1346447  34.72  0.000466451    1.554    0.357
       141 -11.0352      2.1093     71.6165   7.6696224490e+01   5.9756733051e+01    0.5546644     0.182729 -72.49  0.002605119    2.375    0.579
       142  -9.6922    187.0791     72.3787   2.2351144331e+01   2.8066764559e+01    0.3190995    0.2222827 -26.93  0.001433808    1.471    0.320
       143 -11.2508     35.3825     71.8877   6.5326345448e+01   5.7440044787e+01    0.4452148    0.2268846  29.32 0.0009463632    2.294    0.564
       144  -9.8696     41.2052     72.8244   6.3513225804e+01   5.6684901654e+01    0.2755343    0.2022366 -23.70  0.001074253    1.587    0.370
       145 -10.8497     40.0522     69.0898   6.3042558187e+01   5.7623294192e+01    0.2450475    0.2297781 -23.56  0.001016857    1.182    0.154
       146  -9.5433    154.1816     72.4423   2.9330995079e+01   3.6373461291e+01    0.2977407    0.1455523  47.65  0.000986731    2.001    0.500
       147 -12.6430      6.5154     61.4352   7.3519746477e+01   6.1759084407e+01    0.6863625    0.4107366 -37.34  0.003619101    1.692    0.409
       148 -10.9347    122.8824     68.7951   3.6108183676e+01   4.4395339794e+01    0.5274166    0.2858768  42.85  0.001969279    1.877    0.467
       149  -9.7426     13.5169     67.5611   7.2124333613e+01   6.0032496105e+01    0.3963462    0.2171016   1.78  0.002215523    2.595    0.615
       150  -9.5625    217.9263     66.4790   1.5351155029e+01   2.1174444494e+01    0.2230347    0.1471595  59.67 0.0005339339    1.561    0.360
       151 -10.4435     96.3053     65.2840   4.2790405493e+01   5.0494103842e+01    0.2565202    0.2518854 -31.31  0.001093188    1.085    0.079
       152 -10.8598     92.2866     62.7244   4.3227307187e+01   5.1741662414e+01    0.4815988    0.3043867  50.80  0.002253708    1.838    0.456
       153 -10.3652    201.5350     64.9175   1.7570344171e+01   2.5536157467e+01    0.2838736    0.2202685  60.17 0.0004903727    1.309    0.236
       154  -9.3017    192.5365     65.4769   1.9309525263e+01   2.7761553439e+01    0.1524366    0.1498052  13.33 5.475513e-05    1.005    0.005
       155  -9.1145     51.9636     65.5817   5.7901430535e+01   5.7126528441e+01    0.1727594     0.128887  24.74  0.000634813    1.549    0.354
       156 -10.2413    101.4672     55.9606   3.8033366214e+01   5.1307175870e+01    0.2382348    0.1859585 -74.26 0.0007774233    1.847    0.459
       157 -10.2187    106.2698     58.4160   3.7422259728e+01   4.9883161555e+01    0.3160083    0.2311563  84.81   0.00130007    2.308    0.567
       158 -10.0143    158.5891     62.9578   2.5338104137e+01   3.6910540756e+01    0.4572963    0.1866434  45.33  0.001138425    2.482    0.597
       159  -9.6142     84.2274     61.8433   4.5568224139e+01   5.3327607439e+01    0.3183442    0.1578305 -47.98  0.001360749    1.927    0.481
       160  -9.6655     57.9894     61.7926   5.4664979232e+01   5.7209707759e+01    0.2811277    0.1811023 -64.52  0.001437338    1.727    0.421
       161 -10.1660     63.5604     61.1723   5.2482464994e+01   5.6611395777e+01    0.4098018    0.3055096  -0.88  0.002247514    1.642    0.391
       162  -9.4552     50.9730     56.7309   5.5741142877e+01   5.9127940377e+01    0.3306563    0.2285792 -44.44  0.001028011    1.232    0.188
       163 -10.9078     40.2744     56.8573   5.9818485304e+01   6.0253247443e+01     0.329725    0.1873048  30.51 0.0009130047    2.045    0.511
       164 -10.4214     51.2868     61.4260   5.6991944076e+01   5.8097805869e+01    0.3015217    0.2242017  42.38  0.001204977    1.602    0.376
       165 -11.3496     43.1239     61.2399   5.9943681888e+01   5.9027922931e+01    0.3712385     0.199682 -56.21   0.00111882    1.575    0.365
       166 -10.7585     46.4659     59.4969   5.8225214164e+01   5.9048945038e+01    0.2780541    0.2245884 -66.12 0.0009742647    1.280    0.219
       167  -9.8689    234.5022     62.4641   1.1864212775e+01   1.7716954068e+01    0.1428625    0.1348945 -36.57  8.61068e-05    1.014    0.014
       168  -9.6569    113.8606     61.0541   3.6087606794e+01   4.7809019164e+01    0.3131135    0.1905743 -41.97  0.001289655    1.624    0.384
       169 -10.2087    124.7669     56.5012   3.1475844116e+01   4.6227129482e+01    0.2791741    0.2574038 -23.95 0.0005185967    1.069    0.064
       170 -11.3115    117.6816     55.8550   3.3206305559e+01   4.7931030871e+01     0.970303    0.6379954 -79.58  0.003513675    3.326    0.699
       171 -10.2366    112.5193     42.5205   2.9822833173e+01   5.1343696328e+01    0.3540441    0.2534661  61.41 0.0007055071    1.657    0.396
       172 -10.7238    109.5870     39.8684   2.9655745642e+01   5.2413198290e+01    0.5651436    0.3425025 -14.63  0.001870586    2.021    0.505
       173 -10.5207    112.2107     50.8192   3.2980975288e+01   5.0012246602e+01    0.3480514    0.2882382  -1.99 0.0009602518    1.270    0.212
       174 -11.7239    117.3470     45.1558   2.9447379564e+01   4.9838618741e+01    0.7573347    0.4907327 -28.18  0.002670996    1.552    0.356
       175  -9.1479    213.4987    248.5313   5.4168444807e+01  -3.4988517981e+00    0.1137893   0.08080724  30.45 1.611114e-06    1.004    0.004
       176 -11.0200     31.4976     53.0817   6.2176702431e+01   6.1867627538e+01     0.484657    0.2811857   3.07  0.002215427    2.381    0.580
       177  -9.7982     29.4472     59.7724   6.4673113993e+01   6.0606569318e+01    0.3327595    0.1817608 -67.22  0.001768474    1.724    0.420
       178 -11.2132     24.9294     57.1028   6.5742074755e+01   6.1539083953e+01    0.4899085    0.4120143 -57.33  0.001954927    1.070    0.065
       179  99.0000     82.3146     47.8474   4.1373972812e+01   5.6373329307e+01     2.100373    0.6606621 -31.56  0.005125541    6.565    0.848
       180 -12.3458     76.3265     53.3181   4.5402837307e+01   5.6322393946e+01    0.4835514    0.3808478 -20.60 0.0007285525    1.271    0.213
       181 -12.4368     72.8380     47.4929   4.4586714909e+01   5.8001516344e+01    0.4017194    0.2631547 -53.20  0.001389661    1.671    0.402
       182  -9.0880    135.5491     59.2876   2.9603478536e+01   4.3222385881e+01    0.2119642    0.1482494 -18.76 0.0009365799    1.605    0.377
       183 -10.5708     88.2891     55.4011   4.2052501923e+01   5.3894363885e+01    0.7107907    0.2134271 -35.36  0.002034871    4.413    0.773
       184  -9.3608     91.7904     57.5663   4.1653896774e+01   5.2844508005e+01    0.2468882    0.1376586  53.73 0.0008814099    2.304    0.566
       185 -10.2506    157.7726     54.5421   2.2786320285e+01   3.8490567758e+01    0.4312688    0.3422766 -82.67  0.001705727    1.603    0.376
       186  -9.7381    154.3897     51.3644   2.2469450515e+01   3.9858119390e+01    0.4037406    0.2164252 -15.77  0.001342144    2.528    0.604
       187  -8.9873     33.9926     57.0000   6.2252025122e+01   6.0814267438e+01     0.177181   0.07162626  24.86 0.0008057506    2.965    0.663
       188  -9.6457     66.8003     54.5252   4.9205515978e+01   5.7527129172e+01     0.310098    0.1786999 -63.14  0.001364436    2.389    0.581
       189  -9.4953    247.3173     54.3382   8.1280223103e+00   1.5810972556e+01    0.1420852    0.1046608  19.82  0.000704871    1.704    0.413
       190  -9.4747    140.0176     54.4786   2.6856671665e+01   4.2960537466e+01    0.2301577    0.1494122  51.79  0.000398184    1.519    0.341
       191 -11.0555     61.1240     48.0634   4.9117931508e+01   5.9611417263e+01    0.8235201    0.3242998 -41.15  0.003423167    2.309    0.567
       192  -9.7635     55.6298     50.4512   5.2009823781e+01   5.9857368325e+01    0.1745117     0.125196  11.12  0.000387374    1.640    0.390
       193 -10.2108     52.0284     48.2199   5.2659349629e+01   6.0753356842e+01    0.2590517    0.2392912  13.17 0.0006402673    1.218    0.179
       194 -10.6781     46.8401     48.8145   5.4881225973e+01   6.1238291942e+01    0.4618117    0.2385211 -37.55  0.002282091    1.826    0.452
       195 -12.0895     43.4001     44.1941   5.4753160678e+01   6.2552183527e+01    0.5313723    0.4733291  15.52  0.001158424    1.279    0.218
       196 -10.1360    106.1931     63.3852   3.9129725629e+01   4.8953361669e+01    0.5480678    0.3521514   5.53  0.001996365    2.613    0.617
       197  -9.0651     97.4641     50.4482   3.7318853307e+01   5.3109281853e+01    0.1452639    0.1316111  -7.67 0.0002378189    1.041    0.040
       198 -10.1059     11.8411     49.1373   6.8997823251e+01   6.4111231853e+01    0.5391392    0.1322811 -51.09  0.002348546    2.670    0.625
       199 -10.3561    240.0302     50.8052   8.1065209556e+00   1.7973386182e+01    0.2501852    0.1952829 -28.09 0.0006452407    1.224    0.183
       200 -10.1275    145.3700     49.7018   2.3941690345e+01   4.2407070315e+01    0.5184037    0.2785011  -9.15  0.001733983    3.146    0.682
       201  -9.5643    189.1793     49.3075   1.5055038875e+01   3.1047582363e+01    0.2386746    0.2022902 -12.29 0.0003489146    1.255    0.203
       202  -9.3147     34.3589     45.5052   5.8857727581e+01   6.3193173913e+01    0.2710646    0.1431194 -53.50   0.00143569    1.562    0.360
       203 -10.2777     22.7830     37.2260   6.1221823426e+01   6.5853348979e+01     0.402636    0.1888637  39.03  0.002059711    2.858    0.650
       204 -10.7598     27.8491     47.4644   6.2090718156e+01   6.3354395693e+01    0.8337806    0.2914226 -32.23  0.002812659    5.021    0.801
       205 -10.2228     26.3627     43.0263   6.1431696648e+01   6.4393242995e+01    0.2265932    0.2016005 -55.32 0.0009030828    1.177    0.150
       206  -9.6498      2.1573     48.8584   7.2794868398e+01   6.4662748247e+01    0.1942838    0.1495258 -60.50 0.0007047816    1.033    0.032
       207 -11.0728     20.4550     46.4047   6.4827592055e+01   6.4137275869e+01    0.4175981    0.2216311 -46.70  0.001943089    1.493    0.330
       208 -10.4839    199.8358     45.0760   1.2051587537e+01   2.8830672875e+01    0.5604126    0.2894171  79.14   0.00203895    2.661    0.624
       209 -10.1682    138.4646     44.6084   2.3787448800e+01   4.4921672645e+01     0.549084    0.2587448  33.77  0.001861311    2.883    0.653
       210  -8.7297    162.6255     44.3029   1.8375153596e+01   3.8782941684e+01    0.1615789    0.1190902 -71.78 0.0007029459    1.760    0.432
       211 -10.6718    155.9622     42.6581   1.9185431542e+01   4.0762237012e+01    0.3695297    0.3000554 -17.10  0.001057837    1.289    0.224
       212 -12.8436    152.8687     35.8578   1.7477367539e+01   4.2524071665e+01    0.3778333    0.3322518  39.71 0.0005165318    1.093    0.085
       213 -10.0991    169.2040     23.5916   1.0217040180e+01   3.9740884799e+01     0.438523    0.2151734  60.59  0.001687138    1.870    0.465
       214 -11.1424    160.0470     29.9365   1.4001279744e+01   4.1414790370e+01      0.45254    0.3284094 -24.17 0.0009269324    1.436    0.303
       215  -8.7294     34.6867    245.3130   8.3570321997e+01   2.2273415258e+01    0.1056356   0.04843836  63.17 0.0004852902    1.636    0.389
       216 -10.5336     32.6294     31.1828   5.4826996056e+01   6.6198531055e+01    0.2095578    0.1609288 -31.34 0.0002830302    1.085    0.078
       217 -11.8843     26.1027     28.9491   5.6982134879e+01   6.7215594280e+01    0.5104643    0.3659022 -22.96  0.002412851    1.313    0.238
       218 -11.6921    126.6929    241.7143   6.8144366705e+01   1.0763553337e+01    0.3237375    0.2198479  58.56  0.001763614    1.294    0.227
       219 -10.9341     67.8906    240.7729   7.8028958387e+01   1.9096579661e+01    0.2014216    0.1644101  43.66  0.001069507    1.446    0.308
       220 -11.3145      5.0162     35.8945   6.8674592113e+01   6.7231078947e+01    0.5760351    0.2822975 -58.99  0.003360267    1.507    0.337
       221 -10.4286     75.9929    239.6492   7.6607271283e+01   1.8235534874e+01    0.2704461    0.1579846  39.14  0.001802088    1.645    0.392
       222 -10.8482    146.8628    237.9084   6.4217172176e+01   8.1831317374e+00    0.3799006     0.205968  56.91  0.002157095    1.889    0.471
       223  -9.5641    167.3005    237.9863   6.0644175218e+01   4.9265215202e+00    0.1551426    0.1292717  38.58 0.0006697862    1.112    0.101
       224  -9.4645     15.5577    233.7551   8.5999307602e+01   2.6084782339e+01    0.1576281   0.07481993 -78.08  0.001110133    1.992    0.498
       225  -9.8773     56.7453     41.8316   4.8594529708e+01   6.1412565480e+01    0.2453736     0.206128  40.12 0.0008314918    1.435    0.303
       226  -9.3716     17.6889     41.4285   6.4645276069e+01   6.5360837405e+01    0.2214827   0.09581724 -46.04  0.001158404    1.798    0.444
       227  -8.8684     99.4997     41.5080   3.3326973334e+01   5.4267033675e+01    0.1423229    0.1339037 -12.29 0.0008096145    1.072    0.067
       228  -9.2632     90.9714     41.2954   3.5978984627e+01   5.5978358790e+01     0.192302    0.1732205  17.47 0.0004052134    1.097    0.088
       229 -10.1588    231.3069     39.0477   6.0744722722e+00   2.1587223641e+01    0.3479978    0.1878667 -24.97  0.001532654    1.866    0.464
       230 -11.3607     78.9332     35.8089   3.7926875509e+01   5.9108422834e+01    0.7355148    0.4818491 -41.85  0.003189682    1.511    0.338
       231  -9.4426    220.3026     39.0215   7.4293600856e+00   2.4337685446e+01      0.19995    0.1827822 -38.30 0.0004108399    1.070    0.066
       232  -9.5821    188.9420     38.2513   1.1701189338e+01   3.2624561779e+01    0.2685238    0.2150825 -25.67 0.0009315053    1.284    0.221
       233  -9.6518     60.0159     23.5112   3.9900866309e+01   6.4215781295e+01    0.2777751    0.1542443 -42.25   0.00105028    1.752    0.429
       234 -10.8363     61.4128     35.9241   4.4526443756e+01   6.1871652378e+01     0.486244    0.2627774 -26.87  0.001796684    2.024    0.506
       235  -9.1236     67.5516     32.2701   4.0678044456e+01   6.1595679638e+01    0.4542422    0.3240814  46.28  0.002513265    1.697    0.411
       236 -11.4144     57.4029     30.6682   4.4015154279e+01   6.3379627214e+01    0.4443887    0.3353367 -28.58  0.002100334    1.139    0.122
       237 -11.5588     48.9999     30.5829   4.7461399855e+01   6.4507526099e+01    0.6352075     0.299025  25.71  0.002992997    2.540    0.606
       238  -8.6918    206.4801     37.4635   8.8416398208e+00   2.8093892788e+01    0.1465602    0.1402459 -72.26 0.0001625411    1.030    0.029
       239  -9.2257    195.0005     37.5452   1.0541020787e+01   3.1105961168e+01    0.2163977    0.1437682  63.69 6.106383e-05    1.471    0.320
       240 -11.4273    175.9215     33.7111   1.2415786592e+01   3.6696198848e+01    0.6648188    0.4688769 -39.41  0.001647466    1.458    0.314
       241  -9.0006    189.9739    229.5307   5.5541533927e+01   2.3121572013e+00    0.1634576   0.08201601  26.32 0.0007604293    2.256    0.557
       242  -8.6683     94.6152     36.2709   3.2812275679e+01   5.6110476231e+01    0.1343136    0.1146599 -85.75 0.0006992837    1.706    0.414
       243  -8.8193    214.0168     34.9966   7.1176048309e+00   2.6449999316e+01    0.1707644     0.164129 -84.37  0.000345655    1.018    0.018
       244  -8.6524    181.3229    228.3143   5.6900684580e+01   3.8834953736e+00    0.1199147   0.07941082  20.30 0.0004515249    1.660    0.398
       245  -8.7800     75.6718    224.3066   7.5483353414e+01   2.0756250947e+01    0.1179924   0.06349749  63.84 0.0004425106    1.655    0.396
       246 -11.2695    106.3714     32.8304   2.7823825779e+01   5.4203205285e+01     0.394882    0.2753352   5.10  0.001144806    1.685    0.406
       247 -10.0911     10.0000    217.9585   8.6225731407e+01   2.9247684715e+01    0.1479409   0.04493252 -80.39  0.000798032    2.912    0.657
       248 -10.5525    240.5991     32.0188   3.1925325580e+00   2.0192529697e+01    0.2932554    0.2409584  53.71  0.001381698    1.307    0.235
       249 -11.3127    189.1654     27.7159   8.4092637158e+00   3.3888825502e+01    0.5832791    0.4358884  30.20  0.002848454    1.510    0.338
       250 -11.0758    183.1735     25.2673   8.5388590002e+00   3.5787539268e+01    0.4756925    0.3607437  32.98  0.001908396    1.437    0.304
       251  -8.9213     44.6814    215.3201   8.0266798696e+01   2.6120331710e+01    0.1153387   0.05803361  65.09 0.0007042441    1.664    0.399
       252  -9.4283    139.7113     32.5877   1.9141656749e+01   4.6350392332e+01    0.3210469    0.1254303  52.07  0.001152784    2.323    0.570
       253 -11.9120    126.1071     28.2545   2.0702061441e+01   5.0305778127e+01    0.5423207    0.4326944  62.17  0.001957891    1.333    0.250
       254  -8.7622    221.6624     29.6926   4.6919635174e+00   2.5142460799e+01    0.1471514    0.1049118  33.46 0.0007042225    1.679    0.404
       255  -9.6813    196.9730     29.2450   7.7497630335e+00   3.1621692653e+01    0.2107541    0.1902367  71.90 0.0005995712    1.076    0.071
       256 -11.1227    201.0284     25.9276   6.2055407125e+00   3.0941642604e+01    0.5052318    0.3327639  14.03  0.002236496    2.063    0.515
       257  -9.5646    150.4923     27.5113   1.5005097651e+01   4.4237016741e+01    0.3775407    0.1595783  53.46  0.001170805    2.122    0.529
       258 -10.8876    144.0641     25.3152   1.5520296423e+01   4.6179983223e+01    0.4801889    0.3301576  87.28  0.002134174    1.938    0.484
       259 -10.7261    147.7252     22.2991   1.3672287177e+01   4.5593819485e+01    0.4845279    0.2274968  48.25  0.001876721    1.973    0.493
       260  -9.7916     97.9905     26.2695   2.7629710711e+01   5.6951034210e+01    0.2557451    0.2111647  28.24 0.0009701573    1.149    0.129
       261 -10.1758    230.8324     27.3305   3.0167202774e+00   2.3124872579e+01    0.3746152     0.230281 -83.35  0.001726679    1.932    0.482
       262 -10.4646    154.6264     23.3509   1.2719535766e+01   4.3656890484e+01    0.4782171     0.388018 -28.49  0.002474045    1.286    0.223
       263  -9.8026    213.0471     24.1211   4.1665930596e+00   2.8004346018e+01    0.2258583    0.1946291  39.35  0.001240236    1.261    0.207
       264  -9.3864    164.3451    211.8889   5.7688703724e+01   8.9934301152e+00    0.1649444    0.1423866  36.99 0.0005006812    1.081    0.075
       265 -10.2016      8.9963    211.2807   8.6106845851e+01   3.0495726636e+01    0.1449467   0.09910062  64.45  0.001174078    1.097    0.088
       266 -10.4027    127.0543     16.7429   1.5939252151e+01   5.1499782149e+01    0.3073325    0.2188776  39.48 0.0006142118    1.317    0.241
       267  -9.4035    152.5190    207.0156   5.9239039937e+01   1.1767588191e+01    0.1619703    0.1083146 -84.96  0.000810378    2.609    0.617
       268  -9.4450     90.9627     23.2344   2.8533940904e+01   5.8822388628e+01      0.19613    0.1728719  23.28  0.001152502    1.094    0.086
       269 -10.1581     38.6866     22.2982   4.8585589511e+01   6.7206747480e+01     0.222649    0.1693067 -29.65 0.0005899639    1.060    0.057
       270  -9.7258     17.0040    206.1470   8.4524126548e+01   3.0654375433e+01    0.2418307   0.08497711  72.03  0.001232669    2.839    0.648
       271  -9.4475    223.6078     22.2645   2.4462316444e+00   2.5514644794e+01      0.24646    0.1620589  87.64 0.0005540524    1.633    0.388
       272 -10.9470    178.8518     20.7203   7.7399242166e+00   3.7473688522e+01    0.5467891    0.2739858  39.41  0.002096817    2.298    0.565
       273  -9.6910      5.0160     21.9124   6.4687150799e+01   7.0018693324e+01    0.1623999    0.1474327  45.31 0.0007028695    1.542    0.352
       274  -9.3668     61.3465    206.5564   7.6634677363e+01   2.5695095912e+01    0.1360303    0.0971692  41.27 0.0009272653    1.450    0.310
       275 -10.2867    246.7226     19.2549   3.5937229067e+02   2.0209506410e+01    0.2592562    0.1610154   4.96  0.001178863    2.468    0.595
       276  -9.6257    216.1681     19.7419   2.5778104639e+00   2.7694334281e+01    0.2966456    0.1544354 -48.27  0.001280231    1.953    0.488
       277 -11.4112      5.3187    201.4267   8.6295085442e+01   3.2575448050e+01    0.5718325     0.106075 -67.69   0.00255069    4.523    0.779
       278  -9.7242     74.5380     19.7565   3.2608472621e+01   6.2424335298e+01    0.2296555    0.1619655  -8.52 0.0006599705    1.407    0.289
       279  -9.8706     46.4600     20.0428   4.4099637706e+01   6.6664607479e+01    0.2072823    0.1776593  45.76  0.001346673    1.622    0.383
       280  -9.7343     78.3438    203.8303   7.3197429064e+01   2.3968612532e+01    0.1969644    0.1247109  54.88 0.0004530143    1.285    0.222
       281  -9.4382     21.6738    200.9854   8.3441834548e+01   3.1136686507e+01    0.1444233    0.0984645  79.88 0.0001264693    1.120    0.108
       282  -9.7137      1.4154    199.7903   8.6887020762e+01   3.3207874692e+01    0.1321597   0.07322478 -76.20 0.0009465149    1.656    0.396
       283  -9.3015    191.0067     17.9999   5.1555015727e+00   3.4508129733e+01    0.2194213    0.1958153  42.18 0.0004718752    1.156    0.135
       284  -9.2112     15.7910    189.7952   8.3878143589e+01   3.3778639778e+01    0.1583162   0.09016503  68.94  0.001082116    1.374    0.272
       285 -12.5316      4.5555    183.5394   8.5599092682e+01   3.5952863522e+01    0.6224818    0.3141871  89.96  0.004138619    1.573    0.364
       286  -9.4646     28.1388    175.8683   8.0639489903e+01   3.5303431929e+01    0.1744212    0.1172648  72.93 0.0006928295    1.192    0.161
       287  -9.9983     15.9888    174.6951   8.2950848076e+01   3.6679307656e+01     0.251209    0.1193329  88.68  0.001488946    1.808    0.447
       288  -9.0435     51.5260    173.5169   7.5667740998e+01   3.3255029178e+01    0.1203041   0.09289756  74.95 0.0003598723    1.055    0.052
       289  -9.4537     39.4928    173.5252   7.8162300815e+01   3.4604481308e+01    0.1158788      0.08956  77.16 0.0001104551    1.014    0.014
       290  -9.3582    198.9926     17.4975   3.9702460698e+00   3.2433769683e+01    0.2208148    0.1347676  66.75 0.0006254194    1.549    0.354
       291  -9.6552     35.5888    172.1916   7.8852465407e+01   3.5287190240e+01     0.155933   0.08874255 -67.11  0.000950808    1.673    0.402
       292 -11.1310      9.4302    155.6196   8.3038845898e+01   4.1084896925e+01    0.2877553    0.1729227  89.13  0.001473148    1.308    0.235
       293 -10.2723     14.0063    159.2735   8.2333619876e+01   3.9958872057e+01    0.2594657    0.1753202  79.04  0.001106615    1.165    0.142
       294 -12.1838      9.1622    166.8497   8.3808857143e+01   3.8827264883e+01    0.4595495    0.2722104  55.48  0.002433207    1.471    0.320
       295 -11.6366     11.3140    162.5378   8.3106168512e+01   3.9517989139e+01     0.395051    0.1980246  72.93  0.002057185    1.749    0.428
       296 -10.6707     18.8613    165.3187   8.1755187417e+01   3.8302029352e+01    0.3139109     0.237624 -59.96  0.002286048    1.564    0.361
       297 -10.1052    205.1652    163.2759   4.1369014007e+01   8.7557805656e+00    0.2378294    0.2147967  -0.73 0.0005978838    1.106    0.095
       298 -10.7772     27.9445    161.7684   7.9595997468e+01   3.8188690168e+01    0.3568694    0.1907873 -71.14  0.002161416    1.633    0.388
       299  -9.6046    104.2812    154.7489   6.1493762838e+01   2.9732454801e+01    0.2392308    0.1660918 -65.57  0.001275878    1.487    0.328
       300  -9.2260    120.2090     11.6242   1.5438699283e+01   5.3740432742e+01    0.2047783    0.1155256  47.42  0.000609612    1.598    0.374
       301  -8.6668     92.3295     11.6594   2.2911127569e+01   6.0053425772e+01    0.1314452    0.1071249 -59.54 0.0007051575    1.741    0.426
       302 -12.6798     22.6777    149.2524   7.9697964241e+01   4.1300884312e+01     0.563869    0.3090698 -44.67  0.001821824    2.641    0.621
       303 -11.0476     16.5600    147.8458   8.0938246401e+01   4.2124964686e+01    0.2584029    0.1981675  70.90 0.0003385653    1.144    0.126
       304 -10.6379      4.1070    153.6229   8.4020639551e+01   4.1907079283e+01      0.21637    0.1295345  58.99  0.001351261    1.478    0.323
       305  -9.7945     61.4832    151.8612   7.1101462219e+01   3.6600272327e+01    0.2155646    0.1675247  47.44 0.0006595115    1.301    0.231
       306 -10.0148     30.4684    152.0295   7.8208311021e+01   3.9990383216e+01    0.1924145    0.1701088  -9.18  0.001383151    1.715    0.417
       307 -11.3084     47.7081    146.7904   7.3719736128e+01   3.9332208357e+01    0.4888437    0.3663884 -34.82  0.002974628    1.935    0.483
       308 -11.0754     10.0047    127.3467   8.0741842284e+01   4.7027231179e+01    0.5921871    0.2424722 -62.08   0.00319831    2.056    0.514
       309 -11.6727     12.5758    136.6260   8.0926879933e+01   4.4833637626e+01    0.6193966    0.3697267 -82.33  0.003989206    1.327    0.247
       310 -12.2171      4.4720    143.1266   8.3249641277e+01   4.4057020693e+01    0.6999943    0.3442704  69.62  0.003595859    1.873    0.466
       311 -10.4279      2.9245    147.8311   8.3900456762e+01   4.3188316982e+01     0.202669    0.1195651 -66.95  0.001127503    1.553    0.356
       312 -10.3266    104.0801    147.1731   6.0271502340e+01   3.1369208851e+01    0.2142099    0.2065928 -66.51            0    1.145    0.127
       313 -10.8701     33.1397    144.3052   7.6859095146e+01   4.1390366498e+01    0.2572508    0.2007044  82.85 0.0007747363    1.063    0.059
       314 -10.2909     40.3581    138.6123   7.4532669992e+01   4.1912771192e+01    0.3227051    0.1723066 -74.46  0.001522544    1.631    0.387
       315 -10.8720     79.9670    138.4147   6.4715507897e+01   3.7059293819e+01    0.2774876    0.2306471  69.72 0.0007297042    1.148    0.129
       316  -9.1605     26.4419    127.7031   7.6733875718e+01   4.5647124658e+01    0.1634767   0.09039956 -65.03 0.0009383815    1.535    0.349
       317 -11.3345     23.2545    136.4902   7.8410720065e+01   4.3993886245e+01    0.5697505    0.2786159  47.69  0.002283772    2.021    0.505
       318  -9.7965     32.0250    137.5165   7.6420747552e+01   4.2977021366e+01    0.2147069    0.1859773  77.66 0.0007646543    1.125    0.111
       319 -10.7959     29.7168    132.7061   7.6466015684e+01   4.4249472993e+01    0.3996404    0.2869552  38.93  0.001929442    1.555    0.357
       320  -9.5349     47.2741    134.2248   7.2298730812e+01   4.2150972535e+01    0.2847806   0.09900637 -70.70     0.001182    2.693    0.629
       321  -9.7070     38.5850    133.5782   7.4379923347e+01   4.3206412524e+01    0.2502792    0.1255234  23.39  0.001253391    2.719    0.632
       322  -9.2415     62.6521    131.1337   6.7967910167e+01   4.1034923267e+01    0.1917072    0.1003794 -55.77  0.000745233    1.808    0.447
       323  -8.3628     93.3005    129.6688   5.9802456745e+01   3.6965761144e+01    0.1426476    0.1022656  79.33 0.0007032691    1.648    0.393
       324 -10.1413     22.7934    127.0091   7.7570227698e+01   4.6111298832e+01    0.1722225    0.1485196  79.94 0.0003753634    1.133    0.117
       325  -9.6862     33.1508    125.9752   7.4841089625e+01   4.5426293899e+01    0.2085589     0.114224  80.49  0.001080603    1.998    0.500
       326  -9.9799      2.1989    125.8526   8.2492186361e+01   4.7880967122e+01     0.232617    0.1472008  75.78  0.001248505    1.384    0.277
       327 -11.2134    104.4435    122.3537   5.5449262939e+01   3.6714294236e+01    0.3616386    0.3061696  57.26 0.0009585582    1.182    0.154
       328 -10.1178     19.0238    123.4836   7.8147395026e+01   4.7194968210e+01    0.2108006    0.1357588 -79.47 4.114157e-05    1.246    0.197
       329  -9.7769     49.7443    122.8805   7.0108732811e+01   4.4430252379e+01     0.256709    0.1851082 -24.26  0.001431272    2.075    0.518
