#   1 NUMBER                 Running object number                                     
#   2 MAG_AUTO               Kron-like elliptical aperture magnitude                    [mag]
#   3 X_IMAGE                Object position along x                                    [pixel]
#   4 Y_IMAGE                Object position along y                                    [pixel]
#   5 X_WORLD                Barycenter position along world x axis                     [deg]
#   6 Y_WORLD                Barycenter position along world y axis                     [deg]
#   7 A_WORLD                Profile RMS along major axis (world units)                 [deg]
#   8 B_WORLD                Profile RMS along minor axis (world units)                 [deg]
#   9 THETA_WORLD            Position angle (CCW/world-x)                               [deg]
#  10 FWHM_WORLD             FWHM assuming a gaussian core                              [deg]
#  11 ELONGATION             A_IMAGE/B_IMAGE                                           
#  12 ELLIPTICITY            1 - B_IMAGE/A_IMAGE                                       
         1 -13.9641    116.8630     63.8049   4.3668131031e+01   4.7019711622e+01     1.736898     1.192295  60.85  0.008047821    1.712    0.416
         2 -11.7864     40.4459     24.2446   5.5481706864e+01   6.6759519293e+01     1.821441     1.015774   1.57  0.009160516    2.353    0.575
         3 -10.9146     30.5738     19.1240   5.7769864465e+01   6.8683194189e+01    0.5861651    0.3966928 -43.44  0.003734406    1.591    0.371
         4 -12.9228     70.5307      3.5855   3.4089461184e+01   6.4684842678e+01     1.742928    0.8276857  50.98  0.008834909    2.032    0.508
         5 -13.0749     64.7921     35.4999   5.0202401037e+01   6.1610812505e+01     1.220933    0.8159454 -22.78   0.00505612    1.419    0.295
         6 -12.9774     52.8944     33.9053   5.4229065634e+01   6.3618160443e+01     1.323543    0.7907118  -2.17  0.004857739    2.159    0.537
         7 -13.0130     72.6901     24.7815   4.2851140012e+01   6.1860048655e+01    0.4407403    0.3724754  41.60 0.0005764575    1.323    0.244
         8  99.0000     79.8112     21.8679   3.9177419485e+01   6.0946693559e+01     1.800059     1.021633  67.47   0.00722205    3.742    0.733
         9 -13.0754     52.3848     19.4360   4.8240660158e+01   6.5851573960e+01     1.524073    0.6547656  32.97  0.007309605    2.346    0.574
        10 -13.5818     79.0443     41.7174   4.7498763255e+01   5.8252133082e+01      1.33064    0.6267225  36.49  0.005388931    2.170    0.539
        11  -9.0180     18.2974     22.8039   6.5288009798e+01   6.9279070090e+01    0.8112655    0.5269177  48.62  0.004619398    2.910    0.656
        12 -14.1227     31.5333     66.9212   7.3906426686e+01   5.9733546254e+01     1.553922    0.9928441 -70.25  0.007360829    1.799    0.444
        13 -13.9599      9.8706     68.3339   8.2493971417e+01   6.0998382965e+01     1.922276    0.9691646 -39.59   0.01070617    1.770    0.435
        14  -7.9842     40.9394     42.4940   6.2494813799e+01   6.3638781315e+01     1.183089    0.6621107 -56.23   0.00599648    2.173    0.540
        15 -14.1063     13.1352     35.2466   7.2327094806e+01   6.7478453872e+01     1.334859     1.034982 -58.09  0.009300664    1.418    0.295
        16 -12.9312    224.9728     63.3265   2.2004226083e+01   2.0935666416e+01     2.118977    0.9560602 -57.28  0.007847003    2.840    0.648
        17 -12.7783    235.0738     47.0501   1.6827669014e+01   2.1010070494e+01    0.9691718    0.3565454 -57.25  0.001389896    3.843    0.740
        18 -12.5029    222.5019     39.3858   1.6439221947e+01   2.4981241885e+01    0.9048448    0.5561944 -53.39  0.004550693    1.538    0.350
        19 -12.9469    219.9433     31.0429   1.4694484638e+01   2.6684801709e+01     1.046447    0.6615216 -84.77  0.003629977    1.664    0.399
        20 -11.4680    162.4624     29.6207   2.2216903525e+01   4.1158535571e+01    0.6673851    0.3121709 -50.66  0.001373988    2.610    0.617
        21 -10.9521    193.3003     17.9244   1.4429872648e+01   3.4756998866e+01    0.6014463    0.4196447  22.46  0.003032669    2.093    0.522
        22 -13.0719    199.7356     32.0517   1.7375766661e+01   3.1465707529e+01     1.233511    0.7985109 -52.44  0.002833809    1.528    0.346
        23 -13.1924    188.7239     35.0577   1.9694663817e+01   3.3828856857e+01     1.440525     1.221525 -15.56   0.00806084    1.396    0.283
        24 -12.4643    173.4499     44.5507   2.4823698389e+01   3.6404687777e+01    0.9945439    0.7124254  38.37  0.003667278    1.578    0.366
        25 -13.5727     93.9463     64.7872   5.0843400455e+01   5.1503574259e+01     1.668561     1.200501 -57.88  0.004128519    1.713    0.416
        26 -10.3743    104.2323     28.7673   3.4608679990e+01   5.5156536900e+01    0.3117206     0.153383 -41.84   0.00134867    2.368    0.578
        27 -10.9422    118.6375     21.4159   2.8168670434e+01   5.2815943203e+01    0.4289484    0.2557869  -4.79  0.001753363    2.159    0.537
        28 -10.2278    138.0654     18.4656   2.3011438164e+01   4.8510891624e+01    0.5658504    0.2877321  30.11  0.002289964    2.680    0.627
        29 -12.7799    226.7242     22.2487   1.1883417327e+01   2.6184173792e+01    0.5512534    0.5362794 -20.35  0.001226554    1.304    0.233
        30 -12.0301    223.4133     12.7292   9.9708684314e+00   2.8065704756e+01    0.5315311    0.4038363  76.40  0.003008759    1.235    0.190
        31 -10.9956    220.9753      7.7210   9.0222072122e+00   2.9185838855e+01    0.2183862    0.1766177 -54.73 0.0005273965    1.168    0.144
        32 -11.5156    201.5035     20.4277   1.4119012218e+01   3.2444261212e+01    0.2972387    0.2483001  41.67 0.0005457598    1.425    0.298
        33  99.0000    200.4277     16.0055   1.3099913526e+01   3.3211008927e+01    0.3265874     0.298233  54.23  0.002044724    1.241    0.194
        34 -10.2557    162.9351     20.2722   1.9278932374e+01   4.2126499528e+01    0.3579555    0.1862023 -52.70  0.001538827    2.295    0.564
        35 -10.3043    102.7980     15.4102   2.9753141983e+01   5.7019543514e+01    0.3677158    0.2409083   2.01  0.001811682    1.754    0.430
        36 -11.9998    101.8335     10.6122   2.8079825251e+01   5.7713954356e+01    0.2415741     0.224415   1.35  0.000383839    1.146    0.127
        37 -10.4259     99.5757      6.1602   2.6843936984e+01   5.8619862476e+01    0.3746593    0.1910976  60.88  0.001804957    1.935    0.483
        38  -9.8706    103.0768      4.0000   2.5116944046e+01   5.8046290549e+01    0.2734689    0.1514182  57.25  0.001067105    1.613    0.380
        39 -10.5590      2.9334     16.0677   7.0488886004e+01   7.1516202787e+01    0.3076872     0.145545 -59.57  0.001629671    2.636    0.621
        40 -11.4896    145.4749      8.0601   1.8227114927e+01   4.7720314293e+01    0.5259918    0.4067423  14.58  0.001986794    1.520    0.342
        41 -11.0941    153.8638     13.3712   1.8575313345e+01   4.5128679759e+01    0.3393672     0.295569  22.00  0.001227819    1.287    0.223
        42 -10.7197    150.3694     13.2195   1.9092869803e+01   4.6014378070e+01    0.2257158    0.1845861 -21.40 0.0008654576    1.377    0.274
        43 -14.0788    244.0457      8.9200   7.3996604701e+00   2.3822478486e+01      1.19127    0.5223227 -77.84  0.005233071    2.705    0.630
        44 -10.7496    231.6961      1.3883   6.7074110682e+00   2.7391325351e+01    0.3554996    0.1097349  75.12  0.001173758    3.005    0.667
        45 -10.3472     93.3185     12.6634   3.1180214793e+01   5.9320589318e+01    0.3810553    0.2035241  17.50  0.001606975    2.476    0.596
        46 -11.0680    131.1858     11.3069   2.1860628784e+01   5.0899293021e+01    0.3651133    0.2304824  73.36  0.001348589    1.652    0.395
        47 -10.2627    123.2425     11.9942   2.3694378342e+01   5.2723155002e+01    0.2475965     0.184779  28.42  0.000395122    1.361    0.265
        48  -9.5350    124.5210      8.5315   2.2178401385e+01   5.2746807360e+01    0.1831499    0.1200287 -36.43 0.0009642253    1.715    0.417
        49 -11.9164    116.2146      9.9257   2.4428562279e+01   5.4556383851e+01    0.3877464     0.283945  -8.27  0.001155962    1.505    0.335
        50 -10.5561     84.5985      7.6459   3.1536497577e+01   6.1598068188e+01    0.3557207    0.1949022 -22.00  0.001863303    1.886    0.470
        51 -11.7409     85.9884      1.9504   2.8648699743e+01   6.1840334276e+01    0.5027372    0.1606841  46.67  0.002122731    2.501    0.600
        52 -10.1537     44.8977     10.2147   4.7075586884e+01   6.8133490440e+01    0.1618363    0.1380582 -10.32 0.0008911273    1.221    0.181
        53 -12.2405    194.1395      7.7754   1.1657844631e+01   3.5633449510e+01    0.3101634    0.2819308 -59.41  0.001294696    1.147    0.128
        54 -10.5013     27.6390      9.2702   5.4609799978e+01   7.0433500135e+01    0.1947313    0.1405148  18.51  0.001347463    1.349    0.258
        55 -11.4141    173.5343      5.1852   1.3341606598e+01   4.1000505314e+01    0.3801267     0.228264  -7.65  0.001829675    2.306    0.566
        56  -9.9194    156.7843      7.9364   1.6429700546e+01   4.4926307964e+01     0.196509    0.1578645  46.65 0.0004125888    1.232    0.188
        57  -9.6726     88.6384     11.6855   3.2097935826e+01   6.0382082273e+01     0.217418    0.1772381 -51.21 0.0009621916    1.656    0.396
        58  -9.0455     49.0253      8.5148   4.4494714973e+01   6.7743942204e+01    0.1742637    0.1504661 -21.51 0.0004696796    1.358    0.263
        59  -9.5118     47.6805      5.6841   4.3658702777e+01   6.8274141359e+01    0.1957522    0.1214174  22.22  0.001177532    1.473    0.321
        60  -9.2472    162.6622      7.2613   1.5380556906e+01   4.3522090401e+01    0.1355888   0.09430236 -75.40 0.0002707234    1.584    0.369
        61 -10.1500    150.7289      6.6115   1.6927418624e+01   4.6553866403e+01    0.2106902    0.1444632 -52.46 0.0006872517    1.650    0.394
        62 -10.9453      3.1064      6.3177   6.6265475392e+01   7.3068720097e+01    0.2704712    0.1666557  -0.28  0.001382143    1.541    0.351
        63 -10.3318    210.9625      5.8566   9.4872790099e+00   3.1749326201e+01    0.2451045     0.199195  70.24  0.001522642    1.212    0.175
        64 -10.7783    183.8619      3.5269   1.1661297062e+01   3.8588471756e+01    0.2015145    0.1910853  -6.09 0.0005833319    1.287    0.223
        65 -10.3540    110.1593      4.0856   2.3530029496e+01   5.6459817630e+01    0.4517418    0.1600196  61.30  0.001829031    2.547    0.607
        66 -10.9080    218.4572      2.1806   7.9500847461e+00   3.0356158259e+01    0.2615921    0.2061519  62.86  0.001634888    1.348    0.258
        67  -9.7538    142.0929      1.9347   1.6765169014e+01   4.9087180704e+01    0.2484228    0.1728952  69.61  0.001374672    1.288    0.223
        68 -11.6200     50.4330      1.3161   4.0327953989e+01   6.8331603991e+01    0.2032802    0.1362908  39.27 0.0004854702    1.470    0.320
        69 -10.7056     46.6830      1.6733   4.2048757113e+01   6.8868201570e+01    0.2025317    0.1324666  24.30 0.0007741661    1.330    0.248
        70  -9.5202    180.5600      1.1939   1.1397618189e+01   3.9623006898e+01    0.1362424   0.08373305 -82.26 0.0006735458    1.685    0.407
        71  -9.5346      1.2317      1.2263   6.4962784434e+01   7.3962821913e+01   0.09862418   0.05751883 -21.43 -0.000275831    1.358    0.264
        72  -9.7988     79.1290     91.2629   6.3689911463e+01   4.8546054749e+01    0.2659347    0.1849084 -28.54 0.0007596784    1.608    0.378
        73  -9.7191    228.9803     92.0000   2.8433027399e+01   1.5372803959e+01    0.2252317   0.08308905  56.69 0.0008020066    2.939    0.660
        74 -10.1088    167.8022     90.0064   3.9132197574e+01   3.0197254556e+01     0.354609    0.2304455  66.99  0.001475752    1.827    0.453
        75  -9.9632    172.0655     90.8622   3.8454499741e+01   2.8999586044e+01    0.3229719    0.2162047  77.11 0.0009580737    2.035    0.508
        76 -11.3992    175.4803     85.6151   3.6281036042e+01   2.9150767013e+01    0.7952672    0.4357715  25.87  0.002491387    3.721    0.731
        77 -10.1965     86.2583     90.0506   6.1077862904e+01   4.7657877588e+01    0.2927788    0.2133452  44.56 0.0009585607    1.496    0.331
        78 -14.0677     66.8905     82.6688   6.5385873178e+01   5.2277060268e+01     1.411358     0.911948 -49.41  0.003626132    1.391    0.281
        79 -13.4269      5.2673     54.4700   8.1197517924e+01   6.4170086650e+01    0.9981185    0.5898688 -43.22  0.002439231    1.330    0.248
        80  -9.2313    171.2271    113.7252   4.4781774457e+01   2.4669369174e+01    0.2432136    0.1270585 -30.10 0.0006029205    2.350    0.574
        81 -10.8949    134.0665    113.5223   5.3693715699e+01   3.3116889631e+01    0.2591326    0.2267325 -11.78 0.0007605547    1.305    0.234
        82 -12.2810     10.7155     81.3994   8.4753297880e+01   5.8080452176e+01    0.4056145    0.2291512 -74.73  0.002260641    1.659    0.397
        83 -10.5986    143.4737    112.9792   5.1148424222e+01   3.1174044493e+01    0.2891373    0.2332788  49.04 0.0003522352    1.256    0.204
        84  -9.7501    210.2128    112.0161   3.6481900570e+01   1.6021961846e+01    0.2541511    0.1912398  70.20 0.0006672344    1.591    0.371
        85 -13.7965     45.1443     71.7359   7.0079105213e+01   5.7363296600e+01     1.392147    0.6953236 -40.79  0.005504566    1.818    0.450
        86 -12.6134     24.6466     43.4194   6.9824254382e+01   6.5066944140e+01    0.7306856    0.5655994 -34.48  0.002610439    1.017    0.017
        87 -12.1685     26.1667     35.9535   6.6580880755e+01   6.6316448266e+01    0.2889495    0.2160083 -16.22  0.000563688    1.192    0.161
        88 -10.6712    138.5028    112.5043   5.2282751020e+01   3.2376508530e+01    0.2793359     0.149255  34.87 0.0007928543    2.226    0.551
        89 -13.2075     55.1236     71.6849   6.6405338677e+01   5.6208866290e+01    0.4740237    0.3087608 -50.71 0.0005118883    1.380    0.275
        90 -12.9204     58.2845     61.7520   6.2199047657e+01   5.7844913769e+01     1.103356    0.6810712 -58.04  0.003909246    1.862    0.463
        91 -12.6509     48.6443     53.4794   6.3178888825e+01   6.0688322959e+01    0.5093936    0.3918544 -22.14  0.001116697    1.186    0.157
        92 -12.6860     51.9637     44.5624   5.8721303512e+01   6.1928881766e+01    0.6612414    0.4461218 -22.37   0.00214952    1.417    0.294
        93 -12.6120     38.6935     57.9849   6.8569746228e+01   6.0905988582e+01    0.5850185    0.4290501  56.78  0.001273421    2.078    0.519
        94 -13.1279    192.5379     85.0210   3.2791085054e+01   2.5091818957e+01    0.9830642    0.6250646 -88.32  0.003805455    2.514    0.602
        95 -12.4726    201.3161     77.4746   2.9223952816e+01   2.4275275197e+01    0.6182457    0.3939446  90.00  0.002537966    2.267    0.559
        96 -12.4111    191.3019     68.0630   2.8411360717e+01   2.8305079892e+01    0.5199859    0.3836996  31.56  0.001751609    1.690    0.408
        97 -12.3467    185.6994     77.2473   3.1950123509e+01   2.8137289503e+01    0.5199205    0.3641969  27.41  0.002196472    1.906    0.475
        98 -12.3631    191.2832     74.8047   3.0257496410e+01   2.7181030833e+01    0.7375656    0.4602346 -88.49  0.002789022    2.466    0.595
        99 -11.3769      7.0587     86.9185   8.6950470967e+01   5.7051259296e+01     0.271978    0.1914359  53.80  0.001720659    1.788    0.441
       100 -10.3993      1.8500     88.0833   8.8848293550e+01   5.7062468954e+01     0.177273    0.1371076 -86.03 0.0006418718    1.276    0.216
       101 -12.4854    221.3615     77.9271   2.6136367456e+01   1.9448419384e+01      1.31779    0.7033609  79.54  0.004968014    2.935    0.659
       102 -10.3568    230.5264     83.4616   2.6137157819e+01   1.6455286140e+01    0.2799344    0.2440695  70.73  0.001583345    1.224    0.183
       103 -11.6966    237.7776     86.2310   2.5757220377e+01   1.4406126531e+01    0.3427059    0.2731275  88.43 0.0006746337    1.430    0.301
       104 -10.4127    233.5099     85.4650   2.6185731981e+01   1.5464044736e+01    0.2653782    0.2079218 -21.03 0.0007348672    1.421    0.296
       105 -11.1707     38.2758     86.8437   7.6306312441e+01   5.4721839236e+01    0.2356286    0.1861699 -44.41 0.0005602128    1.118    0.106
       106 -11.9118    161.3288     84.5872   3.9017600309e+01   3.2799238849e+01    0.9575038    0.3919022  49.56   0.00334112    2.416    0.586
       107 -12.0851    213.3515     83.4792   2.8782481944e+01   2.0384245526e+01    0.4109736    0.2822975  35.47  0.001011008    1.827    0.453
       108 -12.2390     27.3546     81.4883   7.8936920733e+01   5.6899795132e+01    0.3802502    0.2796242  31.12  0.002353113    1.628    0.386
       109 -10.5839    250.6237     81.7973   2.2995860140e+01   1.2391915981e+01    0.2324777    0.1197087 -33.80 0.0003137807    1.805    0.446
       110 -11.1656    198.8655     82.0919   3.0868683422e+01   2.4074370878e+01    0.3642505    0.2200393  71.43  0.001256842    2.018    0.504
       111 -12.2504    168.6483     80.1810   3.6166131733e+01   3.1825568459e+01    0.4317802    0.4168555 -82.00 0.0006560384    1.034    0.033
       112 -11.6941    166.1300     76.8654   3.5741853930e+01   3.3045910243e+01    0.4759921    0.2727535  41.69  0.001171678    1.913    0.477
       113 -12.0077     48.5534     85.4706   7.2429952063e+01   5.3963777194e+01    0.3615641    0.2274974  24.23  0.001626517    1.844    0.458
       114 -11.2257    250.0839     75.0580   2.1528714195e+01   1.3557810766e+01    0.4393448    0.2329908 -21.77  0.001823011    2.622    0.619
       115  -9.2657    241.4707     81.5552   2.4145632511e+01   1.4365904420e+01    0.1397264    0.1237132 -52.01 9.326155e-05    1.008    0.008
       116  -9.7385    208.3212     81.3012   2.9048326893e+01   2.1942827033e+01    0.1464448    0.1172911  18.28 0.0004006581    1.628    0.386
       117 -10.7678    232.6470     78.8274   2.4715866489e+01   1.6738628054e+01     0.288597    0.2266873 -80.69 0.0007526523    1.403    0.287
       118 -10.8132    155.3239     76.6944   3.8056835841e+01   3.5727819641e+01    0.3209917    0.2729647  51.76 0.0007899599    1.167    0.143
       119 -11.0209    225.7732     75.5416   2.4896887424e+01   1.8822770973e+01    0.2775785    0.2071656 -51.30 0.0005823743    1.252    0.201
       120 -10.5394    112.6039     75.8540   4.8783099013e+01   4.5662542980e+01    0.2401187    0.2018865  26.69 0.0004324252    1.236    0.191
       121 -10.7945    105.6454     74.6322   5.0443316068e+01   4.7326032892e+01    0.4036725    0.3078994  25.22  0.001600432    1.430    0.301
       122 -11.6839    177.4237     71.0472   3.1784902291e+01   3.1260156507e+01    0.6538322    0.3796074 -59.25  0.001653392    2.207    0.547
       123 -12.1620    166.2351     65.5866   3.2411649828e+01   3.4977390451e+01     1.014557    0.5834188  51.98  0.004323829    1.696    0.410
       124 -10.4454    151.0595     73.2472   3.7995436837e+01   3.7390354971e+01    0.2565162    0.2122245 -33.17  0.000545926    1.234    0.190
       125  -9.9317    243.1341     73.1058   2.1954282138e+01   1.5342672785e+01    0.1971394    0.1857827  -9.68 0.0005116963    1.254    0.202
       126  -9.7033    124.2907    112.3525   5.5978142593e+01   3.5447876890e+01    0.1589805     0.123653 -12.05 0.0007027863    1.675    0.403
       127 -13.3591    220.8960     69.5090   2.4106530978e+01   2.0918275237e+01     1.077711    0.6756465  85.44  0.004828121    2.046    0.511
       128 -12.6556    233.7785     63.6191   2.0915031837e+01   1.8874389076e+01     1.246925    0.5480332 -31.12  0.005052762    2.365    0.577
       129 -11.5239    242.0179     62.7415   1.9682254548e+01   1.7172396187e+01    0.5836621     0.391063 -64.76  0.002168951    1.541    0.351
       130 -10.9409     96.8107    110.4546   6.3237547521e+01   4.1185401774e+01    0.3785613    0.1851816 -37.06  0.001066725    2.513    0.602
       131 -14.1656    203.7764     61.9733   2.4726782012e+01   2.6206659700e+01     1.272212     1.206286  27.47  0.004117192    1.216    0.178
       132 -11.8758    209.7058     58.6186   2.2959794488e+01   2.5281512395e+01    0.3730207     0.296847 -89.70 0.0003490631    1.293    0.227
       133 -10.7476    196.1055    107.3763   3.7968974381e+01   2.0115210292e+01    0.3970293    0.3153473 -73.92  0.001898085    1.516    0.340
       134 -10.7306    152.9849    107.9955   4.7486649109e+01   3.0086932633e+01     0.190806    0.1895319 -62.13 0.0005491084    1.005    0.005
       135 -11.0796    183.2009     69.1292   3.0154732920e+01   3.0143281487e+01    0.2691371    0.2469581  78.07 0.0004684255    1.079    0.073
       136  -9.8402    240.5844     69.2621   2.1381885230e+01   1.6493999742e+01    0.1890765    0.1272845 -26.22 0.0008216585    1.630    0.387
       137 -10.0803    183.8022    105.7231   4.0001182708e+01   2.3318321885e+01    0.3188277    0.2286222 -37.76  0.001458272    1.373    0.272
       138 -12.7756    182.4536     61.3989   2.8110126265e+01   3.1593140084e+01     1.496263     0.326351 -38.21  0.004237511    4.050    0.753
       139 -11.7078    209.8015     46.4840   1.9812173267e+01   2.7044923790e+01    0.6679616    0.3943916 -78.13  0.002899725    2.169    0.539
       140 -11.0419    169.1184     33.3566   2.2233341881e+01   3.9007330237e+01    0.4053415    0.3493042 -42.39  0.001899333    1.213    0.175
       141 -10.5723    161.6272    107.1865   4.5232704218e+01   2.8250659257e+01    0.2317938    0.1488141 -30.95 0.0009504961    1.726    0.421
       142 -12.9346    190.2458     58.9426   2.6079516840e+01   3.0027943980e+01    0.9397753    0.7404015  39.28  0.004775544    1.439    0.305
       143 -11.2682    187.2935     55.8358   2.5708613951e+01   3.1246681962e+01    0.3824204    0.2624801 -60.08 0.0004740548    1.592    0.372
       144 -11.4473    173.4519     53.3795   2.7419069281e+01   3.5110292944e+01    0.6623412    0.4295758  56.09  0.002804151    1.483    0.326
       145 -12.9901    199.4729     47.6713   2.1569795624e+01   2.9413830922e+01     1.178069     0.718897  39.80  0.005259205    2.083    0.520
       146  -9.7972     28.3374    107.2708   8.3533340428e+01   5.0866249070e+01    0.1276152     0.083495 -39.85 0.0002721486    1.600    0.375
       147 -12.9025    191.4942     39.9100   2.0630679520e+01   3.2488141646e+01    0.8374374    0.6076578 -21.52  0.002557003    1.612    0.380
       148 -10.2700     15.2775    106.0319   8.7319507962e+01   5.2156587913e+01    0.1808313    0.1284311 -69.06 0.0004326488    1.120    0.107
       149 -12.3964    161.7395     38.5795   2.5100393022e+01   4.0192043042e+01    0.8302331    0.5780603  87.39  0.002758485    1.690    0.408
       150  -9.8693    210.6810    105.4639   3.4775194179e+01   1.7117471837e+01    0.2833003    0.1515976  57.70   0.00115251    2.071    0.517
       151 -11.6985    174.0408     39.7784   2.3319650841e+01   3.6915069136e+01    0.3639947    0.2829905  48.50 0.0003376575    1.304    0.233
       152 -10.4499    248.7983     60.6247   1.8398755243e+01   1.6016327770e+01    0.2508014    0.1753231  89.69  0.001352606    1.586    0.370
       153 -11.1551    247.7566     56.3580   1.7548236398e+01   1.6865798270e+01    0.3861212    0.3095214 -61.83  0.002300486    1.111    0.100
       154 -10.2366    162.1151     59.5361   3.1437691691e+01   3.7001080021e+01    0.2860364    0.2225716  75.54 0.0006579027    1.387    0.279
       155 -11.3408    161.9131     54.7684   3.0031374692e+01   3.7805340844e+01    0.4576103    0.3767177 -69.42  0.001383912    1.343    0.256
       156 -11.0763    101.2797     54.5460   4.5031157610e+01   5.1917193335e+01    0.5195779    0.4478472  36.40  0.002368814    1.151    0.131
       157 -10.6337    207.2370     52.4216   2.1705681529e+01   2.6811652732e+01    0.4417658     0.273746 -74.59  0.001953528    2.011    0.503
       158 -11.8745     40.0062     53.0882   6.6505919290e+01   6.1742422090e+01    0.2612168    0.2436102 -15.75 0.0003223804    1.183    0.155
       159  -9.6995    134.7054    105.0329   5.1264013305e+01   3.4840205609e+01    0.2245795    0.1953947 -43.90 0.0003878459    1.133    0.117
       160 -11.1047     90.6202     51.0553   4.7120641490e+01   5.4598144040e+01    0.2294819    0.1902489  30.48 0.0002783844    1.185    0.156
       161 -11.9708    126.9968     59.0346   3.9357094306e+01   4.5579981767e+01    0.5734574    0.3250993  31.83  0.002302451    2.197    0.545
       162  -9.8334    162.5783     48.2399   2.7909307547e+01   3.8623368941e+01    0.5838048    0.2993789  53.95  0.002442781    1.831    0.454
       163 -10.4548    249.1321     47.4400   1.5389697947e+01   1.7839764216e+01    0.3705405    0.2370447 -86.04  0.001949909    1.721    0.419
       164 -10.9872     99.2518     47.8489   4.3243912198e+01   5.3440124366e+01    0.3178958    0.2368049   1.14   0.00162628    1.523    0.343
       165 -11.3227    230.1488     50.0855   1.8123589119e+01   2.1705471320e+01    0.4585264    0.3429938 -36.99 0.0009133695    1.313    0.238
       166 -10.3435    149.2168     41.4414   2.8416097458e+01   4.2941358019e+01    0.8925102      0.37913 -40.37  0.003449667    2.444    0.591
       167  -9.8274    142.6128     46.3836   3.1424407876e+01   4.3863529045e+01    0.3774782    0.2227089  34.06  0.001322758    2.023    0.506
       168 -11.3253    126.8771     45.4694   3.4791144274e+01   4.7762922955e+01     0.497862    0.3782791 -88.18  0.002407603    1.826    0.452
       169 -11.0210    132.1198     40.3627   3.1778366095e+01   4.7261790832e+01    0.4867377    0.2463031  43.14  0.001858304    1.972    0.493
       170  -9.7619    120.8115     44.2204   3.5886298088e+01   4.9347827318e+01    0.3343171    0.2190912 -80.56  0.001307222    3.012    0.668
       171 -10.7719    215.6710     42.8343   1.8120747793e+01   2.6136767134e+01    0.3077932    0.2225249 -35.33  0.001190278    1.399    0.285
       172 -10.3472    105.7663     43.3882   3.9682669974e+01   5.2787803119e+01    0.2334261    0.1883794 -28.45 0.0002785486    1.250    0.200
       173 -10.5719    246.6615     42.0407   1.4433604670e+01   1.9121778957e+01    0.3474885    0.2186672 -76.01  0.001818478    1.684    0.406
       174 -10.1675    156.1349     42.3435   2.7325450606e+01   4.1088124744e+01    0.3482297    0.1705825 -43.23  0.001415564    2.166    0.538
       175 -10.3352    233.5075     36.2423   1.4466977689e+01   2.2844083161e+01     0.265586    0.2104809 -38.76  0.001364305    1.271    0.213
       176 -10.4375    241.0611     39.9213   1.4527167284e+01   2.0645684530e+01    0.2585606    0.2217409   3.25 0.0007376992    1.638    0.389
       177 -10.4761    236.5226     39.4679   1.4898195456e+01   2.1726604203e+01    0.4237294    0.1955266 -53.14  0.001875863    2.106    0.525
       178 -10.1242    100.0871     40.6056   4.0310061195e+01   5.4393380025e+01    0.3203216    0.2451744  58.69  0.001706873    1.504    0.335
       179 -10.5322    134.4085     44.6130   3.2692585334e+01   4.6108163113e+01    0.6213602    0.3075008  30.79  0.001735908    3.096    0.677
       180  -9.6428    249.9727     38.5156   1.3322427213e+01   1.8878408389e+01    0.1820876    0.1205587  77.57 0.0008287635    1.537    0.349
       181 -10.1168    125.0642     36.9162   3.2248085837e+01   4.9402501571e+01    0.2300847    0.1990292  26.07  0.001285451    1.140    0.123
       182 -11.1527    110.8890     35.1333   3.5208312871e+01   5.2866996971e+01    0.4627664    0.2835056  12.69 0.0008848578    2.305    0.566
       183 -11.6155     92.4484     33.0679   3.9726219196e+01   5.7027408875e+01    0.3933293    0.2889375   0.33   0.00183802    1.453    0.312
       184 -11.5228    152.2590     33.8170   2.5366864800e+01   4.3200257887e+01    0.2369693    0.2228145  85.23 0.0002787854    1.075    0.069
       185 -10.7760    131.6849     33.3867   2.9472578633e+01   4.8303268409e+01    0.4241561    0.2428159 -58.22 0.0008600663    2.645    0.622
       186 -10.0321    128.1694     27.9094   2.8342086117e+01   4.9826426676e+01    0.2039136    0.1832275 -63.70 0.0005973732    1.284    0.221
       187 -10.5169     75.0653     33.5632   4.5664906529e+01   6.0205985748e+01    0.2546844    0.2050092  36.21 0.0007783903    1.270    0.213
       188  -9.6793    247.4365     32.8969   1.2323565732e+01   2.0170334828e+01    0.1786577     0.108562 -43.18 0.0003048501    1.447    0.309
       189  -9.8747    122.4300     32.9016   3.1454520175e+01   5.0549006769e+01    0.1941879    0.1365006 -28.95 0.0006293209    1.494    0.331
       190 -10.7466    238.8930     30.5958   1.2622211703e+01   2.2359695269e+01    0.5016428    0.2084047  68.03  0.002239338    2.365    0.577
       191 -10.0673     29.1452     29.4007   6.2743765072e+01   6.7179093178e+01     0.231035    0.2145007  45.86   0.00165925    1.625    0.385
       192 -10.1847    103.0913    104.5878   5.9898201344e+01   4.1398622336e+01    0.2332457    0.1976259 -25.30 4.342784e-05    1.275    0.216
       193 -11.3046    150.6516     22.3297   2.1972358448e+01   4.4980674732e+01    0.3834793    0.2207342  50.70  0.000222943    1.599    0.375
       194 -10.2043    113.3817     27.1539   3.1581070743e+01   5.3342964957e+01    0.4740062    0.3392435 -66.98  0.001950223    2.096    0.523
       195 -11.7305     69.6634    103.0702   6.9703438997e+01   4.7239148621e+01    0.4149372    0.1654034 -51.68  0.001612091    2.195    0.544
       196 -10.8672    144.7832    102.7714   4.8075544367e+01   3.3066423586e+01    0.3995377    0.3070297  24.05  0.001816734    1.553    0.356
       197 -10.2016    132.3704     25.6685   2.6640956032e+01   4.9088639994e+01     0.510766     0.220672 -34.38 0.0008713234    2.402    0.584
       198 -11.4094    130.1633     19.5502   2.4961603672e+01   5.0306968426e+01    0.3883561    0.2303146  56.50  0.001230651    1.500    0.333
       199 -11.9097    138.5327     26.7347   2.5728283919e+01   4.7468874840e+01    0.3800671     0.274511 -86.70 -6.048165e-05    1.761    0.432
       200 -10.6462    234.3313     25.0713   1.1802298571e+01   2.4088058754e+01    0.3316015    0.2769121   9.97  0.001973431    1.759    0.432
       201 -10.1674    245.0060     19.2505   9.5490391730e+00   2.2410273423e+01    0.2418651      0.17046  68.76 0.0009828039    1.457    0.314
       202 -11.1908    246.5676     23.1008   1.0253921986e+01   2.1599868280e+01    0.2692662     0.208663 -88.18 0.0006868918    1.187    0.158
       203 -11.6170    241.4722     22.9184   1.0659830850e+01   2.2746087040e+01    0.3516197     0.221282  66.96 0.0005078637    1.603    0.376
       204 -10.8576    235.4024    102.4524   2.9942933494e+01   1.2204645988e+01    0.3167363    0.2379016  50.48 0.0008704959    1.465    0.317
       205 -10.3747    230.7783    102.4239   3.0657322081e+01   1.3199138606e+01    0.2466343    0.1815571 -38.88 0.0002528963    1.238    0.192
       206 -11.6393     83.5919     82.7679   5.9850188075e+01   4.9692891554e+01    0.3255077    0.2818975 -53.07 0.0004165177    1.162    0.139
       207 -10.7325    176.1911     23.4033   1.8210270671e+01   3.8425469212e+01    0.2852771     0.231693 -25.57 0.0009490754    1.381    0.276
       208 -11.1091    179.5706     20.3423   1.6858728410e+01   3.7922256022e+01    0.2663444    0.1946135  57.96 0.0005105721    1.298    0.230
       209  -9.5871     98.0386     21.8030   3.3593588481e+01   5.7326837585e+01    0.2892343    0.2034375 -15.99  0.001586786    1.474    0.322
       210 -10.8380    209.1999     21.5436   1.3533737176e+01   3.0434358514e+01    0.2294386    0.1933743 -65.03   0.00137882    1.092    0.085
       211  -9.6499    212.7359     20.0024   1.2767860310e+01   2.9761829050e+01    0.2165604    0.1580852 -68.21  0.001031338    1.282    0.220
       212 -11.6074    139.8836     54.0306   3.4543627060e+01   4.3359640921e+01      1.58701     0.807336  48.95  0.006535611    1.877    0.467
       213 -14.6414    123.0310     84.7496   4.8583563248e+01   4.1663871483e+01     2.980697     2.345189  42.69   0.01465964    1.287    0.223
       214 -12.6027    149.1876     28.4113   2.4205218723e+01   4.4638795918e+01    0.3789907    0.3209575 -74.19 0.0003515522    1.305    0.234
       215 -13.2518    136.5394     81.5004   4.4022356238e+01   3.9284683937e+01    0.9417018    0.5931296 -47.19 0.0009853182    1.637    0.389
       216 -12.0961    147.9650     84.4362   4.2067511040e+01   3.6040658355e+01    0.7633495    0.5362686 -59.74  0.001187433    1.683    0.406
       217 -12.5660     86.9181     73.4869   5.5943978851e+01   5.1069313071e+01    0.8483449     0.522338  40.75  0.001564166    1.713    0.416
       218 -11.3755    113.2480    246.6737   8.1867336514e+01   8.8021386246e+00    0.3359212    0.2395863 -38.04   0.00190778    2.099    0.524
       219 -11.8657     63.9184     47.3058   5.5087639990e+01   5.9771800446e+01    0.4935717    0.4041212  56.23   0.00287871    1.705    0.414
       220 -11.9311      5.6860     38.4705   7.6775846551e+01   6.7330668512e+01    0.3813709    0.2854782 -44.01  0.001246402    1.054    0.051
       221 -11.3825     85.9373     28.2999   3.9863040604e+01   5.8952773771e+01    0.3651235    0.2371786  55.48  0.000978903    1.791    0.442
       222 -10.9756    113.2697     17.0300   2.7786971386e+01   5.4521958087e+01    0.4197619    0.2049414  56.40  0.001251354    1.851    0.460
       223  -9.9350    172.8903     16.1469   1.6578430281e+01   4.0064363238e+01    0.3285134    0.1710973 -66.90 0.0006928625    2.630    0.620
       224 -12.2912    143.8149     69.2542   3.8466607703e+01   3.9853097657e+01     1.209609    0.6765606  42.67  0.004603805    1.851    0.460
       225 -12.9712    152.3561     62.1279   3.4296045563e+01   3.9001220388e+01     1.139893    0.8339058  65.28   0.00403058    1.432    0.302
       226 -10.6419     36.4217    248.6941   9.5820624773e+01   1.8920210963e+01    0.1990943   0.08943708 -83.77  0.001152334    2.157    0.536
       227 -10.0269     15.8558    238.2069   9.8676432571e+01   2.3103998085e+01    0.1311604     0.106055  89.30 0.0003781536    1.319    0.242
       228 -11.2515    153.0212    124.1588   5.1667252970e+01   2.6615350972e+01    0.2537449    0.2222258 -51.34  0.000250474    1.143    0.125
       229  -9.5984    222.4495    124.2601   3.7235940629e+01   1.1122881772e+01    0.2193964    0.1278693 -47.45 0.0009544584    1.737    0.424
       230  -9.6324    158.2891     15.1864   1.8444082128e+01   4.3837118269e+01     0.317099    0.1062394  53.59  0.001195966    2.558    0.609
       231  -9.8708    140.8416    119.8210   5.3578007539e+01   3.0250576849e+01    0.2139291    0.1863876  83.16 0.0003856654    1.296    0.229
       232  -9.3630     35.7042     14.3984   5.3203506087e+01   6.8783575896e+01    0.2446781    0.1038972  35.29  0.001246269    2.454    0.592
       233  -9.8611    213.5909     12.9073   1.0944017165e+01   3.0365368055e+01    0.2108464    0.1512063 -71.27 0.0006688846    1.287    0.223
       234 -10.3062    204.0851    116.1471   3.8639738382e+01   1.6628691701e+01     0.329452    0.2212435  69.60 0.0009108134    1.946    0.486
       235 -10.1672    181.7893    115.7620   4.3015535969e+01   2.1806585048e+01    0.2181516    0.1885094 -80.13  0.001069657    1.332    0.249
       236  -9.7588     90.6860    116.2656   6.6429163364e+01   4.0870360595e+01     0.144415     0.113406  77.08 0.0001533661    1.545    0.353
       237 -13.1691     79.4226     59.1309   5.3725513151e+01   5.5158896365e+01    0.7261775    0.5662377  23.23  0.004022163    1.317    0.241
       238 -12.8314     81.3900     49.5886   4.9653449471e+01   5.6533046313e+01    0.9035427    0.4887399  23.53  0.003838535    2.433    0.589
       239  -9.8064    177.9548    114.9914   4.3637169222e+01   2.2849738401e+01    0.2530082    0.1955366   7.40  0.001126742    1.712    0.416
       240 -11.2835    109.4061    102.6547   5.7553170556e+01   4.0631541352e+01     0.271093    0.2437518 -45.80  0.000489875    1.071    0.067
       241 -12.7576     85.5779     99.0877   6.3730785752e+01   4.5734433962e+01     0.684929    0.3859426  31.26  0.002980634    2.022    0.505
       242 -12.1268    199.8123     96.1689   3.4385233671e+01   2.1334242411e+01    0.5255482    0.3857315 -74.94  0.001894249    1.735    0.424
       243 -11.0421    169.8251     97.3170   4.0716176503e+01   2.8293229705e+01    0.4748612    0.4022241  76.75  0.002325678    1.311    0.237
       244 -12.1838    153.5109     95.8759   4.4032114233e+01   3.2465236594e+01    0.6646208    0.5056466  52.71  0.001961539    1.333    0.250
       245 -11.3540     96.4078    100.9678   6.0920624751e+01   4.3444786818e+01    0.3272156    0.2384199 -19.28  0.001208544    1.754    0.430
       246 -11.3145     11.7279     97.3796   8.7107125177e+01   5.4393927364e+01    0.2382222    0.1740631 -53.48   0.00141855    1.179    0.152
       247 -11.4307     73.0148     96.3330   6.6987304732e+01   4.8322912825e+01    0.2976339    0.2715729  59.78 0.0009410512    1.239    0.193
       248 -12.1061    232.9763     94.7200   2.8478325899e+01   1.4037040517e+01    0.2718031    0.2231836 -36.76 0.0004698106    1.130    0.115
       249  -9.4942    225.3029     96.6423   3.0133453790e+01   1.5394568841e+01    0.1541081    0.1063505 -64.08 0.0007038685    1.716    0.417
       250 -12.4526     48.9020     95.2432   7.4604360881e+01   5.1687264151e+01    0.4638556    0.3268929  20.03 0.0009673373    1.687    0.407
       251 -13.2547     56.9744     90.4668   7.0788402439e+01   5.1838300521e+01    0.7310538    0.3811612 -50.75   0.00199745    1.650    0.394
       252 -10.1709     68.0067     94.6676   6.8185624861e+01   4.9422959601e+01    0.2098201    0.1788568 -26.89 0.0004462793    1.210    0.174
       253 -12.9262     63.0970     90.6033   6.8774162062e+01   5.1021025104e+01    0.6110033    0.3955383 -68.31  0.002211917    1.755    0.430
       254 -11.9740     51.9556     86.8152   7.1589547159e+01   5.3271453457e+01    0.3831238    0.2456057 -37.08 0.0007779487    1.535    0.349
       255 -11.1543    189.9501     94.8188   3.5895562458e+01   2.3931429428e+01    0.2735288    0.2169963 -38.71 0.0005578711    1.231    0.188
       256 -10.3759     89.1462     93.9538   6.1250098759e+01   4.6299329753e+01    0.2163372    0.1966707 -40.22 0.0002856277    1.031    0.030
       257 -11.5296    211.4252     93.0385   3.1526183633e+01   1.9175925115e+01    0.2841052    0.2042393  37.92 0.0008494382    1.618    0.382
       258 -11.4255     96.4729     90.5739   5.8041363545e+01   4.5753764679e+01    0.5028378    0.4045713  73.46  0.002505813    1.609    0.378
