#   1 NUMBER                 Running object number                                     
#   2 MAG_AUTO               Kron-like elliptical aperture magnitude                    [mag]
#   3 X_IMAGE                Object position along x                                    [pixel]
#   4 Y_IMAGE                Object position along y                                    [pixel]
#   5 X_WORLD                Barycenter position along world x axis                     [deg]
#   6 Y_WORLD                Barycenter position along world y axis                     [deg]
#   7 A_WORLD                Profile RMS along major axis (world units)                 [deg]
#   8 B_WORLD                Profile RMS along minor axis (world units)                 [deg]
#   9 THETA_WORLD            Position angle (CCW/world-x)                               [deg]
#  10 FWHM_WORLD             FWHM assuming a gaussian core                              [deg]
#  11 ELONGATION             A_IMAGE/B_IMAGE                                           
#  12 ELLIPTICITY            1 - B_IMAGE/A_IMAGE                                       
         1 -14.8987     11.3501    155.0029   2.9265087310e+02   5.9223668444e+00    0.5439447    0.3029566  72.84   0.04227376    3.274    0.695
         2 -13.6048    191.9249     26.6514   2.8976955096e+02   6.3163082905e+00   0.07046104   0.06372423 -38.15  0.006613224    1.113    0.101
         3 -13.6696    206.6096      7.4951   2.8948104192e+02   6.4477389575e+00   0.07234889   0.05445939 -16.03  0.007814028    1.569    0.362
         4 -13.4790      3.4319      7.2543   2.9183188602e+02   7.6699257565e+00     0.122319   0.03951372 -59.19  0.009148812    2.892    0.654
         5 -11.2106    139.3107    245.4665   2.9172886025e+02   4.1150319709e+00   0.01623822   0.01066583 -62.26  0.001674035    1.521    0.343
         6  -9.8855    249.8485    249.5800   2.9048000753e+02   3.4043051285e+00   0.01135729  0.008187374 -68.27  0.001211748    1.443    0.307
         7 -11.2645    140.3516    250.2051   2.9174599531e+02   4.0542374521e+00   0.02296222   0.01038441  29.55   0.00198678    2.167    0.539
         8 -10.7469    125.9050    250.2896   2.9191318203e+02   4.1398224998e+00   0.01963893  0.006743428  33.17  0.001509518    2.704    0.630
         9  -9.6140     29.3845    248.8472   2.9301839561e+02   4.7335855889e+00   0.01832612  0.009417776 -58.73  0.001686961    1.882    0.469
        10  -8.5853     25.5790    247.4484   2.9305376102e+02   4.7724077892e+00   0.01096259  0.006422026  29.25 0.0004735148    1.694    0.410
        11  -9.7643      1.9999    249.8082   2.9334045157e+02   4.8858236687e+00   0.01224665   0.00968656 -58.69  0.001384927    1.247    0.198
        12  -9.6242     98.6644    249.3391   2.9222168016e+02   4.3138719796e+00   0.01084485   0.00769098  63.94 0.0009753172    1.710    0.415
        13  -9.2946     81.5927    248.7757   2.9241525809e+02   4.4224974799e+00  0.009415813  0.006440686 -78.68 0.0006484811    1.698    0.411
        14  -8.4444     47.2982    249.6609   2.9281657027e+02   4.6172675975e+00  0.006915668  0.005030053  66.20  0.000703364    1.661    0.398
        15 -10.6068     35.5073    245.0638   2.9292451684e+02   4.7406289186e+00     0.031257   0.01293304 -39.30  0.002303062    3.192    0.687
        16 -10.0716    198.5093    246.4771   2.9105239085e+02   3.7483165548e+00  0.006506002  0.006495684 -49.88 0.0002783255    1.014    0.014
        17 -11.6254    131.3676    245.0149   2.9181772673e+02   4.1678310688e+00   0.02051684  0.009528694  20.73  0.001702665    2.465    0.594
        18 -10.0126     95.2282    242.0878   2.9221679895e+02   4.4179496700e+00     0.016915  0.008910416 -58.76  0.001572634    1.840    0.457
        19 -10.7526    184.6125    237.7469   2.9115883037e+02   3.9321944998e+00     0.013967   0.01065424  89.33  0.001163405    1.553    0.356
        20  -9.1751     13.0088    240.9881   2.9315932906e+02   4.9218172231e+00    0.0112421   0.00772784 -29.07 0.0009119515    1.697    0.411
        21 -10.4870      1.7340    239.3530   2.9327951637e+02   5.0078704356e+00   0.02690504  0.007098506 -60.91  0.001798073    3.597    0.722
        22  -8.1101     57.3033    240.2974   2.9264362789e+02   4.6653636831e+00  0.006827129  0.004959768 -26.77 0.0002983406    1.583    0.368
        23 -13.8729      9.3943    206.6120   2.9299037451e+02   5.3394484429e+00    0.5371247          nan  34.78  0.006252694    7.115    0.859
        24 -10.4802    238.2379    247.8564   2.9060310195e+02   3.4938795254e+00    0.0151682  0.008257517 -67.11  0.001392287    1.965    0.491
        25 -10.7283    155.1039    228.6470   2.9144314948e+02   4.2139852835e+00   0.01746125  0.007845811  30.31  0.001503817    2.166    0.538
        26  -9.0822    152.6454    213.0065   2.9137519691e+02   4.4087959535e+00  0.009136567   0.00806999 -59.51 0.0003413847    1.124    0.111
        27 -14.2363     45.6568    228.4226   2.9270525396e+02   4.8717405492e+00   0.06305104   0.05466869 -10.55  0.004810742    1.240    0.194
        28 -11.5521     64.9040    200.6825   2.9231255210e+02   5.0762825411e+00   0.01712323   0.01178257 -36.54 0.0005783745    1.579    0.367
        29 -11.6860     21.0710    200.2287   2.9281626994e+02   5.3433436746e+00   0.02319189    0.0124895  46.55  0.001954603    2.032    0.508
        30 -10.5197     13.6807    197.2393   2.9288333502e+02   5.4218753077e+00   0.02490984   0.01016007  38.03  0.001932784    2.382    0.580
        31  -9.5599    194.5303    198.0343   2.9079964448e+02   4.3296846392e+00   0.02183987   0.01130968 -84.17  0.001642662    3.329    0.700
        32  -9.3307    191.3345    192.0006   2.9079928382e+02   4.4183216354e+00   0.02352297   0.01198974  89.08  0.001534669    4.568    0.781
        33  -8.4238     51.6117    197.2533   2.9244506312e+02   5.1952452787e+00  0.007012565  0.004774393  54.68 0.0005397787    1.676    0.403
        34 -11.9053     70.7293    192.3066   2.9219374554e+02   5.1379256276e+00   0.01548114   0.01216475 -38.68 0.0004653287    1.315    0.239
        35  -9.3698     32.5700    228.1143   2.9285451118e+02   4.9534353458e+00   0.01088235   0.00890278  44.07 0.0005176195    1.250    0.200
        36 -13.3227     67.4272    177.3826   2.9214010184e+02   5.3295827734e+00   0.02817024   0.01396667 -39.76  0.002228488    2.352    0.575
        37  -8.6590    103.9786    180.0117   2.9173391024e+02   5.0804905115e+00   0.01034493  0.007495354  60.75 0.0005081407    1.614    0.380
        38 -10.9235     80.3199    179.2165   2.9200238414e+02   5.2313175696e+00   0.01249396   0.01106777 -44.01 0.0003589576    1.125    0.111
        39 -11.8428     87.4419    169.6316   2.9186106545e+02   5.2990755904e+00   0.03190531   0.02695796 -37.78  0.003744929    1.209    0.173
        40  -8.6688    193.5041    156.9951   2.9055813502e+02   4.8081097284e+00  0.009377521  0.005783631  83.16 0.0006756199    2.474    0.596
        41 -10.0718     99.4057    153.4053   2.9162281329e+02   5.4142749518e+00   0.01477632   0.01211837 -50.54 0.0008294487    1.202    0.168
        42  -9.2317    102.1544    149.1176   2.9156460854e+02   5.4471740408e+00   0.01019169  0.008590724 -28.90 0.0004198205    1.253    0.202
        43 -12.0639     88.1859    152.8053   2.9174880853e+02   5.4883940145e+00   0.01433347   0.01162712 -31.41 0.0005137489    1.309    0.236
        44 -12.5774     67.0257    143.7461   2.9193764961e+02   5.7193850449e+00   0.03895084   0.02522623  56.82  0.002862046    1.849    0.459
        45 -11.5856     56.5024    130.8915   2.9198016413e+02   5.9303639916e+00   0.03368371   0.01882466 -77.36  0.002979663    2.309    0.567
        46  -8.4680    192.2771    144.2776   2.9049372004e+02   4.9618144773e+00  0.006593386  0.004953125 -27.13 0.0002497324    1.499    0.333
        47  -9.7337    110.3631    137.9932   2.9140111397e+02   5.5260483491e+00   0.01917335   0.01102409 -29.25  0.001270354    2.315    0.568
        48  -9.6931     86.6223    136.4607   2.9166613531e+02   5.6859630661e+00   0.01271036  0.009460388  53.18 0.0006005525    1.468    0.319
        49 -10.7186     97.9512    135.3772   2.9152846362e+02   5.6305663220e+00   0.01257147   0.01090883 -23.71 0.0005334787    1.218    0.179
        50 -10.5724     33.2930    132.6357   2.9225942014e+02   6.0490037336e+00   0.01363292  0.009528025  62.93  0.001230359    1.740    0.425
        51  -8.5962    116.2942    130.3609   2.9128545680e+02   5.5783430968e+00  0.007138465  0.004841096 -30.92 0.0007030792    1.703    0.413
        52  -9.3545    107.6003    124.5893   2.9135034099e+02   5.6969192490e+00  0.009894147  0.008709476 -28.38  0.001169917    1.179    0.152
        53 -10.1109      5.0009    228.0638   2.9317263799e+02   5.1184738153e+00    0.0113062  0.007764718 -27.77 0.0009549415    1.719    0.418
        54 -11.0071    173.1935    222.2594   2.9119511995e+02   4.1789860389e+00   0.01990543   0.01556354  41.58  0.002245455    1.297    0.229
        55 -10.1652    167.9657    113.0064   2.9058113907e+02   5.4677756855e+00   0.01416264   0.01160483  66.41 0.0007165094    1.372    0.271
        56  -9.1378    203.2192    111.7928   2.9016654673e+02   5.2696641839e+00  0.009473859  0.007540618 -28.77 0.0006278151    1.362    0.266
        57 -12.7853     39.6859    235.6312   2.9281843127e+02   4.8243508116e+00   0.02029229   0.01464945 -42.55 0.0007861764    1.418    0.295
        58  -9.3760    156.4833     75.5067   2.9048184568e+02   5.9681463770e+00  0.006565026  0.006439192 -30.31 5.834218e-05    1.012    0.012
        59 -11.2887      9.1144     63.6735   2.9211437490e+02   6.9872290489e+00   0.02821084  0.008742707  37.42  0.002067374    3.021    0.669
        60 -10.3635     29.1684     60.8187   2.9186442924e+02   6.9003375690e+00   0.01401093   0.01019079  40.75 0.0004905839    1.391    0.281
        61  -9.4251     20.1736     57.4038   2.9194755749e+02   6.9933500847e+00    0.0101476  0.005626747  40.45 0.0009494858    1.820    0.450
        62 -11.2159      2.1864     50.3934   2.9211272665e+02   7.1813422334e+00   0.02093249  0.007084701 -57.29  0.001599878    2.712    0.631
        63 -10.7674    171.3204    247.2968   2.9137090998e+02   3.9020330726e+00    0.0118765   0.00820394  26.61  0.000753561    1.458    0.314
        64 -10.5471    152.8931    248.8947   2.9159326634e+02   3.9941474111e+00    0.0105173  0.008844524 -25.92  0.000537692    1.269    0.212
