#   1 NUMBER                 Running object number                                     
#   2 MAG_AUTO               Kron-like elliptical aperture magnitude                    [mag]
#   3 X_IMAGE                Object position along x                                    [pixel]
#   4 Y_IMAGE                Object position along y                                    [pixel]
#   5 X_WORLD                Barycenter position along world x axis                     [deg]
#   6 Y_WORLD                Barycenter position along world y axis                     [deg]
#   7 A_WORLD                Profile RMS along major axis (world units)                 [deg]
#   8 B_WORLD                Profile RMS along minor axis (world units)                 [deg]
#   9 THETA_WORLD            Position angle (CCW/world-x)                               [deg]
#  10 FWHM_WORLD             FWHM assuming a gaussian core                              [deg]
#  11 ELONGATION             A_IMAGE/B_IMAGE                                           
#  12 ELLIPTICITY            1 - B_IMAGE/A_IMAGE                                       
         1 -14.3612    171.2998     76.8355   8.1119887606e+01   3.1797115297e+01     1.504451     1.051994  86.00  0.006812692    1.796    0.443
         2 -13.3343    118.1946     28.4538   7.8171170982e+01   5.1249020472e+01    0.8731942    0.4772945  27.97  0.003957639    2.334    0.572
         3 -14.6891     86.2608     66.7278   9.9674652820e+01   5.2031826663e+01     1.707445    0.9966857 -10.40  0.006842423    2.912    0.657
         4 -15.5139      6.5872     71.8479   1.2897637723e+02   6.0221621293e+01     1.509062    0.6686705 -55.16  0.004544585    1.684    0.406
         5 -15.2908    119.1928     54.8511   8.6453559743e+01   4.7513703892e+01     1.461468    0.9517205  30.14   0.00610258    1.710    0.415
         6 -15.1445    122.3692     36.9664   7.9963815828e+01   4.9309405583e+01     1.485085    0.5537387  42.90  0.004669788    2.688    0.628
         7 -13.9391    188.2596     25.2724   6.4921658675e+01   3.5197172640e+01     1.464094    0.6746159 -60.68  0.004948598    2.852    0.649
         8 -14.4283    207.3745     41.3726   6.6276419037e+01   2.8603439190e+01     2.906501     1.091756  83.16  0.006493881    8.958    0.888
         9 -12.8463    186.2087     14.3801   6.2524580519e+01   3.6906963848e+01    0.3922748    0.3605821   5.35  0.001945675    1.448    0.309
        10 -13.5169      9.0654      3.3122   1.0581713502e+02   7.1385786247e+01    0.5345017    0.4648239  11.91  0.003699173    1.609    0.378
        11 -15.1777     42.2565      7.1445   9.2972272137e+01   6.7211731271e+01     1.598462    0.9446273  -7.15   0.01003282    1.648    0.393
        12 -13.9251     24.9618     14.2219   1.0321286202e+02   6.8491548482e+01    0.5005819    0.3164999  18.48  0.002264477    1.438    0.305
        13 -15.1634      8.3532     29.4112   1.1646882108e+02   6.7787194266e+01    0.8451118    0.6939203  14.39  0.006639251    1.449    0.310
        14 -15.3468     14.6284     18.9726   1.0977685811e+02   6.8850468046e+01     1.107662    0.5805715 -19.66  0.004993714    1.768    0.434
        15 -14.6057    166.2808     30.3040   6.9425215851e+01   3.9873904877e+01     1.279935    0.7086102  70.87   0.00296998    1.734    0.423
        16 -14.7400    145.7060     30.7057   7.3125267141e+01   4.4728596218e+01     1.076632    0.6033207  61.31  0.004025447    1.598    0.374
        17 -15.7903     99.5907     12.7801   7.7258551146e+01   5.6795546079e+01     1.362534    0.6801687  52.79   0.00320139    1.712    0.416
        18 -12.1447    245.1989     16.4835   5.7012440573e+01   2.3331713786e+01    0.4459238     0.232453 -34.86  0.002415209    2.134    0.531
        19 -12.7177    218.8823     15.2993   5.9148750769e+01   2.9229193528e+01    0.3330444    0.2446427  85.25  0.001140869    1.144    0.126
        20 -12.8962    223.4500      5.7915   5.6744456347e+01   2.9270429815e+01    0.7323972     0.326014 -45.59  0.003812652    2.083    0.520
        21 -11.6639    229.2420      4.6231   5.6015734825e+01   2.8124598369e+01    0.2267971    0.1625871 -74.28 0.0005436133    1.144    0.126
        22 -11.0780    232.7036      1.5274   5.5126043930e+01   2.7708363843e+01    0.2295388   0.09835514  75.40 0.0006950685    2.008    0.502
        23 -11.4423    201.9869     11.5354   6.0052066637e+01   3.3516641968e+01    0.1868508    0.1777459  36.63 0.0004118458    1.401    0.286
        24 -12.6171    213.4311      9.8038   5.8506412988e+01   3.1079800792e+01    0.5075152    0.2305135  68.71  0.002549051    1.886    0.470
        25 -11.5328    126.0194      9.0026   7.0257154619e+01   5.1475936336e+01    0.1998868    0.1671174  49.55  0.001249868    1.037    0.035
        26 -11.2621    153.5318      8.1646   6.5350538659e+01   4.5239597578e+01    0.2292589    0.1521183  66.27 0.0004648606    1.264    0.209
        27 -11.5767     67.5961      4.1149   8.2812838624e+01   6.3585895213e+01    0.2553259    0.1719121  13.01 0.0008941442    1.385    0.278
        28 -11.5406     26.4172      3.9247   9.8084056397e+01   6.9550008757e+01    0.2092878      0.12769  17.12 0.0009331546    1.405    0.288
        29 -10.8445    192.8454      2.8877   5.9053624306e+01   3.6522598887e+01     0.179885    0.1480607  64.74 0.0004936676    1.228    0.186
        30 -10.7995    120.2858      3.6076   6.9638472077e+01   5.3198294846e+01    0.1788503   0.09154856  52.42 0.0006328167    1.569    0.363
        31 -12.0117     80.8439      1.7173   7.8003709242e+01   6.1411012902e+01    0.5257145    0.1128001  51.68  0.002039252    3.418    0.707
        32 -10.7090     62.4650      1.4985   8.3355253104e+01   6.4678854800e+01    0.1780845   0.08374432  38.18 0.0006753898    1.757    0.431
        33 -11.1930     59.4883      1.5247   8.4336876183e+01   6.5166012832e+01    0.2303064    0.1377124  28.36  0.001238039    1.408    0.290
        34 -11.0226    149.0135    206.9828   1.1592164641e+02   9.1406425043e+00    0.2251467    0.1785056   2.86 0.0008614945    1.688    0.408
        35 -12.5462     58.3589    245.8989   1.3958799533e+02   1.5968841342e+01    0.4591519    0.3543106  21.66  0.002852764    2.066    0.516
        36 -13.3816     28.5453    246.1690   1.4488312211e+02   1.9692793110e+01     0.463491    0.2872946  84.44  0.002791206    1.306    0.235
        37 -11.9439      2.8748    249.9010   1.4932306953e+02   2.1793285857e+01    0.2738226    0.1551302  57.72  0.001910322    1.391    0.281
        38 -14.2337      9.0779    245.4411   1.4808713243e+02   2.2002833901e+01    0.7316616    0.4117162  65.30  0.003085571    1.359    0.264
        39 -10.8257    198.4972    204.4964   1.0496944295e+02   3.6816254589e-01    0.1380122    0.1295154  16.22 -8.029932e-05    1.038    0.037
        40 -12.4754    201.6050    191.5300   1.0182136290e+02   2.2101799884e+00    0.4004805     0.297568  34.35   0.00199673    1.328    0.247
        41 -12.4149    249.2801    182.3487   9.0982973420e+01  -4.5913581343e+00    0.3777367    0.2144964 -44.38  0.001727374    1.735    0.424
        42 -11.8174    122.2801    181.7522   1.1755994697e+02   1.9727414569e+01    0.4309592     0.275547  80.30  0.001690192    2.333    0.571
        43 -12.3999     49.0524    181.4793   1.3483273638e+02   3.1301138713e+01     0.420339    0.2387977 -55.09  0.002141271    1.763    0.433
        44 -12.3762    244.6174    171.7209   8.9645528494e+01  -1.9760025761e+00    0.3331209     0.220997 -68.37  0.001477757    2.714    0.632
        45 -13.5290    124.0570    167.3115   1.1439775361e+02   2.2771745737e+01    0.7384121     0.453035 -69.91  0.003048208    2.001    0.500
        46 -11.8934    177.7292    168.5380   1.0212390935e+02   1.1577135875e+01    0.3775537    0.2975147  -4.02  0.001786125    1.627    0.385
        47 -12.1800    222.0331    166.8270   9.2717977074e+01   3.0227990027e+00     0.267664    0.2002918 -38.71  0.001131959    1.258    0.205
        48 -11.5085    193.3731    165.2033   9.8062381830e+01   9.0400968056e+00    0.2909108     0.285737  31.80   0.00125671    1.041    0.039
        49 -12.0371    206.8303    169.5968   9.6256614303e+01   5.4430306278e+00    0.2525589    0.1754297 -46.29  0.001216875    1.434    0.303
        50 -12.8153    206.1842    161.9163   9.4738169473e+01   7.0908967614e+00    0.3694365    0.2330544 -63.53  0.001531062    2.244    0.554
        51 -13.4176     22.6211    181.3313   1.4070247861e+02   3.4281016830e+01      0.53492    0.3740696 -77.46  0.002016656    1.161    0.139
        52 -12.7826     77.6094    157.2912   1.2426533944e+02   3.3244653093e+01    0.5798573    0.3481155  44.43   0.00273768    1.730    0.422
        53 -13.3453     74.0019    153.8200   1.2459334712e+02   3.4630096003e+01    0.6232827    0.5402519   8.48  0.002975818    1.474    0.322
        54 -12.5683    215.2334    155.8994   9.1662704489e+01   6.4545990571e+00    0.3555279    0.2614534 -62.57  0.001715598    1.638    0.389
        55 -13.0003    189.2066    155.8623   9.6890379720e+01   1.1844869461e+01    0.4621095    0.4019515  55.81  0.001635214    1.206    0.171
        56 -12.5231    189.5010    149.6475   9.5434685481e+01   1.3082790252e+01     0.506155    0.3201444 -27.19  0.002102193    1.952    0.488
        57 -12.7028    110.3918    154.8219   1.1532192211e+02   2.8334426404e+01    0.5723736    0.3739768  84.19  0.002184195    2.303    0.566
        58 -11.4724     94.3792    155.8121   1.1965038886e+02   3.0925830400e+01    0.2188514    0.1277515 -48.43 0.0009483444    1.716    0.417
        59 -12.0757     85.3465    153.7595   1.2161547069e+02   3.2908853672e+01    0.5342922    0.2396143 -47.46  0.002073922    2.299    0.565
        60 -11.6224     55.5370    156.0670   1.2974316501e+02   3.6600725874e+01    0.2779225    0.2079497  -2.83  0.001447551    2.035    0.508
        61 -12.8773    246.5334    150.1232   8.4836858119e+01   1.5339975278e+00    0.5889087    0.3636896 -48.38  0.002828758    1.565    0.361
        62 -12.4063    182.5400    150.4850   9.7106291754e+01   1.4405763432e+01    0.2818587    0.2729654 -52.95  0.001305606    1.018    0.018
        63 -12.0045    103.4933    149.9849   1.1612197491e+02   3.0757424791e+01    0.3712799    0.3024878 -35.77  0.001869701    1.379    0.275
        64 -11.1151     44.7502    145.2406   1.3085849255e+02   4.0511487272e+01    0.1784349    0.1386586 -48.25 0.0004864816    1.310    0.237
        65 -12.0219    148.3598    141.0029   1.0273999027e+02   2.3935843944e+01    0.5679939    0.2843392 -42.02  0.002125472    2.069    0.517
        66 -12.0079    203.5712    140.2498   9.0432377341e+01   1.1992543360e+01    0.3031351    0.1392237 -46.25  0.001141526    2.116    0.527
        67 -13.1082     42.5938    139.7315   1.3056086061e+02   4.2075902272e+01    0.3829361     0.258357 -37.16   0.00151351    1.731    0.422
        68 -12.7168    245.5266    136.1792   8.2046196652e+01   4.2470835355e+00    0.7711778    0.5181332 -79.87   0.00347165    2.472    0.595
        69 -11.6480    230.2042    138.2491   8.5055542360e+01   6.8487536109e+00    0.3134291    0.2653069 -82.25  0.001699404    1.404    0.288
        70 -10.6264     15.1674    139.1486   1.3770160133e+02   4.4788616128e+01    0.1581273     0.125442  79.57 0.0004351537    1.272    0.214
        71 -10.5970    172.3321    135.3328   9.5824465610e+01   1.9907742479e+01    0.1609827    0.1269932   1.05 0.0007052197    1.727    0.421
        72 -12.1131     61.9973    134.0737   1.2423150319e+02   4.1108098786e+01    0.4387731    0.2436225  40.17  0.001056762    1.959    0.490
        73 -11.2341    188.4967    134.5214   9.2152579048e+01   1.6467483287e+01    0.1536099    0.1490239 -54.89 0.0002242972    1.007    0.007
        74 -12.4080    132.4213    131.0816   1.0435143612e+02   2.9603192291e+01    0.5029331    0.2923177 -60.87  0.001962303    2.027    0.507
        75 -11.5186     87.8215    141.1812   1.1850064705e+02   3.5576478793e+01    0.2069374    0.1767854 -29.01  0.001089729    1.345    0.257
        76 -11.4187    186.0000    128.0029   9.1124388246e+01   1.8384325027e+01    0.3092895    0.1896212 -37.02  0.001298185    1.683    0.406
        77 -12.1861    185.2297    124.4012   9.0417857633e+01   1.9305593064e+01     0.390418    0.2285258  56.82  0.001113131    1.857    0.461
        78 -11.7993     60.1446    125.5809   1.2310311557e+02   4.3384040853e+01    0.5410614    0.2865474 -28.33  0.002062357    3.206    0.688
        79 -13.8381     32.8231    111.4887   1.2843797196e+02   4.9706934572e+01    0.6522428    0.3427054 -57.56  0.003351413    1.542    0.351
        80 -12.1937     25.3246    127.1623   1.3329491610e+02   4.6747234943e+01    0.2840565    0.1962059 -61.12 0.0008543579    1.178    0.151
        81 -13.7248     29.3155    122.6311   1.3144275105e+02   4.7451660035e+01    0.6844804    0.3033296 -57.12  0.003289123    1.785    0.440
        82 -14.5736    104.4318    123.4245   1.0997249130e+02   3.6925647107e+01     1.598387    0.8917756  41.09  0.006748975    1.864    0.463
        83 -14.8099     88.7293    112.1327   1.1170686150e+02   4.2299622617e+01     1.920857     1.264767  -2.56  0.006450619    2.583    0.613
        84 -15.1710    106.2562    107.8090   1.0554622061e+02   4.0132849105e+01     1.599797     1.068828 -33.46   0.00725772    1.637    0.389
        85 -13.6773    248.7143    113.2932   7.6658149842e+01   7.7517132626e+00    0.6071941    0.5150751 -40.34  0.003359941    1.114    0.102
        86 -13.2871    249.1692    106.9906   7.5244941437e+01   8.7746713535e+00     0.561556    0.4158377 -51.78  0.002468109    1.192    0.161
        87 -11.4209    180.5317    121.6514   9.0734900877e+01   2.0948639845e+01     0.318185    0.2415902  22.21  0.001376816    1.721    0.419
        88 -12.7357      3.8907    119.8950   1.3815234379e+02   5.0016377403e+01    0.4801404    0.3520503  10.68   0.00292399    1.799    0.444
        89 -15.3910     16.8976    109.6053   1.3287753880e+02   5.1460296927e+01     1.309168     1.110882  62.98  0.005135754    1.412    0.292
        90 -15.6243     25.9196     94.7137   1.2728579550e+02   5.4067223425e+01      1.59866     1.241564  10.57   0.01031564    1.519    0.342
        91 -14.0925      2.4736     96.9539   1.3513514982e+02   5.5191401221e+01     0.963044    0.3448516 -68.32  0.003766296    2.339    0.572
        92 -11.4047    159.2535    119.2669   9.4861333089e+01   2.6331963198e+01    0.4338512     0.219297 -44.06  0.001649064    1.959    0.490
        93 -11.9891    141.4810    117.5051   9.8689438994e+01   3.0706031074e+01    0.3399277    0.1534728 -45.03  0.001218315    2.194    0.544
        94 -12.4089    227.4556    114.2114   8.0163836647e+01   1.1937960748e+01    0.4407735    0.2335354 -47.50  0.001914332    1.755    0.430
        95 -14.8427    235.0483    104.3325   7.6748182043e+01   1.2137486024e+01     2.133563    0.6985287 -52.37  0.006483317    3.994    0.750
        96 -12.5797     45.5555    110.1967   1.2430853276e+02   4.8717529948e+01    0.5358597     0.342467 -42.31    0.0028609    1.470    0.320
        97 -12.3939     61.7238    108.5670   1.1898566222e+02   4.7149580833e+01    0.9915398    0.3206864 -59.18  0.003381909    3.221    0.690
        98 -11.7466     65.0119    102.0000   1.1641273421e+02   4.8190661683e+01    0.2720561    0.1810924  25.79 0.0007510384    1.700    0.412
        99 -12.8172     61.7573     98.4666   1.1657248018e+02   4.9408938976e+01    0.4655465    0.3329657  72.45  0.002054255    2.165    0.538
       100 -11.6603    174.9035    109.2160   8.8832107754e+01   2.4805221383e+01    0.3515516    0.2249312 -36.75   0.00130896    1.630    0.386
       101 -11.0873    121.7920    112.2063   1.0241373437e+02   3.6079437882e+01    0.2088168    0.1838148  -2.20 0.0005847557    1.307    0.235
       102 -10.7658    189.9931    104.5169   8.4577595508e+01   2.2201881645e+01    0.2337817    0.1496789  52.76    0.0010298    1.588    0.370
       103 -12.6193    135.9417    103.3252   9.6363150588e+01   3.4969655313e+01    0.5370353    0.3301913  47.21  0.001519329    1.633    0.387
       104 -11.2257    166.9683    101.9666   8.8679464907e+01   2.8126153319e+01    0.3304779    0.2160123 -42.50  0.001301354    1.525    0.344
       105 -13.4210    121.0212    101.8377   9.9865224266e+01   3.8483296436e+01    0.5995132     0.367498  48.11 0.0009882605    1.675    0.403
       106 -11.4418    150.2083    100.7641   9.2174778257e+01   3.2277757549e+01    0.4514525    0.1733097 -47.59  0.001490626    2.733    0.634
       107 -13.0710     43.1855     91.4669   1.2089740034e+02   5.3143827128e+01    0.8892992    0.3153442 -63.68  0.003078206    3.794    0.736
       108 -12.1102     49.6133     94.8400   1.1959594583e+02   5.1702180797e+01    0.2998842     0.214491 -70.00  0.001252829    1.590    0.371
       109 -12.3670     47.9872    100.5135   1.2144517975e+02   5.0637128744e+01    0.3853692    0.2952891  40.98  0.002058069    1.523    0.344
       110 -12.9245     52.1998     98.3403   1.1959450782e+02   5.0632810080e+01    0.5447825    0.3182361 -31.58  0.002006158    1.921    0.479
       111 -13.0796    243.3444     97.1921   7.3963421987e+01   1.1668797438e+01    0.4264734    0.2547424 -50.95  0.002093432    1.515    0.340
       112 -12.3534    137.1531     96.2153   9.4121114238e+01   3.6162843511e+01    0.4430021     0.344834 -53.60  0.001865369    1.339    0.253
       113 -12.9994     96.3029     92.8694   1.0439204739e+02   4.5191377019e+01     0.487976    0.3047786 -28.86   0.00216772    1.864    0.464
       114 -10.5636     76.2141     95.4357   1.1123028052e+02   4.8008798928e+01    0.1755261    0.1341664  45.93 0.0003619734    1.476    0.322
       115 -13.3763    242.3707    121.7698   7.9445092153e+01   7.4818880073e+00    0.6194546    0.4154856 -48.65  0.003169732    1.351    0.260
       116 -11.1242    157.5763     91.6586   8.8020930321e+01   3.2360669715e+01    0.2838549    0.1511697 -35.97 0.0009994794    2.013    0.503
       117 -12.5165    249.9637     82.4802   6.9929744379e+01   1.2800336813e+01    0.5807275    0.2131556 -35.87  0.002215422    2.853    0.649
       118 -13.9827    161.0071     80.5005   8.4231015848e+01   3.3622527575e+01    0.9255202    0.5758147  25.87  0.001968785    2.549    0.608
       119 -13.1130    170.7166    241.3212   1.1697267684e+02  -1.2305301333e+00    0.2690458    0.2541194 -17.99  0.001692921    1.185    0.156
       120 -13.1005     95.6785    237.1714   1.3156034598e+02   1.2217255992e+01     0.336629    0.2860633 -45.38 0.0009207758    1.565    0.361
       121 -14.1931    134.7664     79.6561   9.0037639690e+01   3.9893755963e+01     1.314675    0.8557253  27.08   0.00454362    1.990    0.497
       122 -13.4662    133.8096     67.5349   8.6710368440e+01   4.2240816546e+01     1.111928    0.7172773  30.59  0.004999836    1.859    0.462
       123 -13.1058    188.3367     84.5162   7.9866337736e+01   2.6336800346e+01    0.6463083    0.3063248  47.06  0.001464464    2.263    0.558
       124 -13.9120    112.1222     40.5635   8.3641035139e+01   5.1062909439e+01    0.8078002    0.4604248  21.62  0.002813636    2.523    0.604
       125 -14.8159    237.0716     76.0387   7.0215681944e+01   1.6580627733e+01     1.223405    0.4551127 -46.61  0.004865272    2.405    0.584
       126 -14.8379     39.1319     67.9990   1.1619478168e+02   5.8368897783e+01     3.130639    0.6179656  24.99  0.008208035    8.621    0.884
       127 -13.6486     51.3436     69.5685   1.1227259870e+02   5.6689876604e+01    0.7458073    0.5747358  86.72  0.004011239    2.333    0.571
       128 -13.7042     75.4057     74.1183   1.0544683615e+02   5.2467803651e+01     1.039726    0.5767682  24.27  0.004425336    2.157    0.536
       129 -11.9649    147.0119    238.8239   1.2138620750e+02   3.3016629924e+00    0.2158693    0.1974045 -66.88 0.0009301733    1.244    0.196
       130 -13.5728     56.7294     78.6678   1.1301792718e+02   5.4233146156e+01    0.6172058    0.4064645 -24.84  0.002141769    1.606    0.377
       131 -13.7642     60.8687     75.5627   1.1072391547e+02   5.4306545563e+01    0.6823971    0.3759104 -39.92  0.001019866    1.654    0.396
       132 -12.3304    216.5784     80.7076   7.4187981216e+01   2.0367112433e+01    0.3967164    0.2014717 -46.35  0.001559805    1.842    0.457
       133 -12.6957    210.7889     78.3334   7.4524526084e+01   2.2107232338e+01     0.476722    0.3238805 -67.31  0.002301251    1.594    0.373
       134 -13.6311     91.0932    231.4008   1.3180737464e+02   1.4109424072e+01    0.5158113    0.2743316  76.04  0.002250225    2.614    0.617
       135 -13.9353      5.1900     64.0569   1.2771287493e+02   6.1843463863e+01    0.4812667    0.4005967   3.95  0.002918532    1.388    0.279
       136 -11.9554    113.8683     80.3354   9.5714427156e+01   4.4280432126e+01    0.3783135    0.3332604 -49.49  0.001836812    1.194    0.162
       137 -11.8357     90.7262     80.2208   1.0243053354e+02   4.8737180292e+01    0.3973475    0.3111344  10.53  0.002104127    1.422    0.297
       138 -12.3527     41.8640     77.4750   1.1782392136e+02   5.6209941238e+01     0.328369    0.2389512 -42.29 0.0008972719    1.163    0.140
       139 -12.4433     24.6228    216.9005   1.4344483196e+02   2.6144185076e+01    0.6171668    0.3289384  65.84  0.003521622    1.680    0.405
       140 -13.1405    163.5035     71.5419   8.1252938443e+01   3.4586832317e+01    0.7852113    0.3987252  43.59  0.003136594    2.144    0.534
       141 -13.5292    200.1553     70.2629   7.4262979871e+01   2.5960237597e+01    0.8003677    0.3962835  63.22  0.002139202    2.037    0.509
       142 -11.6159     89.7968     87.5695   1.0485453634e+02   4.7437245102e+01    0.4078613    0.2346123  51.24  0.001787917    2.113    0.527
       143 -13.9749     20.3312    224.5031   1.4481147990e+02   2.5007760614e+01    0.4885948    0.3795949  74.20  0.001884886    1.100    0.091
       144 -11.8369     99.5412     65.0473   9.5105871928e+01   4.9888729716e+01    0.3169064    0.2611701 -42.26  0.001269445    1.280    0.219
       145 -14.4578    101.2308     50.0429   8.9731393098e+01   5.1963854462e+01    0.8679961    0.6333519  63.87  0.002096274    1.737    0.424
       146 -13.6164     78.9140     61.1184   1.0021853839e+02   5.4260247198e+01    0.5142338    0.4394023  -2.59  0.002150293    1.093    0.085
       147 -13.7180    177.7810     57.6260   7.4798042806e+01   3.3363153062e+01    0.7554606    0.5638672 -77.45  0.002508367    1.487    0.328
       148 -13.4155    242.1151     59.1183   6.5953697450e+01   1.8167880360e+01    0.4440194    0.3278483  83.93  0.002587017    1.313    0.239
       149 -12.0192     39.2085     60.7079   1.1403347406e+02   5.9735188598e+01    0.2684084    0.2232195  43.04  0.001753184    1.593    0.372
       150 -12.3189     24.5768     60.0392   1.1935441893e+02   6.1249790264e+01     0.312512    0.1760799 -44.08 0.0009948125    1.426    0.299
       151 -12.9809     63.3137     58.2571   1.0453731163e+02   5.7166456048e+01    0.3733366    0.3242872  -8.59   0.00239618    1.019    0.018
       152 -11.4912    206.2405     56.1443   6.9918251265e+01   2.6742985380e+01    0.3015434    0.2337391  -5.17  0.001542838    1.978    0.494
       153 -13.6222     66.8559     49.4190   1.0033421338e+02   5.8109735206e+01     0.555343    0.4434534 -31.40  0.002928904    1.227    0.185
       154 -11.4638    194.9242     23.7774   6.3707017104e+01   3.3790270304e+01    0.3110388    0.2444118 -14.40  0.001240707    1.753    0.430
       155 -13.0623     23.8383    230.9795   1.4464641527e+02   2.3280099256e+01    0.2492508    0.2114343 -83.55  0.001203747    1.327    0.247
       156 -13.5921     26.6407    226.2525   1.4379267957e+02   2.3941903753e+01    0.5110427    0.2693616 -76.42  0.002498905    1.636    0.389
       157 -13.4685    219.5914     41.7004   6.4830740885e+01   2.5720988604e+01    0.9422297    0.4573739  83.59  0.002937518    2.504    0.601
       158 -11.0936    136.0348     49.9614   8.0895718691e+01   4.4470851701e+01    0.2287502    0.1619551  26.16  0.001126011    1.680    0.405
       159 -11.5416     86.1230     49.7848   9.4134840058e+01   5.4856266904e+01    0.1871236     0.183393   7.03 0.0005999593    1.215    0.177
       160 -13.4232     68.4793    222.1952   1.3534718235e+02   1.9443693167e+01    0.7212195     0.353968 -58.65  0.003563099    2.114    0.527
       161 -13.8025    157.6633     44.8975   7.4965525796e+01   4.0077685497e+01     1.227971     0.351466  49.51  0.004079554    3.298    0.697
       162 -13.3729      8.7766     42.8694   1.2063689059e+02   6.5531074041e+01    0.7700073    0.5554881  49.51  0.005026194    2.367    0.578
       163 -14.3430     62.8199    214.9564   1.3571905092e+02   2.1815211907e+01     1.021354    0.6025128 -76.02  0.005490426    1.601    0.375
       164 -12.1439    227.7339    226.4492   1.0331204257e+02  -8.2842217484e+00    0.2398439     0.114673  41.72  0.001139615    2.099    0.523
       165 -10.9305    191.4939    226.4915   1.1036853179e+02  -2.2880983276e+00    0.1338949    0.1194851  24.08 0.0008105607    1.014    0.014
       166 -12.3989    201.2052    216.3768   1.0662886741e+02  -2.2354251166e+00    0.5211293     0.398999 -73.16  0.002701235    2.065    0.516
       167 -12.0892     94.5557    218.6261   1.2951935535e+02   1.6247955092e+01     0.261976    0.1793561  46.01  0.001341098    1.354    0.261
       168 -12.6271    246.6282     37.4520   6.1010038248e+01   2.0329928515e+01    0.3962628    0.2314953 -76.67  0.001397367    1.711    0.415
       169 -11.5895     25.6750     42.9819   1.1369854223e+02   6.4180361640e+01    0.1676732    0.1214661 -32.01 0.0004595986    1.124    0.110
       170 -10.9929    227.5877     37.7427   6.3044937040e+01   2.4449111054e+01    0.1866259    0.1041064 -50.48 0.0009539949    1.644    0.392
       171 -12.6427    105.3519     35.3731   8.3655500879e+01   5.3146040872e+01    0.4960749    0.2605342 -19.78  0.002278576    2.334    0.572
       172 -12.9876     75.8984     37.4015   9.3026795491e+01   5.8432867958e+01    0.3260233    0.2353889  33.24 0.0008169475    1.284    0.221
       173 -12.3265     70.4251     36.5418   9.4523004754e+01   5.9459405792e+01    0.2873354    0.2208509   4.15 0.0005784469    1.209    0.173
       174 -13.2959     33.8995     32.7367   1.0673686091e+02   6.4977182486e+01    0.4372755    0.3648768  44.94  0.002641657    1.835    0.455
       175 -13.3095     27.3488     33.4253   1.0969459416e+02   6.5553075816e+01    0.3841135    0.3243141  29.92  0.002808191    1.563    0.360
       176 -13.1737     23.4821     29.4936   1.0988922675e+02   6.6522660765e+01    0.5002363    0.2718754  -7.39  0.002827609    2.086    0.521
       177 -11.5021     45.4498     36.5136   1.0354640928e+02   6.3061231946e+01    0.2467506    0.1503997 -12.83  0.000764411    1.718    0.418
       178 -12.4731     46.7446     32.6945   1.0162414399e+02   6.3453102628e+01    0.4132215    0.2204165  -2.18  0.001928427    2.798    0.643
       179 -12.6958     99.1065    215.5158   1.2813912927e+02   1.6180109792e+01     0.405553    0.2309015 -57.07  0.001982467    1.837    0.456
       180 -13.1438    152.3568     31.4801   7.2124100756e+01   4.3064472575e+01     0.399375    0.3212748 -13.82  0.001366457    1.505    0.336
       181 -12.3242    248.1000    215.8030   9.7640491809e+01  -9.7758456227e+00     0.256128    0.2281494  32.45  0.001709003    1.343    0.256
       182 -11.4302    211.2309     33.3296   6.3944758023e+01   2.8775516086e+01    0.2150863    0.1694312 -60.68 0.0005204543    1.190    0.160
       183 -12.9861    139.3757     21.4957   7.1577020869e+01   4.7232528243e+01    0.6793343    0.3709694  69.28 0.0004914483    1.832    0.454
       184 -11.7577    216.3718     29.2399   6.2435443688e+01   2.8113393651e+01    0.2334343    0.1476758 -51.81  0.000994213    1.494    0.331
       185 -13.1108     56.0990     27.5532   9.6144646898e+01   6.2867862645e+01    0.4279309    0.2621328  37.34  0.001616134    1.609    0.379
       186 -12.1932     97.3711     26.8867   8.2837679169e+01   5.5779952151e+01    0.2636976     0.238126  10.69  0.001737908    1.094    0.086
       187 -12.0720    239.4964     24.6234   5.9113693311e+01   2.3543356724e+01    0.2899511    0.2205481 -62.21  0.001870697    1.142    0.124
       188 -11.1684    222.9483     21.7863   6.0123209651e+01   2.7544798500e+01    0.1843428    0.1505699  75.47 0.0005006399    1.202    0.168
       189 -12.7839    215.5223     20.9737   6.0712125775e+01   2.9326483859e+01    0.2672454    0.2508259 -32.84  0.001013321    1.396    0.284
       190 -11.2479    248.8995    225.8453   9.9336038824e+01  -1.1376728819e+01    0.2280891    0.1324646  25.66  0.001257001    1.683    0.406
       191 -11.5549    156.3286    214.3588   1.1559513270e+02   6.2875158529e+00     0.372453    0.2087119  34.46  0.001672162    1.796    0.443
       192 -11.2716     70.9007     16.9582   8.6912403027e+01   6.1773346441e+01    0.1808178    0.1469766  19.49 0.0004426961    1.013    0.012
       193 -11.5104     13.5999    206.2271   1.4470638289e+02   2.9602889115e+01    0.2207253    0.1525777 -76.25 0.0009633083    1.257    0.204
       194 -10.7589     60.4537     15.4668   8.9790991080e+01   6.3649011740e+01    0.1188455    0.0943367  12.73 3.672572e-05    1.008    0.008
       195 -13.7018      9.3606    211.0255   1.4585615411e+02   2.8988113313e+01    0.6888714    0.2984219  45.01  0.003590611    2.142    0.533
       196 -10.7073    136.7693    211.0062   1.1927518661e+02   1.0572783108e+01    0.1800755    0.1186543 -55.19 0.0008254359    1.629    0.386
       197 -11.3612     45.5632    208.8203   1.3861697951e+02   2.5450050696e+01    0.3070163    0.1110647 -73.10  0.001297112    2.639    0.621
       198 -12.0777    165.5997    204.2121   1.1182228247e+02   6.5735430204e+00    0.3918428     0.205556  61.44  0.001400013    3.149    0.682
       199 -13.1074     57.4265    203.8799   1.3562360039e+02   2.5024964716e+01    0.5051394    0.2713493 -85.70  0.002435708    1.965    0.491
       200 -11.2364    185.7302    204.5553   1.0760929218e+02   2.7121936124e+00     0.198357    0.1293913  49.74 0.0009458832    1.601    0.375
       201 -13.3187     39.1778    195.3064   1.3857330236e+02   2.9273028250e+01     0.433804    0.3447424  86.29  0.002797137    1.014    0.014
       202 -12.9277     16.5906    196.3639   1.4333129106e+02   3.1474466894e+01    0.8267847    0.2067729 -64.15   0.00342742    3.097    0.677
       203 -13.9180     30.1283    168.9854   1.3769463209e+02   3.6400188668e+01    0.6360492    0.3961668 -43.05  0.001139326    2.019    0.505
       204 -14.4289     13.8233    158.6814   1.4033321045e+02   4.0343306556e+01     1.488334     0.894669 -18.20   0.00750739    3.117    0.679
       205 -15.1892      7.4684    183.8333   1.4412767703e+02   3.5130855840e+01     1.404061    0.8942173 -87.00  0.008889806    1.233    0.189
       206 -14.6399     15.4903    175.3533   1.4166426146e+02   3.6338265382e+01     1.400421    0.5342593  61.94  0.005738663    3.455    0.711
       207 -10.8259    249.6046    199.8250   9.4353491079e+01  -7.5184948093e+00    0.1806745    0.1118416 -43.90 0.0009518229    1.692    0.409
