#   1 NUMBER                 Running object number                                     
#   2 MAG_AUTO               Kron-like elliptical aperture magnitude                    [mag]
#   3 X_IMAGE                Object position along x                                    [pixel]
#   4 Y_IMAGE                Object position along y                                    [pixel]
#   5 X_WORLD                Barycenter position along world x axis                     [deg]
#   6 Y_WORLD                Barycenter position along world y axis                     [deg]
#   7 A_WORLD                Profile RMS along major axis (world units)                 [deg]
#   8 B_WORLD                Profile RMS along minor axis (world units)                 [deg]
#   9 THETA_WORLD            Position angle (CCW/world-x)                               [deg]
#  10 FWHM_WORLD             FWHM assuming a gaussian core                              [deg]
#  11 ELONGATION             A_IMAGE/B_IMAGE                                           
#  12 ELLIPTICITY            1 - B_IMAGE/A_IMAGE                                       
         1 -14.1393     54.3312     67.1217   6.1809647817e+01   5.9949449510e+01     1.461666     1.187081  -0.41  0.007105393    1.537    0.349
         2 -15.1677      6.2750     70.8104   8.9802640685e+01   6.4481886036e+01     1.251319    0.9626902 -69.91  0.005847683    1.206    0.171
         3 -13.0210      7.9129      2.7152   6.3750500351e+01   8.0732136266e+01    0.6807516    0.4199091  40.78  0.003715448    1.759    0.431
         4 -16.0237     11.4032     23.2313   7.3099093379e+01   7.6174674711e+01     2.078487     1.207928 -35.25  0.009082794    1.763    0.433
         5 -14.6112     27.1581     11.5612   5.1065902888e+01   7.6328836020e+01    0.9900784    0.7118729  -5.11  0.005254532    1.747    0.428
         6 -13.3593    119.2998     26.6734   2.4053437212e+01   5.2158334662e+01     1.014342    0.7115583  32.24  0.004847193    1.962    0.490
         7 -14.0830    122.2389     36.7203   2.7273934064e+01   5.0021951470e+01     1.007959    0.5756589  39.68  0.003855924    2.429    0.588
         8 -13.4345    131.3202     33.4393   2.4467849813e+01   4.8138348625e+01      1.04147    0.4539769 -49.12  0.004134002    2.258    0.557
         9 -14.1510    141.6597     21.7365   1.8936740636e+01   4.6972490289e+01     1.411901    0.6103812  87.71  0.005427318    2.676    0.626
        10 -14.4163    147.8643     29.9904   2.0865767574e+01   4.4391388583e+01    0.9711006    0.5487208  69.84  0.003938374    1.707    0.414
        11 -14.4324    166.1880     28.3749   1.8229384211e+01   4.0119047372e+01    0.9159473    0.7626451 -85.91   0.00399562    1.131    0.116
        12 -13.5933    187.3730     22.3244   1.4646955129e+01   3.5971799541e+01      1.36882    0.5021939 -48.08  0.006120967    2.152    0.535
        13 -12.8389    187.4528     11.0870   1.1677672730e+01   3.7188990046e+01    0.5937004    0.4013461 -24.95  0.003477353    1.629    0.386
        14 -15.4001     98.9266     11.4477   2.1448920423e+01   5.9319998328e+01     1.586348    0.9789276  67.93  0.004208814    1.444    0.308
        15 -12.9946     86.0767     14.3580   2.5624722379e+01   6.2390597816e+01    0.6649745      0.40538 -62.69  0.003049796    1.907    0.476
        16 -12.4071     60.0185     15.4317   3.4549221334e+01   6.8817137521e+01    0.5313659    0.3248389  40.17  0.002519352    1.717    0.417
        17 -12.0625     46.6105     12.5900   3.8945739373e+01   7.2284620360e+01    0.3067074    0.2723677  82.98  0.001765957    1.269    0.212
        18 -12.6830    214.4415      9.6428   9.8653408993e+00   3.1670078158e+01    0.3213669    0.2312982 -65.45  0.002078848    1.140    0.122
        19 -11.3268    123.3661     10.9176   1.7387073304e+01   5.2902430366e+01    0.2378955    0.1680075 -82.01 0.0004214022    1.293    0.226
        20 -12.3315     75.0518      9.9590   2.6213012648e+01   6.5730918248e+01    0.3025659    0.2184179  -8.81  0.001178733    1.725    0.420
        21 -13.9736     41.9172      4.2359   3.5318392915e+01   7.4396585162e+01    0.7105213    0.5633287  36.62  0.003285785    1.206    0.171
        22 -11.7609    153.5194      8.6133   1.3418311052e+01   4.5418836752e+01      0.36125    0.2151736  85.28  0.001873813    1.541    0.351
        23 -12.2982    223.4272      5.2778   8.4883351147e+00   3.0364950251e+01     0.212297    0.1000239 -25.85  0.001140646    2.146    0.534
        24 -12.4378    118.2669      2.2023   1.4617718653e+01   5.5068114798e+01    0.5095332    0.2141806 -83.96  0.001970829    2.605    0.616
        25 -11.4702     67.7084      2.7234   2.4074275534e+01   6.8330894427e+01    0.3004263    0.1894128  40.80  0.001496965    1.672    0.402
        26 -11.9161     80.3417      1.4858   2.0238084818e+01   6.5171407391e+01     0.660965          nan  65.07  0.001451666    7.285    0.863
        27 -11.3916     61.1902      1.4522   2.5236070853e+01   7.0093828418e+01    0.3804073    0.1201893  66.60  0.001375229    2.801    0.643
        28 -12.1022    206.6018    162.8066   4.4181134552e+01   1.1312965496e+01    0.1724268   0.09994624 -44.87 0.0009550094    1.741    0.426
        29 -12.4136      3.1397    249.4978   9.9657453687e+01   1.9980771148e+01    0.4137707    0.1844016  34.21  0.002077303    1.532    0.347
        30 -14.1613      9.2709    245.6183   9.8229030687e+01   2.0202870955e+01    0.9683226    0.3353677  41.52  0.004063739    1.858    0.462
        31 -12.3232    110.5843    154.8421   6.3131936981e+01   2.7921918656e+01    0.5472975    0.3420981 -89.04  0.002090565    2.919    0.657
        32 -12.0495     76.8746    156.8397   7.3275679401e+01   3.2779968720e+01    0.3876035    0.2910916  22.42  0.001170583    1.375    0.273
        33 -13.1917     73.4654    153.1609   7.3780113094e+01   3.4214578569e+01    0.6490551    0.4749849  20.01   0.00204146    1.461    0.316
        34 -12.2931    188.8964    155.8994   4.5892062181e+01   1.4932873635e+01    0.2034258    0.1591587 -11.73  0.001243417    1.252    0.201
        35 -13.2443    247.0691    150.2244   3.6154284670e+01   7.9620603139e+00    0.4409759    0.3029497 -39.85  0.003125214    1.350    0.259
        36 -11.5301    103.6018    149.7213   6.4129005669e+01   3.0286803461e+01     0.318785    0.2396288 -17.75  0.001293587    1.720    0.419
        37 -11.7715      9.3368    149.4714   9.4982606909e+01   4.2354727820e+01    0.4816146    0.2046626  13.27  0.001909856    2.581    0.613
        38 -11.9626     60.7171    147.4057   7.7073597641e+01   3.7524098196e+01    0.4210842    0.2595461  -0.82   0.00165018    2.481    0.597
        39 -12.6225    248.6550    137.7626   3.3734665316e+01   9.4313678394e+00    0.2237124    0.1982788 -74.04  0.001730511    1.701    0.412
        40 -11.7646    230.1913    138.1782   3.6130901448e+01   1.1772826038e+01    0.1597758     0.123267 -45.86  0.001088086    1.352    0.260
        41 -12.2628     43.9710    132.5054   8.0893592400e+01   4.3740773769e+01    0.2343521    0.1478525  25.59  0.001033122    1.594    0.373
        42 -14.0967    104.2527    121.5840   5.8111498931e+01   3.6931885360e+01     1.274453     1.019545  55.62  0.006213843    1.275    0.216
        43 -14.9646    106.6327    106.5682   5.3725021387e+01   4.0038630554e+01     1.797349     1.350994 -76.00  0.008198789    1.559    0.358
        44 -13.8594      2.2678     96.9250   9.4610093937e+01   5.7400235584e+01       1.2842    0.3377361 -86.86  0.003868209    3.825    0.739
        45 -14.9342     24.0437     92.5033   8.3447604726e+01   5.7168601901e+01     1.630152     1.323171  20.90  0.008471888    1.290    0.225
        46 -14.9677     12.9361    103.0821   9.0148221087e+01   5.5053572495e+01     1.290884    0.9113179  24.29  0.006454069    1.454    0.312
        47 -11.9265     86.5574    114.9361   6.2186006836e+01   4.1925343720e+01    0.4150937    0.3015439  12.48  0.001264502    1.850    0.459
        48 -12.9319     81.6867    115.1055   6.3891115883e+01   4.2769332218e+01    0.4824013    0.4650213 -34.14  0.002538696    1.134    0.118
        49 -12.4921     78.7542    110.5546   6.3869982400e+01   4.4476567974e+01    0.4792138    0.3499779  70.11  0.002121125    1.588    0.370
        50 -14.3456    247.5515    113.6486   2.9378941470e+01   1.2823673982e+01    0.4142036    0.3351769 -52.27  0.003090422    1.338    0.252
        51 -10.7789     46.3164    110.3112   7.6440850643e+01   4.9646640761e+01      0.15853    0.1165077 -32.37  0.000703325    1.639    0.390
        52 -13.3056     29.2926    121.5776   8.5181878491e+01   4.8423377723e+01    0.5390378    0.3495153 -68.67  0.002498343    1.488    0.328
        53 -11.4454     62.7534    110.8678   6.9917806292e+01   4.7106084932e+01    0.3288897    0.1802891  55.06  0.001243658    2.085    0.520
        54 -10.9506     42.6665    106.6890   7.7323854797e+01   5.1130790110e+01    0.1600748    0.1151128 -32.08 0.0005957105    1.677    0.404
        55 -12.0280    136.6052    103.1230   4.4850326751e+01   3.4462922559e+01    0.4143953     0.215788  54.66  0.001658462    2.104    0.525
        56 -12.2246      4.5699    119.4784   9.5099791149e+01   5.0935894588e+01    0.5556813    0.3919095  -8.30  0.002449282    1.683    0.406
        57 -12.1765     61.5106     97.5457   6.7368239438e+01   5.0894897879e+01    0.5375249     0.330696  83.68  0.002014324    2.384    0.581
        58 -12.3726     49.2086     93.1203   7.1618823623e+01   5.4001095949e+01      0.49657    0.3457306  52.00  0.002250686    1.478    0.323
        59 -12.6900     42.7114     90.8193   7.4083403141e+01   5.5535814093e+01    0.5387177    0.3343517 -88.78  0.002221316    1.947    0.486
        60 -11.9679     47.2219     99.4993   7.3923930401e+01   5.2531740184e+01    0.5130336    0.3619833  60.25  0.002326564    1.513    0.339
        61 -12.0105     52.8219     97.4981   7.1036328359e+01   5.2275545736e+01    0.4485309    0.3044172 -24.03  0.001769238    2.040    0.510
        62 -11.1612    163.7707     97.9682   3.7825367738e+01   2.9735423005e+01    0.2005915    0.1707857 -48.89 0.0003865834    1.075    0.069
        63 -12.8409    136.5426     94.5507   4.2585715703e+01   3.6233028077e+01    0.4526225    0.3283256  66.79  0.001338923    1.535    0.349
        64 -12.2930     36.8613     92.9771   7.7313249479e+01   5.5679260817e+01    0.4734672    0.3218358   6.28  0.001455541    1.779    0.438
        65 -11.7673    230.5072     90.5067   2.6604758891e+01   1.8560189389e+01    0.1215269   0.09449169 -40.90 4.153459e-06    1.005    0.005
        66 -14.4775     18.4417    111.7153   8.8598235291e+01   5.2193452877e+01     1.162605    0.6092554   3.74  0.004696974    2.357    0.576
        67 -11.8866    249.8664     82.8637   2.3164317809e+01   1.6584644794e+01    0.4027157   0.07364759 -32.21  0.001197979    5.957    0.832
        68 -12.4297    188.6017     84.0231   3.0313849105e+01   2.7076266756e+01    0.3426298    0.1807192  45.35  0.001588666    2.385    0.581
        69 -13.4779    163.9967     71.5095   3.0837887782e+01   3.4333989701e+01    0.7776191    0.4637737  50.58  0.003671143    1.885    0.470
        70 -11.8671    158.4539     83.4988   3.5053308026e+01   3.3494663918e+01    0.2709388    0.2473498 -63.25 0.0006858867    1.016    0.016
        71 -13.0195    161.9635     79.5654   3.3367969745e+01   3.3414971087e+01    0.5746837    0.4013726  27.71  0.001984975    2.166    0.538
        72 -14.4788    169.5308     77.1095   3.1446384107e+01   3.2177849382e+01    0.9286566    0.7022313  45.02  0.003591191    1.571    0.363
        73 -13.4246     66.0883     49.0427   4.9289380494e+01   6.1725612778e+01    0.8963605    0.7033359 -47.07  0.004504777    1.320    0.242
        74 -12.3290     50.8415    248.5918   8.8955510819e+01   1.5849300399e+01     0.297446    0.2591262   3.18  0.002149599    1.347    0.258
        75 -13.4873     87.4452     65.2763   4.7323857808e+01   5.3596406014e+01    0.7694517    0.5903041  14.15  0.002621913    1.900    0.474
        76 -12.9717     55.0074     80.4096   6.5654231321e+01   5.6484260732e+01    0.7953935     0.456427 -51.67  0.003309462    1.739    0.425
        77 -13.8513     61.0963     75.4661   6.1383822216e+01   5.6684915916e+01    0.6979468    0.5269223 -44.11  0.001489368    1.400    0.286
        78 -12.1988    113.9270     79.8062   4.3997487194e+01   4.4405347925e+01    0.4456654    0.3319616 -54.38  0.002019296    1.333    0.250
        79 -12.5749    135.4661     79.4216   3.8554002344e+01   3.9463325672e+01    0.6555771    0.3206283  56.86  0.002593871    2.127    0.530
        80 -11.6466     42.5168     79.4930   7.1425543961e+01   5.8631887624e+01    0.3318284    0.2087303 -51.04  0.001244807    1.586    0.369
        81 -11.2912     41.7626     75.9520   7.0859627892e+01   5.9677677956e+01     0.239999    0.2300771  76.80 0.0007786831    1.034    0.033
        82 -13.2519     28.4415    245.2581   9.3892521942e+01   1.8601052796e+01    0.4309851    0.1949129  34.01  0.002376245    1.555    0.357
        83 -14.3532      5.2172     63.1925   8.9357427025e+01   6.6601308205e+01    0.8196964    0.7184988   2.19  0.003942105    1.205    0.170
        84 -11.7977     27.2013     75.2748   7.8492273123e+01   6.1640141740e+01    0.5583597     0.280156  85.85  0.001979447    2.909    0.656
        85 -12.5716     40.6076     68.0307   6.9183244647e+01   6.1906673645e+01     1.033926    0.2559496  32.25  0.003047432    3.683    0.729
        86 -13.2510    132.7947     66.7517   3.5297774469e+01   4.2456919158e+01    0.8329606    0.7032326  -7.30  0.004228326    1.582    0.368
        87 -11.1416    117.9947     71.7293   4.0367411696e+01   4.5082772159e+01    0.2171463    0.1997866  78.44  0.001125017    1.051    0.048
        88 -12.9506    199.8455     69.3483   2.5313028749e+01   2.7102902268e+01    0.4115429    0.2204177  64.44   0.00209223    2.144    0.534
        89 -12.0651    158.5494     64.5641   2.9789911838e+01   3.6720883452e+01    0.5822711    0.1831717 -46.81   0.00196068    3.032    0.670
        90 -11.2981     99.7889     64.9108   4.3163069753e+01   5.0792378550e+01    0.3007847    0.2116963 -64.74  0.001110484    1.593    0.372
        91 -13.1388     78.7515     59.9832   4.8535541728e+01   5.6677836869e+01    0.6491375    0.4928199 -54.36  0.003115223    1.355    0.262
        92 -13.5950    177.5496     56.7060   2.4846650207e+01   3.3636710470e+01     0.930947    0.4414259 -47.91  0.003881797    1.856    0.461
        93 -12.4071     38.8077     59.9802   6.7604415834e+01   6.4202298206e+01    0.3248709    0.2073689  74.69  0.001321445    2.347    0.574
        94 -12.3182     34.4567     60.5214   7.0321274372e+01   6.4669609380e+01    0.5457456    0.1766849 -49.00  0.001799437    3.050    0.672
        95 -11.8761     24.9055     59.0334   7.5731422962e+01   6.6194113742e+01    0.4886425    0.2343281 -56.88  0.002038954    1.928    0.481
        96 -11.7413    111.0965     58.6798   3.7762380207e+01   4.9246724585e+01    0.2902424    0.2522615  21.37 0.0003970286    1.470    0.320
        97 -14.5911    119.9044     54.6633   3.4188662648e+01   4.7770378181e+01    0.9975303    0.7015857  61.86    0.0047827    1.387    0.279
        98 -11.6614     17.6975     55.3506   7.9445425302e+01   6.7845969130e+01    0.3501629    0.2200817 -73.87  0.001662779    1.621    0.383
        99 -13.5281    103.3728     50.4694   3.6822963060e+01   5.2647258321e+01    0.9330025    0.4852403 -44.41  0.001703185    1.930    0.482
       100 -13.5339     97.8512     49.8742   3.8158398362e+01   5.4127909647e+01    0.9398412    0.4386958 -39.86  0.003560445    2.198    0.545
       101 -13.5835     91.7645     57.4198   4.2953413621e+01   5.4193325439e+01     0.573399    0.5333403 -71.22  0.002391458    1.065    0.061
       102 -13.8216     72.4030     74.7428   5.6312447582e+01   5.4698382728e+01     1.348523    0.7463374  20.41  0.003279819    3.486    0.713
       103 -12.3237    135.7935     50.0674   2.9332893162e+01   4.4548512978e+01    0.4080756    0.2940223  35.95  0.001861665    1.864    0.464
       104 -10.5386     23.6449     49.7419   7.3692522355e+01   6.8686143709e+01    0.1463585    0.1028135 -22.59 0.0003620153    1.614    0.380
       105 -11.5120    151.8118     46.6486   2.5552827756e+01   4.1116287478e+01    0.3158462    0.1696497  65.73  0.001061417    1.861    0.463
       106 -12.6460    158.6582     42.9067   2.3437413772e+01   4.0000803349e+01    0.4793392    0.4206985  53.41   0.00279899    1.353    0.261
       107 -11.5506     38.7228     46.0020   6.2350238321e+01   6.7551748219e+01    0.2027869    0.1874544 -47.77 0.0007110544    1.095    0.086
       108 -13.4752      6.1132     42.9902   8.4795899885e+01   7.1838910409e+01      1.04528    0.4646777  13.53  0.004491198    2.292    0.564
       109 -11.6914    246.5090    234.4992   4.9454576956e+01  -2.2194239043e+00    0.0986186     0.066298  -8.61 6.785677e-05    1.002    0.002
       110 -12.5210     23.4634    216.4780   9.3940869206e+01   2.4819323310e+01    0.7352274    0.2276741  45.58  0.003167753    2.340    0.573
       111 -13.4551    219.6203     41.4958   1.6885529284e+01   2.7033793445e+01    0.4130068    0.2830825 -79.59  0.001726441    1.497    0.332
       112 -13.0749    205.0113     40.0018   1.7696928200e+01   3.0084775963e+01     1.094731    0.4036793 -77.69  0.003088258    7.232    0.862
       113 -13.5817     26.2892    226.3555   9.3650466210e+01   2.2492745053e+01    0.6362317    0.4051986 -50.56  0.003651619    2.097    0.523
       114 -14.0279     20.7738    224.0024   9.4907991880e+01   2.3477010268e+01     0.555186    0.4682076 -11.79  0.002489027    1.542    0.351
       115 -12.1063    110.0126     42.0082   3.1884432640e+01   5.2377806631e+01    0.3978972    0.2014657  60.26 0.0006830383    1.867    0.464
       116 -13.1897    113.8499     37.7494   2.9378322709e+01   5.2042593060e+01    0.4177637    0.3514839 -55.49  0.001326309    1.163    0.140
       117 -11.4607    248.6546    226.3193   4.8017652342e+01  -1.5126403469e+00   0.08105741   0.07146839 -13.68 0.0007049264    1.727    0.421
       118 -13.6007     65.8582    223.2335   8.3711513305e+01   1.9072205194e+01    0.7573448     0.613399  49.58  0.004864686    1.154    0.133
       119 -12.2555     40.3343     40.3450   5.8826110937e+01   6.8541373186e+01    0.6058192    0.2946472  40.79  0.002524327    1.997    0.499
       120 -12.7064     32.8179     40.1832   6.3631347032e+01   6.9770952246e+01    0.3575682    0.3024575   6.88 0.0009593936    1.242    0.195
       121 -12.6053     75.9617     37.0135   3.9844395434e+01   6.1728953264e+01    0.4524978     0.305406  45.76  0.001323634    1.472    0.321
       122 -11.8551     70.8364     36.0942   4.1367188219e+01   6.3100229724e+01    0.3373697    0.2689283 -84.23 0.0009111598    1.482    0.325
       123 -12.3134    105.2802     34.5655   3.0063972347e+01   5.4735505905e+01    0.5270761    0.3198845 -11.52  0.002103946    2.702    0.630
       124 -12.2657    241.6815     36.0671   1.4226546682e+01   2.3704807061e+01    0.2562467    0.1580285  86.91  0.001683651    1.856    0.461
       125 -11.9332     40.2649     24.5967   5.0466891642e+01   7.1678784568e+01    0.2732204    0.2022714 -66.89  0.001376561    1.807    0.447
       126 -12.9413     45.4795     33.3488   5.2227578088e+01   6.9047063675e+01     1.144379    0.4768893  42.26   0.00444821    2.301    0.565
       127 -12.3177     42.6001     29.2009   5.1688996628e+01   7.0387672358e+01     0.302688    0.2355752 -10.60  0.001107272    1.583    0.368
       128 -12.5705    248.8816    216.0717   4.6519052703e+01  -3.9246488396e-01    0.2138645    0.1333551  23.47  0.001657783    1.676    0.403
       129 -12.6684    237.5946    214.0042   4.7811571275e+01   8.6867008476e-01    0.2318945    0.1663814 -47.57  0.001644474    2.310    0.567
       130 -13.2836    142.5161     29.9891   2.1585745206e+01   4.5737114159e+01    0.6036834    0.4046957 -83.82  0.002483635    1.468    0.319
       131 -12.7557     72.2326    206.7180   8.0648550785e+01   2.1736919002e+01    0.3505471    0.2916843  83.36  0.002127752    1.359    0.264
       132 -14.0677     64.5786    214.1557   8.3288116837e+01   2.1067905774e+01     0.588872    0.2955696  37.81  0.002921385    1.592    0.372
       133 -10.5436    198.6609    204.3297   5.2498385257e+01   6.1517656810e+00   0.09644807   0.09280388  58.20 0.0007051803    1.738    0.424
       134 -13.5705     57.8857     26.6289   4.2030256111e+01   6.7659414655e+01     1.188045    0.3621421  48.73   0.00374131    3.008    0.668
       135 -12.3591     30.7254     25.5448   5.7615000759e+01   7.3183834936e+01    0.3892946    0.2389766  23.91  0.001838909    1.798    0.444
       136 -12.3913     35.4136     23.4680   5.2996662081e+01   7.2780339837e+01    0.2984351    0.2551228   9.66 0.0009600681    1.224    0.183
       137 -11.3552    185.4838    203.5015   5.4705832815e+01   7.8122546953e+00    0.1179949   0.09561614  -3.54  2.43366e-05    1.008    0.008
       138 -12.8338    248.5633    196.8341   4.3675910918e+01   1.8795171417e+00     0.430816    0.2010239 -42.29  0.002591731    2.354    0.575
       139 -11.2239     51.2321     20.4063   4.1632707457e+01   7.0123669840e+01    0.2629482    0.1249143  51.94  0.001104701    1.959    0.490
       140 -11.9633     46.4186     19.9872   4.3938518130e+01   7.1225546483e+01    0.4403019    0.1966009  39.58  0.001748279    2.379    0.580
       141 -11.6985     71.0135     16.4954   3.1096427458e+01   6.5992549083e+01    0.2593404    0.2173698 -35.09 0.0006689915    1.298    0.229
       142 -11.8729     17.1273    195.6565   9.4737169038e+01   3.0049694934e+01    0.3144934     0.214207 -61.33   0.00167022    1.726    0.421
       143 -13.1001    218.9325     15.7409   1.1048038806e+01   3.0145865152e+01    0.2436479    0.1759635 -83.24   0.00139283    1.361    0.265
       144 -12.6084     40.1812    195.1559   8.8312362697e+01   2.7962548103e+01    0.3365605    0.2239996  62.65  0.001800069    1.435    0.303
       145 -13.1594     22.1995    180.8948   9.2574513798e+01   3.3154662207e+01    0.6131491    0.3682774 -67.83   0.00309009    1.786    0.440
       146 -15.1766      7.5578    181.9286   9.6912644295e+01   3.4121286779e+01     1.656234     1.229138  69.97  0.009656359    1.204    0.169
       147 -14.2810     14.8771    174.6635   9.4444738437e+01   3.5344801471e+01      1.57615    0.4602308  47.00  0.005886885    2.676    0.626
       148 -13.1438    249.4496    182.6452   4.1317905001e+01   3.5239018165e+00    0.3439381    0.1215251 -36.27   0.00187599    2.245    0.554
       149 -13.2871     29.8341    169.3610   8.9512009284e+01   3.5348627707e+01     0.704687    0.5001922 -31.37  0.002941607    1.837    0.456
       150 -12.6376    216.2322     28.4679   1.4130962289e+01   2.9249470575e+01    0.2386484    0.1419259 -37.43  0.001305547    1.383    0.277
       151 -11.5097    206.2223    190.7851   4.9066408827e+01   7.2038573422e+00    0.1632736    0.1121917  -9.37  0.000640583    1.330    0.248
       152 -12.7962    124.2617    166.6900   6.1687021112e+01   2.3068540391e+01    0.5837854    0.3878084 -67.79  0.002764862    1.950    0.487
       153 -11.0650    192.9930    164.6996   4.6812174901e+01   1.2893615651e+01    0.1739042    0.1498619  -4.22  0.001159616    1.074    0.068
       154 -12.6219    243.0856    162.8489   3.8863569225e+01   6.7522071801e+00    0.1659321    0.1312496 -34.46  0.001254587    1.287    0.223
