#   1 NUMBER                 Running object number                                     
#   2 MAG_AUTO               Kron-like elliptical aperture magnitude                    [mag]
#   3 X_IMAGE                Object position along x                                    [pixel]
#   4 Y_IMAGE                Object position along y                                    [pixel]
#   5 X_WORLD                Barycenter position along world x axis                     [deg]
#   6 Y_WORLD                Barycenter position along world y axis                     [deg]
#   7 A_WORLD                Profile RMS along major axis (world units)                 [deg]
#   8 B_WORLD                Profile RMS along minor axis (world units)                 [deg]
#   9 THETA_WORLD            Position angle (CCW/world-x)                               [deg]
#  10 FWHM_WORLD             FWHM assuming a gaussian core                              [deg]
#  11 ELONGATION             A_IMAGE/B_IMAGE                                           
#  12 ELLIPTICITY            1 - B_IMAGE/A_IMAGE                                       
         1 -13.7309    209.7420     34.7393   1.5819065946e+01   2.9703869525e+01      2.58117     1.032993  66.06   0.01273493    2.691    0.628
         2 -13.9859    190.8273     23.8948   1.4663227927e+01   3.4855156628e+01     1.979874    0.5981721  59.52  0.008010315    3.588    0.721
         3 -15.3122    230.0615      7.8019   8.6657303194e+00   2.8776076031e+01     4.298668     1.320573  80.66   0.02057938    3.495    0.714
         4  -9.8080    116.3280     12.3394   1.9140128666e+01   5.4149182983e+01    0.2224608    0.1834445  65.84  0.001271064    1.185    0.156
         5 -11.4433    120.3501      8.9198   1.7254323649e+01   5.3445484922e+01    0.4452206    0.3770835  61.80  0.001713535    1.230    0.187
         6 -10.2478    172.0919     10.8091   1.2645612663e+01   4.0448120864e+01    0.2015671     0.141304 -66.06 0.0005001448    1.198    0.165
         7 -10.1215    145.8422    221.0866   6.4272248184e+01   1.0269227701e+01    0.1787985     0.147177  32.85 0.0005392148    1.307    0.235
         8 -19.3011    231.3155    126.0025   3.2971331251e+01   1.3654937478e+01     5.869544     5.018832 -24.47   0.03440396    1.089    0.082
         9  -9.4504    119.6664    197.1620   6.6864783482e+01   1.7857309377e+01    0.1728582    0.1546774  -8.11 0.0003771576    1.125    0.111
        10  -9.1160     69.5265    195.9891   7.9657155169e+01   2.4676656503e+01    0.1802063    0.1375465 -73.48 0.0003668871    1.503    0.335
        11 -10.5636    135.2591    248.9493   6.9856687656e+01   7.1805672709e+00    0.3624902    0.1906617  48.75  0.001850942    2.912    0.657
        12 -15.0036    192.2797    156.4548   4.4638697289e+01   1.4663914627e+01     1.320953    0.9700893 -60.00  0.007593417    1.925    0.481
        13  -9.3704     60.0619    156.0013   7.7787206482e+01   3.5445537506e+01    0.2668988    0.1961377 -80.36  0.001314622    1.468    0.319
        14 -12.6545    192.4173    194.1285   5.1166095754e+01   8.7833551569e+00     0.843725    0.4678008 -58.68   0.00364819    4.260    0.765
        15 -10.3595    174.3781    188.8773   5.3662959721e+01   1.1887463359e+01    0.2717941    0.2409167  73.91  0.001716892    1.826    0.452
        16 -12.1266     68.3269    144.1969   7.3347191481e+01   3.7343337374e+01    0.8410618    0.4757018  58.12  0.003045907    2.081    0.520
        17  -9.7384    200.9599    197.2147   5.0169738947e+01   7.3177803562e+00    0.2311347    0.1794861 -48.72 0.0005290757    1.773    0.436
        18  -9.8480    204.5182    200.0519   5.0013974675e+01   6.5099422233e+00    0.2495941    0.1701607 -13.94  0.001259557    1.265    0.210
        19  -8.9888     63.1261    181.8896   7.9959441855e+01   2.8683492565e+01    0.1802991     0.161095  -8.49            0    1.268    0.211
        20 -10.7320    150.9537    180.4561   5.7074064414e+01   1.6582594248e+01      0.22923    0.2027632  87.62 0.0008830989    1.633    0.388
        21 -10.8000     79.1146    125.6319   6.6345585074e+01   4.0439168887e+01    0.3113465    0.2277933 -50.39 0.0008881545    1.425    0.298
        22 -10.3489     42.5822    124.7180   7.9601257063e+01   4.5968940082e+01    0.2628893     0.246522  45.74 0.0003337444    1.040    0.039
        23 -13.4341     58.9611    104.2115   6.9275639042e+01   4.9292310792e+01    0.9526142    0.9153418  54.73 0.0007275982    1.013    0.013
        24 -13.8076     73.7341    108.9840   6.4642633916e+01   4.5620236145e+01      1.57759     1.360779  -8.70   0.00364556    1.381    0.276
        25 -13.7617     37.7898    102.4971   7.7958377751e+01   5.2648300407e+01     1.151306     1.024021 -75.36  0.003530435    1.113    0.102
        26 -10.4335    102.5956    102.8170   5.3329881113e+01   4.1627856301e+01    0.2799335    0.2469418  56.66 0.0007568032    1.119    0.106
        27  -9.6213     99.9695     99.2848   5.3207080536e+01   4.2980925515e+01    0.2588713    0.2152814 -41.34 0.0004467919    1.274    0.215
        28 -11.3971      2.3453     96.4026   9.3679390380e+01   5.7234118071e+01    0.3861417    0.3255718 -15.56  0.002006486    1.292    0.226
        29  -9.9015     99.3423    109.0662   5.5936264691e+01   4.0824938381e+01    0.2989091    0.2195995  49.08 0.0005321127    1.347    0.257
        30  -9.9023    171.3650    176.6293   5.2184034456e+01   1.4328683024e+01    0.2924092    0.2146975 -52.65  0.001567553    1.664    0.399
        31 -12.4686     66.3674    104.9019   6.6487954620e+01   4.7923452513e+01    0.8794771    0.5589644 -34.41  0.002944375    2.010    0.502
        32 -10.2705    101.0188    175.9995   6.8516712713e+01   2.4877644985e+01     0.200686    0.1822014  25.52  0.001158705    1.011    0.011
        33 -12.0682    130.7056     82.5337   4.0052698190e+01   3.9793932754e+01     0.544647    0.4072185 -20.60  0.002084372    1.741    0.425
        34 -11.0953    140.6283     79.2707   3.6909175716e+01   3.8146955040e+01    0.4572656    0.3023948 -28.09  0.001934212    1.805    0.446
        35 -11.6099    143.9692     59.4230   3.0459617990e+01   4.0787707237e+01    0.5965642    0.2961676 -53.08  0.002407945    2.145    0.534
        36 -11.9008    150.4623     71.9606   3.2893344942e+01   3.7193160647e+01     0.543292    0.3402079 -27.57  0.001652901    1.893    0.472
        37 -12.3500    144.9813     70.5776   3.3544024146e+01   3.8689114939e+01    0.9259767    0.5253915 -14.69  0.003127144    3.924    0.745
        38 -10.3202     87.1326     79.6562   5.1781657275e+01   5.0155608952e+01    0.2896959    0.2340042 -32.00 0.0006553281    1.429    0.300
        39 -11.0692    129.7573     74.3295   3.7872242969e+01   4.1563567764e+01    0.4920145    0.3191753   7.91  0.001682458    3.813    0.738
        40  -9.8650    208.3822    198.7445   4.9164806553e+01   6.2547117969e+00     0.274667    0.2035979 -12.75  0.001524354    1.081    0.075
        41  -8.8281    105.6157     74.1460   4.4087663927e+01   4.7225600540e+01     0.212395    0.1465477 -32.38   0.00093369    1.708    0.414
        42  -9.4897    221.2207     68.9590   2.2482030546e+01   2.3210861177e+01    0.5660909    0.3502237  59.32  0.003424855    1.937    0.484
        43 -11.0852    214.1906     65.2061   2.2361552776e+01   2.4978636276e+01    0.4658862     0.265106 -64.78  0.001755336    2.008    0.502
        44 -10.9861    219.1290     62.5441   2.1286714674e+01   2.4435548669e+01    0.6254457     0.340111  88.87   0.00321753    2.621    0.618
        45 -11.1617    236.7034     61.6166   1.9529980594e+01   2.1515227012e+01    0.8425784    0.1850443  58.96  0.003454659    4.957    0.798
        46 -11.4010    232.0883     65.0000   2.0625236644e+01   2.1857842161e+01    0.2771139    0.1691019  73.83 0.0008200853    2.030    0.507
        47 -12.1112    228.8560     68.9475   2.1746151031e+01   2.1893044538e+01    0.3053361    0.2279022 -38.07 0.0005786429    1.121    0.108
        48 -11.6218    232.9467     67.9844   2.1170482488e+01   2.1330519958e+01    0.2265327    0.1860582 -81.21 0.0005698732    1.362    0.266
        49  -9.8416    241.4732     71.5781   2.1152414946e+01   1.9485715602e+01      0.20125    0.1542124 -44.42 0.0007448331    1.019    0.019
        50 -10.2479    172.0380     65.0140   2.7441786106e+01   3.3487546782e+01    0.3389671    0.2020974  64.43 0.0008692695    1.781    0.438
        51 -11.7116      7.6764     81.5592   8.9479621574e+01   6.1049546787e+01    0.4753045    0.1825646 -59.40  0.001848383    2.293    0.564
        52 -10.4028    134.3156     60.4430   3.2642954143e+01   4.2934448469e+01     0.285129    0.2327779   2.69  0.001429731    1.728    0.421
        53 -11.2834    230.8500     57.3075   1.9116395277e+01   2.3043743116e+01     0.370612    0.1951534  57.40  0.002089879    2.352    0.575
        54  -9.1687    238.9327     56.0329   1.8205287637e+01   2.1836460104e+01     0.126922     0.121318 -44.90 0.0004104522    1.296    0.229
        55 -10.4258    218.0799     56.9005   2.0140089242e+01   2.5363171003e+01    0.2844002    0.1954271  50.51  0.001757669    1.888    0.470
        56  -9.3155    223.2550     54.7819   1.9216598036e+01   2.4696411009e+01    0.2432145    0.1108879  62.92  0.001076129    2.544    0.607
        57  -8.4257    201.2724     57.2769   2.1875815017e+01   2.8512263167e+01    0.1085308   0.09678152   2.37 0.0001785201    1.490    0.329
        58 -11.0490    156.4060     55.1732   2.7099264249e+01   3.8517422110e+01    0.2988231     0.245923 -42.82  0.001013353    1.187    0.157
        59  -9.8340    245.8580     56.3380   1.7746274220e+01   2.0671832303e+01    0.1432102    0.1196088 -77.68 0.0002702387    1.323    0.244
        60  -9.9552    249.6791     51.7696   1.6568985047e+01   2.0606594035e+01    0.1553339    0.1294904 -87.59 0.0007637836    1.402    0.287
        61 -10.1357    232.0135     51.1656   1.7728252211e+01   2.3603321779e+01    0.2212758    0.1800933 -19.93 0.0008422647    1.458    0.314
        62 -10.5015    227.8284     49.4789   1.7696044984e+01   2.4542256754e+01     0.367824    0.1925199 -52.32   0.00211474    1.603    0.376
        63  -8.8911    237.6005     50.7523   1.7220065909e+01   2.2699814620e+01   0.09724824   0.08454035  22.19 0.0005269641    1.689    0.408
        64  -8.9425    104.4578    248.0080   7.6299641357e+01   1.0667147284e+01    0.1408923    0.1184011 -48.72  0.000356965    1.509    0.337
        65 -10.9349    122.0905    172.1622   6.2421692186e+01   2.2525907302e+01    0.2329546    0.2116406 -87.39 0.0004989491    1.344    0.256
        66 -10.0269    175.8512     40.8878   2.0518436616e+01   3.6071160117e+01    0.2966856    0.1758355  45.60 0.0009280807    2.265    0.559
        67 -12.7824    235.5958     25.6629   1.2143277694e+01   2.5925173176e+01     1.362992    0.2914651  72.92  0.005580498    5.009    0.800
        68 -10.3324    137.0427    242.9722   6.8817819641e+01   7.8746607979e+00    0.1880869    0.1437118  15.71  0.000916273    1.017    0.016
        69 -10.2088    168.8835     30.3430   1.8388176337e+01   3.8997160056e+01    0.1853382    0.1561824  87.81  0.001135545    1.153    0.133
        70  -9.8379    102.3062    167.3235   6.6812685144e+01   2.6614948411e+01    0.1461881    0.1093897 -15.04   0.00031947    1.643    0.391
        71 -10.4141    135.7961     15.8584   1.7732763689e+01   4.8750831137e+01    0.2854623    0.1479488 -73.24  0.001241158    2.112    0.527
        72 -10.6497    233.2675    210.3430   4.7054091964e+01   2.1646327172e+00      0.32458    0.1312351  32.77  0.001902271    2.634    0.620
        73  -9.9936    232.8187    224.0640   4.9120359708e+01   5.7911291109e-01    0.2629718    0.1149148  38.55  0.001484343    3.340    0.701
