#   1 NUMBER                 Running object number                                     
#   2 MAG_AUTO               Kron-like elliptical aperture magnitude                    [mag]
#   3 X_IMAGE                Object position along x                                    [pixel]
#   4 Y_IMAGE                Object position along y                                    [pixel]
#   5 X_WORLD                Barycenter position along world x axis                     [deg]
#   6 Y_WORLD                Barycenter position along world y axis                     [deg]
#   7 A_WORLD                Profile RMS along major axis (world units)                 [deg]
#   8 B_WORLD                Profile RMS along minor axis (world units)                 [deg]
#   9 THETA_WORLD            Position angle (CCW/world-x)                               [deg]
#  10 FWHM_WORLD             FWHM assuming a gaussian core                              [deg]
#  11 ELONGATION             A_IMAGE/B_IMAGE                                           
#  12 ELLIPTICITY            1 - B_IMAGE/A_IMAGE                                       
         1 -13.8772    217.4932      7.6752   3.7796560521e+01   2.9917745244e+01     2.442379     1.483874  42.26   0.01188425    2.185    0.542
         2 -13.1329    176.7941     52.9509   5.5342555930e+01   3.4256208184e+01     1.803294     1.125215  33.56  0.003963894    2.041    0.510
         3 -13.5470    191.5736     39.6637   4.9143384513e+01   3.2432131140e+01     1.138837     1.028901  50.47  0.004162159    1.171    0.146
         4 -12.9680    196.6633     33.6886   4.6784150824e+01   3.1947101060e+01    0.8490229    0.7156217  60.60  0.001121206    1.193    0.162
         5  -8.9538     58.7699    250.7924   1.2090676319e+02   1.5776547300e+01    0.1213446   0.06941673  42.95            0    1.498    0.332
         6 -12.1520    247.9555    247.5298   8.6091360963e+01  -1.1092949611e+01    0.6027368    0.4183235   6.79  0.004259568    1.130    0.115
         7  -9.3386     61.5406    219.9057   1.1796870950e+02   2.1162982710e+01     0.156036    0.1194777 -58.33 0.0006728926    1.581    0.368
         8  -7.5747     48.9943    218.5499   1.2028101805e+02   2.2984676510e+01    0.2970725    0.1656911  73.48  0.001703915    1.707    0.414
         9 -10.1869     56.2658    217.7985   1.1881355541e+02   2.2247143086e+01    0.3053394     0.143588  77.35  0.001431603    2.631    0.620
        10  -9.6906    184.4964    212.0015   9.1854041061e+01   3.2697058503e+00    0.1880494    0.1295964 -39.32  0.001037108    1.603    0.376
        11  -9.7121     56.7599    210.3828   1.1806439777e+02   2.3687453383e+01    0.2700319    0.1491436 -63.09  0.001481439    1.851    0.460
        12 -10.2174     30.8834    210.5812   1.2315059802e+02   2.6643343905e+01    0.1647985    0.1010886  49.20 0.0004040764    1.441    0.306
        13 -11.2216     33.6949    207.2518   1.2236861073e+02   2.7023107337e+01    0.3193153    0.1504981  72.27  0.001072373    2.137    0.532
        14  -8.5467    174.3384    210.3256   9.3611480995e+01   5.2860973167e+00    0.1377874   0.09774818   6.39 0.0007051449    1.725    0.420
        15  -9.9775     43.9577    210.0571   1.2057867585e+02   2.5295023728e+01    0.1765459    0.1163259  67.68 0.0003023019    1.282    0.220
        16  99.0000     42.6443    206.1959   1.2052501171e+02   2.6243974583e+01    0.2828833    0.1985853 -42.83  0.001698771    2.156    0.536
        17  -9.1936    167.9240    231.5795   9.8225185642e+01   2.9063087162e+00    0.1843363    0.1602968   2.71  0.001213241    1.221    0.181
        18 -10.5239     66.4750    204.5315   1.1551552332e+02   2.3655221033e+01    0.2890776    0.1890062 -45.79 0.0007569391    2.081    0.520
        19  -9.0023     70.7466    200.2954   1.1416951480e+02   2.3979073582e+01    0.1695416    0.1410278  62.43 0.0005318249    1.071    0.066
        20 -10.8069    192.8583    194.7965   8.7111298233e+01   4.6702623921e+00    0.9202123    0.5035821 -63.83   0.00292855    5.507    0.818
        21 -12.3199     57.1673    197.6024   1.1676877703e+02   2.6322247946e+01     0.749384    0.2203915 -56.29  0.002951363    3.536    0.717
        22 -10.8665     59.4961    193.5324   1.1585694600e+02   2.6909444782e+01    0.2520199    0.2074095 -81.44 0.0001041482    1.148    0.129
        23  -8.2992     87.6496    202.7064   1.1083439476e+02   2.1085329254e+01    0.1190866    0.1030425 -12.14 0.0006361326    1.677    0.404
        24  -8.9480     41.5589    232.3591   1.2267303146e+02   2.1182245354e+01    0.1077785   0.08595402  66.75 9.568386e-05    1.103    0.093
        25  -9.9198     35.9761    197.8146   1.2118231633e+02   2.8753901045e+01    0.1662251    0.1138916  61.26 0.0004458379    1.256    0.204
        26 -10.6001    140.2680    195.1122   9.8259897237e+01   1.4056199325e+01    0.3180504    0.1243621 -53.83  0.001216833    2.912    0.657
        27  -9.8069     81.9927    194.8359   1.1110435637e+02   2.3578239132e+01    0.2297896    0.1883481  79.47 0.0004697929    1.117    0.105
        28 -10.9233    201.8420    199.0780   8.6127287050e+01   2.3885069163e+00    0.3183036    0.1789591  33.19  0.001558373    1.662    0.398
        29 -10.5671     95.3411    188.5785   1.0730264470e+02   2.2939910332e+01    0.4448684    0.3024026  81.88  0.002167126    1.708    0.414
        30 -10.9863     98.9650    181.3804   1.0542830984e+02   2.3953790660e+01    0.5204434    0.3093347 -45.19  0.001483012    1.973    0.493
        31 -19.5330     18.9484    146.1586   1.2028430264e+02   4.2070345828e+01     19.27386     4.601257 -75.38   0.06591173    3.940    0.746
        32 -11.1700    149.3760    187.9123   9.5028096117e+01   1.3844835529e+01    0.3656246    0.2846103  51.09  0.001036276    1.274    0.215
        33 -10.5138    150.2960    178.6856   9.3143324504e+01   1.5527175744e+01    0.4410922    0.2538313 -63.88  0.001278849    2.449    0.592
        34 -11.3728    144.1763    178.5428   9.4498849783e+01   1.6698728739e+01    0.5000291    0.2810055 -53.05  0.001639102    1.925    0.481
        35 -10.4041    189.1481    177.1674   8.4443536468e+01   8.4499834001e+00    0.4777022    0.3552111 -59.59  0.002393482    1.782    0.439
        36  -9.3760     59.1116    176.8209   1.1408360419e+02   3.0690281186e+01    0.1829862    0.1607942  85.66 0.0004289229    1.054    0.051
        37 -12.1787    249.5068    227.5150   8.2505524228e+01  -8.9970810624e+00    0.4751364    0.3740428  -2.27  0.003363326    1.112    0.100
        38  -9.4643     84.1738    173.5000   1.0775017455e+02   2.8012839820e+01    0.2212457    0.1490326 -71.16 0.0002534038    1.463    0.316
        39  -8.9309     63.5605    172.7695   1.1254934780e+02   3.1052496927e+01    0.4816932    0.2001431  54.87  0.001949361    2.769    0.639
        40 -10.3859     58.9176    229.7397   1.1929782755e+02   1.9587225314e+01    0.1680613     0.131562  81.31 0.0004959929    1.130    0.115
        41  -8.1582    194.6471    172.7043   8.2403338440e+01   8.2182997403e+00    0.1496407    0.1063446   6.82 0.0007033361    1.687    0.407
        42 -10.5453    139.0186    171.7031   9.4407240511e+01   1.9096631111e+01    0.4744293    0.2455143  48.96   0.00167214    1.981    0.495
        43 -10.0581    240.3934    169.2105   7.3010473320e+01   5.0845972009e-01    0.1830433    0.1153833 -40.01 0.0004609399    1.611    0.379
        44  -9.3008    231.0000    169.0072   7.4633807484e+01   2.1650178574e+00    0.2258102     0.071785 -36.79 0.0008052873    2.962    0.662
        45  -8.9314    187.6715    163.1945   8.1846277632e+01   1.1333929976e+01    0.2987319    0.1286224 -48.72  0.001084104    2.698    0.629
        46 -11.1608     50.3881    224.7343   1.2050130067e+02   2.1600635497e+01    0.2113425    0.1310224  75.20 0.0007393925    1.441    0.306
        47 -11.6582     95.6484    151.5175   1.0129197445e+02   3.1374082273e+01    0.6188557    0.4901526 -19.55  0.001953605    1.697    0.411
        48  -9.7973    187.8756    152.1083   7.9372833057e+01   1.3416601655e+01    0.2709529    0.2537799  77.76  0.001480817    1.274    0.215
        49 -10.5078    134.2833    147.5565   9.0662906118e+01   2.5307759564e+01    0.8638083    0.2599271 -53.51   0.00247153    3.907    0.744
        50  -9.8354    133.0000    140.9919   8.9539229223e+01   2.7042053154e+01    0.5785899    0.2119544 -53.35  0.001853146    3.022    0.669
        51  -9.4716    113.4069    151.1029   9.6649367075e+01   2.8426509522e+01    0.3249067    0.2233544  75.76  0.001423185    1.985    0.496
        52  -8.4694    139.3715    150.7506   9.0102000386e+01   2.3592603452e+01    0.2058834    0.1406095 -39.70 0.0003729703    1.537    0.349
        53  -9.6755    174.4305    148.8730   8.1538581801e+01   1.6830161250e+01    0.3079553    0.2756042 -78.95 0.0007664908    1.346    0.257
        54  -9.3659    108.9242    147.0026   9.6983939561e+01   3.0184237694e+01    0.2197459    0.2052012  85.95  0.000334827    1.062    0.058
        55  -9.7916    143.5793    145.3217   8.7891994578e+01   2.3950859594e+01    0.2979149    0.1482614 -52.40  0.001129779    2.137    0.532
        56  -9.9931     86.8838    143.5729   1.0213286390e+02   3.4672721885e+01    0.5563372     0.256118  58.00  0.001912232    3.368    0.703
        57 -10.9382    107.5765    138.2053   9.5524136364e+01   3.2499749161e+01    0.5666118    0.4389867 -45.23  0.002836721    1.296    0.229
        58 -11.6282     95.4821    137.4235   9.8617562627e+01   3.4771121482e+01    0.2923647    0.2779827 -57.62 0.0002954187    1.057    0.054
        59 -10.6270    105.9128    130.7315   9.4350099130e+01   3.4568808545e+01    0.3881299    0.3278149 -63.50  0.001315507    1.168    0.144
        60  -8.3460    101.5560    132.5531   9.5940402153e+01   3.4904722530e+01     0.148551    0.1401878 -75.95 7.967367e-05    1.033    0.032
        61 -10.4026    135.7931    128.1423   8.5833240685e+01   2.9376684011e+01    0.6637571    0.1771303 -51.00  0.001730163    4.340    0.770
        62 -10.3411    114.6854    129.0045   9.1578048215e+01   3.3361671304e+01    0.3303814    0.2943023  -8.72 0.0007305242    1.286    0.222
        63  -9.1867    160.8393    127.8436   7.9639899044e+01   2.4095346329e+01    0.2189377    0.1930063 -79.98 0.0006268274    1.328    0.247
        64 -10.5727    102.2370    124.7830   9.4023628843e+01   3.6635899804e+01    0.3103908     0.250118 -22.21 0.0005798974    1.478    0.324
        65 -10.5467    120.2301    122.9485   8.8646465851e+01   3.3701073591e+01    0.4969276    0.3074282 -19.69  0.001806896    2.774    0.639
        66  -9.4588    109.9705    118.1031   9.0274664018e+01   3.6797582656e+01    0.2220628    0.2137751 -60.33 0.0003330819    1.023    0.023
        67 -10.0458    231.3453    113.6265   6.2126823345e+01   1.1437708769e+01     0.277449    0.2562039 -20.69 0.0008411864    1.044    0.042
        68  -9.2234    167.5005    112.2872   7.4123998439e+01   2.5836730701e+01    0.3390512     0.246729 -72.99 0.0009971185    1.929    0.482
        69  -9.9588    134.5025    105.0341   8.0189604464e+01   3.4763041416e+01    0.5298629    0.1523772 -43.81  0.001522856    3.396    0.705
        70 -11.2086    118.4771    110.4007   8.5949353667e+01   3.6918672973e+01    0.6761035    0.4714904  65.67   0.00291933    1.898    0.473
        71  -9.6823    205.4989    110.1570   6.5774033385e+01   1.7601134748e+01    0.3086414    0.2174257  40.40 0.0008215254    1.528    0.345
        72  -9.4417     64.8944    223.7783   1.1765960076e+02   1.9971247835e+01    0.1499203    0.1018903  85.56 0.0005539544    1.393    0.282
        73  -8.6257    154.8091     82.1940   6.8584889383e+01   3.4745228047e+01    0.2114708    0.1808652  17.78 0.0004000546    1.300    0.231
        74  -8.3860    184.3493     77.2957   6.0985577734e+01   2.8451926831e+01    0.1565318    0.1183305  21.17 0.0007033226    1.679    0.404
        75  -9.9673     55.3651    222.9479   1.1941747691e+02   2.1340975908e+01    0.1649206    0.1188609  66.17  0.001095535    1.123    0.110
        76 -10.8595     71.9120    245.5890   1.1819169131e+02   1.5009052904e+01    0.3356375    0.1590891 -71.54  0.001887598    2.306    0.566
        77 -11.6410     63.1445    250.3864   1.2011645098e+02   1.5299173033e+01    0.2477156    0.1159183  47.78  0.001456063    1.646    0.393
        78  -8.3120     84.2095    245.6408   1.1596172767e+02   1.3349466832e+01    0.1118196   0.07193397  72.87            0    1.553    0.356
