#   1 NUMBER                 Running object number                                     
#   2 MAG_AUTO               Kron-like elliptical aperture magnitude                    [mag]
#   3 X_IMAGE                Object position along x                                    [pixel]
#   4 Y_IMAGE                Object position along y                                    [pixel]
#   5 X_WORLD                Barycenter position along world x axis                     [deg]
#   6 Y_WORLD                Barycenter position along world y axis                     [deg]
#   7 A_WORLD                Profile RMS along major axis (world units)                 [deg]
#   8 B_WORLD                Profile RMS along minor axis (world units)                 [deg]
#   9 THETA_WORLD            Position angle (CCW/world-x)                               [deg]
#  10 FWHM_WORLD             FWHM assuming a gaussian core                              [deg]
#  11 ELONGATION             A_IMAGE/B_IMAGE                                           
#  12 ELLIPTICITY            1 - B_IMAGE/A_IMAGE                                       
         1 -11.4802     14.2400     73.1821   1.2345874540e+02   6.0059425655e+01    0.7586316    0.7387894  54.58  0.005691002    1.364    0.267
         2  -9.2325     39.3113      7.3559   9.0301513163e+01   6.7843122403e+01    0.4476519    0.2603858   3.28   0.00275167    1.762    0.433
         3 -10.7532     39.5254     29.8053   9.9485865084e+01   6.5137017314e+01    0.8065409    0.3444014 -40.52  0.004131783    2.399    0.583
         4 -11.7238     45.0039     22.4023   9.4351074847e+01   6.5378099312e+01     0.918349    0.8448563  64.31  0.006052489    1.885    0.469
         5  -9.5663     40.0085     14.8515   9.3238120094e+01   6.6944200147e+01    0.2859636    0.1946535 -11.40  0.001697546    1.316    0.240
         6 -11.8697    128.4393     15.2030   6.8196293188e+01   5.0408602503e+01     1.142306     0.846278 -47.31  0.006977924    1.598    0.374
         7 -10.5865    120.9794      3.9299   6.6151929603e+01   5.3032392500e+01    0.5628197    0.3709938  64.29  0.002267544    1.286    0.222
         8 -11.4431    131.6667      3.4264   6.4141691420e+01   5.0710986796e+01     1.379974    0.3749364  65.30  0.005339316    3.064    0.674
         9 -11.9535    155.9504     20.6418   6.5048522001e+01   4.3572338338e+01     1.017897    0.4721959  61.11  0.004432915    1.789    0.441
        10 -13.7858    166.7161     12.1409   6.1304636882e+01   4.1936799498e+01      2.92671     1.573265  69.65   0.01518922    1.559    0.359
        11 -11.8096    109.8061      4.3253   6.8434600208e+01   5.5410579289e+01     1.827744    0.5890514  57.69  0.008115559    2.359    0.576
        12 -10.2687     71.2860      5.7216   7.8472496871e+01   6.2897647775e+01    0.5311884    0.3446928  45.80  0.002741687    1.316    0.240
        13 -11.3152     77.8829     15.0757   8.0117886569e+01   6.0853991463e+01    0.7570691     0.506946 -10.50  0.004678045    1.610    0.379
        14 -11.2764     84.5049      4.0120   7.4146486646e+01   6.0576421685e+01    0.7619865    0.4251584  48.65  0.003598947    1.437    0.304
        15  -9.4660    117.0746     18.6634   7.1534016839e+01   5.2587586855e+01    0.4545397    0.2163657 -34.38  0.001643699    2.373    0.579
        16  -8.9991    113.9985     13.9988   7.0693606944e+01   5.3693674849e+01    0.2486715    0.2260085  32.44  0.001166652    1.127    0.112
        17  -9.5825     94.1231     17.7297   7.6601950276e+01   5.7480254969e+01    0.4120739    0.3174051  57.01   0.00198569    1.288    0.223
        18 -10.6988    248.8708     14.5711   5.3600556651e+01   2.3623678291e+01    0.4064741    0.2676427 -35.52  0.002598861    1.861    0.463
        19 -10.3784    249.7948      6.0382   5.2020709949e+01   2.4429791572e+01    0.5762277    0.1683937 -43.22  0.002797264    2.784    0.641
        20  -8.6661     70.0316     14.4230   8.2260825304e+01   6.2325815025e+01    0.2585902     0.188384 -37.72  0.001660404    1.745    0.427
        21  -8.7604     20.1413     13.9252   1.0149346118e+02   6.9419872134e+01    0.4339767    0.1844122 -20.55  0.002163945    2.806    0.644
        22 -10.3943    201.2293      8.2287   5.6453055954e+01   3.4461619423e+01    0.4813618    0.2159696 -89.28  0.002069832    2.486    0.598
        23 -10.0732     60.6324      3.7982   8.1021518781e+01   6.4908377123e+01    0.6001362    0.3399917  -8.34  0.003601473    1.931    0.482
        24  -9.0738     55.3287      8.1393   8.4615121688e+01   6.5386232571e+01    0.2516521    0.1992766  72.38   0.00159449    2.327    0.570
        25  -9.1051    230.0050      6.4912   5.3566165041e+01   2.8412898310e+01    0.1777719   0.09484205  78.72   0.00103173    1.587    0.370
        26  -8.3595     52.9120      1.9378   8.2846273713e+01   6.6328095965e+01    0.4308366    0.1312326  42.18  0.002038365    2.605    0.616
        27 -10.0153    223.4906      4.3784   5.3683940450e+01   3.0015466656e+01     0.362946    0.1918273 -74.69  0.002041944    1.755    0.430
        28  -9.9455    214.3854      4.3347   5.4436473907e+01   3.1973544243e+01    0.4316234    0.1865077  51.55  0.002034918    3.026    0.670
        29  -8.6906     26.5249      2.8506   9.3687687676e+01   6.9959879838e+01    0.2344198    0.1788448  -4.73  0.001460906    1.155    0.134
        30  -8.6309     16.7180      1.6859   9.7667980435e+01   7.1203222872e+01    0.1893761    0.1185432  29.60 0.0008927484    1.592    0.372
        31  -8.4398     40.1791      1.5277   8.7380917380e+01   6.8284405837e+01    0.2527596   0.08643788  40.59  0.001170031    2.481    0.597
        32  -9.2283     46.8200     61.8103   1.0779739213e+02   5.9160712546e+01    0.4365388    0.2638103 -21.45  0.002305636    1.764    0.433
        33  -8.6599     68.8516     61.1199   9.9573427095e+01   5.6225354368e+01    0.2772575    0.1805291 -34.82  0.001492849    1.478    0.324
        34  -9.1084    227.9059     78.8826   6.8561905788e+01   1.8851936107e+01    0.3191165    0.2743081   5.15   0.00167256    1.787    0.441
        35  -8.3673     93.1148     56.8639   9.0300324110e+01   5.2714195084e+01    0.1977907    0.1923095  78.03   0.00103268    1.254    0.203
        36  -9.3437    198.9943     55.2120   6.7270737629e+01   2.9066829170e+01    0.2702589    0.2102082  54.06 0.0005505052    1.395    0.283
        37  -8.9696     66.1889     52.9474   9.7774901931e+01   5.7990062080e+01    0.3812766    0.1815296 -47.64  0.001721458    2.512    0.602
        38  -9.0926    138.0385     77.7339   8.4621168321e+01   3.9748111547e+01    0.4538276    0.2923489  84.79   0.00178631    2.642    0.622
        39  -7.3614     35.3003     52.6751   1.0936280800e+02   6.2082320921e+01    0.1038756   0.09824161  87.02 0.0007028094    1.634    0.388
        40 -10.0981     84.0532     48.0699   9.0144561605e+01   5.5727981580e+01    0.5846035    0.3973461  51.90   0.00284691    1.640    0.390
        41 -10.1625      3.2741     40.1093   1.1897437859e+02   6.6914291634e+01     0.396115    0.3093852  -1.20  0.002577741    1.280    0.219
        42 -10.6959    170.1694    242.2617   1.1322386091e+02  -1.6202920839e+00     0.469543    0.1841649  44.62  0.001905925    2.466    0.594
        43 -10.3473     50.5321     34.9724   9.7092685421e+01   6.2972512250e+01    0.6609712    0.4795432 -53.72  0.003906686    2.169    0.539
        44  -9.3202    198.8199    240.6665   1.0712751377e+02  -5.9875253097e+00    0.2767897    0.1078302  30.91  0.001107551    2.676    0.626
        45  -9.1477    160.5856    240.2567   1.1490849007e+02   3.4407632948e-01      0.17903    0.1257657 -34.84  0.000952328    1.648    0.393
        46  -9.3312    211.4817    224.7594   1.0185073485e+02  -5.3169063276e+00    0.2869565   0.09738864  28.63 0.0008940006    4.456    0.776
        47  -8.4041     97.6095     43.7952   8.4645458804e+01   5.3752087644e+01    0.1785895    0.1213084 -42.19  0.000953498    1.688    0.407
        48  -9.0942     68.9911     36.7143   9.1053460227e+01   5.9923272406e+01    0.2843775    0.2644434  19.04  0.001660804    1.228    0.186
        49  -9.1131     12.1728     33.7963   1.1287984045e+02   6.7327621025e+01     0.334605    0.1740688 -44.49  0.002042084    1.691    0.409
        50  -8.3115     27.2907     35.4386   1.0676300682e+02   6.5710398439e+01    0.1996404     0.100936  20.54 0.0009842378    1.981    0.495
        51  -8.8027    207.6577    220.9893   1.0192813675e+02  -4.0513364752e+00    0.2058672    0.1114653 -62.78 0.0007051065    4.448    0.775
        52  -8.6826    238.3824    202.3862   9.2584009275e+01  -5.6954473956e+00    0.3273855    0.1136653 -45.13  0.001261726    2.912    0.657
        53 -11.2877     11.3582    141.0836   1.3631111675e+02   4.4994539305e+01     0.507894    0.3915107 -52.53  0.003254173    1.244    0.196
        54  -8.5663     40.7757    142.3981   1.2839081302e+02   4.2007261079e+01    0.1753588    0.1331186   3.26 0.0009567602    1.734    0.423
        55 -12.6743    240.9519    132.6161   7.8083992555e+01   6.6003873506e+00     1.505525     1.252059  48.91  0.005863233    1.383    0.277
        56  -9.6449     86.6533     31.1783   8.3440414307e+01   5.7483084898e+01    0.7213722    0.3028909  29.97  0.002766813    3.379    0.704
        57 -10.3619    224.8989     29.0404   5.8442393381e+01   2.6838293567e+01    0.4399873    0.3115232  68.02  0.001682146    1.392    0.282
        58  -9.2703     65.8470     30.1320   8.9683404331e+01   6.1288575349e+01    0.3643905    0.2351456  -4.64  0.002074945    1.705    0.414
        59 -10.7507     12.2822    128.1905   1.3432780396e+02   4.7990978062e+01     0.635228    0.2521629 -78.27  0.002605971    2.770    0.639
        60  -9.5228     76.3013     27.4462   8.5233554068e+01   5.9824109010e+01    0.3249209     0.217695  14.90  0.001882472    1.551    0.355
        61  -8.9704    104.4055     26.0675   7.6866896956e+01   5.4527866794e+01    0.3917904    0.2173783  59.88  0.001986146    1.792    0.442
        62  -8.5796     21.3327     22.6129   1.0452001380e+02   6.8163116252e+01    0.2977718    0.1431946  33.88  0.001721651    2.280    0.561
        63  -7.9596     18.3318    128.3078   1.3260453259e+02   4.7508345416e+01    0.1332978   0.08029304 -42.03 0.0007040437    1.666    0.400
        64  -7.9554     22.7941    125.4463   1.3085407158e+02   4.7828232236e+01    0.1643244    0.1208295 -11.70 0.0009490566    1.715    0.417
        65 -10.2233     11.5970    118.1327   1.3304011469e+02   5.0395860346e+01    0.3459352    0.2353498 -85.42  0.002021351    1.522    0.343
        66  -8.2710     14.6659    114.6570   1.3155666700e+02   5.0986930678e+01    0.1987561    0.1368795 -33.69 0.0008865125    1.515    0.340
        67  -8.5621    117.3095     14.3145   7.0105237167e+01   5.2947746734e+01    0.1832248    0.1469039  23.55 0.0006225783    1.335    0.251
        68  -9.0365    111.1297     16.1624   7.2012257366e+01   5.4109077242e+01    0.2845123     0.192042  58.19  0.000997567    1.296    0.229
        69  -9.2101     96.2948    113.5687   1.0586955290e+02   4.1045882150e+01    0.2944522    0.1424012  43.56  0.001149354    2.167    0.539
        70  -9.4698     16.9153    103.9347   1.2898524956e+02   5.3277691616e+01    0.3436541     0.286506  88.78  0.001808139    1.379    0.275
        71  -8.2953     69.3285    104.9965   1.1203503501e+02   4.7381349919e+01    0.2464815   0.08541626 -37.58 0.0007049978    4.312    0.768
        72  -9.1513     30.1679    101.4919   1.2413588959e+02   5.2756738034e+01    0.2633198    0.1678542 -37.62   0.00144845    1.476    0.322
        73  -8.2841      8.1712     16.4972   1.0827988200e+02   7.0195297812e+01    0.2679561    0.1107077 -10.90  0.001092989    4.448    0.775
        74 -11.9201     43.3049     82.1242   1.1498216603e+02   5.5638692310e+01     1.176749    0.7365134 -22.26  0.006024959    1.760    0.432
        75  -8.8619      2.2203     89.1494   1.3116547899e+02   5.7455725668e+01    0.2919571    0.1898569 -83.16  0.001726079    1.794    0.443
        76  -9.1138    226.4406     14.1226   5.5327922138e+01   2.8309093892e+01    0.2525553    0.1285193 -85.36  0.001323812    1.926    0.481
        77  -7.9028    100.7083     83.3544   9.6260732381e+01   4.6620033388e+01     0.142197    0.1162715 -83.23 0.0002378076    1.682    0.405
        78  -9.4994     35.3410     79.5048   1.1718045064e+02   5.7008541947e+01    0.3936328      0.16707 -57.34  0.001757712    2.306    0.566
        79  -9.9340     24.5306     65.5822   1.1753106802e+02   6.0762204894e+01    0.5733386    0.2184113 -45.43    0.0022153    2.091    0.522
        80 -10.7553      4.5761     76.3735   1.2779325634e+02   6.0011597411e+01    0.6124956    0.5026402  71.24  0.004053145    1.706    0.414
        81 -10.1962    183.6941    245.7717   1.1100926372e+02  -4.4346032279e+00     0.287399     0.231898  55.22  0.001709606    1.486    0.327
        82  -8.4767     78.6257     78.7532   1.0179086064e+02   5.1454088075e+01    0.3787729    0.2459365  55.90  0.001778719    2.126    0.530
        83 -10.1846     73.8896     68.4999   1.0021905198e+02   5.4134070923e+01    0.6334229    0.4316185  56.88  0.003157511    2.096    0.523
        84  -8.8503     97.0760     29.0805   7.9780435557e+01   5.5692514160e+01    0.5408409      0.26051 -11.19  0.002190246    3.501    0.714
        85  -8.8397     77.6736     65.6667   9.8054591731e+01   5.4016642957e+01    0.2067907    0.1694485 -31.13 0.0008327352    1.189    0.159
        86  -8.8578     64.3830     16.3979   8.4869310456e+01   6.3093647380e+01    0.2321649    0.1917588  64.62  0.001531475    1.786    0.440
        87  -8.7375     34.0237     69.4661   1.1495220327e+02   5.9138268159e+01    0.2968193    0.1109624 -39.27  0.001280958    2.462    0.594
