#   1 NUMBER                 Running object number                                     
#   2 MAG_AUTO               Kron-like elliptical aperture magnitude                    [mag]
#   3 X_IMAGE                Object position along x                                    [pixel]
#   4 Y_IMAGE                Object position along y                                    [pixel]
#   5 X_WORLD                Barycenter position along world x axis                     [deg]
#   6 Y_WORLD                Barycenter position along world y axis                     [deg]
#   7 A_WORLD                Profile RMS along major axis (world units)                 [deg]
#   8 B_WORLD                Profile RMS along minor axis (world units)                 [deg]
#   9 THETA_WORLD            Position angle (CCW/world-x)                               [deg]
#  10 FWHM_WORLD             FWHM assuming a gaussian core                              [deg]
#  11 ELONGATION             A_IMAGE/B_IMAGE                                           
#  12 ELLIPTICITY            1 - B_IMAGE/A_IMAGE                                       
         1 -16.5351     31.6189    132.1618   1.2898626950e+02   4.4715845530e+01     4.890957     3.720984  25.94   0.02967863    1.539    0.350
         2 -11.9391    164.3438     51.1156   7.2602830226e+01   3.6903360439e+01     1.115377    0.7459165   5.04  0.005229191    2.380    0.580
         3 -11.9646    178.9230     35.9184   6.6410634970e+01   3.5470212290e+01    0.9085538    0.7611202  36.40  0.005071993    1.371    0.271
         4 -10.3828    183.1979     29.1599   6.4185015113e+01   3.5278000855e+01    0.4221593    0.3584908   7.36  0.001076053    1.554    0.356
         5 -12.6554     12.8129      8.3939   1.0145809354e+02   6.9287056607e+01     1.581331    0.8621351  17.08   0.01048377    1.614    0.380
         6 -10.3210    198.8571      5.0224   5.6948747240e+01   3.4282867436e+01     0.593233    0.3465719  73.80  0.003538924    1.447    0.309
         7  -8.1552     70.0301     14.0763   8.2490070520e+01   6.0753572301e+01    0.1536634    0.1462446 -85.97 0.0004166038    1.642    0.391
         8 -13.7954    247.9806    245.3888   9.9813742378e+01  -1.2353262005e+01      5.53605     1.331715 -41.64   0.01973182    4.879    0.795
         9 -14.9305    103.7441    231.0085   1.2641682489e+02   1.2624885741e+01     1.399166    0.8620883 -28.75  0.005804685    2.806    0.644
        10  99.0000     28.5371    209.0895   1.3955620149e+02   2.7334506922e+01     1.210194    0.8245998  24.46  0.007344627    1.909    0.476
        11 -15.0293     94.3901    220.8045   1.2703231155e+02   1.6180373368e+01     1.966431    0.9366391 -33.54  0.006076599    5.689    0.824
        12 -14.7158     86.2787    214.0067   1.2787277546e+02   1.8862377243e+01    0.8063384    0.5679265  67.48  0.004347545    1.522    0.343
        13 -14.9321     91.8334    236.7281   1.2962404150e+02   1.3286397792e+01    0.8123298     0.689901  22.00  0.005088005    1.404    0.288
        14 -13.6689     48.0004    216.4700   1.3632129545e+02   2.3511522103e+01     1.091414     0.621905  47.24  0.006033974    1.668    0.401
        15 -17.5911     63.7765    238.9926   1.3549485633e+02   1.6784521232e+01     6.392126     3.034639  33.55   0.02532169    2.256    0.557
        16 -12.3497     62.4124    194.6239   1.3059855611e+02   2.6561709796e+01    0.2661003    0.2089505  81.57  0.001153535    1.264    0.209
        17  99.0000     40.3863    199.1391   1.3605043379e+02   2.8236104637e+01    0.4671444    0.2837528 -84.60  0.002534735    1.617    0.382
        18 -11.8674     53.5409    197.5382   1.3297425881e+02   2.7032203537e+01     0.308993    0.2073102 -32.32  0.001585909    2.185    0.542
        19 -11.6936     49.4672    197.0754   1.3382298457e+02   2.7637011657e+01    0.3350107    0.2887962   5.05   0.00161058    1.561    0.359
        20 -11.9828     44.4985    197.5086   1.3496969353e+02   2.8129694124e+01    0.2014973    0.1620415  44.03  0.001261312    1.320    0.242
        21 -12.8664     63.2027    210.7208   1.3247029004e+02   2.2835686716e+01     0.419016    0.1558264 -54.88   0.00176051    2.636    0.621
        22 -11.4508     59.7814    210.3549   1.3316220620e+02   2.3365888497e+01    0.4004993    0.2062724 -48.05  0.001551406    2.280    0.561
        23 -13.4000     61.1748    202.3230   1.3187603194e+02   2.4975093517e+01    0.7729167    0.4760208  78.67  0.003847499    1.941    0.485
        24 -10.6474     53.8005    208.2523   1.3419827641e+02   2.4594974722e+01    0.1396312    0.1178932 -73.88 0.0003063501    1.128    0.113
        25 -11.5212     82.9096    197.9242   1.2635731609e+02   2.2937961828e+01    0.6707234    0.1662829 -56.46  0.002201381    3.666    0.727
        26 -12.9131     76.5130    205.4409   1.2887106299e+02   2.2175410267e+01    0.4951276    0.2567765 -76.67   0.00214417    2.399    0.583
        27 -13.1145     78.6874    202.6830   1.2800306253e+02   2.2480990001e+01    0.3999623    0.2154152  40.38  0.001913245    1.819    0.450
        28  -8.0308    163.5445    201.4837   1.0854585892e+02   8.4300395372e+00    0.1418438    0.1352864  18.32 5.462064e-05    1.035    0.034
        29 -11.5785     70.1908    199.0175   1.2942137317e+02   2.4510318681e+01    0.2034203    0.1857197  42.00 0.0003588592    1.189    0.159
        30  99.0000     22.0583    197.7594   1.3980096561e+02   3.0492185514e+01    0.5305211    0.3049279 -58.38   0.00304032    1.656    0.396
        31 -10.6163     26.8317    194.5930   1.3847634848e+02   3.0719712715e+01    0.2266418    0.1433662 -60.46  0.001326013    1.469    0.319
        32  -8.1494    158.2391    195.6204   1.0860530042e+02   1.0591136410e+01    0.2058813    0.1337236  29.58 0.0007352222    1.601    0.375
        33 -11.6643     56.6005    192.2650   1.3161351941e+02   2.7853256741e+01    0.3594815    0.2055598 -89.17  0.001664154    2.167    0.539
        34 -11.3522     76.8815    192.3882   1.2694081149e+02   2.5082938046e+01    0.2133982    0.1762675 -67.37 0.0002925721    1.153    0.133
        35 -10.7441     51.0102    192.4376   1.3290617916e+02   2.8507743315e+01    0.1568652    0.1251295  40.01  0.000186221    1.351    0.260
        36 -12.0637     45.4286    190.6073   1.3393993462e+02   2.9593132448e+01    0.5781505    0.3492252  23.93  0.003011454    2.108    0.526
        37  99.0000     35.3268    189.9525   1.3612268890e+02   3.0878076132e+01    0.2763553    0.1994018 -87.37    0.0016594    1.268    0.211
        38 -12.3517     36.0740    184.2216   1.3528606386e+02   3.2110575788e+01    0.6084992    0.2495385  37.22  0.002827874    2.499    0.600
        39 -11.9220     61.8162    188.3882   1.2988746569e+02   2.8076628057e+01    0.2221942    0.1850069 -64.12 0.0003992173    1.139    0.122
        40 -12.3371     63.0361    184.5011   1.2905257552e+02   2.8819970177e+01    0.2348411    0.2047249 -66.01 0.0004056445    1.089    0.082
        41  -8.2654     92.9335    187.6459   1.2240125069e+02   2.3760432357e+01    0.2252048    0.1740925  84.28 0.0006288234    1.479    0.324
        42 -11.3481     82.6111    185.1480   1.2447337903e+02   2.5919316214e+01    0.2329354    0.2074636  62.08 0.0003052107    1.119    0.107
        43 -11.6490     42.9321    183.2988   1.3360054145e+02   3.1565542906e+01    0.1867193    0.1572413 -76.76 0.0004056164    1.037    0.036
        44 -11.6985     53.0946    182.4966   1.3112240240e+02   3.0552278511e+01    0.2131934     0.176027 -80.49 0.0003607064    1.099    0.090
        45 -11.3277     50.3089    180.2786   1.3147841004e+02   3.1407648278e+01    0.2226017    0.1734204 -50.83 0.0002513256    1.313    0.238
        46 -12.7284    237.5606    246.7777   1.0192937389e+02  -1.1161357940e+01    0.7109398    0.6866795 -37.91  0.005113567    1.634    0.388
        47 -11.0383     16.6102    182.4722   1.3943789550e+02   3.4438072539e+01    0.1318488    0.1084534 -67.61 0.0002510899    1.151    0.131
        48 -10.0770     19.0264    179.8140   1.3862497075e+02   3.4820923477e+01     0.125481    0.1047736 -65.22  0.000833474    1.162    0.139
        49  -9.0117     63.2864    179.9131   1.2832448002e+02   2.9860281404e+01    0.1209562    0.1046061  73.32 0.0001932347    1.154    0.133
        50 -14.4579     90.5432    247.7763   1.3118791495e+02   1.1310719773e+01     0.539852    0.2812241  54.15  0.002737207    1.870    0.465
        51  -7.7324     86.2207    178.7144   1.2254305560e+02   2.6876758297e+01    0.1322773     0.103652  86.51 0.0002539452    1.434    0.303
        52  -7.3980     89.9779    175.2749   1.2102425191e+02   2.7102733702e+01    0.2794392    0.1686187 -33.12  0.001190578    2.227    0.551
        53  -8.9501     92.4934    171.0060   1.1963493734e+02   2.7708888379e+01    0.3541203    0.2215373 -40.70 0.0008175015    1.747    0.427
        54 -11.9649     38.8839    172.4086   1.3314346473e+02   3.4550683743e+01    0.3314663    0.2722368 -17.26   0.00167725    1.601    0.375
        55  -9.6085    175.4457    172.1977   1.0004332340e+02   1.2161709302e+01    0.3109741    0.2884913  30.30 0.0006976331    1.088    0.080
        56 -10.0979    243.1565    169.4801   8.6272789880e+01   2.6259107269e-01    0.2761053    0.2125665 -35.10 0.0004010823    1.151    0.131
        57  -9.1508    143.9495    169.6785   1.0669594568e+02   1.8839665485e+01    0.3583445    0.2648369  47.08 0.0009976167    1.393    0.282
        58  -7.7326     23.4983    168.9029   1.3635915210e+02   3.6913410154e+01    0.3110128    0.1810271  25.75  0.001604154    2.093    0.522
        59  -7.6935    155.5199    168.4996   1.0373612429e+02   1.6846024993e+01    0.1498263    0.1460656  -7.26  0.000810329    1.012    0.012
        60  -7.2280     76.5930    167.5621   1.2304781256e+02   3.0940383527e+01    0.1392421    0.1279975 -75.13 0.0001761554    1.034    0.032
        61  -9.4014     38.3276    166.0624   1.3241960033e+02   3.6098487436e+01    0.1719994    0.1341972 -68.75 0.0002986278    1.106    0.096
        62 -10.1921     98.5659    163.5181   1.1668736550e+02   2.8483262041e+01    0.4772602     0.349005 -61.85  0.001387575    1.379    0.275
        63  -8.0752    196.8945    171.1642   9.5289495305e+01   8.2306356082e+00    0.2076249    0.1941938 -50.59 0.0004769166    1.179    0.152
        64 -12.6372     81.5466    223.3907   1.3011418085e+02   1.7544859104e+01    0.2685887    0.2032343  67.89  0.001092046    1.297    0.229
        65  -7.8113    136.4772    154.2426   1.0517143439e+02   2.3724390919e+01    0.2055173    0.1470385 -61.17 0.0006234486    1.586    0.370
        66  -8.6763     98.0797    149.3918   1.1396167669e+02   3.1880257779e+01    0.2485525     0.177862  43.22 0.0006218548    1.464    0.317
        67  -7.8491    133.6504    144.8438   1.0374711842e+02   2.6378798972e+01    0.2198262    0.1413212 -56.57   0.00093482    1.707    0.414
        68  -8.1881    231.0831    139.9503   8.2157422416e+01   7.6309886372e+00    0.2004786    0.1809063 -29.68 0.0003259669    1.031    0.030
        69  -8.6112    161.5244    128.0352   9.3073627112e+01   2.4217877993e+01    0.4317846    0.2809182  83.67  0.001529014    3.175    0.685
        70  -8.0550    105.4992    127.1297   1.0693203959e+02   3.5694841092e+01    0.2113457    0.1438522 -50.29 0.0003505864    1.443    0.307
        71  -7.8004     71.2659    163.4374   1.2369791311e+02   3.2676954600e+01    0.1709805    0.1308643  49.48  0.000297373    1.394    0.283
        72  -7.9977    116.7433    109.0374   9.9293502447e+01   3.7469918041e+01    0.2044292    0.1968582  -7.39 0.0007285321    1.017    0.017
        73  -9.0675    196.5655    107.0633   8.0804016154e+01   2.0647200686e+01    0.2631954    0.2123829  51.14 0.0005259981    1.284    0.221
        74 -10.1225    211.9900    157.4432   8.9361676442e+01   7.9992964754e+00    0.2559225    0.2516031  73.55 0.0004417388    1.174    0.149
        75  -7.6003    181.1801    104.8384   8.3185180624e+01   2.4437186504e+01    0.1941904    0.1700324  13.80  0.000260731    1.309    0.236
        76  -8.7544    170.0658    158.2993   9.8206744965e+01   1.6119134482e+01    0.2077786    0.1962622  33.96 0.0004298404    1.081    0.075
        77  -7.8750    110.5167    157.4935   1.1240783355e+02   2.7840446465e+01    0.1482006    0.1437768 -41.79 0.0001599186    1.012    0.012
        78  -8.5067     95.0496     93.4891   1.0114087439e+02   4.4675050286e+01    0.2030759    0.1390592  36.62 0.0003162264    1.480    0.324
        79  -8.4394    101.5572    156.5156   1.1452204461e+02   2.9624511207e+01    0.2439023    0.2238743 -35.86 0.0005764393    1.096    0.088
        80  -8.3022    228.3465     84.7479   7.0623160980e+01   1.7674423340e+01    0.2073093     0.169413  88.35 0.0004376258    1.279    0.218
        81  -7.8424    110.0305     84.2657   9.4254634869e+01   4.3607805582e+01    0.1994154    0.1790385  30.95 0.0004413523    1.095    0.086
        82  -7.8128    104.4903     82.5052   9.5277923441e+01   4.5002737767e+01    0.1436826    0.1315513   2.66 0.0002349148    1.016    0.015
        83  -8.3382    182.6582     78.0157   7.6249195033e+01   2.8736041005e+01    0.2975087    0.1631658  33.63  0.001170968    2.700    0.630
        84  -8.6906    105.0238    154.4961   1.1320373782e+02   2.9501606219e+01    0.2820619    0.2722949   3.85 0.0006437704    1.078    0.073
        85  -8.0948     81.6609     76.9550   1.0037589848e+02   5.0097757605e+01    0.1995001    0.1620334 -30.25  0.001132342    1.171    0.146
        86  -7.6364    189.5921    154.2719   9.3112144818e+01   1.3005308798e+01    0.1490104    0.1190912  84.22 0.0006973002    1.766    0.434
        87  -8.9133    155.5958     65.1062   7.7986718487e+01   3.6930213077e+01    0.2437441    0.1876082  66.98 0.0005881354    1.343    0.255
        88  -8.9988     10.3901    216.0945   1.4370494568e+02   2.7654956776e+01    0.2678733   0.07326349  27.33  0.001025111    5.145    0.806
        89 -11.4635    172.2438     48.2790   7.0528582929e+01   3.5462630132e+01    0.7621152    0.3833133  41.11  0.003304564    2.381    0.580
        90  -7.2182     11.6103    213.2178   1.4324796770e+02   2.8146850606e+01    0.1814177   0.06786271 -56.83 0.0008610695    2.692    0.628
        91 -10.7030     68.1360    213.4207   1.3173756740e+02   2.1578911081e+01    0.1914978    0.1491574 -67.90  0.001141492    1.245    0.196
        92 -12.3884     69.5446    208.5621   1.3082368487e+02   2.2456800359e+01    0.2248548    0.1986446 -74.09  0.001411603    1.108    0.098
        93 -11.8104     76.8925    211.5170   1.2959650870e+02   2.0775089226e+01    0.2479336    0.1775352 -65.63 0.0006450209    1.367    0.268
