#   1 NUMBER                 Running object number                                     
#   2 MAG_AUTO               Kron-like elliptical aperture magnitude                    [mag]
#   3 X_IMAGE                Object position along x                                    [pixel]
#   4 Y_IMAGE                Object position along y                                    [pixel]
#   5 X_WORLD                Barycenter position along world x axis                     [deg]
#   6 Y_WORLD                Barycenter position along world y axis                     [deg]
#   7 A_WORLD                Profile RMS along major axis (world units)                 [deg]
#   8 B_WORLD                Profile RMS along minor axis (world units)                 [deg]
#   9 THETA_WORLD            Position angle (CCW/world-x)                               [deg]
#  10 FWHM_WORLD             FWHM assuming a gaussian core                              [deg]
#  11 ELONGATION             A_IMAGE/B_IMAGE                                           
#  12 ELLIPTICITY            1 - B_IMAGE/A_IMAGE                                       
         1 -15.2386    186.7570     29.3163   6.1836076293e+01   3.4399163048e+01     2.018667     1.126342  12.47  0.007761856    2.482    0.597
         2 -13.5877    207.6865      2.1481   5.0702999027e+01   3.1477326119e+01    0.9488639    0.2991371  55.44  0.003413585    2.771    0.639
         3 -10.6684     56.6819      6.3310   8.4355274593e+01   6.6763438634e+01    0.1162673   0.09628192 -52.39  0.000704763    1.688    0.408
         4 -11.3446    171.9610    239.6985   1.1087692284e+02   7.9939216363e+00    0.2829727    0.1867488 -45.74  0.001615503    2.119    0.528
         5 -13.1447    228.6545    242.9689   1.0257141794e+02  -8.2598006092e-01    0.3928968    0.2634758  26.65  0.001570079    1.120    0.107
         6 -14.5326    244.7185    248.4744   1.0095106053e+02  -3.5641728160e+00    0.7485161    0.3278781  37.61  0.003111841    1.567    0.362
         7 -12.8549    229.5709    250.2293   1.0338894655e+02  -1.5448785401e+00    0.5010439    0.1649676  43.82  0.001825426    2.239    0.553
         8 -13.6720    197.9674    222.8056   1.0458823413e+02   5.7587926009e+00    0.7903089    0.4309734  25.09  0.002998206    1.970    0.492
         9 -13.8240    204.3681    232.0950   1.0483053440e+02   3.8127515534e+00    0.5951537    0.4863525  48.69  0.002561389    1.383    0.277
        10 -13.8650    210.1836    246.9404   1.0585459099e+02   1.5542240766e+00    0.6256768    0.4269164  46.10   0.00339182    1.359    0.264
        11 -14.1296    200.2164    243.9689   1.0699843376e+02   3.3069614122e+00    0.5010608    0.4015068  -5.14  0.002116977    1.521    0.343
        12 -13.2368     54.1025    230.3737   1.2875526606e+02   2.5170886754e+01     2.624242    0.8775384  36.16   0.01408795    3.232    0.691
        13 -17.4858     32.7560    242.9034   1.3259628078e+02   2.5639638239e+01     6.196191     4.572424  47.38   0.05774719    1.423    0.297
        14 -11.8124     87.1845    224.2845   1.2304839688e+02   2.2086640268e+01    0.1871671    0.1571922  76.24   0.00159001    1.207    0.172
        15 -10.4896    126.8084    222.9944   1.1636174148e+02   1.6795505274e+01    0.1685814    0.1097715  76.98  0.001087455    1.997    0.499
        16 -12.6308     77.9668    217.8387   1.2404677884e+02   2.4212150629e+01    0.2950316    0.1803067  71.79  0.001218608    1.545    0.353
        17 -10.5593      4.7043    236.5612   1.3633913719e+02   2.9169673327e+01   0.09017263   0.06876934  50.09 0.0005754982    1.454    0.312
        18 -12.8640     47.0647    216.6730   1.2903270291e+02   2.8002740095e+01    0.2970799    0.1256146  51.50  0.001082468    1.769    0.435
        19  -9.8172     52.2012    208.8355   1.2767780482e+02   2.8667014482e+01    0.1370547   0.09465792  66.55 0.0002291277    1.101    0.092
        20 -10.9794     78.9437    211.0185   1.2332132662e+02   2.5132310299e+01    0.3636819    0.2386891  26.88  0.002385451    2.208    0.547
        21 -11.2911     67.8820    212.1449   1.2528657547e+02   2.6324839562e+01    0.4532158    0.2337943  31.07  0.002680305    2.594    0.615
        22 -13.2116     64.5559    206.7747   1.2543571765e+02   2.7570341449e+01     0.397289    0.2868858 -53.57  0.001366627    1.930    0.482
        23 -12.5351     60.3606    214.8531   1.2674045835e+02   2.6792926559e+01    0.3192084    0.1534253  59.01  0.002097658    1.717    0.418
        24 -11.5159     56.9243    210.0850   1.2697406142e+02   2.7934938936e+01     0.280967    0.2150919  37.21     0.002243    1.567    0.362
        25 -12.0226    193.7410    193.8806   1.0099879094e+02   9.7450349729e+00    0.6571775    0.3677379 -43.73  0.003665915    2.337    0.572
        26 -13.4085    192.6067    209.2383   1.0354082223e+02   8.1205386325e+00     0.588962    0.5077683 -87.34   0.00333503    1.818    0.450
        27 -12.4159    189.4774    201.6603   1.0294046881e+02   9.5353088784e+00    0.4416866    0.2488846  39.89  0.001345573    1.405    0.288
        28 -11.0278    116.2920    212.0427   1.1698983380e+02   1.9872706186e+01    0.2291067    0.1451606  75.94  0.001365371    1.956    0.489
        29 -19.1353     22.3665    107.1831   1.2465193811e+02   5.0693990452e+01     15.09382    0.6133923 -69.80   0.02713074   17.439    0.943
        30 -10.1893     10.3753    213.6732   1.3467172242e+02   3.2079711133e+01    0.0991175   0.06951989  49.08 0.0003186184    1.374    0.272
        31 -14.2977    227.8140    205.5330   9.7220742382e+01   2.6938320995e+00    0.7225077    0.5504066 -16.89  0.003808561    1.485    0.326
        32 -12.4687     46.4904    204.3360   1.2833322830e+02   3.0018763628e+01    0.1790636    0.1286841  63.97 0.0004921448    1.047    0.044
        33 -10.0291    211.0517    202.6859   9.9482045222e+01   5.7689993173e+00       0.1655    0.1206552  34.56 0.0005448123    1.066    0.061
        34 -11.5178    106.0337    202.0140   1.1771814466e+02   2.2867434343e+01    0.3202861    0.1397726  42.31  0.001727319    1.924    0.480
        35 -11.7449     64.5138    192.9704   1.2431482490e+02   2.9839784703e+01    0.3648477    0.1728668  48.88  0.002246451    1.727    0.421
        36 -10.3544     69.0347    196.9951   1.2385055240e+02   2.8618354584e+01    0.1243535   0.09649529  66.60            0    1.007    0.007
        37 -13.1861     73.7635    192.6222   1.2260561970e+02   2.8757986870e+01    0.6060755    0.4412351  51.65  0.003546188    1.186    0.157
        38 -10.5191      4.0601    229.2976   1.3619140249e+02   3.0275365484e+01   0.09765047   0.07877728 -44.48  0.000865503    2.473    0.596
        39 -10.0547     92.0118    194.9957   1.1950877362e+02   2.5957493298e+01    0.2131221   0.08674412  57.87  0.001020064    2.682    0.627
        40 -11.5378    167.2558    223.8583   1.0973531392e+02   1.0513153148e+01    0.2558103    0.2032683  64.81  0.001882909    1.469    0.319
        41 -13.7040    231.5303    187.5965   9.3617285778e+01   3.9009534293e+00    0.7160775    0.2874527 -32.58  0.003506871    2.825    0.646
        42 -11.0136     79.1491    184.8141   1.2084521239e+02   2.9391978218e+01    0.2427756    0.1393711  45.92  0.001085671    1.509    0.337
        43 -12.0169    211.0804    179.7954   9.5639717272e+01   8.3741782114e+00    0.3675272    0.2296431  -7.90  0.002005537    1.995    0.499
        44  -9.6886     90.2985    183.6785   1.1860997198e+02   2.8083814072e+01    0.1168682   0.07371143  69.62 0.0004906066    1.623    0.384
        45 -10.6971     99.4659    180.7631   1.1651356587e+02   2.7279686637e+01    0.2021917    0.1385088  47.57 0.0006096969    1.270    0.213
        46 -12.2580     83.9984    177.7150   1.1915589374e+02   2.9981027053e+01    0.2998104    0.2187482 -41.70   0.00194059    1.970    0.492
        47 -12.5875     87.1686    172.8381   1.1797084640e+02   3.0410243124e+01    0.3605998    0.2732425  81.33  0.001092584    1.271    0.213
        48 -10.7357    198.2424    176.5730   9.7297580197e+01   1.1107220871e+01     0.269036    0.1756094  50.93  0.001515309    1.516    0.340
        49 -11.6489    196.7028    171.6775   9.6692475930e+01   1.2026621785e+01    0.3065792    0.2592936  12.43  0.001124838    1.154    0.134
        50 -13.9419    128.8560    173.0232   1.0973480884e+02   2.4002918148e+01     1.208772    0.3303358  38.47  0.004146899    4.111    0.757
        51 -13.6412    138.4496    170.0500   1.0739317298e+02   2.2867841445e+01    0.5130233    0.3904561 -12.44  0.002961121    1.967    0.492
        52 -13.2489    141.7342    164.4644   1.0584040317e+02   2.3211602333e+01    0.7443926    0.4587529  81.84  0.003172823    3.348    0.701
        53 -10.2920     71.4277    174.2747   1.2123657106e+02   3.2241039653e+01    0.1872259     0.102847  57.87 0.0006386559    1.668    0.400
        54 -12.1007    104.4973    171.8870   1.1440174613e+02   2.8067318965e+01    0.2814539    0.1522656  48.99  0.001557626    1.626    0.385
        55 -11.9396     85.3376    236.3909   1.2429106330e+02   2.0608437809e+01     0.247279     0.153003 -81.66 0.0002767198    1.854    0.461
        56 -11.5916    127.5133    167.9841   1.0924168173e+02   2.5071079378e+01    0.2591006    0.1919423  49.18  0.001063795    1.182    0.154
        57 -11.9782    240.6650    161.9529   8.7358566773e+01   5.0537497611e+00    0.2452849    0.1756998  44.28   0.00146918    1.393    0.282
        58 -10.4389     66.1116    236.9214   1.2731025728e+02   2.2863474428e+01    0.1442398    0.1076785  72.65 0.0003525994    1.161    0.139
        59 -12.0665     98.7660    156.3049   1.1341696101e+02   3.1742848038e+01    0.4800434    0.3225846 -33.72  0.002617709    2.273    0.560
        60 -10.9376    129.9541    157.1668   1.0701682570e+02   2.6514010350e+01    0.2129393    0.1325794  65.44 0.0007862368    1.982    0.496
        61 -12.1023     64.3009    155.7385   1.2064603314e+02   3.6568993665e+01     0.274711    0.1764749  54.45 0.0007397375    1.422    0.297
        62 -11.9548    133.7186    142.5806   1.0363968368e+02   2.8426552670e+01    0.5000556    0.1577917 -52.32  0.001742597    3.871    0.742
        63 -13.0784    140.9319    175.3383   1.0773131861e+02   2.1587880399e+01    0.4344997    0.2883027 -42.72  0.001783699    1.800    0.444
        64 -12.2042    144.4496    145.3434   1.0188730854e+02   2.5952563958e+01    0.3333789    0.2268169 -80.70  0.001574365    2.403    0.584
        65 -11.7321    109.3047    140.5091   1.0861442367e+02   3.3053709593e+01    0.4051347     0.272158 -28.81  0.002054336    2.256    0.557
        66 -12.1900     97.8844    141.0294   1.1125938223e+02   3.4774339477e+01    0.2223109    0.2074624  40.49 0.0003481711    1.191    0.161
        67 -11.4207     51.5011    136.5109   1.2116779487e+02   4.1845319250e+01    0.1151625   0.09629091  86.64 2.840989e-07    1.006    0.006
        68 -11.9556    104.9458    128.8146   1.0750644595e+02   3.6032285105e+01    0.5292843    0.3285013 -75.62  0.002011785    2.158    0.537
        69 -11.4192    116.3696    130.7319   1.0522877901e+02   3.3725752046e+01    0.2662634     0.221546  11.16   0.00097039    1.545    0.353
        70 -12.0245     74.1144    128.2493   1.1471578870e+02   4.0750240735e+01     0.328119    0.1356508 -70.12  0.001357675    2.998    0.666
        71 -10.3125    125.6778    127.3471   1.0243222722e+02   3.2704710957e+01    0.1392598    0.1043626  84.13 0.0007049517    1.739    0.425
        72 -10.4019    135.6593    124.9991   9.9684974322e+01   3.1266168693e+01    0.2233725    0.1110716 -25.69 0.0007049066    4.494    0.777
        73 -10.5389     66.7172    233.2477   1.2697798390e+02   2.3313228695e+01    0.1459111    0.1003359  53.80 0.0002380855    1.121    0.108
        74 -11.9505     69.4143    116.2847   1.1390727215e+02   4.3833477695e+01      0.29819    0.1793372  27.77  0.001150104    2.112    0.527
        75 -10.3742    111.1315    119.8091   1.0427673933e+02   3.6757161852e+01    0.1919378    0.1714084  75.40 0.0003374718    1.136    0.120
        76 -10.5346    167.7370    112.6969   8.9877210465e+01   2.6826132866e+01    0.2883814    0.2135277 -80.25  0.001319529    2.132    0.531
        77 -10.3307    205.7891    110.1983   8.1866342024e+01   1.8751367055e+01    0.2025496    0.1567349  18.30 0.0005511395    1.301    0.231
        78 -11.9000    173.9967     72.7766   7.7757363159e+01   3.1857894953e+01    0.5010488    0.3426058 -79.40 0.0008813055    2.477    0.596
        79 -13.5726    172.2310     45.1886   6.9459035435e+01   3.6270313978e+01    0.5679621    0.4702994   0.84 0.0008434975    1.245    0.196
        80 -11.0093    139.7304    249.2051   1.1691049173e+02   1.1651720650e+01    0.1531842    0.1121905  66.51  0.001211828    1.458    0.314
        81 -11.6445    186.8058    241.5864   1.0877631504e+02   5.5554743581e+00    0.2948617    0.1731115  40.19  0.001724314    1.217    0.178
