#   1 NUMBER                 Running object number                                     
#   2 MAG_AUTO               Kron-like elliptical aperture magnitude                    [mag]
#   3 X_IMAGE                Object position along x                                    [pixel]
#   4 Y_IMAGE                Object position along y                                    [pixel]
#   5 X_WORLD                Barycenter position along world x axis                     [deg]
#   6 Y_WORLD                Barycenter position along world y axis                     [deg]
#   7 A_WORLD                Profile RMS along major axis (world units)                 [deg]
#   8 B_WORLD                Profile RMS along minor axis (world units)                 [deg]
#   9 THETA_WORLD            Position angle (CCW/world-x)                               [deg]
#  10 FWHM_WORLD             FWHM assuming a gaussian core                              [deg]
#  11 ELONGATION             A_IMAGE/B_IMAGE                                           
#  12 ELLIPTICITY            1 - B_IMAGE/A_IMAGE                                       
         1 -14.2718    219.7672      5.6598   3.9466166868e+01   2.9380212330e+01      2.17897     0.997712  67.61  0.006059061    2.007    0.502
         2 -15.1588    194.3865     35.1040   5.0159104510e+01   3.2268874493e+01     3.128458     1.868698  25.43   0.01267383    2.704    0.630
         3 -11.1759    189.5775     14.8891   4.5051046589e+01   3.5900576097e+01    0.2715862    0.2473791 -58.05 0.0007690056    1.107    0.096
         4 -11.3149     69.5101      2.1102   6.5065125053e+01   6.5431419742e+01    0.5017357   0.07457435  52.68  0.001355006    6.921    0.856
         5 -10.9869    160.4391     53.9319   6.1663354863e+01   3.8298053647e+01    0.2731052    0.2656837 -66.43 0.0003484256    1.048    0.046
         6 -11.7753    248.2154    247.0304   8.8741475344e+01  -1.0885271483e+01    0.4471864    0.2462392  -9.28  0.002686514    1.983    0.496
         7 -19.5238     15.3386    144.1417   1.2303263574e+02   4.3068392521e+01     18.68381     5.389231 -79.28   0.07201762    3.321    0.699
         8  -9.8407     58.9579    193.3827   1.1806811007e+02   2.7461614598e+01    0.2996533    0.1346161  55.09  0.001204823    2.097    0.523
         9 -13.3040     65.8021    187.2611   1.1597098070e+02   2.7882625494e+01    0.6934689    0.6545062 -53.22  0.003454726    1.389    0.280
        10 -10.0234     55.9412    210.6848   1.2027195535e+02   2.4278964533e+01    0.4228168    0.2186944  70.34  0.001654786    1.926    0.481
        11 -13.4188     55.9078    200.6497   1.1938974268e+02   2.6323827563e+01    0.4322972    0.3098658 -69.97    0.0016493    1.407    0.289
        12 -10.9197    152.0372    210.2910   1.0076345645e+02   9.5227242283e+00     0.217308    0.1699346 -75.22 0.0008065929    1.648    0.393
        13  -9.3682    164.0000    210.0013   9.8299817762e+01   7.4742996833e+00    0.1919429   0.07672763 -46.92 0.0004948666    2.887    0.654
        14 -11.2260    142.9988    209.1997   1.0244441707e+02   1.1288986875e+01    0.2101227     0.194796 -66.72 0.0005806118    1.228    0.185
        15 -11.9933     66.7164    206.4099   1.1775562291e+02   2.3746268748e+01    0.3748101     0.271771 -30.13            0    2.579    0.612
        16 -10.4965     72.3909    202.9295   1.1625716720e+02   2.3687971066e+01    0.3508699    0.1978128  65.83  0.001863999    1.757    0.431
        17 -12.5100     32.6886    206.8128   1.2442869645e+02   2.7780398369e+01    0.3807926    0.1403312  56.89  0.001858786    2.407    0.585
        18 -12.8331    195.4850    199.0078   9.0168587388e+01   3.6782051448e+00     1.453713    0.6140494  40.75  0.005795226    2.130    0.530
        19 -10.7593     53.9464    231.7103   1.2229995329e+02   2.0495642630e+01    0.2129603    0.1286303  80.62  0.001364351    1.500    0.333
        20 -11.3825    192.5067    193.5198   8.9756510360e+01   5.1088159008e+00    0.9379427    0.4893554 -63.36  0.002714023    6.734    0.851
        21 -10.5471     96.3121    201.6525   1.1114261885e+02   2.0458799907e+01    0.2426306    0.1669225  88.14  0.001000734    1.578    0.366
        22 -10.9518     98.7199    199.7053   1.1039134388e+02   2.0480397234e+01    0.2360894      0.18673  65.03 0.0006507964    1.124    0.110
        23  -9.2106     87.7172    202.4164   1.1303280685e+02   2.1603162597e+01    0.1637724    0.1162119  33.68 0.0006569792    1.569    0.363
        24 -16.1562     69.2819    145.2117   1.0958086954e+02   3.7023698432e+01     11.06274     5.129109  79.44   0.02630867    8.275    0.879
        25  -9.4628    161.3077    199.9988   9.7226561187e+01   9.6927661334e+00    0.1738523    0.1722515 -27.54 0.0003926487    1.139    0.122
        26 -10.7505     38.0290    211.8096   1.2377750429e+02   2.6190773408e+01    0.1547808     0.115549  67.53 0.0003266755    1.060    0.056
        27 -12.3161     30.0841    197.4209   1.2425869201e+02   2.9974915275e+01     0.202337    0.1516162  64.93 0.0006842713    1.128    0.113
        28 -10.8664     34.8358    197.2426   1.2331294353e+02   2.9501564322e+01    0.1685783    0.1164911  62.75 0.0004059772    1.204    0.169
        29 -11.6297    151.6998    196.1730   9.8597850548e+01   1.2131770956e+01    0.3233652    0.2295013  37.15  0.000882856    1.300    0.231
        30 -10.0926     82.2315    195.0153   1.1332502338e+02   2.3938490087e+01    0.2195387    0.1712433  52.56 0.0009486703    1.169    0.145
        31  -9.9126     48.9610    217.5172   1.2215425015e+02   2.3791375943e+01    0.2181161    0.1091323  32.35  0.001170262    2.361    0.576
        32  -8.8633     51.6880    215.3109   1.2146918561e+02   2.3890618188e+01    0.1191244   0.09760408  73.76 0.0002426746    1.104    0.095
        33  -9.9714    168.6523    213.6859   9.7951942216e+01   6.0454333478e+00    0.1333362   0.09580608  11.85 0.0007047046    1.720    0.418
        34 -10.7441     44.1202    210.2056   1.2250801939e+02   2.5808611236e+01    0.2309203    0.1476562  85.80 0.0006370806    1.352    0.260
        35 -11.3127    141.2325    189.0748   9.9661378926e+01   1.5392217269e+01    0.2793559    0.1901372 -38.18  0.001408407    1.760    0.432
        36 -10.4263    153.4998    184.5128   9.6218049713e+01   1.4010641114e+01     0.233241    0.1371601 -61.65   0.00102586    2.228    0.551
        37 -11.1861     96.6221    190.2635   1.0961524360e+02   2.2764502079e+01    0.3589819    0.3082041  29.36  0.001047578    1.386    0.278
        38 -11.1027     99.3184    180.7939   1.0769517555e+02   2.4362547589e+01     0.269331    0.2229613  44.07 0.0006013489    1.211    0.174
        39 -10.6908    204.4755    175.9064   8.3992326954e+01   5.8259736838e+00    0.3382868    0.2841184 -51.92  0.001147713    1.448    0.310
        40 -10.3606    196.8714    176.3413   8.5585972124e+01   7.2014817052e+00    0.3232311    0.2525369  43.45  0.001236204    1.267    0.211
        41 -10.6923     58.9925    176.6815   1.1628906117e+02   3.1094184854e+01    0.2136659    0.1639139 -80.68   0.00037953    1.165    0.142
        42 -10.4657     37.4626    176.4803   1.2101786941e+02   3.3666776315e+01    0.3332631     0.143736  49.59   0.00167259    2.145    0.534
        43 -10.1227    188.4485    174.8113   8.6985988618e+01   9.0978535145e+00    0.2910926    0.2164955 -61.02  0.001167681    1.790    0.441
        44 -11.5979     43.8406    172.4920   1.1922761439e+02   3.3849276656e+01    0.6059338    0.2324416  50.95  0.001751715    2.528    0.604
        45 -10.9622    143.2974    170.0087   9.5831565436e+01   1.8858266236e+01    0.3616543    0.2088701  42.11  0.001622786    1.639    0.390
        46 -10.6859    230.0003    165.9956   7.7133207680e+01   2.6765030706e+00    0.2007176    0.1738461 -70.37 0.0007654961    1.698    0.411
        47 -10.4641     64.6917    173.3381   1.1460611765e+02   3.1106027915e+01    0.4528021     0.192399  52.25   0.00199177    2.373    0.579
        48 -10.3206    160.2307    164.2050   9.0883097288e+01   1.6717451162e+01    0.2083024    0.1763732  77.36  0.001078075    1.400    0.286
        49 -10.2604     42.3270    206.2450   1.2254625301e+02   2.6813355706e+01    0.2757429    0.1971799 -50.91  0.001765343    1.944    0.486
        50 -11.5821    133.9010    145.4494   9.3133749906e+01   2.5986618379e+01     1.235625    0.3299872 -55.20  0.003043171    5.492    0.818
        51  -9.7144    112.9805    150.6911   9.9378677027e+01   2.8775169876e+01    0.2584084    0.1525538  87.66 0.0008985086    3.293    0.696
        52 -10.6587    174.3018    148.6734   8.4459392808e+01   1.6930756155e+01    0.3505229    0.2798015 -74.82  0.001267853    1.640    0.390
        53 -10.7025    143.5416    145.3063   9.0768527174e+01   2.4072744180e+01    0.2972126      0.14857 -53.34  0.001140692    2.163    0.538
        54 -10.3334     87.2638    143.9871   1.0469836940e+02   3.4682751282e+01    0.5039361    0.2423875  66.37  0.001578421    4.294    0.767
        55  -9.6220    110.5091    140.4930   9.7983762717e+01   3.1574494467e+01     0.257128    0.1765887  64.46 0.0005761649    1.707    0.414
        56 -11.4660    106.7794    138.4214   9.8528667410e+01   3.2727805742e+01    0.5957255    0.3491259 -38.82    0.0019697    2.055    0.513
        57 -12.4955     94.5759    138.7211   1.0179795610e+02   3.4754484459e+01    0.2766255    0.2635817 -47.32 0.0007950399    1.145    0.127
        58 -11.1256    114.3260    129.7768   9.4691853251e+01   3.3356387275e+01    0.3510949    0.2983497 -29.30 0.0006867161    1.334    0.250
        59 -11.2723    105.5207    130.9252   9.7288379883e+01   3.4708673224e+01    0.4604583    0.4059998   4.36  0.002446202    1.385    0.278
        60 -11.2617    135.7908    127.8714   8.8699035529e+01   2.9518481196e+01    0.7821251    0.1960396 -50.07  0.002060423    4.338    0.769
        61 -10.1058    160.8194    128.1069   8.2692785869e+01   2.4068625875e+01    0.3405946    0.2166673 -55.47  0.001425287    1.781    0.439
        62 -11.1620    101.7684    125.6068   9.7145914765e+01   3.6626399820e+01    0.2934555    0.2526421  -9.64 0.0007474435    1.443    0.307
        63 -11.2336    120.0896    123.1974   9.1647033948e+01   3.3761322888e+01    0.5598214    0.3354478 -21.15  0.001934746    3.209    0.688
        64 -10.1829    109.7807    118.8204   9.3389245179e+01   3.6754167142e+01     0.235864    0.2270339 -46.55 0.0004428893    1.052    0.050
        65 -10.6915    135.0000    112.4794   8.5064327865e+01   3.3094739809e+01    0.5096738   0.08798255 -45.29  0.001133709    5.711    0.825
        66 -11.6122    118.3821    110.6470   8.9004813173e+01   3.6958526730e+01    0.6465623    0.4088494  60.10  0.002698623    1.971    0.493
        67 -10.2373    205.3447    110.2611   6.8809191317e+01   1.7423769276e+01    0.3534657     0.226461  36.93  0.001100193    1.750    0.428
        68 -10.1622    167.6887    112.4482   7.7146220363e+01   2.5744509818e+01    0.3763815    0.2660619 -81.85  0.001465272    2.214    0.548
        69 -10.5632     65.1007    100.0709   1.0217279058e+02   4.8388177697e+01    0.4372736     0.209572  28.48  0.001863128    2.507    0.601
        70  -9.5366     61.6716    219.6924   1.1993777386e+02   2.1781782625e+01    0.3790804    0.1720073  77.19  0.001745231    2.855    0.650
        71  -8.9475    155.4492     81.4543   7.1263082709e+01   3.4775025500e+01    0.1551652    0.1520967   3.93 0.0002146238    1.030    0.029
        72  -9.9357     67.0687     71.0168   9.3840428846e+01   5.4671674052e+01    0.2030822    0.1875683 -35.14 0.0005533976    1.057    0.054
        73 -11.0484    158.5144    237.3672   1.0335009820e+02   4.0191884542e+00    0.3373819    0.2283224 -53.75  0.002051082    1.878    0.467
        74 -13.4115    179.0109     49.6271   5.6824247634e+01   3.4199353819e+01    0.8334268    0.7793814  -6.15 0.0008248443    1.167    0.143
        75 -10.6514     43.4365    236.6255   1.2447813841e+02   2.0868707838e+01    0.1204936    0.1019499  74.81 0.0009413809    1.256    0.204
        76 -11.3300    158.0078     60.0272   6.4098757737e+01   3.7935261112e+01     0.352668    0.2719035 -80.24 0.0004437965    1.630    0.386
        77  -9.7429    168.9967    235.4781   1.0111777808e+02   2.5926895244e+00    0.1631942    0.1550841  15.05 0.0004880783    1.194    0.162
        78  -8.7054     81.6847     15.7239   6.7443348431e+01   6.1649940457e+01    0.1351458   0.08826564  19.70 0.0002043281    1.566    0.361
        79 -11.3208     60.7511    233.3981   1.2120643020e+02   1.9330781503e+01    0.1899021    0.1371181  68.92 0.0004116286    1.083    0.077
