#   1 NUMBER                 Running object number                                     
#   2 MAG_AUTO               Kron-like elliptical aperture magnitude                    [mag]
#   3 X_IMAGE                Object position along x                                    [pixel]
#   4 Y_IMAGE                Object position along y                                    [pixel]
#   5 X_WORLD                Barycenter position along world x axis                     [deg]
#   6 Y_WORLD                Barycenter position along world y axis                     [deg]
#   7 A_WORLD                Profile RMS along major axis (world units)                 [deg]
#   8 B_WORLD                Profile RMS along minor axis (world units)                 [deg]
#   9 THETA_WORLD            Position angle (CCW/world-x)                               [deg]
#  10 FWHM_WORLD             FWHM assuming a gaussian core                              [deg]
#  11 ELONGATION             A_IMAGE/B_IMAGE                                           
#  12 ELLIPTICITY            1 - B_IMAGE/A_IMAGE                                       
         1 -11.2634     82.0200     38.2330   8.8231325620e+01   5.8111427178e+01    0.6174895    0.3808475   8.49  0.002746712    2.359    0.576
         2  -9.6782     77.9804     28.7669   8.5802103131e+01   6.0338401178e+01    0.2523685     0.158555 -18.99  0.001271625    1.660    0.398
         3 -11.1367    244.3787     17.9065   5.0736922048e+01   2.1771734325e+01     1.344281     0.245514  60.91  0.004404673    4.376    0.771
         4  -8.2658      5.9652     10.0174   1.0993503957e+02   7.2141044963e+01    0.1884404   0.09691024 -29.04  0.001136823    1.709    0.415
         5 -10.4631    248.4187      3.0474   4.6922052260e+01   2.2425602710e+01     0.489599    0.3402318  -2.43  0.002708635    2.004    0.501
         6  -8.3021     21.2500      4.0265   9.8943525377e+01   7.1903872831e+01    0.2775263    0.1262521  35.17  0.001513105    2.651    0.623
         7 -10.7273    114.7045    231.8374   1.2022292763e+02   1.3784848875e+01    0.3312031    0.1854313  47.22  0.001178692    1.399    0.285
         8 -11.9933    236.8671    246.9564   1.0077436729e+02  -6.9876304136e+00    0.2851381    0.2052031  31.15 0.0004553085    1.187    0.157
         9 -10.6557     12.3775    208.1447   1.3677768924e+02   3.0642678042e+01    0.6096765    0.3655595 -46.31   0.00379705    3.057    0.673
        10 -11.3569     16.5242    241.4218   1.3761430418e+02   2.4496568230e+01    0.9842166    0.3099448  86.12  0.004971677    3.607    0.723
        11 -10.4262     12.2556    249.1020   1.3856567627e+02   2.3684777807e+01    0.5123685    0.2009268  47.81  0.003057467    1.796    0.443
        12 -13.2922      6.0230    193.8129   1.3718350848e+02   3.3879858370e+01     3.859472     0.496685 -75.34    0.0141926    5.521    0.819
        13 -10.6852      3.3921    245.0233   1.3973522499e+02   2.5173728212e+01    0.5290729    0.2765496  88.80  0.003255465    1.593    0.372
        14  -7.5659    150.5467    209.3850   1.1068735693e+02   1.1648004026e+01    0.1269095    0.1035085  41.76  1.54025e-06    1.037    0.036
        15  -9.0692    123.9974    206.0561   1.1544988910e+02   1.6633039876e+01    0.1825044    0.1528674  52.24   0.00119149    1.013    0.013
        16 -10.4092      6.3200    237.4948   1.3902632940e+02   2.6119992626e+01    0.3521749    0.2085712  77.68  0.002252718    1.256    0.204
        17 -11.2497      3.7269    232.3532   1.3923401956e+02   2.7210904464e+01    0.7421998    0.4044363 -61.75  0.005287217    2.440    0.590
        18  -8.2841    138.6977    183.2983   1.0915384807e+02   1.8226034713e+01    0.1330406   0.09788708  70.20   0.00069995    1.582    0.368
        19  -8.3520     26.6179    174.5587   1.3201558420e+02   3.5794600730e+01    0.3133757    0.1132229 -50.03  0.001267832    4.670    0.786
        20  -8.8022    242.4450    169.6102   8.6457909254e+01   1.1689040447e+00    0.2470027    0.1852651  29.15  0.001014246    1.219    0.180
        21  -8.6526    243.1496    164.8641   8.5382037788e+01   1.6881118424e+00    0.2045708    0.1762803   5.22 0.0002849927    1.040    0.039
        22 -10.1025      2.2098    222.1423   1.3908504717e+02   2.9081972073e+01    0.5581804    0.1867482 -81.25  0.003267347    2.577    0.612
        23  -8.0043    243.2967    159.9461   8.4350009679e+01   2.3371916168e+00    0.1794098     0.145344  -5.83 0.0002380362    1.108    0.097
        24 -10.3034    211.4139    157.6635   8.9546661606e+01   8.6939537371e+00    0.2424158    0.2224585  19.68 0.0003834187    1.066    0.062
        25  -7.5990     98.5440    164.4747   1.1505690751e+02   2.8782103558e+01    0.1307053    0.1201285  72.20 0.0001350573    1.048    0.046
        26  -8.7148    250.2553    231.9987   9.6321696767e+01  -7.4107193206e+00    0.1314164   0.08654729 -18.56 0.0008873802    1.561    0.360
        27 -10.1458    148.9924    223.7252   1.1293246803e+02   9.6630228520e+00     0.217207    0.1901408  30.79 0.0004234948    1.178    0.151
        28  -8.4761    230.8947    140.0367   8.2208845782e+01   7.5676828841e+00    0.2013648    0.1791439  12.85 0.0004576271    1.042    0.040
        29  -8.7184    129.0000    222.0092   1.1647120048e+02   1.3152694658e+01    0.1730717   0.06971603 -55.03 0.0008134437    3.019    0.669
        30  -7.5545    186.0038    116.0028   8.5027706819e+01   2.1200535105e+01    0.1850431    0.1664989  40.79 0.0003616478    1.092    0.084
        31  -9.2505     47.2319    101.5105   1.1799706227e+02   4.9841206173e+01     0.218239    0.1813929 -64.07   0.00137743    1.040    0.038
        32  -8.1091     86.1583     99.1333   1.0581248462e+02   4.5214000739e+01    0.2218729    0.1847532 -31.29 0.0007866015    1.295    0.228
        33  -7.7427    172.2596     92.9867   8.1884668586e+01   2.8597067271e+01    0.2108792    0.1963646 -33.36  0.000401386    1.079    0.073
        34  -9.5620     65.0014     91.6478   1.1048289918e+02   4.9967158007e+01    0.4559096    0.2650995 -25.75  0.001963692    2.681    0.627
        35 -10.5018     50.7826     81.2336   1.1266357788e+02   5.4024708237e+01    0.4960403     0.271596 -19.51  0.002024725    3.389    0.705
        36 -10.1580     55.2711     89.7947   1.1314100615e+02   5.1596044043e+01    0.5098132    0.1705895 -46.53  0.001937045    2.893    0.654
        37 -12.0249     62.2069     82.5540   1.0920499906e+02   5.2354547832e+01    0.8045122    0.5967637 -59.84  0.004554149    1.255    0.203
        38 -11.8352     70.0066     69.0277   1.0294109587e+02   5.4202395739e+01    0.8167865    0.6009766   9.71  0.004386249    1.665    0.399
        39  -8.0019     79.1616     89.0385   1.0543386636e+02   4.8540845241e+01    0.2383027     0.148242 -29.28  0.001031729    2.054    0.513
        40  -9.7018    228.2373     84.9730   6.9505227383e+01   1.6625849063e+01    0.2404793     0.230942 -16.01 0.0002301699    1.021    0.021
        41  -9.4722     37.6191     84.8502   1.1780926522e+02   5.4573267732e+01     0.271861      0.17232  -5.11  0.001426799    2.332    0.571
        42  -8.1438    232.3315     81.0505   6.7898323842e+01   1.6282777395e+01    0.2013544     0.177504 -30.30 0.0004759309    1.068    0.064
        43  -8.9024     78.1062     79.5041   1.0324454549e+02   5.0776298113e+01     0.443263    0.1860218 -39.30  0.001682128    2.648    0.622
        44  -8.2245     84.5389     83.7991   1.0238714137e+02   4.8840070971e+01    0.3158998    0.1740298 -34.40  0.001347266    2.122    0.529
        45  -9.2203     79.5404     69.3726   9.9852009660e+01   5.2684884671e+01    0.4179305    0.2081514 -35.30  0.001744622    2.215    0.548
        46  -7.7807    191.6614     70.7252   7.1787587607e+01   2.7631537634e+01    0.1554855    0.1144038  26.50 0.0004010791    1.611    0.379
        47  -7.9170    196.1743     68.2102   7.0276817470e+01   2.6899907900e+01    0.2729358    0.1556457  23.89 0.0009629818    2.944    0.660
        48  -8.6950     89.7222     66.4740   9.5647103973e+01   5.1568741899e+01    0.4415108     0.222775 -32.25   0.00178351    2.302    0.566
        49  -7.8710    173.2888     66.7051   7.4110286657e+01   3.2889475448e+01    0.3203751    0.1937671  46.61  0.001366487    1.646    0.393
        50 -10.4718     74.3363     63.0515   9.9647144288e+01   5.4786414666e+01    0.3864844    0.3236213 -41.17   0.00225877    1.095    0.087
        51  -8.0694     98.1752     64.6805   9.2417603017e+01   5.0381170160e+01    0.4805039    0.1921022 -28.17  0.001271863    5.397    0.815
        52  -8.3915     55.2916     64.3615   1.0672843479e+02   5.7144660157e+01    0.1386644   0.08882972 -29.30 0.0007028096    1.699    0.411
        53 -11.4540     70.4674     56.8688   9.8999701495e+01   5.6605290274e+01    0.5490612    0.3916646  12.58  0.002920278    1.670    0.401
        54  -8.8788     82.0706     60.7792   9.6305591289e+01   5.4002092029e+01    0.2804478    0.1714926 -21.50  0.001242215    2.130    0.530
        55 -10.9585     62.1381     57.1057   1.0205720338e+02   5.7749016269e+01    0.3836522    0.3004198  35.65  0.002261172    1.428    0.300
        56  -8.9006     71.9151     88.5803   1.0758028359e+02   4.9707178528e+01    0.3863292    0.1837084 -39.62  0.001598687    2.352    0.575
        57  -7.9062     91.5048     57.5101   9.2124756540e+01   5.2985188783e+01     0.269304    0.1254812 -32.00  0.001040421    2.437    0.590
        58 -11.1555     78.6498     53.1780   9.4901681065e+01   5.6031200969e+01    0.6210317    0.3554952 -32.62  0.002926213    1.756    0.431
        59  -7.5578    128.1879     53.3729   8.0073705112e+01   4.6089353786e+01    0.1851885    0.1416559  60.51 0.0002378412    1.422    0.297
        60 -10.6357     64.6956     49.4917   9.8588445661e+01   5.8882347453e+01    0.4259862     0.331181  89.02  0.002237651    2.189    0.543
        61 -11.5169     68.7259     44.5646   9.5350747514e+01   5.9205055457e+01    0.6606954    0.4258663 -57.40  0.003287374    1.996    0.499
        62 -10.9014     74.5007     41.6554   9.2177668457e+01   5.8811369306e+01    0.6076131    0.3112288 -17.88  0.002230713    3.450    0.710
        63 -10.0028    247.8633    247.4636   9.9080163165e+01  -8.5729574135e+00    0.3025837    0.2199722  45.63  0.002036537    1.804    0.446
        64  -9.2779    225.7078     49.3987   6.0679708376e+01   2.2333423765e+01    0.3823054    0.2485599  33.22  0.001775348    1.973    0.493
        65 -10.0681     57.3984     50.6404   1.0170082480e+02   5.9662861758e+01    0.3831325      0.18015 -36.08   0.00167866    2.138    0.532
        66  -9.4308     89.0628     38.0615   8.5811295245e+01   5.6849882448e+01    0.3396779    0.2100084 -16.40   0.00158252    1.901    0.474
        67  -9.2200    223.3466     36.3792   5.7557942784e+01   2.4592855909e+01    0.3716589    0.2396564 -27.49  0.001253404    1.566    0.361
        68  -9.2698     93.9559     30.0015   8.1034912342e+01   5.7141406289e+01    0.2179856    0.1960145   3.69  0.000894334    1.009    0.009
        69  -8.2500    250.5055     29.4923   5.2941869112e+01   1.9051015147e+01    0.1309948    0.1162304 -56.90 -7.214902e-06    1.000    0.000
        70  -7.7471    196.8433     29.2111   5.8976081554e+01   3.2141629678e+01    0.1961424    0.1591594  41.70  0.000443654    1.315    0.240
        71  -9.3717    219.4093    240.7895   1.0275930431e+02  -3.7994671109e+00    0.1801117    0.1076457 -36.03 0.0008690828    2.107    0.525
        72  -9.0900    249.2986     25.4482   5.2093200135e+01   1.9795768828e+01    0.2466982    0.1165696  64.67  0.001149134    2.133    0.531
        73  -9.3997     89.7825     46.5499   8.8795780840e+01   5.5288108728e+01    0.4440689     0.262909 -11.45  0.001729795    2.581    0.613
        74  -7.6458    216.3303     24.3088   5.5174744386e+01   2.7776220692e+01    0.1409259     0.101921  35.65 0.0007040643    1.665    0.399
        75  -9.0288     62.8617     27.9021   9.1015461919e+01   6.2968305315e+01    0.2066717    0.1585955  -6.79  0.001000654    1.244    0.196
        76  -9.0414    212.0029    249.4730   1.0523402613e+02  -3.6269030518e+00    0.1799829   0.08467326  38.24 0.0006919724    1.605    0.377
        77 -10.2656     11.8825    219.0323   1.3737890969e+02   2.8737627200e+01    0.3103538    0.1657338 -80.89  0.001991839    1.662    0.398
        78  -9.2946    222.3979    234.7625   1.0136079367e+02  -3.5915645715e+00    0.1495871   0.09888521 -11.06 0.0005573247    1.692    0.409
