#   1 NUMBER                 Running object number                                     
#   2 MAG_AUTO               Kron-like elliptical aperture magnitude                    [mag]
#   3 X_IMAGE                Object position along x                                    [pixel]
#   4 Y_IMAGE                Object position along y                                    [pixel]
#   5 X_WORLD                Barycenter position along world x axis                     [deg]
#   6 Y_WORLD                Barycenter position along world y axis                     [deg]
#   7 A_WORLD                Profile RMS along major axis (world units)                 [deg]
#   8 B_WORLD                Profile RMS along minor axis (world units)                 [deg]
#   9 THETA_WORLD            Position angle (CCW/world-x)                               [deg]
#  10 FWHM_WORLD             FWHM assuming a gaussian core                              [deg]
#  11 ELONGATION             A_IMAGE/B_IMAGE                                           
#  12 ELLIPTICITY            1 - B_IMAGE/A_IMAGE                                       
         1 -13.0594    205.2243     46.9203   3.0307400652e+01   2.7949431357e+01    0.9991038    0.8714288 -34.83  0.003163064    1.083    0.077
         2 -13.3705    216.5417     37.5835   2.6799288784e+01   2.6631547063e+01     0.865213    0.7449219  19.93  0.002169858    1.474    0.322
         3 -12.8349    243.7582     13.1451   1.9098787138e+01   2.3724920170e+01    0.8328758    0.6183576 -43.00  0.004766479    1.031    0.030
         4 -10.3538     49.3624      3.6559   4.4568705424e+01   7.2632385968e+01    0.4268521     0.270478 -77.47  0.001749495    3.149    0.682
         5 -10.1542      2.3074      3.5060   8.4101774080e+01   8.0128459969e+01    0.3768486    0.1054731 -62.79  0.001409904    3.433    0.709
         6 -10.0016    131.2598    235.4125   8.2460952467e+01   1.1126112977e+01    0.1682655   0.08233587  37.79 0.0009491584    1.639    0.390
         7  -9.9027    139.9210    248.9226   8.2228641677e+01   8.2333602196e+00    0.1998072    0.1687515 -86.69  0.001511386    1.980    0.495
         8 -10.9910     75.4342    247.0944   9.4826773872e+01   1.6032248033e+01    0.4023846    0.2778459 -45.90  0.002791059    2.025    0.506
         9 -11.0391     71.8941    244.1497   9.5352330783e+01   1.6889627242e+01    0.3432824     0.212201 -75.07  0.001345643    2.107    0.525
        10 -14.2324     48.7671    181.8623   9.6103281278e+01   3.1294017820e+01     8.947272          nan  39.31   0.01965469    8.529    0.883
        11  -9.9083     85.5772    202.7587   8.8867538026e+01   2.2457177699e+01    0.2529272    0.1845862  58.30 0.0004465428    1.374    0.272
        12  -9.2367    115.4787    183.4982   7.9375940742e+01   2.1923205426e+01    0.1331201    0.1162068  28.29 0.0002801425    1.037    0.036
        13 -10.3014     99.1022    180.8972   8.2996316488e+01   2.4873182249e+01    0.2892297    0.2291503  33.91 0.0006609328    1.116    0.104
        14 -10.0062    120.5275    179.9059   7.7649081184e+01   2.1835912415e+01     0.255669    0.1879943  56.17 0.0008619005    1.527    0.345
        15 -10.3804    110.6416    167.2600   7.8100014978e+01   2.5886366001e+01    0.2750524    0.2410761 -71.84  0.000720789    1.302    0.232
        16 -12.4080     97.4628    168.6677   8.1694108730e+01   2.7650249526e+01     2.587203    0.5122582  46.23  0.005773496    7.632    0.869
        17 -11.7820     77.4390    155.7135   8.5277261219e+01   3.3526070217e+01    0.8219938    0.3833845  44.74 0.0006112522    1.968    0.492
        18 -12.7419     65.9259    150.7607   8.7952035577e+01   3.6322600097e+01    0.5615141    0.4477052 -32.42  0.001721906    1.580    0.367
        19 -13.5322     69.7824    144.7608   8.5939658214e+01   3.7230759678e+01     2.975824     1.430274  79.10  0.008014689    4.551    0.780
        20 -11.5267     64.3429    167.8431   9.0521669572e+01   3.2536420952e+01    0.4360238    0.3007488 -27.35  0.002163634    2.129    0.530
        21 -11.4794     68.9368    163.5053   8.8725664277e+01   3.2919625082e+01    0.3761238    0.3054364 -27.24  0.001619856    1.588    0.370
        22 -10.0783     84.1777    168.3488   8.5163426200e+01   2.9695569412e+01    0.3281687    0.2133223  19.13  0.001603831    1.760    0.432
        23  -9.2965    187.5303    170.0322   6.1747951757e+01   1.2958213300e+01    0.1806258    0.1161298 -35.86 0.0009453243    1.567    0.362
        24 -14.9669      5.4602    248.7130   1.0894417749e+02   2.2663720378e+01    0.7251499    0.2608631  29.35  0.003127981    2.061    0.515
        25  -8.7124     88.4615    157.2094   8.2394464747e+01   3.1535887327e+01    0.1855346     0.134822 -86.33 0.0009289851    1.640    0.390
        26 -11.4994     84.9511    150.1536   8.2284965000e+01   3.3689727798e+01    0.5804788    0.4877833 -14.62  0.001280161    1.490    0.329
        27 -10.5491    192.6805    194.3492   6.5001728557e+01   8.7484398829e+00    0.7129076    0.4017493 -59.44  0.002525834    6.882    0.855
        28 -10.7057    133.8491    145.6200   6.8428479798e+01   2.6331080920e+01     1.071143    0.2986653 -53.97  0.002878438    5.536    0.819
        29  -8.9505    174.9656    148.9637   6.0090101580e+01   1.8348962003e+01    0.1957627    0.1705804 -84.36 0.0007602683    1.686    0.407
        30  -9.7810     54.1028    146.9292   9.1047386898e+01   3.8807343496e+01    0.4287644    0.2021915 -75.59  0.001790225    2.281    0.562
        31 -10.1658     58.9067    146.2289   8.9476329692e+01   3.8363264847e+01    0.5046105    0.1950091  52.34  0.001804593    2.884    0.653
        32  -9.1489     35.3037    142.6660   9.6488575885e+01   4.2031671509e+01     0.309183    0.1653449 -66.45  0.000899056    1.834    0.455
        33 -10.0504     31.9939    143.4790   9.7620651893e+01   4.2165176938e+01    0.3465006    0.2412634  40.01 0.0009078906    1.321    0.243
        34  -8.2938    179.5009    141.5072   5.7663588515e+01   1.8790906141e+01    0.1339808    0.1217528  -3.78 0.0003538498    1.020    0.019
        35 -10.1733    100.5923    136.4356   7.5363632492e+01   3.4285799564e+01    0.5497487    0.3574294 -14.78  0.002161209    2.760    0.638
        36 -11.6000     87.3860    135.6359   7.9083541504e+01   3.6718441778e+01    0.2774928    0.2709886 -84.36 0.0005120942    1.071    0.066
        37  -9.4796     52.6995    136.7937   9.0186349500e+01   4.1513189667e+01    0.2128606    0.1886181  29.19 0.0003958403    1.200    0.166
        38  -9.5437    105.8299    130.4327   7.2655720861e+01   3.4721373930e+01    0.3238239    0.3131522   7.66  0.001597009    1.097    0.088
        39  -9.3907    110.1304    128.1432   7.0955441799e+01   3.4444071077e+01    0.2910106    0.2265706   8.27 0.0006929343    1.636    0.389
        40 -15.8702     35.5688    189.6302   1.0007823338e+02   3.1037670004e+01     10.18316     2.784078  51.39   0.03576959    3.151    0.683
        41 -11.8201    234.7419    167.7785   5.3499456258e+01   6.4667838241e+00    0.7322712    0.2382819  32.70  0.003193891    3.554    0.719
        42  -9.0056     82.1437    128.8002   7.9413704564e+01   3.9229385471e+01    0.2285934     0.187714  61.46 0.0007667367    1.218    0.179
        43  -9.8561     97.1743    123.6568   7.3743687877e+01   3.7867949842e+01    0.3228622    0.2533622   8.21 0.0007533169    1.633    0.387
        44  -9.2183    139.8804    121.2197   6.1621915961e+01   3.0089007842e+01    0.2144232    0.1978887  78.58 0.0005652331    1.215    0.177
        45  -8.9023    162.1648    119.8352   5.6288646722e+01   2.5846553331e+01    0.1998112    0.1893657 -57.59  0.000377978    1.159    0.137
        46 -10.4042     75.6546    167.8592   8.7408181600e+01   3.1012709426e+01    0.8795794    0.4160239  67.28  0.003111567    3.631    0.725
        47  -8.6491    120.4844    119.4532   6.6137514273e+01   3.4366413059e+01     0.149065    0.1453486  30.39  5.66198e-05    1.026    0.025
        48  -9.2292     70.0154    116.9935   8.1104146461e+01   4.4116416232e+01    0.4349095    0.2015934  58.96  0.001429737    3.224    0.690
        49  -8.9063    106.8940    117.4079   6.9459641302e+01   3.7497530015e+01    0.2053817    0.1773465  38.56 0.0003687342    1.148    0.129
        50  -8.8990    125.9727    115.4732   6.3720078453e+01   3.4114097842e+01    0.2289293    0.1467757  42.45 0.0003795181    1.542    0.351
        51  -9.6182    135.0000    120.3932   6.2614342773e+01   3.1245315641e+01    0.3206337   0.08440354 -45.20  0.000908083    3.845    0.740
        52  -9.4594    205.4527    110.3782   4.6218829527e+01   1.8975588712e+01    0.2269068    0.2040839 -14.90 0.0006233281    1.038    0.036
        53 -10.3275     29.1528    107.8261   9.4709805006e+01   5.1729099695e+01    0.4568049    0.1766068  23.16  0.001751243    2.704    0.630
        54 -10.1887     18.8160    112.8378   9.9292646548e+01   5.1296303540e+01     0.261824    0.1926502  45.01  0.000354462    1.313    0.238
        55  -9.5022     30.7513     95.1111   9.2187760943e+01   5.4984990256e+01    0.3722814    0.1222596  40.74  0.001320187    2.896    0.655
        56 -10.6636     19.0523     90.6118   9.6628731735e+01   5.7230369047e+01     0.451489    0.2226994  39.54  0.001594465    2.007    0.502
        57  -8.9174     92.7622     87.0382   6.5863810812e+01   4.7370648748e+01    0.2322944    0.2000907  89.22 0.0005032652    1.278    0.217
        58  -8.3303    160.6558     84.7127   4.7454461534e+01   3.2486167376e+01    0.1496106    0.1154079  17.38 0.0004421049    1.649    0.393
        59 -12.4880    194.7133     54.2327   3.3472821361e+01   2.9342136897e+01    0.7460085    0.6001293  -0.91 0.0008924257    1.499    0.333
        60 -16.8071      8.4325    238.3810   1.0815395187e+02   2.4154119284e+01     3.049646     1.079552  26.33   0.01352983    2.346    0.574
        61 -10.7096    112.4955    241.8611   8.6877288165e+01   1.2501102073e+01    0.2814673    0.1758295  42.60  0.001730432    1.384    0.278
        62 -10.7641     13.4216     60.0754   9.4516228000e+01   6.5776575636e+01    0.3054397    0.2354026 -78.26 0.0005009703    1.202    0.168
        63 -15.4867      8.4201    208.0941   1.0743130021e+02   2.9752282400e+01     1.496797     1.278895  86.87  0.007748226    1.316    0.240
        64  -8.7088     79.9969     58.7087   6.0844597330e+01   5.6406638070e+01    0.2393141    0.1192247  64.73  0.000537754    3.929    0.745
        65  -9.0070    184.8661    189.3712   6.5609768411e+01   1.0529801608e+01    0.1725166   0.09671248  23.61 0.0004036225    1.706    0.414
        66  -8.6699     60.4967     21.0334   5.0993249780e+01   6.7746961400e+01    0.2030982    0.1393677 -32.81 0.0003769397    1.479    0.324
        67  -9.4769    118.9670    238.2873   8.5225014044e+01   1.2234880900e+01    0.1644187    0.1504697  23.82 0.0004756073    1.215    0.177
        68  -9.0842    189.5136     15.0161   2.2861094877e+01   3.5224443748e+01    0.2024323    0.1206141 -28.92 0.0005590483    1.557    0.358
        69  -8.6132    196.5389     14.5133   2.2193600245e+01   3.3614965125e+01    0.1340609    0.1122209 -53.87 0.0001033587    1.008    0.008
        70 -15.4083      7.5522    142.5958   1.0529534057e+02   4.4473132621e+01     10.71848     2.372521  87.93   0.03060734    5.429    0.816
