#   1 NUMBER                 Running object number                                     
#   2 MAG_AUTO               Kron-like elliptical aperture magnitude                    [mag]
#   3 X_IMAGE                Object position along x                                    [pixel]
#   4 Y_IMAGE                Object position along y                                    [pixel]
#   5 X_WORLD                Barycenter position along world x axis                     [deg]
#   6 Y_WORLD                Barycenter position along world y axis                     [deg]
#   7 A_WORLD                Profile RMS along major axis (world units)                 [deg]
#   8 B_WORLD                Profile RMS along minor axis (world units)                 [deg]
#   9 THETA_WORLD            Position angle (CCW/world-x)                               [deg]
#  10 FWHM_WORLD             FWHM assuming a gaussian core                              [deg]
#  11 ELONGATION             A_IMAGE/B_IMAGE                                           
#  12 ELLIPTICITY            1 - B_IMAGE/A_IMAGE                                       
         1 -14.1286     68.5538    144.8736   9.3956388618e+01   3.7410358192e+01     5.083374     2.846369  86.30  0.003064302    3.567    0.720
         2 -13.3641    211.3056     42.2232   3.4610373367e+01   2.8243704366e+01     1.682673     1.331364  21.41  0.008999325    2.106    0.525
         3 -12.8806    227.4690     27.8730   3.0116061699e+01   2.6736097594e+01    0.8553743    0.7366623  78.54  0.003917209    1.299    0.230
         4 -11.1105    249.1120      8.8573   2.5063790475e+01   2.4782926491e+01    0.3247665    0.2320882 -50.40  0.002210323    1.292    0.226
         5 -11.4043    248.3107      3.7856   2.4231986668e+01   2.5471451837e+01    0.3303283    0.3131681 -89.84  0.002807558    1.534    0.348
         6 -10.4519      1.7083      7.6461   8.3136551338e+01   7.3965132281e+01    0.4084049   0.09463302 -47.19  0.001592453    4.687    0.787
         7 -11.3694     59.0866    172.6357   1.0145534863e+02   3.1355344941e+01    0.5072072    0.3234217 -27.29  0.002210313    2.140    0.533
         8 -10.4176    139.6811    250.0003   9.2188441292e+01   2.0223077393e+00    0.4122661      0.12659  40.11  0.001529573    2.979    0.664
         9 -14.9296      4.5055    180.0276   1.1706656254e+02   3.4881683495e+01     10.88438     1.240804 -75.01   0.02789616    6.500    0.846
        10 -11.2278     64.2023    167.8543   9.9256173741e+01   3.1943892550e+01    0.3912447    0.2945867 -33.05 0.0005812881    1.517    0.341
        11 -10.0369    113.6923    174.1169   8.6253852651e+01   2.2663387720e+01    0.2922815     0.211312  44.62  0.001342269    1.413    0.292
        12 -12.7968     61.4260    154.6589   9.7944717711e+01   3.5788497418e+01     0.548577     0.376206 -36.75  0.001330586    1.606    0.377
        13 -11.8853     82.0459    152.6857   9.1259905954e+01   3.3369973916e+01    0.9600468    0.5588874 -44.39  0.001516039    1.747    0.427
        14 -11.8315     74.6498    158.6927   9.4621317541e+01   3.2902791272e+01    0.7927604    0.5819325  45.39 0.0008024639    1.418    0.295
        15 -14.3040      8.6994    207.8869   1.1801195453e+02   2.7823830178e+01     1.551358     1.169727 -59.54  0.009777262    1.442    0.306
        16 -10.8693     33.4114    157.3160   1.0684390065e+02   3.8262906252e+01    0.4306104    0.3228729  60.02  0.001257034    1.420    0.296
        17 -10.5836     23.6861    147.8174   1.0855502119e+02   4.1634083188e+01    0.3543041     0.222326 -66.78 0.0007997676    1.375    0.272
        18  -9.6445    133.8761    145.4176   7.4670121320e+01   2.5921462671e+01    0.7537411    0.2191518 -55.46  0.001757546    5.370    0.814
        19  -8.7853     47.6881    145.6665   1.0074056342e+02   3.9845934511e+01    0.1559003    0.1018447 -36.23 0.0004491616    1.679    0.405
        20  -9.1585     28.6850    142.9131   1.0634855997e+02   4.2490659557e+01    0.2045703    0.1664407 -70.71  0.001013994    1.097    0.089
        21  -9.5386     96.9874    139.9909   8.4030517361e+01   3.4189306942e+01    0.3367676    0.2899177  17.77 0.0008694103    1.220    0.180
        22  -9.0847    100.0591    136.9409   8.2400739574e+01   3.4417520174e+01    0.4037948    0.2523906 -18.43  0.001480618    2.481    0.597
        23 -11.7290     84.7208    138.1524   8.7446357202e+01   3.6722621981e+01    0.3512734    0.2899233 -50.18 0.0004743927    1.166    0.142
        24 -12.3606     30.0357    198.0264   1.1219680260e+02   2.8187391401e+01    0.5186542     0.363158 -34.81   0.00120595    1.878    0.468
        25 -10.2105    107.1210    130.2948   7.8689739308e+01   3.4771931371e+01    0.4968881    0.3464005  20.45  0.001474819    1.662    0.398
        26 -10.6079    240.4782    169.4733   5.7175792196e+01   1.7817596939e+00    0.2067619    0.1919912  35.20 0.0007248448    1.369    0.270
        27  -8.5504     96.5382    124.8463   8.0625016212e+01   3.8061856788e+01    0.2256384    0.1518631 -48.74 0.0009784953    1.446    0.309
        28  -8.5316    162.4672    119.9582   6.1396648351e+01   2.5718402553e+01     0.221892    0.1308637 -64.25 0.0008092807    2.514    0.602
        29  -9.0714    105.9359    118.4978   7.6101887678e+01   3.7845612242e+01    0.2215617    0.2062638 -32.88 0.0003398729    1.050    0.048
        30  -9.0454    159.0226    115.2884   6.1017595812e+01   2.7438071797e+01    0.2731159    0.2067546 -70.13 0.0007631576    1.637    0.389
        31  -9.9188    231.0929    113.8887   4.7398007245e+01   1.3131480442e+01     0.293302    0.2364895 -45.75 0.0008618811    1.050    0.048
        32  -9.2299    205.1436    110.3779   5.0701716336e+01   1.8685250668e+01    0.3044355    0.2101017  38.83  0.001214883    1.737    0.424
        33  -8.6689    110.6032    167.7313   8.5867428794e+01   2.4785988402e+01    0.2138112    0.1517729 -66.64 0.0003967529    1.591    0.371
        34  -8.4544     74.4675    110.2549   8.4314010187e+01   4.5376614943e+01    0.2000682    0.1478837 -65.03 0.0004916165    1.526    0.345
        35  -9.8325     36.9396    160.9396   1.0627306009e+02   3.6960248211e+01    0.4031844    0.2087676  58.26  0.001665503    2.378    0.580
        36 -16.0468     18.2683    241.9861   1.1805405763e+02   1.9337431532e+01     8.060466     2.964987  19.16   0.03054727    4.662    0.786
        37  -9.1951    161.6841     84.0430   5.2334434564e+01   3.2917244675e+01    0.2066564    0.1883385 -47.96 0.0005399943    1.095    0.087
        38  -8.1281     45.3176     68.7147   8.3873202176e+01   5.8886010023e+01    0.1243391    0.1093197  58.72 0.0002665544    1.588    0.370
        39  -8.5948     23.4729     67.4553   9.3289846651e+01   6.1445296773e+01    0.1323983    0.1103506 -28.16  6.67565e-05    1.023    0.022
        40 -11.9208     11.9046     60.4301   9.6806551286e+01   6.3804041296e+01    0.6254308    0.3820767  -9.39   0.00176067    1.623    0.384
        41  -9.1694     33.2023     61.7907   8.7090436539e+01   6.1701050915e+01    0.2402936    0.2118501  64.06  0.001004844    1.688    0.408
        42  -9.1743     29.0254     59.5341   8.8323865688e+01   6.2584699630e+01     0.293548    0.1791801  39.41   0.00150527    2.076    0.518
        43 -12.6763    202.0931     47.9528   3.6921460156e+01   2.9444550341e+01     1.052455    0.5957626  67.89  0.003668833    1.716    0.417
        44 -14.4665     39.7541    189.5369   1.0888182151e+02   2.9278721590e+01     2.926742     1.653033  68.31   0.01116588    2.014    0.503
        45 -11.7393    220.2447     34.3110   3.2049972210e+01   2.7402907592e+01    0.4270943    0.3628005  59.14  0.001087843    1.457    0.314
        46 -11.1010     94.9880    241.1466   1.0117387223e+02   1.0154972025e+01    0.3459324    0.2040975 -59.25  0.001768227    1.889    0.471
        47  -9.5613     35.0271     55.9059   8.4300483742e+01   6.2665030966e+01    0.2393408    0.1714771  22.99 0.0005803061    1.402    0.287
        48 -10.4814     18.7726     55.5126   9.2015007360e+01   6.4316862637e+01    0.4154588    0.1688456  36.16  0.001788068    3.128    0.680
        49 -10.8049      3.1759     49.5183   9.8137196404e+01   6.6568139952e+01    0.3296463    0.1898643   5.70   0.00189718    1.754    0.430
        50  -9.7280    197.8907     24.2634   3.2086550860e+01   3.3329102135e+01    0.2169887    0.1755559 -36.06  0.001172971    1.433    0.302
        51  -9.9288    192.3445    193.6309   7.0998147433e+01   4.7037108684e+00     0.670185    0.3526334 -63.84   0.00194923    5.811    0.828
        52  -8.8453     99.2053    180.9952   9.1487211744e+01   2.3374964096e+01     0.232355    0.1975199 -25.90 0.0006573355    1.293    0.226
