#   1 NUMBER                 Running object number                                     
#   2 MAG_AUTO               Kron-like elliptical aperture magnitude                    [mag]
#   3 X_IMAGE                Object position along x                                    [pixel]
#   4 Y_IMAGE                Object position along y                                    [pixel]
#   5 X_WORLD                Barycenter position along world x axis                     [deg]
#   6 Y_WORLD                Barycenter position along world y axis                     [deg]
#   7 A_WORLD                Profile RMS along major axis (world units)                 [deg]
#   8 B_WORLD                Profile RMS along minor axis (world units)                 [deg]
#   9 THETA_WORLD            Position angle (CCW/world-x)                               [deg]
#  10 FWHM_WORLD             FWHM assuming a gaussian core                              [deg]
#  11 ELONGATION             A_IMAGE/B_IMAGE                                           
#  12 ELLIPTICITY            1 - B_IMAGE/A_IMAGE                                       
         1 -13.7450    209.6520     34.2168   1.4193689067e+01   2.9575122461e+01     2.621864     1.045768  59.63   0.01256518    2.636    0.621
         2 -15.4233    230.9120      8.0808   7.1248675946e+00   2.8259083095e+01     4.189726     1.467013  79.20   0.02106844    2.886    0.653
         3 -14.1449    190.1422     24.1154   1.3629650337e+01   3.4857565885e+01     2.119822    0.6249962  59.99  0.007752157    3.210    0.688
         4  -9.6433    116.0221     12.5047   1.9725562132e+01   5.3490229229e+01    0.2362165    0.1899093  61.01 0.0008154098    1.109    0.098
         5 -11.3276    120.3849      8.9669   1.7757215228e+01   5.2754131230e+01    0.4147089    0.3292209  59.75  0.001467725    1.146    0.128
         6 -10.2450    160.5343      3.2863   1.1066726450e+01   4.3638588941e+01    0.2590353    0.1744813  38.55 0.0009687019    1.940    0.485
         7  -9.6014    230.4751    223.3344   4.9267384016e+01  -1.9902903337e+00    0.1776969    0.1436684  43.28 0.0009175236    2.070    0.517
         8 -19.3098    230.5387    127.6905   3.1881579033e+01   1.2315626140e+01     6.357591     5.718885 -24.46   0.03484835    1.098    0.089
         9 -10.3050    101.0099    175.9940   6.9136743592e+01   2.4878756279e+01    0.2048199    0.1939539  25.38  0.001161511    1.003    0.003
        10 -11.7328    150.6048    172.5438   5.6016274739e+01   1.7553067749e+01    0.4419189     0.319011 -11.05  0.002151949    1.611    0.379
        11 -11.0103    122.0265    172.4280   6.2970198595e+01   2.2328556291e+01    0.2662422     0.212908 -74.30  0.000727975    1.570    0.363
        12 -15.0151    192.1169    156.9381   4.4173405032e+01   1.3617049063e+01     1.423649     1.099178 -64.21  0.007707871    1.810    0.448
        13  -9.3558    183.0219    205.2967   5.4952417050e+01   6.5642013002e+00    0.1780606    0.1416159  22.06 0.0004661077    1.205    0.170
        14 -12.7301    192.3669    194.0612   5.1169637650e+01   7.1391668120e+00    0.9553049    0.5196148 -59.83  0.003656751    4.287    0.767
        15  -9.9628    201.0226    197.4667   5.0129618484e+01   5.3898495479e+00    0.2010535    0.1855472  46.73 0.0005720495    1.566    0.361
        16 -11.5017     69.8820    145.7643   7.3060103803e+01   3.6935227905e+01    0.4963398    0.3908042  65.76  0.001588114    1.420    0.296
        17 -11.8300     66.2419    142.9911   7.3734848591e+01   3.8155658349e+01    0.5968575     0.342066 -60.88  0.002151524    1.720    0.419
        18 -12.0460    114.4835    143.4010   5.9248024499e+01   3.0225976906e+01    0.5620526    0.3637126 -64.55  0.002417455    1.882    0.469
        19 -10.0648    204.7072    200.0281   4.9894936725e+01   4.4917343227e+00    0.2738328    0.2028494  14.14  0.000998741    1.252    0.201
        20 -12.2044    114.7366    132.0125   5.6654490887e+01   3.2812453826e+01    0.5811766    0.4629543  -8.49  0.002204898    1.507    0.336
        21 -10.7105     79.1855    129.2645   6.6860431573e+01   3.9709513431e+01    0.4192211    0.1447331 -52.34  0.001392079    2.742    0.635
        22 -10.2220     41.5153    125.0239   7.9048399989e+01   4.5927360933e+01    0.2464291    0.2083917  21.31 8.955155e-05    1.245    0.197
        23 -13.2483     59.3890    103.3412   6.7979935524e+01   4.9219345554e+01    0.8059708    0.7512084 -20.27  0.000812521    1.068    0.063
        24 -13.7801     73.9420    108.3520   6.3865819405e+01   4.5740710678e+01     1.518793     1.249802 -15.70  0.003214875    1.360    0.265
        25 -10.7054    102.7623    110.9601   5.5038975864e+01   3.9943909959e+01    0.2870703    0.2065325 -38.55 0.0008166538    1.436    0.304
        26  -9.8651     99.6631    108.8943   5.5456806519e+01   4.1014272415e+01    0.2802825    0.2175166  38.80 0.0006557584    1.284    0.221
        27 -12.5481     67.1701    103.9498   6.5219086646e+01   4.7899295420e+01     0.765546    0.5544636 -23.85   0.00289466    1.620    0.383
        28 -13.7517     38.5642    100.9788   7.5643417840e+01   5.2474448351e+01     1.092453    0.9051258 -56.68  0.003495958    1.138    0.121
        29 -11.2911    128.4109     87.4500   4.1397544894e+01   3.9556433573e+01    0.3841206    0.2559901 -23.18  0.001028346    1.907    0.476
        30 -12.0770      2.3313     94.7634   8.9697530279e+01   5.6930780844e+01    0.3441607    0.3081808 -10.93  0.002169891    1.211    0.174
        31  -9.6262    208.4910    199.4512   4.9106643219e+01   4.0859493449e+00    0.2309284    0.1871199  -5.73 0.0009703849    1.027    0.026
        32 -11.7114    140.2983     80.0553   3.6463831314e+01   3.8260757001e+01    0.5636164    0.3472902 -25.53  0.002431585    2.015    0.504
        33 -10.8205    133.8304     82.1684   3.8558079718e+01   3.9340256357e+01    0.3038547    0.2166022  44.53 0.0008085353    1.422    0.297
        34 -10.9466    131.0154     80.7636   3.8825535780e+01   4.0234273685e+01    0.3602926    0.2120691 -29.19 0.0009753535    2.012    0.503
        35  -9.3623     86.9376     80.3556   5.1470504832e+01   4.9795605646e+01    0.3084633    0.1865454 -29.86  0.001079747    2.005    0.501
        36 -10.3361    135.2275    249.1828   7.1395052096e+01   5.5886519956e+00     0.314026     0.184641  55.56  0.001544227    2.778    0.640
        37 -11.9432    149.6448     73.5731   3.2647002013e+01   3.7253233114e+01    0.6024914    0.3584276 -21.04  0.001648759    2.346    0.574
        38 -12.1739    145.2925     70.4241   3.2637912234e+01   3.8779324683e+01     0.762813    0.4434364 -12.68  0.002603181    3.324    0.699
        39 -11.4704    129.5218     74.6071   3.7369368475e+01   4.1689373496e+01    0.4903917    0.3286563   8.67  0.001970422    2.625    0.619
        40  -9.9201    145.9424    220.9602   6.5261756265e+01   8.9894018326e+00    0.1928205    0.1507775  53.75 0.0005551925    1.677    0.404
        41 -10.5241    121.0604     73.1166   3.9014625915e+01   4.3886088932e+01    0.2587435    0.2093456 -35.72 0.0006713675    1.280    0.219
        42  -9.3114    240.5355     71.5184   1.9244328225e+01   1.8936076880e+01     0.156478    0.1079794  49.09 0.0009772412    1.861    0.463
        43 -11.8639    228.5515     69.2025   1.9983672180e+01   2.1382139373e+01    0.2961961      0.24013  52.26 0.0007098621    1.510    0.338
        44 -11.5681    236.0892     61.9902   1.7726473573e+01   2.0994003352e+01    0.4647471    0.2577212  48.67  0.002485956    2.403    0.584
        45 -10.6851    228.6256     62.8432   1.8630848898e+01   2.2235069987e+01    0.1991505    0.1696575  60.01 0.0005702281    1.405    0.288
        46  -9.3177    118.1363    198.2161   6.8281183601e+01   1.7384158642e+01    0.1944222    0.1706128   5.00 0.0003205921    1.116    0.104
        47 -10.2580    219.8209     69.2533   2.0943207505e+01   2.3000406978e+01    0.2556302    0.1532043  53.37  0.000767054    1.948    0.487
        48  -9.8552    212.2962     64.2863   2.0695750612e+01   2.5149985185e+01    0.2188675    0.2039095  88.58 0.0007657193    1.168    0.144
        49  -9.7967    214.7974     66.3359   2.0868265245e+01   2.4374174986e+01    0.2714905    0.1699697  57.45  0.001241381    1.793    0.442
        50  -8.9887     69.5391    196.0842   8.0456829871e+01   2.4653486931e+01    0.1898524    0.1352126 -68.53 0.0004742949    1.501    0.334
        51 -11.6006    155.4751     59.0340   2.7450306421e+01   3.8219729055e+01    0.4698037    0.2584849 -18.27   0.00187394    2.830    0.647
        52 -11.3990    156.0452     55.2937   2.6295794723e+01   3.8640797703e+01    0.3176129    0.2986095  50.72 0.0009666822    1.152    0.132
        53 -11.7569    186.5245     58.0807   2.2419893594e+01   3.1359413519e+01    0.4542986     0.410953  34.64  0.001349584    1.354    0.261
        54 -11.0180    143.9258     59.2971   2.9672256127e+01   4.0880436726e+01    0.3815325    0.2808509 -68.00  0.001244637    1.545    0.353
        55 -10.5672    135.6980     59.8589   3.1517550264e+01   4.2729232419e+01    0.4142428    0.1800592  52.77  0.001641992    2.191    0.544
        56 -10.9341    229.4977     57.5883   1.7436715143e+01   2.2772704989e+01     0.277965    0.1851431  62.42   0.00102437    1.713    0.416
        57 -10.5619    217.4961     57.4178   1.8598808796e+01   2.5071797926e+01    0.2855559     0.195036  75.25  0.001720379    1.589    0.371
        58 -10.8153    196.4594     55.3183   2.0480680532e+01   2.9619512129e+01    0.5821557    0.2759788 -23.93  0.002120828    2.875    0.652
        59 -10.2983    244.5250     56.2911   1.5816777642e+01   2.0248928744e+01    0.1997456    0.1331749  75.94 0.0008989162    1.712    0.416
        60  -9.0870    238.8580     56.1279   1.6274629110e+01   2.1264769322e+01    0.1289226    0.1217347 -80.85 0.0003507689    1.245    0.197
        61  -9.6422    222.7421     54.8231   1.7501973318e+01   2.4405087939e+01    0.1874738    0.1414519  65.50 0.0006381923    1.486    0.327
        62  -8.9034    122.3079     55.3324   3.3081912897e+01   4.6595937430e+01    0.1461416    0.1108702  21.54 0.0007040833    1.668    0.400
        63  -9.7182    248.6954     51.6527   1.4558947673e+01   2.0114570042e+01    0.1806819    0.1179694  80.68 0.0008231006    1.738    0.425
        64 -10.0197    231.9837     50.7653   1.5779977450e+01   2.3194934108e+01    0.2181009    0.1547907 -31.05 0.0009260904    1.441    0.306
        65 -10.5362    228.5796     49.8204   1.5886269317e+01   2.3947298674e+01    0.3285266    0.2039418 -52.27  0.001231016    1.351    0.260
        66  -9.6413    245.1134    195.3508   4.2299063257e+01   2.0609157898e-01    0.1517956    0.1221082  -7.08 0.0009784818    1.129    0.114
        67  -8.9363    102.9863    248.9561   7.8328974670e+01   9.6455073014e+00    0.1467463    0.1215909  27.76 0.0004218686    1.015    0.015
        68  -9.1855    221.0821    219.4788   5.0238990329e+01  -4.1347709127e-01    0.1640499   0.09976591  22.30 0.0006526471    1.545    0.353
        69 -10.2563    230.7308    214.0028   4.7716674609e+01  -7.4828157143e-01     0.184195    0.1413148  16.31 0.0004354476    1.308    0.236
        70  -9.0907    236.9384    210.7985   4.6175881158e+01  -1.0026469598e+00    0.1639634     0.124287  33.95 0.0002992667    1.724    0.420
        71 -10.2106    233.0588    210.3104   4.6725122535e+01  -5.0021168110e-01    0.2718814    0.1432271  33.47  0.001597046    2.061    0.515
        72 -10.2541    179.2947     37.8313   1.8217468125e+01   3.5649776065e+01     0.243374    0.1460472  44.81 0.0009312495    2.102    0.524
        73  -9.4822     61.5610    182.5051   8.0978901393e+01   2.8862519040e+01    0.1377265    0.1300611  55.94 0.0001008176    1.010    0.010
        74 -10.9717    151.3282    180.6873   5.7378162401e+01   1.5803071790e+01    0.2517247    0.2401495  18.27 0.0004917199    1.133    0.117
        75 -11.0088    184.3342     36.6174   1.7320706626e+01   3.4675404834e+01    0.3473358    0.2418631 -26.81  0.001971361    1.610    0.379
