#   1 NUMBER                 Running object number                                     
#   2 MAG_AUTO               Kron-like elliptical aperture magnitude                    [mag]
#   3 X_IMAGE                Object position along x                                    [pixel]
#   4 Y_IMAGE                Object position along y                                    [pixel]
#   5 X_WORLD                Barycenter position along world x axis                     [deg]
#   6 Y_WORLD                Barycenter position along world y axis                     [deg]
#   7 A_WORLD                Profile RMS along major axis (world units)                 [deg]
#   8 B_WORLD                Profile RMS along minor axis (world units)                 [deg]
#   9 THETA_WORLD            Position angle (CCW/world-x)                               [deg]
#  10 FWHM_WORLD             FWHM assuming a gaussian core                              [deg]
#  11 ELONGATION             A_IMAGE/B_IMAGE                                           
#  12 ELLIPTICITY            1 - B_IMAGE/A_IMAGE                                       
         1 -13.3848    241.9876     48.5914   9.4497097296e+00   2.0139648343e+01     1.184586    0.9902709  46.28  0.007611948    1.686    0.407
         2 -10.9674      3.2059      9.9855   5.9155428315e+01   7.3016022364e+01    0.2102056     0.159395 -40.93  0.001574412    1.471    0.320
         3 -10.5463     12.6765      4.6647   5.1159010850e+01   7.2896975690e+01    0.2078276    0.1099264  -0.60  0.001182976    2.131    0.531
         4 -13.2857      9.9572    206.9042   9.1787323122e+01   2.9585111594e+01     1.022105    0.7759932  23.95  0.003146841    1.727    0.421
         5 -12.4520     35.2389    165.5430   8.2153106960e+01   3.6805076648e+01    0.7875322    0.5352371 -26.16  0.001233797    2.205    0.546
         6 -11.6467     43.5358    160.6057   7.9316494819e+01   3.7103940679e+01    0.3339817    0.2947919 -37.33 0.0005524153    1.352    0.260
         7 -11.8627      2.6407    249.0060   9.5460976302e+01   2.1506843083e+01    0.8712113    0.5222609 -79.59  0.005909423    1.563    0.360
         8 -14.1668      6.8982    181.8412   9.0711791546e+01   3.5597208592e+01     1.823639    0.9102843 -80.37  0.003783711    1.675    0.403
         9 -15.4785     16.2190    169.1549   8.7412789105e+01   3.7798540931e+01     8.988841     3.278792  87.96    0.0317886    3.756    0.734
        10 -10.6559     39.2685    240.6541   8.8137931606e+01   1.9127324361e+01    0.4269747    0.1857144 -86.87  0.001435796    2.502    0.600
        11 -10.4783    101.2386    228.7496   7.3932648590e+01   1.2903425183e+01    0.4183097    0.0889001  38.94  0.001325898    3.753    0.734
        12 -10.4759     73.5560    219.8599   7.9046052480e+01   1.8995930395e+01    0.2939925      0.13663  50.54  0.001330448    1.950    0.487
        13  -8.1216    224.0063    207.1875   4.4586256657e+01  -3.3611878311e+00    0.1552669   0.09303976  34.42 0.0008153371    1.659    0.397
        14 -10.3637     59.2711    197.0131   7.9787083070e+01   2.6213927092e+01      0.24845    0.1860917 -84.72 0.0007939524    1.249    0.200
        15  -8.8475    250.3231    237.6643   4.5202904817e+01  -1.1444774159e+01   0.09510166   0.09406916 -32.46 0.0007050767    1.712    0.416
        16 -14.7385      5.8307    218.7127   9.3343853939e+01   2.7395861565e+01     3.381515     2.305073  50.22   0.02109579    1.331    0.248
        17  -9.0300     79.4028    188.6914   7.3797224742e+01   2.5308187636e+01    0.2757525     0.135695 -70.71  0.001135877    2.200    0.545
        18  -8.1700     99.3193    181.2689   6.7635297957e+01   2.3881960187e+01    0.1390717      0.11781 -11.15 0.0003178227    1.561    0.359
        19 -12.2048     72.2790    134.0024   6.6618419207e+01   3.9993525151e+01    0.6912923    0.5108505 -62.68 0.0005529487    1.287    0.223
        20 -11.9445     66.2701    148.0112   7.1000537342e+01   3.7350153013e+01    0.6465017    0.4118329 -85.28  0.001212179    1.849    0.459
        21 -13.1141     68.6975    143.9624   6.9577214334e+01   3.8022901301e+01     2.671633     1.359563  85.25  0.003270931    4.968    0.799
        22 -11.8671    237.3963    155.7952   3.2325100082e+01   3.2502527929e+00     0.472403    0.3146856 -63.43  0.002327345    2.108    0.526
        23 -11.4076     57.4445    151.6590   7.4140417130e+01   3.7634655652e+01    0.5925984    0.3304285 -64.54  0.002720636    1.650    0.394
        24 -12.9461     41.8069    148.1063   7.8074132210e+01   4.0433934028e+01    0.5310663    0.4159668  -4.02  0.001550772    1.711    0.416
        25 -10.3825     85.5131    137.0334   6.3277680833e+01   3.7139921638e+01    0.3206851    0.3124077 -53.96 0.0008154479    1.068    0.063
        26  -9.1285     89.7087    134.4201   6.1490951047e+01   3.7077144602e+01    0.2860564    0.2297251 -29.11 0.0006463027    1.457    0.314
        27  -9.6977    105.7426    130.6861   5.6002261363e+01   3.5078885551e+01    0.3415768    0.2985566 -64.39  0.001656742    1.142    0.125
        28  -9.4345    101.5650    127.8031   5.6540860373e+01   3.6562045459e+01    0.4325306    0.2524944  24.32  0.001549036    2.315    0.568
        29 -11.5297    235.4965    159.5032   3.3386944252e+01   2.9222834124e+00    0.3312246    0.2989915 -87.31  0.002035029    1.422    0.297
        30  -9.6397     39.1727    125.2235   7.5273847338e+01   4.6434783672e+01    0.1917839    0.1523849  79.74 0.0006905621    1.359    0.264
        31 -10.0567     87.6860    122.8129   5.9521424309e+01   4.0264627372e+01    0.2942356    0.2599397  15.90 0.0006881075    1.262    0.208
        32  -9.0446    101.0556    116.9293   5.4089226593e+01   3.9244820495e+01    0.2164676    0.2156778 -28.46 0.0003147243    1.031    0.030
        33  -9.2880    231.2148    114.1407   2.4620890136e+01   1.1791139910e+01    0.2336888    0.2074535 -46.36 0.0007490068    1.048    0.045
        34  -9.2632    204.3167    110.8162   2.8243483514e+01   1.7949529083e+01    0.2982449    0.2007556  41.35  0.001416964    1.729    0.422
        35 -10.7406     51.7177    109.8104   6.8193898253e+01   4.8760304944e+01    0.3785011    0.2349268 -64.06  0.001359234    1.560    0.359
        36 -11.1428    243.0714    102.0200   2.0371889280e+01   1.1586502443e+01    0.2819325    0.2230137  86.77  0.001663184    1.419    0.295
        37  -9.8755     51.3675    101.8206   6.6540907737e+01   5.0698443885e+01    0.2125913    0.1108555 -48.73   0.00095382    1.737    0.424
        38 -11.0803    242.0048     94.2850   1.8897814998e+01   1.3086077381e+01     0.322264    0.1555817 -47.56  0.001505312    1.792    0.442
        39 -10.1617     52.7953     90.9185   6.3400524307e+01   5.3021558831e+01     0.364257     0.147359 -46.46  0.001311433    2.266    0.559
        40  -9.0284    168.7135     89.6648   2.9752199002e+01   3.0059088674e+01    0.1465355    0.1218337   9.39 0.0003067634    1.627    0.385
        41  -9.6467    184.1827     77.1663   2.3636023443e+01   2.8622001325e+01    0.2133775    0.2036437  42.79  0.000747186    1.217    0.178
        42 -13.1342    221.8508     60.4443   1.4159819756e+01   2.2680197886e+01     1.179004     1.005467 -61.05  0.007313789    1.083    0.077
        43  -9.8003    250.0067    248.8557   4.7079660645e+01  -1.2853729799e+01    0.1885981    0.1254962  -9.88  0.001268227    1.296    0.229
        44 -11.3876      2.6830     62.3562   7.6351585901e+01   6.3692474251e+01    0.4504582    0.2293486 -77.24   0.00223329    2.556    0.609
        45 -10.5910     13.3285     60.0052   7.1144102093e+01   6.3524749579e+01    0.2357477    0.1969379 -57.36 0.0004356801    1.232    0.188
        46 -11.1338      8.6841     56.9691   7.2410572610e+01   6.4443849223e+01    0.2774384    0.1576169 -52.60  0.001629356    1.443    0.307
        47  -8.6843     33.1166     51.1784   5.9758597669e+01   6.3491236366e+01    0.1501189    0.1476458  17.01 0.0004395999    1.324    0.245
        48 -11.3462      2.4642     36.9904   6.9699500821e+01   6.8635135904e+01    0.5117716     0.131318 -59.89  0.001962306    4.235    0.764
        49  -9.9470     22.4428     63.8798   6.8231135841e+01   6.2037008848e+01    0.3959177    0.2252251  54.92   0.00182189    3.247    0.692
        50 -11.1054      2.5721     22.0059   6.4480061202e+01   7.1208613388e+01    0.2797499    0.1578931 -46.56  0.001795474    1.570    0.363
        51  -9.1575     15.3170     19.6672   5.6591125352e+01   7.0549094223e+01   0.09408366   0.09045777  44.12 0.0007047532    1.690    0.408
        52  -9.7596    238.6050    249.2092   4.9107888126e+01  -1.1515882590e+01    0.1616989   0.09160674 -22.78 0.0008144879    1.708    0.414
