#   1 NUMBER                 Running object number                                     
#   2 MAG_AUTO               Kron-like elliptical aperture magnitude                    [mag]
#   3 X_IMAGE                Object position along x                                    [pixel]
#   4 Y_IMAGE                Object position along y                                    [pixel]
#   5 X_WORLD                Barycenter position along world x axis                     [deg]
#   6 Y_WORLD                Barycenter position along world y axis                     [deg]
#   7 A_WORLD                Profile RMS along major axis (world units)                 [deg]
#   8 B_WORLD                Profile RMS along minor axis (world units)                 [deg]
#   9 THETA_WORLD            Position angle (CCW/world-x)                               [deg]
#  10 FWHM_WORLD             FWHM assuming a gaussian core                              [deg]
#  11 ELONGATION             A_IMAGE/B_IMAGE                                           
#  12 ELLIPTICITY            1 - B_IMAGE/A_IMAGE                                       
         1 -15.8873    162.4322     56.9630   2.9034040885e+02   6.1288214546e+00    0.2897138    0.1624659 -78.73   0.02557142    2.387    0.581
         2 -18.3365    230.3162     18.0158   2.8932249572e+02   6.1628862772e+00     0.610244     0.509886 -47.01   0.06402089    1.189    0.159
         3 -12.3329    210.7773     22.2734   2.8957226791e+02   6.2325053607e+00    0.0193326   0.01114854 -59.64  0.001727992    1.701    0.412
         4 -13.2811    205.9798     41.2507   2.8974487031e+02   6.0452093339e+00   0.03517934   0.02440346  -4.12  0.003141101    1.836    0.455
         5 -13.0447    199.1335     28.9853   2.8974706653e+02   6.2263657150e+00   0.02844938   0.01911967 -36.06  0.002330674    1.644    0.392
         6 -12.1230    101.9553     14.1918   2.9076805228e+02   6.9807984986e+00   0.02206187   0.01232423  76.11  0.001463033    3.407    0.707
         7 -12.5174    106.8829      9.8744   2.9068481191e+02   7.0003788147e+00   0.02554824   0.01477608 -77.24  0.002254876    2.188    0.543
         8 -11.6470    183.0091      3.4398   2.8977299265e+02   6.6148333413e+00   0.01178122    0.0109202  84.69 0.0001978169    1.139    0.122
         9 -10.7998    199.5567      2.0749   2.8957519611e+02   6.5304207668e+00   0.01242732   0.01077111 -15.88  0.001146732    1.243    0.195
        10 -10.7606    171.6408      1.9978   2.8989415395e+02   6.6998934440e+00   0.01098223   0.00917088  32.16 0.0004142837    1.198    0.165
        11  -9.8658     38.5001      2.5076   2.9142351243e+02   7.4950084056e+00  0.006581264  0.006320977 -29.06 -0.0001032845    1.043    0.042
        12 -10.8386     59.9997      1.5113   2.9117064123e+02   7.3774338893e+00   0.01031004   0.00647842  27.29  0.001037455    1.604    0.377
        13 -11.5622    144.5356     97.8426   2.9079827381e+02   5.7701384532e+00   0.01569736    0.0131734 -30.13 0.0008018463    1.259    0.206
        14 -11.0241    131.7392     95.2275   2.9092854704e+02   5.8770133654e+00   0.01406641   0.01245937 -85.16 0.0006566078    1.203    0.169
        15 -11.5613    189.8453    148.5486   2.9059369262e+02   4.9183310898e+00   0.01589798  0.009469707  86.58  0.001355188    2.665    0.625
        16 -11.8936    137.3275     87.1387   2.9081455178e+02   5.9357172374e+00   0.01582886   0.01429345  74.23 0.0008508976    1.189    0.159
        17 -10.5414    208.1130     77.4553   2.8994494180e+02   5.6194942820e+00   0.02193285   0.00649173 -51.00  0.001569784    3.141    0.682
        18 -11.2681    248.6855     76.8239   2.8947753948e+02   5.3816193948e+00   0.01726011   0.01116913 -36.91 0.0006561634    1.714    0.417
        19 -13.7329    226.7712     31.1827   2.8944474072e+02   6.0343135402e+00   0.02739585    0.0167282  40.07  0.001843874    1.645    0.392
        20 -10.6232    133.3680    142.7725   2.9120370491e+02   5.3242745005e+00   0.02251416  0.007415717 -70.25  0.001309446    5.116    0.805
        21 -14.8412     67.4319    168.5522   2.9211709118e+02   5.4256534672e+00   0.08639016   0.06000178 -11.89  0.001915688    1.843    0.457
        22 -12.0402     69.4904    145.5028   2.9195153689e+02   5.6767130036e+00   0.01872271   0.01655504  74.48  0.001230559    1.229    0.186
        23 -11.7500    131.3185     65.1437   2.9074722868e+02   6.2229176407e+00    0.0185582  0.009916619 -46.19   0.00134682    1.907    0.476
        24 -12.0725     66.4868    144.4941   2.9197970515e+02   5.7062513475e+00   0.02571837   0.01628209 -77.13  0.001921209    1.878    0.468
        25 -10.3163    248.9983     61.5485   2.8937923918e+02   5.5538640116e+00  0.009709873   0.00649942  25.32 0.0006466455    1.526    0.345
        26  -9.5051    190.5910     59.5249   2.9003414861e+02   5.9297570873e+00   0.01021665  0.009649112 -49.77 5.103037e-05    1.048    0.045
        27 -13.2394    194.0878     51.6265   2.8994519569e+02   5.9987226025e+00   0.04033316   0.03303978  -3.23  0.003116404    1.362    0.266
        28 -11.8921    202.6892     50.1208   2.8983750477e+02   5.9639604320e+00     0.013465   0.01103015  11.99 0.0001941659    1.299    0.230
        29 -11.0286    223.5517     53.6327   2.8962081690e+02   5.7979037267e+00   0.01424125  0.009484394  57.04 0.0004976597    1.774    0.436
        30 -10.5098    173.9492    143.0000   2.9074106969e+02   5.0774417122e+00   0.01105978  0.003744561  27.82 0.0008070353    2.974    0.664
        31 -11.3351    179.9459     50.5197   2.9010008872e+02   6.0966877790e+00   0.02145445   0.01834926 -65.57  0.001649757    1.179    0.151
        32  -9.5777    101.0012    138.9955   2.9155072543e+02   5.5619466282e+00  0.007736636  0.007512117 -54.11 0.0003375637    1.021    0.021
        33 -11.1015    124.3497     53.2562   2.9075343517e+02   6.4005024322e+00   0.01139168  0.009557101  31.88 0.0009503899    1.193    0.162
        34 -10.8645    203.0077     36.5170   2.8974948965e+02   6.1171207649e+00   0.01670993   0.01088909  54.86  0.001438724    1.786    0.440
        35 -10.5440    215.0972     40.9670   2.8963887953e+02   5.9933648539e+00   0.02178308  0.009274574 -51.06 0.0003675952    2.255    0.557
        36 -12.2455    134.7195    107.6925   2.9097151035e+02   5.7167649495e+00   0.04978207   0.01257226 -62.43   0.00316472    4.095    0.756
        37 -10.7842    139.3069    102.9282   2.9088955871e+02   5.7435535364e+00   0.01224741   0.00931988   0.32  0.000677242    1.524    0.344
        38 -11.2022    192.4430    194.2463   2.9084626768e+02   4.3808883584e+00   0.04874445   0.02320407  89.38  0.002292043    9.052    0.890
        39 -11.2506    210.5157     45.4594   2.8971911869e+02   5.9698340500e+00    0.0130251   0.01108287 -20.46  0.001526108    1.271    0.213
        40 -15.4231     31.1207    203.5010   2.9274748830e+02   5.2436465066e+00    0.2014315    0.1011759 -24.17   0.01433419    3.850    0.740
        41 -11.4324    128.0859     45.7916   2.9066441753e+02   6.4631721218e+00   0.01176271   0.01069851  87.08 0.0004398291    1.171    0.146
        42 -10.7640    136.0000    129.0581   2.9108889481e+02   5.4650803178e+00   0.02862505  0.008392759 -64.27  0.001889329    3.821    0.738
        43  -9.3737    188.0123     36.6617   2.8992188881e+02   6.2060170692e+00   0.01658018  0.008472702  17.44 0.0009367772    2.373    0.579
        44 -11.0408    135.1002    120.7259   2.9104770927e+02   5.5656479803e+00   0.02252611  0.008960545 -62.95  0.001580689    2.569    0.611
        45 -10.1552    194.7040     32.3281   2.8981846584e+02   6.2150153334e+00  0.006577743  0.006396291  74.93 0.0002906406    1.057    0.054
        46 -13.8688     56.9090    180.7452   2.9231255486e+02   5.3493636104e+00   0.02674293   0.02033713 -31.51     0.001429    1.437    0.304
        47 -12.0583    160.7704    128.4047   2.9080153688e+02   5.3234595228e+00   0.01885928   0.01600841 -59.12  0.001365724    1.166    0.142
        48  -8.7723    177.9768     24.3010   2.8996003492e+02   6.4074926819e+00  0.007916101  0.007806521  37.89 0.0003766701    1.025    0.024
        49 -13.1581    167.4392    113.9221   2.9063572672e+02   5.4486439050e+00   0.02398841   0.02139401   6.05  0.001738751    1.173    0.147
        50 -11.1556    192.1814     21.7951   2.8978197034e+02   6.3502969536e+00  0.009207321   0.00836851 -32.56  0.000364024    1.121    0.108
        51 -14.4311     63.0680    175.0620   2.9220710543e+02   5.3774119365e+00   0.04521476    0.0383451  47.45  0.002653339    1.216    0.178
        52 -12.6503    120.5692    101.8616   2.9109742029e+02   5.8684631798e+00   0.02557002   0.01756154 -44.36  0.002715382    1.481    0.325
        53 -10.7821    226.2485    172.4536   2.9032568618e+02   4.4260345462e+00    0.0127973  0.006688718  21.44  0.001058815    2.110    0.526
        54 -10.0489     89.3022    171.0235   2.9188206573e+02   5.2662315928e+00  0.009194645  0.008376741 -63.06 0.0002747322    1.096    0.087
        55 -11.2234    230.1544    166.9526   2.9024709823e+02   4.4652757204e+00   0.01787459   0.01012101 -79.96  0.001564211    2.406    0.584
        56 -10.0070     58.6487     11.3305   2.9124694492e+02   7.2735848125e+00  0.007111415  0.004908016  62.49 0.0003147752    1.773    0.436
        57 -11.8410    117.9739    109.9965   2.9117740235e+02   5.7911783744e+00   0.01876468   0.01125853  53.86  0.001781109    1.989    0.497
        58 -13.9411    180.3341     64.3757   2.9018151973e+02   5.9363135068e+00     0.068229   0.03323426 -22.88  0.004362902    4.807    0.792
        59 -10.6394     42.4726     10.4759   2.9142724617e+02   7.3803397548e+00  0.006486521  0.006401238  71.73 3.689141e-05    1.034    0.033
        60 -14.4914     10.0410    214.0928   2.9305363306e+02   5.2486096850e+00   0.08376676   0.07076669  73.97  0.008808943    1.321    0.243
