#   1 NUMBER                 Running object number                                     
#   2 MAG_AUTO               Kron-like elliptical aperture magnitude                    [mag]
#   3 X_IMAGE                Object position along x                                    [pixel]
#   4 Y_IMAGE                Object position along y                                    [pixel]
#   5 X_WORLD                Barycenter position along world x axis                     [deg]
#   6 Y_WORLD                Barycenter position along world y axis                     [deg]
#   7 A_WORLD                Profile RMS along major axis (world units)                 [deg]
#   8 B_WORLD                Profile RMS along minor axis (world units)                 [deg]
#   9 THETA_WORLD            Position angle (CCW/world-x)                               [deg]
#  10 FWHM_WORLD             FWHM assuming a gaussian core                              [deg]
#  11 ELONGATION             A_IMAGE/B_IMAGE                                           
#  12 ELLIPTICITY            1 - B_IMAGE/A_IMAGE                                       
         1 -14.9933    168.0980     43.5589   7.3170077869e+01   3.7914775879e+01     1.247133     1.105414  -4.15  0.004041288    1.373    0.272
         2 -15.1417    188.3895      9.9013   6.1538106660e+01   3.7024907012e+01     2.593533     1.006198  65.82  0.008075666    2.135    0.532
         3 -10.1499    121.1900    197.7722   1.2121294976e+02   1.6380893626e+01     0.191024    0.1726933  87.50 0.0003657419    1.070    0.066
         4 -15.0299    100.6603    243.5963   1.3187710941e+02   1.0274940834e+01    0.7957445    0.5682003 -54.03  0.004737841    1.673    0.402
         5 -19.8643     61.8436    168.7944   1.3062113729e+02   3.2722750011e+01     18.85135     6.814445 -66.26   0.07194173    2.608    0.617
         6 -10.1484    112.6631    196.3209   1.2290867847e+02   1.8224083798e+01     0.418176    0.2939906  -6.93  0.001750836    2.844    0.648
         7 -10.9748    103.4421    195.2722   1.2483972639e+02   2.0055590307e+01    0.3421549    0.2744845  64.07   0.00152146    1.182    0.154
         8 -12.8869    164.1843    186.4572   1.0948233094e+02   1.0656332130e+01    0.4812818    0.3837892 -42.31  0.002235195    1.300    0.231
         9  -9.4230    150.9957    242.0270   1.2169795986e+02   2.1982687430e+00    0.1816944    0.1501713   4.62 0.0006671857    1.519    0.342
        10 -11.6839     12.5875    241.6220   1.4769209071e+02   2.2412968559e+01    0.1593646   0.09907963 -65.07  0.001059937    1.796    0.443
        11 -11.9789     28.6749    183.2413   1.4004306062e+02   3.3236589180e+01    0.4803908    0.2647702 -87.39   0.00075937    1.666    0.400
        12  -9.5839    242.2820    184.6693   9.3419095441e+01  -3.6750966182e+00    0.1254245    0.1050155 -63.91 0.0002987935    1.608    0.378
        13 -10.5659    107.8238    183.8812   1.2197848948e+02   2.1938767488e+01    0.3798997    0.1926769  39.97  0.000993859    1.979    0.495
        14 -12.0230    188.5047    176.0431   1.0210060328e+02   7.9614357600e+00    0.6399499    0.3062157 -59.00  0.002139061    3.340    0.701
        15 -11.8311      4.0002    180.3697   1.4497263722e+02   3.6215066937e+01    0.2487574    0.2035842 -11.48  0.001561328    1.976    0.494
        16 -12.4004    155.1875    187.5364   1.1169559354e+02   1.2200055702e+01    0.4153965    0.3275703  72.47 0.0008852581    1.491    0.329
        17 -12.6546    204.3524    175.5274   9.8725938292e+01   4.9215007402e+00    0.4786649    0.4484482 -68.91  0.001112247    1.212    0.175
        18 -12.1860    196.7227    176.3712   1.0045602905e+02   6.2562664169e+00    0.6293402    0.4126536 -63.90  0.001880086    2.126    0.530
        19 -12.4484    189.2632    155.2418   9.7439330800e+01   1.2111285999e+01    0.5449399    0.5079878 -28.97  0.001606113    1.070    0.065
        20 -12.4283    192.9652    165.0374   9.8821107347e+01   9.3080908039e+00    0.4639049    0.3355373 -46.29 0.0008815526    1.370    0.270
        21 -11.7927    189.8372    161.0098   9.8597107666e+01   1.0787662328e+01    0.3699208    0.3095778  84.39  0.001731411    1.482    0.325
        22 -11.0702    109.0443    240.0512   1.2981208893e+02   9.6175862384e+00    0.1832553    0.1587959  63.06 0.0004034343    1.047    0.045
        23 -12.1202    124.9492    172.0762   1.1575242663e+02   2.1577474730e+01    0.3990816    0.3080289  60.11 0.0008334945    1.335    0.251
        24 -11.7349     10.0147    174.9776   1.4324586648e+02   3.6922140510e+01    0.1833829    0.1493296  67.17 0.0006625348    1.242    0.195
        25 -10.8746     28.5472    239.0105   1.4481813336e+02   2.1156247852e+01    0.1609247    0.1015516 -85.00  0.001048175    1.330    0.248
        26 -11.6056    230.3667    167.3681   9.2007091390e+01   1.5062271672e+00    0.4840148    0.1952655 -53.53   0.00152947    4.025    0.752
        27 -11.5521    177.0388    169.0304   1.0308207482e+02   1.1759298769e+01     0.241741    0.1902577 -86.48 0.0007347719    1.686    0.407
        28 -13.9749    137.9345    171.2788   1.1249096091e+02   1.9240537660e+01    0.8523802    0.6113692  50.65  0.003578717    1.393    0.282
        29 -10.2125     13.1638    164.8685   1.4157856736e+02   3.8973431568e+01    0.2017799    0.1526433 -55.90 0.0007457882    1.393    0.282
        30 -11.0618     16.8525    163.3571   1.4058415037e+02   3.9002610497e+01    0.3266865     0.224775 -12.88  0.001851624    2.475    0.596
        31 -10.3348      1.9801    165.0076   1.4406824649e+02   3.9849184646e+01    0.1248327    0.1086784  72.41 0.0004054928    1.249    0.199
        32 -12.0838    151.7831    191.2115   1.1315392019e+02   1.2073240507e+01    0.5509469    0.4026696 -88.63  0.002543291    1.879    0.468
        33 -10.4825     24.4157    165.6320   1.3909785831e+02   3.7771753411e+01    0.1890081    0.1492055  26.80 0.0007736378    1.642    0.391
        34 -10.6515    131.0770    235.4228   1.2478041064e+02   6.8293817423e+00    0.1948035    0.1392212 -60.78 0.0008098896    1.566    0.361
        35 -12.2575    166.1511    154.4320   1.0231626970e+02   1.7219348495e+01    0.4882976    0.3305205  74.09   0.00197239    2.166    0.538
        36  -9.8709      1.6963    153.3756   1.4302683546e+02   4.2525059311e+01    0.1222397    0.1111298 -36.30 0.0003056833    1.450    0.310
        37 -10.1541    138.8392    250.5477   1.2527861649e+02   2.7546917608e+00    0.1856846    0.1094116  39.64 0.0009808531    1.481    0.325
        38 -11.3335    174.1817    148.6467   9.9203001175e+01   1.6755979116e+01    0.3902841    0.3120072 -64.70  0.001319336    1.375    0.273
        39 -10.3509    141.1214    230.1157   1.2196088697e+02   6.1031030398e+00    0.2127534    0.1520316  72.90 0.0006890681    1.705    0.413
        40 -13.0694      4.3450    112.2475   1.3739557134e+02   5.1734482041e+01    0.5565152     0.396677 -22.15  0.003632723    1.721    0.419
        41 -13.3046      6.5318    138.5349   1.4026023410e+02   4.5592929848e+01    0.7881109    0.4502454 -65.90  0.003476652    1.341    0.254
        42 -13.3157      2.9658    127.8505   1.3987372570e+02   4.8285493298e+01    0.9228203    0.3057058 -72.85   0.00404576    2.489    0.598
        43 -13.2778      5.0796    120.5175   1.3835513895e+02   4.9820496252e+01     0.477006    0.3889699  -0.84    0.0029845    1.615    0.381
        44 -10.3304     25.4960    224.0697   1.4427176378e+02   2.4561344691e+01    0.2559666    0.0799854 -65.82  0.001176028    2.770    0.639
        45 -10.3458    138.8158    243.3658   1.2431770399e+02   4.0353749155e+00    0.1911536    0.1585134 -73.22 0.0006359346    1.382    0.277
        46  -9.9158     96.6333    212.5704   1.2884704371e+02   1.7311078069e+01    0.3994778    0.2093828 -42.55  0.001684946    2.799    0.643
        47 -12.3869    160.3392    127.5479   9.7324016925e+01   2.4433364362e+01     0.484492    0.3657719 -63.42  0.001370094    1.462    0.316
        48 -11.0698     13.9585    110.0302   1.3427950922e+02   5.1604787050e+01    0.1850562    0.1482101 -56.62 0.0003992481    1.060    0.057
        49 -10.8074    167.9340    112.8072   9.1892013227e+01   2.5845143873e+01    0.4035639    0.2723708 -83.50  0.001551333    2.324    0.570
        50 -10.9423    205.0786    110.3004   8.3766219626e+01   1.7761885049e+01    0.3956984    0.2521744  46.38  0.001166901    1.695    0.410
        51 -11.7317    106.1894    206.1825   1.2587108802e+02   1.7133113277e+01    0.3370152    0.2716158 -42.40  0.001437714    1.518    0.341
        52 -12.2300     18.4503    108.9304   1.3276855361e+02   5.1526961334e+01    0.2581775    0.1910142 -11.78  0.000961814    1.687    0.407
        53 -12.0471    103.9360    202.2284   1.2578512275e+02   1.8395082030e+01    0.3547349    0.2695929  36.25 0.0007080077    1.418    0.295
        54 -12.9238     11.8985    206.0581   1.4543869833e+02   2.9825920911e+01    0.3855116    0.2381323  35.13  0.002263684    1.936    0.484
        55 -13.3205    142.5696    165.8552   1.1028485976e+02   1.9560525310e+01    0.6912188    0.4568865 -88.95  0.002686485    2.458    0.593
        56 -10.6913    146.6618     81.0711   8.8153364902e+01   3.7060895443e+01    0.2099358     0.197479 -34.23 0.0005849066    1.092    0.085
        57 -11.1322    124.9223     81.1871   9.3554133342e+01   4.1922165467e+01    0.2239247    0.2048153  81.68 0.0007247613    1.230    0.187
        58 -11.0507    152.0316    196.8897   1.1414535244e+02   1.0813868642e+01    0.3433501    0.2713802  32.84 0.0009546161    1.295    0.228
        59 -11.3063     95.9756     80.0310   1.0133185453e+02   4.7937101895e+01     0.283808    0.1988915  47.75   0.00046223    1.546    0.353
        60 -11.5727    151.1696    183.1205   1.1175128759e+02   1.3953014242e+01    0.3438349    0.2608517 -75.57 0.0004164547    1.594    0.372
        61 -14.4822    155.8915     58.2268   7.9587752302e+01   3.8735197568e+01     1.294977     1.143118  54.31  0.002641003    1.084    0.077
        62 -12.5199    125.0693    241.9908   1.2687232584e+02   6.6048663603e+00    0.4792629    0.1701599 -54.89  0.001969997    3.161    0.684
        63 -13.0136    172.3943     35.8087   7.0349769077e+01   3.7893368961e+01    0.3780332    0.3530289  45.23 0.0009321048    1.184    0.156
        64 -13.8576    145.1458    174.5680   1.1145335208e+02   1.7056788571e+01     1.183287    0.7212861 -47.09  0.004286386    1.672    0.402
        65 -10.8198     13.5709     59.9030   1.2395740926e+02   6.2186768741e+01    0.1793984    0.1585831  -2.94 0.0004133008    1.280    0.219
        66 -11.6394    187.9686     30.8684   6.6755133644e+01   3.4760825249e+01    0.2259037    0.1978813 -47.19 0.0009245631    1.232    0.188
