#   1 NUMBER                 Running object number                                     
#   2 MAG_AUTO               Kron-like elliptical aperture magnitude                    [mag]
#   3 X_IMAGE                Object position along x                                    [pixel]
#   4 Y_IMAGE                Object position along y                                    [pixel]
#   5 X_WORLD                Barycenter position along world x axis                     [deg]
#   6 Y_WORLD                Barycenter position along world y axis                     [deg]
#   7 A_WORLD                Profile RMS along major axis (world units)                 [deg]
#   8 B_WORLD                Profile RMS along minor axis (world units)                 [deg]
#   9 THETA_WORLD            Position angle (CCW/world-x)                               [deg]
#  10 FWHM_WORLD             FWHM assuming a gaussian core                              [deg]
#  11 ELONGATION             A_IMAGE/B_IMAGE                                           
#  12 ELLIPTICITY            1 - B_IMAGE/A_IMAGE                                       
         1 -13.2497     84.3286     23.9146   3.0808284455e+01   6.1653297385e+01    0.4176799    0.2575513 -69.14  0.001801521    2.111    0.526
         2 -11.6277    132.9616     21.5643   2.0018159518e+01   4.9225897133e+01    0.2036928    0.1752962 -61.61 0.0003322958    1.085    0.078
         3 -12.4381     66.9427     14.9604   3.1628068278e+01   6.7195983284e+01    0.3869908    0.2163053 -24.85  0.001001045    2.080    0.519
         4 -11.7148     99.7675     11.6913   2.1400915685e+01   5.9071541393e+01    0.3307253    0.1550899 -56.92  0.001085807    2.469    0.595
         5 -11.8522     54.8332     10.9757   3.3914924758e+01   7.0616403794e+01     0.280794    0.1972329  41.81 0.0009711934    1.392    0.282
         6 -12.6143     82.6664      8.5306   2.3472193514e+01   6.3906450232e+01    0.3534648    0.2025118  53.34  0.001669556    1.638    0.390
         7 -13.8749     91.1233      4.6794   1.9724144513e+01   6.2048842372e+01    0.4548467    0.3291288 -70.01  0.001388289    1.391    0.281
         8 -11.0242    103.6111      7.2183   1.8728753172e+01   5.8496740272e+01    0.1682599    0.1374614  -3.07 0.0002693603    1.541    0.351
         9 -10.7986     48.6715      7.7261   3.4495909386e+01   7.2449404268e+01    0.1399425   0.09440375  33.64 0.0002282668    1.588    0.370
        10 -12.3497    101.2220      2.4155   1.6952305356e+01   5.9567317922e+01    0.3133543    0.2041005  82.77  0.001132062    1.369    0.269
        11 -11.2790     49.7603      1.3561   2.9368928958e+01   7.2897962706e+01    0.1885801    0.1064934  53.70 0.0002477214    1.537    0.349
        12 -11.4194     89.6636    241.0180   7.9588894023e+01   1.3083860409e+01    0.1610823    0.1360164  25.89 0.0004655207    1.076    0.070
        13 -11.5674    245.4654    249.5485   5.1614225302e+01  -3.7048044827e+00     0.171127   0.09435552 -11.14 0.0005474829    1.382    0.276
        14 -11.6903    248.3160    248.2832   5.1047545446e+01  -3.7958190267e+00     0.139477    0.1045778 -12.00   0.00035353    1.347    0.258
        15 -12.4243    236.8866    249.2644   5.2812033487e+01  -3.0013837429e+00    0.2189459    0.1380178  -3.31 0.0009002104    1.123    0.109
        16 -10.7056    179.5384    250.5068   6.2287889114e+01   1.9709057725e+00    0.1079459   0.07942507   5.46 0.0001048362    1.012    0.012
        17 -12.9342    138.8486    247.6397   6.9699465521e+01   6.5673099140e+00    0.3157668    0.2616017  51.31  0.002270359    1.660    0.398
        18 -11.6868    124.9620    249.6080   7.2754628963e+01   7.7798954189e+00    0.1928206    0.1397178 -19.33 0.0006264246    1.518    0.341
        19 -13.2384    101.6004    241.6040   7.6969447926e+01   1.1647455611e+01    0.3189813    0.2213786  -7.39  0.001939807    1.684    0.406
        20 -12.0625    107.8420    240.5771   7.5491053431e+01   1.1115233815e+01    0.2076701    0.1667541  61.06  0.001388447    1.583    0.368
        21 -13.3953    107.8489    236.6736   7.5094377245e+01   1.1770129035e+01     0.513953    0.1904739  19.42  0.002083766    2.977    0.664
        22 -13.1955    113.3277    234.1566   7.3615277161e+01   1.1562534989e+01    0.3999568    0.1499214  23.50  0.001756546    2.419    0.587
        23 -12.5761    114.9944    249.5812   7.4841736659e+01   8.8699421822e+00    0.2448169    0.2043592  -3.32  0.001057325    1.228    0.185
        24 -14.0771    115.7319    241.3452   7.3849875373e+01   1.0096971452e+01    0.6684219    0.3063342 -36.09  0.003270014    2.919    0.657
        25 -13.2150     98.5645    249.7061   7.8382363142e+01   1.0642015764e+01    0.2793759    0.2401677 -27.58   0.00203894    1.392    0.281
        26 -11.3897     85.2564    246.2032   8.1020320617e+01   1.2674289857e+01    0.1650897    0.1534197 -59.91  0.001223603    1.380    0.275
        27 -12.9053     68.5439    226.1958   8.3291643605e+01   1.8187077909e+01    0.5096895    0.2844958 -76.84  0.002696726    2.269    0.559
        28 -11.9864     71.2435    240.2803   8.3743145326e+01   1.5236530413e+01    0.6223017    0.2766349  12.55  0.002676289    2.876    0.652
        29 -13.4235     71.5742    234.0813   8.3191532460e+01   1.6342516555e+01    0.2962125    0.2272337  33.02  0.001117908    1.028    0.027
        30 -12.9000     73.8925    229.2345   8.2249768075e+01   1.7000358881e+01    0.3703918    0.2495179 -29.30  0.002083597    1.992    0.498
        31 -13.1538     70.4945    248.0884   8.4480108219e+01   1.3926807390e+01    0.2584845    0.2285342  62.59 0.0008667121    1.295    0.228
        32 -12.9940     68.2169    245.1926   8.4793027014e+01   1.4676727439e+01    0.4435308    0.2389437  16.79  0.002394455    1.784    0.439
        33 -12.2678     56.3767    250.4308   8.7810705621e+01   1.4968383728e+01    0.2090385    0.1137409  29.53  0.000629756    1.372    0.271
        34 -12.8067     27.2247    224.7888   9.3355181000e+01   2.2727749349e+01    0.4646656    0.2116093  66.33  0.002184674    2.248    0.555
        35 -14.0294     34.8278    226.8849   9.1587452222e+01   2.1578657194e+01    0.6948636    0.4773829 -33.39  0.003992712    2.072    0.517
        36 -13.3643     42.5067    226.2927   8.9673291511e+01   2.0941148387e+01     0.736385    0.3639069 -55.92  0.003731496    2.518    0.603
        37 -13.4234     47.6901    218.5356   8.7907100060e+01   2.2004397966e+01     1.072565    0.2818049  42.97  0.004160087    2.799    0.643
        38 -13.0731     39.3615    245.1748   9.1395683214e+01   1.7593782343e+01    0.7173761     0.538377 -23.19  0.004624758    1.858    0.462
        39 -12.7866     34.8515    242.6620   9.2317579507e+01   1.8491735791e+01    0.4000342    0.2705716 -60.16  0.002544165    1.906    0.475
        40 -13.3221     13.0681    217.3282   9.6589721668e+01   2.5549896499e+01    0.4354551    0.2544275  75.60  0.002466522    1.680    0.405
        41 -15.0886     18.2790    212.1963   9.5092291594e+01   2.6209072956e+01     1.813767    0.6251976  44.49  0.008173581    2.102    0.524
        42 -13.9328     29.6728    233.5406   9.3136494062e+01   2.0735502106e+01    0.8613721    0.2301237  27.38  0.003593654    2.635    0.621
        43 -16.9356     18.1919    236.2016   9.5941713309e+01   2.1248568518e+01     1.713114     1.531999  46.73   0.01253506    1.196    0.164
        44 -16.3063      8.3030    225.2497   9.7979552369e+01   2.4285517471e+01      1.16699     1.048111  87.39   0.00840958    1.321    0.243
        45 -10.9063    239.5590    239.4914   5.1126245879e+01  -2.1833093410e+00   0.09766069   0.06757744  -7.32  0.000103791    1.047    0.045
        46 -11.6146    148.4844    239.0261   6.6761365937e+01   6.7806373249e+00    0.2353109     0.132626  12.69  0.001076936    1.659    0.397
        47 -10.6767    190.3031    237.2773   5.8688940203e+01   2.5886823913e+00    0.1091725   0.06567749  -3.61  0.000192343    1.544    0.353
        48 -11.3300     97.7987    237.2288   7.7401914536e+01   1.2825953133e+01    0.1567211    0.1238368   5.02 0.0003288049    1.270    0.212
        49 -11.3604     78.9614    237.0529   8.1702266420e+01   1.4978539604e+01     0.180605    0.1394825  28.82 0.0003050012    1.035    0.033
        50 -11.7020    211.0016    236.1392   5.5048938828e+01   7.1707345789e-01    0.1448688     0.120277   5.67 0.0005853555    1.360    0.265
        51 -12.4974     91.1590    234.0669   7.8618418670e+01   1.4142871659e+01    0.4067164    0.2442118  65.72  0.001305829    2.394    0.582
        52 -11.3513    181.0618    232.2069   5.9658082135e+01   4.2118065754e+00    0.1778219    0.1195203  -0.43 0.0008873467    1.286    0.222
        53 -12.5543    219.5454    230.1987   5.2867218127e+01   6.2762494901e-01    0.1934767    0.1343976   5.65 0.0003004076    1.150    0.131
        54 -12.9155    128.8133    230.9077   6.9870084487e+01   1.0291019349e+01    0.3926624    0.1113241  33.06  0.001627355    2.765    0.638
        55 -13.9201    109.0535    215.3134   7.2462430090e+01   1.5434434257e+01     0.573944     0.305645 -29.96   0.00263025    2.677    0.626
        56 -13.8763    118.4507    226.8254   7.1660576371e+01   1.2208931953e+01    0.5158163    0.2178544  45.54  0.001779711    2.788    0.641
        57 -12.7978    112.6557    227.6258   7.3050190820e+01   1.2764656549e+01    0.2755492    0.1973532  17.72 0.0007148429    1.211    0.174
        58 -13.9842    113.6022    219.1604   7.1861261523e+01   1.4156917387e+01    0.4018979     0.335016 -48.22  0.002614656    1.404    0.288
        59 -13.9954    105.1791    226.8593   7.4667209261e+01   1.3794815959e+01    0.4979741    0.3497155 -30.59  0.002885894    1.691    0.409
        60 -12.7050    100.2898    226.9728   7.5807159331e+01   1.4357642326e+01    0.2577227    0.1887294  33.17 0.0005480091    1.143    0.125
        61 -12.1445     96.5003    225.5294   7.6541275876e+01   1.5073216629e+01     0.224401    0.1722956  41.64  0.001082121    1.218    0.179
        62 -11.6201    194.0369    229.7704   5.7020851451e+01   3.1836083710e+00    0.1889719    0.1344321 -23.29  0.001144453    1.283    0.221
        63 -11.9038    178.0818    228.3632   5.9682791417e+01   5.0604572136e+00    0.1745685    0.1261095 -14.43 0.0004310115    1.230    0.187
        64 -11.8522    149.9703    229.5190   6.5279447100e+01   8.0450770730e+00    0.1813709   0.09695075  26.91 0.0005733435    1.566    0.361
        65 -11.1275     83.9127    229.5287   7.9892090325e+01   1.5804991806e+01    0.1915696     0.103195  26.74 0.0006167646    1.512    0.339
        66 -11.5205    199.1105    241.5074   5.7735503768e+01   1.1939522359e+00    0.1489324   0.08338538  20.47 0.0004496295    1.498    0.333
        67 -11.0637    245.5699    228.4717   4.8751569644e+01  -1.4884930434e+00   0.09810925   0.06841736 -10.24 0.0003415425    1.052    0.049
        68 -12.7489    231.8536    227.0738   5.0544149511e+01  -1.3474664855e-01    0.2398088    0.1511193 -19.41  0.001826552    1.229    0.186
        69 -12.1807    127.9722    227.0206   6.9588444189e+01   1.1034024849e+01    0.1951636    0.1310969  -8.88 0.0007056305    1.687    0.407
        70 -12.0587     91.3497    226.2531   7.7825725202e+01   1.5549685083e+01    0.2572663    0.2156869 -60.45  0.001231545    1.454    0.312
        71 -11.4720    137.4310    225.9707   6.7428876924e+01   1.0077270331e+01     0.237065     0.142399  38.49  0.001188138    1.629    0.386
        72 -10.9209    222.4675    225.5406   5.1754829292e+01   9.1091657348e-01    0.1045851   0.07585442  -6.44 0.0001307489    1.017    0.017
        73 -13.7377     52.8817    236.8718   8.7802261299e+01   1.7807835939e+01    0.3376475    0.2926565 -10.27  0.001217435    1.420    0.296
        74 -11.5433    213.2563    222.1941   5.2732664893e+01   2.2133250273e+00    0.2122324    0.1087432 -18.00  0.001253941    1.923    0.480
        75 -12.6816    159.8121    222.1466   6.2329999641e+01   8.0323019011e+00    0.3242334    0.1804722  26.02 0.0007689421    1.550    0.355
        76 -13.3445    125.0982    221.3840   6.9533035544e+01   1.2341875884e+01    0.3291143    0.2198257  14.75 0.0007261534    1.379    0.275
        77 -12.8183    129.7899    217.7328   6.8035761499e+01   1.2393948565e+01    0.2421736    0.2229965   9.57 0.0007200336    1.139    0.122
        78 -13.3947     87.7791    213.3012   7.7372415771e+01   1.8480650219e+01    0.5321402     0.429087   5.99  0.002297304    1.297    0.229
        79 -13.9458     77.5465    219.1335   8.0476894225e+01   1.8548644413e+01    0.5501332      0.35594  63.69  0.001752131    1.816    0.449
        80 -13.2822     79.4081    213.1732   7.9445985024e+01   1.9526975688e+01    0.4105738    0.2507476  38.98 0.0009722805    1.377    0.274
        81 -12.6227     75.7053    212.3612   8.0300627537e+01   2.0138098901e+01    0.3022376    0.1624813  38.82  0.001339884    1.540    0.351
        82 -12.2121    246.9063    221.1269   4.7523444004e+01  -7.8889728101e-01     0.140029    0.1070614 -12.49 0.0004519072    1.238    0.192
        83 -12.2710    237.9334    221.0224   4.8785823041e+01   1.6457913388e-02    0.1627778    0.1142221  -9.08  0.001306069    1.008    0.008
        84 -11.0017    223.2411    220.3985   5.0896712765e+01   1.4597332965e+00    0.1252514   0.08609881  23.62 0.0006444256    1.504    0.335
        85 -11.9418    189.8286    219.9721   5.6379006297e+01   4.9473664357e+00    0.1730336    0.1201119  -5.45 0.0002506625    1.241    0.194
        86 -12.5576    173.1312    218.9884   5.9304557608e+01   6.9602795118e+00    0.2474938    0.2015069  -2.81  0.001072697    1.054    0.051
        87 -11.8427     33.8260    219.9932   9.1489263295e+01   2.3098685601e+01    0.2037343    0.1789815  40.34 0.0006384753    1.119    0.106
        88 -12.6870    145.4354    215.4697   6.4358656430e+01   1.0830600708e+01    0.3665259    0.2589164 -19.71  0.001396001    1.476    0.322
        89 -13.9005    140.6441    209.9681   6.4622814336e+01   1.2365732205e+01    0.5177114    0.3284702 -72.82  0.001511949    3.018    0.669
        90 -12.5098     64.0905    216.8475   8.3635565944e+01   2.0565425199e+01    0.3238387    0.3018539  13.23  0.002157262    1.189    0.159
        91 -11.4122    224.8283    216.7890   5.0125521587e+01   1.7482467223e+00    0.1699549    0.1316264  27.94  0.001317957    1.640    0.390
        92 -11.3471     58.2208    215.5234   8.5018128063e+01   2.1498229160e+01    0.1861926    0.1652769 -14.48 0.0005050981    1.359    0.264
        93 -12.2014     57.5909    212.3005   8.4928201138e+01   2.2247862710e+01     0.510032    0.2303688  15.50  0.002126719    2.560    0.609
        94 -11.7833    155.1867    214.5373   6.2206637622e+01   9.7803712701e+00    0.1956939    0.1438607 -10.38 0.0007539362    1.319    0.242
        95 -10.7739     69.5103    215.4607   8.2150287250e+01   2.0229844946e+01    0.1307751    0.1109054  28.83 7.822963e-05    1.070    0.065
        96 -11.3931     36.7104    215.4698   9.0515572419e+01   2.3774256514e+01    0.1507294    0.1120039  20.60 0.0003036289    1.309    0.236
        97 -13.5876    125.1405    212.9439   6.8456310149e+01   1.3826369604e+01    0.3744576    0.2283691  32.59 0.0004160005    1.421    0.296
        98 -13.5315    120.7358    214.4027   6.9644065251e+01   1.4123951452e+01    0.5727341    0.1987998  44.22  0.002154202    3.422    0.708
        99 -12.5868    247.6486    212.9400   4.6231126347e+01   7.3615150900e-02    0.1770963     0.121491  13.01 0.0004321669    1.381    0.276
       100 -11.8354     97.4146    211.1950   7.4771994813e+01   1.7695512393e+01    0.3659925    0.1926898 -73.28  0.001680017    2.760    0.638
       101 -13.2251    105.0347    207.3333   7.2459696600e+01   1.7477434333e+01    0.6177697    0.3535556  17.80  0.002726749    1.779    0.438
       102 -11.4801     63.9997    211.2452   8.3189403906e+01   2.1745547886e+01    0.1767427    0.1472446  36.96 0.0003393315    1.009    0.009
       103 -13.2315     68.9170    207.5519   8.1588119601e+01   2.1955657011e+01     0.609339    0.2737065  14.35  0.002389997    2.846    0.649
       104 -11.7460     47.1414    210.9410   8.7537662045e+01   2.3677937381e+01    0.2326157     0.182882 -40.31  0.001028149    1.615    0.381
       105 -12.8559    229.1272    206.8779   4.7991952302e+01   2.5533133992e+00    0.2940089    0.1639111 -41.72  0.001149293    1.988    0.497
       106 -11.9358    225.1873    204.1870   4.8176105887e+01   3.2930462165e+00    0.1878931    0.1309819  18.05 0.0006407567    1.390    0.280
       107 -12.0069    181.4474    207.7028   5.6090352840e+01   7.6655779322e+00    0.2864359    0.1448991  20.54  0.001533029    1.975    0.494
       108 -13.5387    118.0256    206.6558   6.9273818269e+01   1.5908357683e+01    0.3492626    0.2678716  61.77 0.0007024634    1.683    0.406
       109 -11.4685     84.5998    206.9835   7.7499201393e+01   2.0160865776e+01    0.3839912    0.1962751  70.20  0.001471908    3.611    0.723
       110 -13.3115     35.3318    204.3977   9.0236548866e+01   2.6341010480e+01    0.5800722    0.2713791 -43.27  0.002260345    3.237    0.691
       111 -11.9209    160.5630    206.8021   5.9997944698e+01   1.0362994895e+01    0.1952931     0.180879  74.29   0.00115815    1.626    0.385
       112 -12.9207     54.9353    205.9011   8.5114510231e+01   2.3927084833e+01    0.3028124    0.2332689  30.00   0.00134057    1.140    0.123
       113 -10.6799    205.2739    206.3030   5.1681162915e+01   5.1354453061e+00    0.1127037   0.07000191  -9.46 0.0001900139    1.538    0.350
       114 -11.9254     42.3875    205.7514   8.8437707078e+01   2.5317819668e+01    0.3230826    0.1444483  30.76  0.001188613    1.787    0.440
       115 -11.4822    166.2670    204.5188   5.8515824817e+01   1.0014196832e+01    0.2495768    0.1399145 -38.07  0.001384689    1.778    0.437
       116 -12.7287    145.5945    202.5255   6.2487564210e+01   1.3014940142e+01    0.3832037    0.2202573 -52.58  0.002013142    2.044    0.511
       117 -13.3712    100.3084    184.2985   7.0628318714e+01   2.2892601747e+01    0.4411342    0.3465584 -13.71  0.001931052    1.500    0.333
       118 -13.5151     99.9656    196.4392   7.2349846385e+01   2.0352199906e+01    0.5916066    0.4630711 -39.95  0.003385773    1.435    0.303
       119 -13.5971     94.0969    183.5191   7.2167349718e+01   2.3946169901e+01    0.4997219    0.2665806 -54.68  0.001947576    2.016    0.504
       120 -15.0582     89.4429    183.1700   7.3376030228e+01   2.4677617324e+01     1.872665    0.4116235 -58.26  0.005802896    4.376    0.771
       121 -12.7936     89.6226    202.0105   7.5665045886e+01   2.0557134539e+01    0.4281667    0.2829983 -56.43  0.001830622    1.711    0.416
       122 -13.8676     94.4683    194.6661   7.3532171627e+01   2.1467905454e+01    0.6975724    0.6022182  33.72  0.004177283    1.027    0.026
       123 -13.2504     77.7001    201.8191   7.8729380880e+01   2.2114420049e+01    0.4132585    0.2660389 -50.54  0.001463853    1.792    0.442
       124 -11.9391     52.4158    201.2940   8.5419002353e+01   2.5232027899e+01    0.3171143    0.1966052  11.51  0.001564609    1.815    0.449
       125 -11.3731      1.3930    202.3830   9.9181273887e+01   2.9770020728e+01    0.1831471      0.11269 -84.83 0.0005234821    1.698    0.411
       126 -11.3159    163.0154    201.7608   5.8745417594e+01   1.0874411760e+01    0.1717208    0.1388411  10.49 0.0002383501    1.072    0.067
       127 -11.2813     48.8369    203.6307   8.6563702476e+01   2.5103249212e+01    0.2602358    0.1998661 -82.73  0.001521742    1.443    0.307
       128 -13.3624     20.9465    198.4611   9.3813601474e+01   2.9061043573e+01    0.5501672    0.2794105  68.85  0.002666269    1.924    0.480
       129 -11.4188    240.2957    200.7641   4.5428140708e+01   2.2047229639e+00     0.150175   0.07189455  18.42 0.0008912419    2.349    0.574
       130 -11.4946    212.4217    200.2016   4.9559666722e+01   5.1798004775e+00    0.1446343   0.09450807 -41.25 0.0009406021    1.673    0.402
       131 -14.6163    122.8410    196.6236   6.6765800972e+01   1.7180808660e+01    0.5227221    0.4082552  31.44  0.003080292    1.158    0.137
       132 -11.9129     59.7198    199.2628   8.3270778741e+01   2.4854131457e+01    0.2213817    0.1468288 -45.52  0.001140039    1.846    0.458
       133 -11.8423    224.9935    198.0003   4.7243446532e+01   4.1128084014e+00    0.2404791     0.126932 -46.55  0.001375302    2.471    0.595
       134 -12.1325     84.0606    198.7273   7.6726722485e+01   2.1971705172e+01    0.3573648    0.2186828  63.65  0.001554412    2.049    0.512
       135 -12.7785     80.2013    193.8691   7.7194050314e+01   2.3530435177e+01    0.5929874    0.2966383  39.62 0.0006844593    1.722    0.419
       136 -13.1481     75.4071    179.0934   7.6760898690e+01   2.7545361063e+01    0.5764609    0.3264607 -52.87  0.002367802    1.935    0.483
       137 -14.2062     69.2985    186.6873   7.9376737503e+01   2.6562980621e+01    0.7717887    0.3648443  42.09  0.003226847    1.849    0.459
       138 -14.0314     65.9564    181.4322   7.9745292994e+01   2.8226278788e+01    0.5549898     0.428769  89.43  0.002166743    1.419    0.295
       139 -11.3864     29.0732    198.1331   9.1572290739e+01   2.8383479565e+01    0.3092219    0.1909316 -12.52  0.001456511    2.424    0.587
       140 -14.4956      3.0063    210.1543   9.8935873434e+01   2.7916849690e+01    0.7382002    0.4131921 -72.05  0.004041809    2.037    0.509
       141 -13.8681    140.1648    196.6019   6.2792237051e+01   1.4801810974e+01    0.3824416    0.2977621  33.46  0.001249132    1.237    0.191
       142 -12.4248    108.1828    198.1511   7.0518105642e+01   1.8887010377e+01    0.2574569    0.1807387 -27.47  0.001091659    1.697    0.411
       143 -10.7045     35.3061    198.6980   8.9895100704e+01   2.7641175286e+01    0.1358167    0.1223215  38.07 0.0007185554    1.117    0.104
       144 -12.4905    113.8976    197.1346   6.8981423529e+01   1.8310896482e+01    0.1967791    0.1681668  44.18 0.0004594222    1.199    0.166
       145 -12.2973      1.4448    196.5433   9.9036657835e+01   3.1101283476e+01    0.2371405    0.1162915 -88.80  0.001079896    2.045    0.511
       146 -13.2124    190.2030    193.9678   5.2345287624e+01   8.6725094577e+00    0.3634478    0.2812888  23.24  0.001113072    1.286    0.222
       147 -11.8451    152.8259    195.8222   5.9930987603e+01   1.3219980269e+01    0.1660964    0.1460931  40.77 0.0005226231    1.330    0.248
       148 -11.6730     49.5212    195.3756   8.5733366264e+01   2.6903437064e+01    0.3076728     0.197941  28.47  0.001587342    1.372    0.271
       149 -13.2796     20.1196    178.9767   9.3087801800e+01   3.3816198396e+01     0.879796    0.3753131  54.15  0.002785501    2.076    0.518
       150 -12.6470     33.1509    157.9010   8.7522832241e+01   3.8014361276e+01    0.2186581    0.1911726  57.23 0.0002939794    1.012    0.012
       151 -14.0471      2.0104    129.9317   9.6665980149e+01   4.8166900353e+01    0.8700837    0.5548543 -82.80  0.004316988    1.460    0.315
       152 -12.0313      2.7509    186.8004   9.8435308372e+01   3.3300299417e+01    0.2689905    0.1796843  59.71  0.000715494    1.252    0.201
       153 -13.5058     22.7836    161.9906   9.1240795464e+01   3.7927956193e+01    0.5844057    0.4681335 -60.97  0.003222211    1.378    0.275
       154 -13.7119     30.7034    172.6925   8.9484463911e+01   3.4411243973e+01      1.22344    0.3904888  15.85  0.003885703    3.901    0.744
       155 -12.8103     24.9879    168.7791   9.0990973555e+01   3.5959940160e+01    0.4079535    0.2524038  22.12  0.001347835    1.589    0.371
       156 -15.6226     18.9844    150.3107   9.1714987123e+01   4.1374854266e+01     1.538112     0.926519  57.11  0.005448712    1.521    0.343
       157 -12.7281      2.3969    153.6656   9.7508724305e+01   4.1706723729e+01    0.4323664    0.2693745  78.14   0.00218505    1.461    0.316
       158 -14.0098      3.3751    146.4028   9.6895149483e+01   4.3584454819e+01     0.944094    0.6034296 -87.01  0.004773363    1.470    0.320
       159 -13.7830     26.6477    154.8662   8.9442207895e+01   3.9463090396e+01    0.6238387    0.3090374  42.20  0.001819765    1.758    0.431
       160 -13.2584     27.0661    149.5494   8.8864016068e+01   4.0857416164e+01    0.4932835    0.2341236  50.83  0.001252556    1.958    0.489
       161 -12.8839      9.7919    194.4987   9.6710586121e+01   3.0932948841e+01    0.4990838    0.2311438  28.60  0.002406672    1.794    0.443
       162 -14.3269     10.2017    186.5792   9.6318333251e+01   3.2783603549e+01      0.80157    0.5938948 -64.93  0.004627321    1.549    0.354
       163 -15.3128     13.6932    135.0887   9.2555896158e+01   4.5972243597e+01     1.690211      0.63444  73.11  0.005319504    3.019    0.669
       164 -13.9435      8.1510    135.1112   9.4625901643e+01   4.6357612363e+01    0.6461137    0.3667321  69.63  0.001687616    1.660    0.398
       165 -11.6719     37.5420    195.3818   8.9062457650e+01   2.8183126190e+01    0.3557022    0.1381637  27.34  0.001487407    2.148    0.535
       166 -11.9217    217.5076    193.6053   4.7701893465e+01   5.5126435915e+00    0.1885469    0.1576113 -16.24  0.001433808    1.197    0.164
       167 -12.7305    162.9448    193.3723   5.7450537443e+01   1.2280715095e+01    0.2459191    0.1927319  19.29 0.0003957634    1.165    0.142
       168 -11.4751     69.2006    193.6589   8.0148923184e+01   2.4975552266e+01    0.1840477    0.1562846  29.24 0.0007059651    1.089    0.081
       169 -12.2031     25.4082    185.4241   9.1889663887e+01   3.1748724267e+01    0.3787762    0.1816186  13.63  0.001616167    2.349    0.574
       170 -12.5685     26.6094    192.8495   9.1963899541e+01   2.9854077449e+01     0.435561    0.2127643  86.44  0.001406356    2.208    0.547
       171 -12.3423     29.8354    188.4333   9.0791879651e+01   3.0599378407e+01    0.4520423    0.2092075  24.29  0.001371386    1.955    0.489
       172 -11.5030    244.0000    191.9674   4.3539663795e+01   2.9196867540e+00    0.1663385   0.04699359 -36.72 0.0003751846    2.872    0.652
       173 -13.9251    134.3788    188.4985   6.2858788847e+01   1.7126417681e+01    0.5182584    0.2575697 -33.74  0.001827861    2.491    0.599
       174 -12.1719     35.1613    190.5629   8.9408809644e+01   2.9561647889e+01    0.3390921    0.2319272 -50.45  0.001266319    1.772    0.436
       175 -11.8207    178.4607    190.9037   5.4009503014e+01   1.0638365632e+01    0.1773488    0.1473644   7.62 0.0005736259    1.082    0.076
       176 -14.0662    121.9596    186.6564   6.5508440727e+01   1.9276522712e+01     0.504045     0.333709 -30.47  0.002203118    1.750    0.429
       177 -13.9217    118.9447    180.6816   6.5326396755e+01   2.0942503976e+01    0.6092017    0.3210188  53.40  0.001577314    2.588    0.614
       178 -11.4323    234.4850    190.4937   4.4646405735e+01   4.0828248213e+00      0.10851   0.08097263 -15.55 0.0008104231    1.015    0.015
       179 -12.7232     51.1304    189.7952   8.4813678388e+01   2.8025517435e+01    0.3573361    0.2364449  12.24 0.0008166587    1.677    0.404
       180 -13.1688     51.2445    184.2790   8.4289431439e+01   2.9327923210e+01    0.5946537    0.2611313  33.93   0.00201142    1.874    0.466
       181 -11.1417    174.2594    189.0020   5.4501176105e+01   1.1498834696e+01    0.1552347   0.09881561 -38.76 0.0008822795    1.528    0.346
       182 -12.7025    194.8727    187.8520   5.0516951762e+01   9.0176799714e+00    0.2537317    0.1551818  34.30  0.001516481    1.720    0.419
       183 -11.9531    151.9745    187.7182   5.8826537190e+01   1.4772206053e+01    0.1800631    0.1551952  12.03 0.0004297192    1.046    0.044
       184 -12.7433    110.2051    188.0233   6.8614734362e+01   2.0685278535e+01    0.2539302    0.1831035  31.48  0.000806393    1.244    0.196
       185 -12.1145     61.2629    204.0574   8.3282214747e+01   2.3610451099e+01    0.3807053    0.2173873  22.94  0.001399976    1.622    0.384
       186 -11.8547     42.9585    187.0314   8.6919704576e+01   2.9590774585e+01    0.3562924    0.1895242  65.07  0.001049351    1.999    0.500
       187 -11.7425     19.0583    188.0110   9.3852760571e+01   3.1696524779e+01    0.2059705    0.1727552  49.48  0.000818518    1.022    0.022
       188 -10.8847    241.4661    186.3976   4.3002467814e+01   3.8752228577e+00    0.1058101   0.07856734 -15.54 7.058901e-05    1.021    0.021
       189 -11.8467    247.8853    185.6657   4.2010825156e+01   3.3083393724e+00    0.1789794   0.08468644  23.82  0.001075909    2.470    0.595
       190 -11.5088    164.4247    185.2005   5.5817977086e+01   1.3474648250e+01    0.1603617    0.1199215 -52.13 0.0004873956    1.595    0.373
       191 -12.0608      5.1446    181.1987   9.7588424206e+01   3.4482232746e+01    0.2051232    0.1967562  41.55  0.000692279    1.198    0.165
       192 -12.0986    166.9893    178.0380   5.4083533126e+01   1.4355499513e+01    0.1908984    0.1679437  -6.46 0.0003301339    1.010    0.010
       193 -13.8162    106.4067    176.6796   6.7907397916e+01   2.3669145638e+01    0.4741505    0.2788534 -62.38  0.001184375    1.956    0.489
       194 -12.4035     31.1631    178.6521   8.9765685622e+01   3.2865142995e+01    0.3692504     0.296774 -54.90  0.002078033    1.447    0.309
       195 -11.2113    198.7301    179.9881   4.8523911712e+01   9.7228387880e+00    0.1646006    0.1293057 -23.02 0.0002841571    1.096    0.087
       196 -12.0032    192.1169    177.8937   4.9314392094e+01   1.0909600454e+01    0.1683324    0.1569628 -13.08 0.0006444542    1.241    0.194
       197 -13.5142     57.1109    176.3129   8.1781275257e+01   3.0572461347e+01    0.3387074    0.3305795 -34.32  0.001157137    1.181    0.153
       198 -12.8582    149.0456    176.2002   5.7536750075e+01   1.7318153141e+01    0.2316469    0.2035773   1.83  0.001037484    1.055    0.053
       199 -11.0053     71.4392    176.6993   7.7608210245e+01   2.8646483859e+01     0.177194    0.1340288 -51.83 0.0003075222    1.470    0.320
       200 -10.9452    250.5920    176.4617   4.0164479000e+01   4.1771917872e+00    0.1068583   0.07592332 -20.00  4.17164e-05    1.028    0.027
       201 -12.7610     12.8395    174.6159   9.5059167431e+01   3.5523067887e+01    0.3988027      0.23884 -52.26  0.001951715    2.007    0.502
       202 -11.6475      6.6352    176.3078   9.6987875217e+01   3.5580561853e+01    0.2467031    0.1556486  33.49 0.0007546571    1.384    0.278
       203 -11.9305      3.5095    174.5653   9.7862000540e+01   3.6243995749e+01    0.2796642    0.1932062  61.19 0.0005907275    1.230    0.187
       204 -11.8629      2.3268    171.6667   9.8128468740e+01   3.7055109775e+01    0.2407397    0.1485091  30.92 0.0005928673    1.452    0.311
       205 -13.0356    130.9354    169.1787   6.0484956264e+01   2.1489293096e+01    0.3712838    0.2720792  13.66  0.001505633    1.483    0.326
       206 -13.9560    126.2195    172.7215   6.2238140453e+01   2.1493174104e+01    0.5210395    0.3081888 -69.60  0.002234487    2.567    0.611
       207 -13.6086    125.6498    166.9125   6.1380784190e+01   2.2800042560e+01    0.4806396    0.3022735  33.67  0.002046735    1.513    0.339
       208 -10.7599     48.6578    175.3062   8.4217123367e+01   3.1827485682e+01    0.1586429   0.08996823  53.85 0.0007042158    1.687    0.407
       209 -12.1626    214.0963    174.0911   4.4986422991e+01   8.6595329224e+00    0.2196507    0.1553579  34.21 0.0007904465    1.610    0.379
       210 -13.1724     75.1491    186.3461   7.7704242203e+01   2.5887170027e+01     0.433124    0.3790158 -59.77  0.001600955    1.276    0.216
       211 -12.9504    136.8301    176.2484   6.0303871198e+01   1.9150906215e+01    0.3194061    0.2315068  89.81  0.001522471    2.402    0.584
       212 -12.2152    192.8015    171.7178   4.8110476421e+01   1.1794787179e+01    0.2064952    0.1425478  25.07  0.001062891    1.483    0.326
       213 -12.0185    197.2787    170.5897   4.7132787330e+01   1.1365623348e+01    0.2192826    0.1286935 -21.82  0.001185011    1.770    0.435
       214 -11.7711    234.7995    171.8913   4.1534630567e+01   6.4959556190e+00     0.173508    0.1201715 -15.29 0.0006262444    1.226    0.184
       215 -12.8336     75.3528    170.0168   7.5609475179e+01   2.9731441246e+01    0.4145072    0.2328504  60.63  0.001608491    2.151    0.535
       216 -11.7522     68.2412    164.4276   7.7005773117e+01   3.2094036960e+01    0.2314852    0.1369932  30.84 0.0006341837    1.560    0.359
       217 -14.0281     65.0205    161.8127   7.7658189682e+01   3.3191832781e+01    0.5654872    0.3732009 -42.43  0.002612033    1.803    0.445
       218 -13.4787     66.8747    152.8983   7.5843259427e+01   3.5228455257e+01    0.4950783    0.2212296  21.46  0.001620129    2.605    0.616
       219 -14.1712     65.6573    148.9942   7.5667307950e+01   3.6418299333e+01    0.7088758    0.4038483 -13.78  0.002366646    3.597    0.722
       220 -13.3337     62.9735    156.9640   7.7662183353e+01   3.4712281886e+01    0.4129393    0.2990574 -81.84 0.0003399938    1.474    0.322
       221 -13.4515     61.4516    168.4886   7.9593936860e+01   3.1973764229e+01    0.5306762    0.3605501  53.20  0.002322086    1.411    0.291
       222 -12.8821     57.3790    163.7495   8.0293423842e+01   3.3696801229e+01    0.4073929    0.2717429  69.12  0.001051089    1.614    0.380
       223 -13.0645    152.5289    167.3470   5.5209543117e+01   1.8462601167e+01    0.5299214    0.1312242 -48.54   0.00167854    4.198    0.762
       224 -11.3094     18.8765    169.8839   9.2968658353e+01   3.6222561486e+01    0.2240483    0.1286745  53.63            0    1.524    0.344
       225 -11.7596     15.5513    167.5494   9.3881256130e+01   3.7103356043e+01    0.2219583    0.1276813  22.54  0.000640226    1.683    0.406
       226 -12.4722     41.2131    168.2095   8.5846710915e+01   3.4464007637e+01    0.3457747     0.213261  69.69  0.001249647    1.677    0.404
       227 -11.4191     54.3227    167.3165   8.1657623741e+01   3.3167414622e+01    0.1449089    0.1102757 -27.86 0.0006748766    1.665    0.399
       228 -12.1343      9.5850    166.4792   9.5702533689e+01   3.7851344999e+01      0.38885    0.1637689  37.91  0.001047377    1.929    0.481
       229 -13.0368      4.8088    162.4956   9.7050514304e+01   3.9229300941e+01    0.4174251    0.3538969  49.46  0.001288285    1.059    0.056
       230 -12.5552    110.9478    164.7496   6.4780128200e+01   2.5616195551e+01    0.2423173    0.2151121 -59.65 0.0007714524    1.210    0.173
       231 -13.3369     88.4386    164.5503   7.0998043189e+01   2.9159883381e+01    0.3018916    0.2713531  31.30 0.0009237052    1.064    0.060
       232 -11.7818     72.8013    164.7933   7.5665836250e+01   3.1373058368e+01    0.2469509    0.1721914  73.50 0.0004040957    1.655    0.396
       233 -12.0214     73.5645    161.2007   7.4932669845e+01   3.2162881632e+01    0.2746078    0.1720133 -40.95 0.0007662383    1.931    0.482
       234 -12.0543    206.3952    163.7056   4.4377510456e+01   1.1203179516e+01    0.2579377    0.1526904  -0.66  0.001301063    2.423    0.587
       235 -13.7796     37.4712    162.7946   8.6545914819e+01   3.6273084806e+01    0.6135166    0.4257076 -10.95  0.002257376    1.930    0.482
       236 -12.4611     47.5153    162.5164   8.3286256172e+01   3.5220801084e+01    0.2598802    0.2377357  49.87 0.0006212971    1.039    0.038
       237 -10.8672    242.6913    162.3215   3.8824712415e+01   6.8674403804e+00   0.09978653    0.0773953 -47.77 0.0003806436    1.644    0.392
       238 -12.9409     12.4824    161.0595   9.4525204691e+01   3.9037729338e+01    0.3174884    0.2812631  49.98 0.0007798851    1.065    0.061
       239 -12.3294     16.4115    160.2388   9.3204301061e+01   3.8938302325e+01    0.3126201    0.1797633  63.75 0.0009644185    1.610    0.379
       240 -12.0885    178.8294    160.6792   4.8636994085e+01   1.5631554315e+01    0.2125022    0.1800839 -28.11 0.0003154237    1.081    0.075
       241 -13.1390    170.1183    160.0941   5.0209532878e+01   1.7066876257e+01    0.3010783    0.2435543 -41.53  0.001801254    1.230    0.187
       242 -13.4098    100.6295    172.0790   6.8741445061e+01   2.5563615542e+01    0.3500676    0.2509838 -59.73  0.001516361    1.515    0.340
       243 -13.2062     90.1619    159.0921   6.9636745887e+01   3.0212704915e+01    0.4460403    0.2407162  67.73  0.001544891    3.221    0.690
       244 -13.5655     81.4574    157.6391   7.1997932257e+01   3.1898240382e+01    0.4110462    0.3066132 -69.26  0.001104954    1.432    0.302
       245 -13.2974     75.8917    155.0529   7.3308317915e+01   3.3376162980e+01    0.3912559    0.2200696  40.04 0.0009478908    1.627    0.385
       246 -12.4051     77.1937    159.8925   7.3634686378e+01   3.1967698422e+01    0.2320702    0.1908038  61.00 0.0004490037    1.217    0.179
       247 -11.6076    186.7357    157.7222   4.6623507262e+01   1.4949892749e+01    0.2364843    0.1550903  60.68  0.001170523    2.602    0.616
       248 -11.6530    105.1404    158.2950   6.5240364576e+01   2.8021397943e+01    0.2729201     0.183586  49.21 0.0007214618    1.528    0.345
       249 -12.0387    131.9258    157.3463   5.8100028619e+01   2.3797285986e+01    0.2013612     0.177439  23.86 0.0005631649    1.106    0.096
       250 -12.0483    158.9768    160.0658   5.2479105301e+01   1.8824196319e+01    0.1972395    0.1801282  -6.40            0    1.015    0.014
       251 -10.6205    204.6945    156.3071   4.3293782542e+01   1.2580371499e+01    0.1103315   0.09375691 -60.99 0.0002543317    1.607    0.378
       252 -11.5923    112.4916    156.4996   6.2918510068e+01   2.7226451730e+01    0.1455082    0.1385632  40.88 0.0008104324    1.032    0.031
       253 -12.0642    141.5412    154.2845   5.5226400841e+01   2.2819118016e+01    0.2679308    0.1373718 -53.02  0.001138702    2.109    0.526
       254 -12.5394    212.0315    153.0096   4.1520989810e+01   1.2067527186e+01    0.2979075    0.1496716 -44.84  0.001553712    1.943    0.485
       255 -12.9492     50.8209    153.4122   8.1174840782e+01   3.7216030152e+01    0.4019308    0.2529676  85.55  0.001792922    1.767    0.434
       256 -13.4779     46.9902    150.7534   8.2143455829e+01   3.8391276889e+01    0.4243641    0.2722748 -25.06  0.001805328    2.219    0.549
       257 -12.7678     44.1059    146.8802   8.2675208501e+01   3.9777263041e+01    0.2880407    0.1919725  36.39 0.0009721759    1.383    0.277
       258 -13.0324     36.3157    143.5919   8.5041289122e+01   4.1549326951e+01    0.4643294    0.2892421   3.62  0.002007679    2.048    0.512
       259 -12.6716     41.0146    153.7677   8.4498155471e+01   3.8275704640e+01    0.2480745    0.1764412  55.38   0.00041232    1.311    0.237
       260 -14.3701     38.3435    149.1752   8.4925781670e+01   3.9807636109e+01    0.7321974    0.3985954 -58.28  0.002934525    1.903    0.474
       261 -13.1796     32.6139    147.8445   8.6780383118e+01   4.0774872314e+01    0.4048067    0.2332812  64.84  0.001492864    1.763    0.433
       262 -12.4753     88.1389    152.8577   6.9206876009e+01   3.2054012108e+01    0.2371943    0.1988008  63.07 0.0006971969    1.230    0.187
       263 -13.3575     85.0768    148.4279   6.9384774435e+01   3.3642208954e+01    0.5118586    0.3129659 -40.96  0.001574663    1.935    0.483
       264 -13.4033     80.0250    146.9162   7.0703752409e+01   3.4819578614e+01    0.5884005    0.3449162  -1.95  0.001800311    3.415    0.707
       265 -11.0539    249.4760    151.5488   3.6088589456e+01   7.5033981204e+00    0.1104668   0.08145168 -23.84 3.840168e-05    1.031    0.030
       266 -11.6125     79.4809    151.5415   7.1638875638e+01   3.3727577692e+01    0.1521084    0.1404919  52.47 0.0001059221    1.017    0.016
       267 -11.8622    171.6305    150.3033   4.8018023796e+01   1.8592735534e+01    0.1276344    0.1070159  88.24 0.0007033353    1.748    0.428
       268 -12.2884    147.5401    149.5288   5.2918243402e+01   2.2762930642e+01    0.2906201    0.2485701  77.33  0.001280261    1.507    0.336
       269 -12.3996    131.4761    150.1938   5.6833114070e+01   2.5393784754e+01    0.3692327    0.1864864  21.95  0.001325615    3.009    0.668
       270 -13.3181    101.6138    142.5789   6.3344763390e+01   3.2334607209e+01    0.7499117    0.3638951  55.67  0.002372388    2.870    0.652
       271 -12.4996     94.9616    140.1823   6.4854670293e+01   3.4066144392e+01    0.2966609    0.2217721 -47.40 0.0009843002    1.407    0.289
       272 -13.7931     96.9609    148.9921   6.5910495250e+01   3.1571839166e+01    0.5142826    0.4098066   9.91  0.002541445    1.457    0.314
       273 -12.8374    108.5694    148.9464   6.2589126550e+01   2.9626440911e+01    0.3361774      0.28821 -73.46 0.0008447212    1.277    0.217
       274 -11.6339    121.4198    146.7476   5.8700578063e+01   2.7901126083e+01    0.2017085    0.1358635 -40.08 0.0006081163    1.572    0.364
       275 -13.1926     57.2718    157.5099   7.9565739216e+01   3.5323107176e+01    0.4816422    0.2339866  37.44  0.001058227    1.813    0.448
       276 -12.6613    168.7954    144.8893   4.7489504013e+01   2.0049217585e+01    0.3789242    0.2123523  31.05  0.001241047    2.046    0.511
       277 -10.7302    118.5246    143.5557   5.8825232142e+01   2.9131552250e+01    0.1464066    0.1420279  49.65 5.887137e-05    1.033    0.032
       278 -13.5744     42.8672    133.5864   8.1451212448e+01   4.3572572519e+01     1.092811    0.4822156  66.23  0.003548813    3.209    0.688
       279 -13.3676     29.9316    139.4770   8.6915704924e+01   4.3342368611e+01    0.5469884    0.2615323  14.34  0.002121793    2.402    0.584
       280 -14.1226     28.1321    128.2260   8.6413915639e+01   4.6660269822e+01    0.6687334    0.5518281  17.35  0.002081067    1.302    0.232
       281 -13.9354     35.1355    138.7858   8.4939885494e+01   4.2999730166e+01    0.7789919    0.3332068   7.04  0.002481742    3.704    0.730
       282 -13.0073     37.1431    135.1432   8.3778029259e+01   4.3793366013e+01    0.4026176    0.2344566  48.35  0.001119395    1.627    0.385
       283 -14.1206     35.7063    131.1178   8.3830230390e+01   4.5072753862e+01    0.5607948    0.4399115  78.29 0.0004091657    1.241    0.194
       284 -13.7282     45.0269    140.3082   8.1542662418e+01   4.1460457058e+01    0.5551742    0.2649708  52.20 0.0003450174    2.147    0.534
       285 -12.3444     41.7077    139.6696   8.2655617531e+01   4.2026523021e+01    0.2754488    0.2105267 -52.19  0.000496879    1.418    0.295
       286 -11.9092    223.0719    139.5007   3.7351127795e+01   1.2559990802e+01    0.2770148    0.1396068 -32.01 0.0009635662    1.687    0.407
       287 -13.4475     57.0830    139.6699   7.7183839115e+01   4.0092294839e+01     0.344529    0.2323537 -30.89  0.001491077    1.955    0.489
       288 -11.1071    188.5112    138.5385   4.2539658325e+01   1.7924976860e+01     0.129937    0.1136428 -25.88 0.0004322726    1.010    0.010
       289 -12.8938    127.9939    137.2074   5.5044301123e+01   2.8836463062e+01    0.4177419    0.3021176  20.90  0.001528619    1.632    0.387
       290 -11.1197    177.3656    137.7134   4.4369319166e+01   1.9911934395e+01    0.1277788    0.1058317 -84.31 0.0007021629    1.697    0.411
       291 -12.6154    118.1636    134.8727   5.7117771997e+01   3.1177175111e+01    0.2745422    0.2413993 -10.54 0.0007538211    1.292    0.226
       292 -12.9602    103.1171    134.2496   6.1226977155e+01   3.4081236805e+01    0.3371922    0.2801591   0.92 0.0009282534    1.468    0.319
       293 -12.8982     85.4651    133.8328   6.6583618970e+01   3.7282168271e+01    0.4734613    0.2665874 -68.53  0.001203539    2.029    0.507
       294 -14.1992     81.6165    127.3872   6.6561076348e+01   3.9596598812e+01    0.5313914    0.5047166  33.23  0.001367655    1.090    0.083
       295 -13.0937     78.1144    133.3098   6.8893100763e+01   3.8638713703e+01    0.4202777    0.2677558  -9.45  0.001536436    2.817    0.645
       296 -10.7014    143.2518    132.9705   5.0429115560e+01   2.6911315528e+01    0.1714304    0.1203296 -46.86 0.0008303078    1.391    0.281
       297 -12.8155     20.6887    122.6931   8.8791591753e+01   4.8894913018e+01    0.3286716    0.2271984  -3.06  0.000752018    1.754    0.430
       298 -13.0837     20.1512    131.3285   8.9810787431e+01   4.6508994891e+01    0.3888378    0.2205588  10.88  0.001683806    2.003    0.501
       299 -14.3769     21.6898    127.3828   8.8850187607e+01   4.7486228948e+01    0.7675804    0.3263506  52.13  0.002422434    2.331    0.571
       300 -11.2553    230.0806    130.6970   3.4722426686e+01   1.2865099551e+01    0.1558484    0.1288609 -24.95 0.0004560923    1.069    0.064
       301 -12.9325     69.4490    130.3333   7.1297899376e+01   4.0805343961e+01    0.4218937    0.2139073 -35.29  0.001402855    3.136    0.681
       302 -14.8153     59.7101    127.2651   7.4237315621e+01   4.3097803570e+01    0.6601744    0.4908027 -38.36  0.002349539    1.574    0.365
       303 -12.0820    206.3772    129.3552   3.7775006560e+01   1.6586187450e+01    0.2233532     0.181505 -40.70 0.0003512222    1.129    0.114
       304 -13.5275     45.4785    128.4754   7.9753859481e+01   4.4677168744e+01    0.4448729    0.2438764  48.80  0.001043876    1.791    0.442
       305 -14.0331     44.3226    120.9710   7.9062369283e+01   4.6916677269e+01    0.6484455     0.413006 -48.62  0.002021185    1.694    0.410
       306 -10.6208    130.4843    128.4461   5.2495237618e+01   3.0290519390e+01    0.1452652    0.1442829 -43.59 0.0001151451    1.006    0.006
       307 -11.4773    121.5566    128.0732   5.4716349473e+01   3.2086380158e+01    0.2286039      0.14706 -52.65  0.001014316    1.568    0.362
       308 -12.2515    177.2912    126.1035   4.1910789903e+01   2.2005804334e+01    0.2614339    0.2164169 -33.58 0.0007312165    1.103    0.093
       309 -11.6508    180.2437    123.0316   4.0708796059e+01   2.2027724532e+01    0.2053861    0.1741464 -12.64 0.0005645267    1.258    0.205
       310 -11.1473    162.9660    126.9600   4.4842018735e+01   2.4443613989e+01    0.2161989    0.1643305  -9.86  0.000588122    1.637    0.389
       311 -13.1797     74.0860    125.9300   6.8840440721e+01   4.1236916283e+01    0.3535327    0.3098701 -65.34  0.000975196    1.155    0.134
       312 -10.9096    224.8326    128.8109   3.5047832046e+01   1.3887029155e+01     0.153034    0.1203492 -45.80 0.0003338605    1.266    0.210
       313 -11.5423    188.9917    121.6793   3.8913982248e+01   2.0722923420e+01    0.1692216    0.1646291 -23.16 0.0002183167    1.118    0.105
       314 -11.1788    165.4978    122.0337   4.3234289465e+01   2.4906689297e+01    0.2086147    0.1285979 -43.43 0.0003990547    1.503    0.335
       315 -12.8929    103.9896    121.8013   5.8240135908e+01   3.6929912102e+01    0.4043754    0.3018773  55.90  0.001284196    1.400    0.286
       316 -12.3216     98.9859    117.5975   5.8785993098e+01   3.8913259852e+01    0.3435914    0.2462034  72.63  0.001136536    1.754    0.430
       317 -12.6821     64.7951    127.2334   7.2382297010e+01   4.2352820372e+01    0.2829751    0.2293426  70.04   0.00079287    1.265    0.209
       318 -13.6253      4.7022    119.0094   9.5017233340e+01   5.1060013272e+01     0.626788    0.3276151  83.24  0.002731605    1.823    0.451
       319 -13.8638     12.6786    118.1052   9.1657497033e+01   5.0810562548e+01    0.8407393     0.216437  28.69  0.002802321    3.149    0.682
       320 -13.5831     20.2316    116.1972   8.8312659485e+01   5.0774330845e+01    0.6455617    0.3442241  55.54  0.002714381    1.885    0.469
       321 -11.9961     24.0075    115.0244   8.6584263019e+01   5.0781293485e+01    0.5089251    0.2407224  52.19  0.001467175    2.156    0.536
       322 -13.1088     50.3492    130.0610   7.8159497483e+01   4.3618112382e+01    0.3279153    0.2162306  34.79 0.0009333609    1.444    0.307
       323 -12.6432     79.0142    120.7083   6.6054488030e+01   4.1782669035e+01    0.2253612    0.2028885  46.09  0.000485719    1.082    0.076
       324 -11.7151    224.1422    120.0525   3.3407185657e+01   1.5281870552e+01    0.1797479    0.1447368 -33.92 0.0004522923    1.012    0.012
       325 -12.8338     63.8506    118.7949   7.1126820899e+01   4.4783659215e+01    0.3235925    0.2005543 -50.95 0.0006478907    1.678    0.404
       326 -11.4791     36.0567    119.7721   8.2199517364e+01   4.8225374792e+01    0.2370508    0.1896909  59.63 0.0005155076    1.205    0.170
       327 -12.0250     94.0083    117.4765   6.0328048264e+01   3.9892232623e+01    0.2625131    0.2086852 -56.42  0.001252851    1.267    0.211
       328 -12.4061     51.1735    116.1017   7.5516118747e+01   4.7380121782e+01    0.6141435    0.2943711  50.35  0.002262638    2.229    0.551
       329 -11.7265    124.2661    114.4347   5.0788746014e+01   3.4612584600e+01    0.2557964    0.2043341 -50.41  0.001263682    1.233    0.189
       330 -13.0908     82.8118    112.6873   6.2941927692e+01   4.3189343830e+01    0.6910129    0.2180862 -58.25    0.0020431    3.330    0.700
       331 -11.8135    104.8315    114.0219   5.6141649611e+01   3.8635797527e+01    0.2439267    0.2083928  84.07 0.0008024502    1.276    0.216
       332 -13.1693     64.6576    113.5571   6.9754000499e+01   4.6075614775e+01    0.3849458    0.2968512   6.23  0.001128871    1.628    0.386
       333 -13.1780     61.9145    110.3212   7.0128538249e+01   4.7386709664e+01    0.5178444    0.3088812  22.42  0.002085123    1.932    0.482
       334 -12.5199     13.3923    113.9526   9.0995899260e+01   5.1936416301e+01    0.2665344     0.206238  36.71 0.0004518795    1.272    0.214
       335 -14.4308     11.0627    106.9045   9.1372891362e+01   5.4093451021e+01     1.093033    0.4951056  71.90  0.004160019    2.413    0.586
       336 -11.0456    242.3176    112.6735   2.9766062952e+01   1.3684904788e+01     0.114508   0.07451565 -53.84 0.0003192073    1.676    0.403
       337 -12.6452    109.9829    111.6195   5.4026285161e+01   3.8168440139e+01    0.2750304    0.2622432 -40.76 0.0004220416    1.104    0.094
       338 -12.0157     89.8312    110.8473   6.0113784238e+01   4.2344765905e+01    0.2521209    0.2476117  65.10 0.0003074309    1.052    0.049
       339 -11.6449     92.0000    107.9899   5.8686663843e+01   4.2639165300e+01    0.2356361    0.2265399 -30.23   0.00122312    1.142    0.124
       340 -11.7441     52.5359    110.8595   7.3983016949e+01   4.8643612878e+01    0.3061744    0.2087876  38.45 0.0007565796    1.417    0.294
       341 -12.5224    220.4058    109.0038   3.1636955031e+01   1.7501490776e+01    0.3104068    0.1767522  49.33  0.001194779    2.153    0.535
       342 -13.2225      3.6672    106.8421   9.4672176114e+01   5.4539910448e+01    0.3500853    0.3013849  26.56 0.0008980104    1.220    0.181
       343 -11.5611    209.6838    107.9385   3.2823770955e+01   1.9418525783e+01    0.1907434    0.1392061 -37.89  0.001155853    1.136    0.119
       344 -13.6229    120.8023    106.8755   4.9798526014e+01   3.7011525205e+01    0.4020146     0.354445  38.16  0.001005538    1.198    0.166
       345 -11.0038    140.0328    107.5236   4.5178854041e+01   3.2829851759e+01    0.2086288    0.1306177  73.61 0.0008095549    2.497    0.600
       346 -11.6235    157.6799    106.3073   4.1075237048e+01   2.9424425297e+01    0.1452722    0.1103538 -76.65 0.0003593372    1.638    0.390
       347 -13.5589    166.0034    100.2143   3.7970923518e+01   2.8866142483e+01     0.436077    0.2159952 -47.62  0.001862076    1.911    0.477
       348 -12.9223    208.1507     99.6390   3.1230478620e+01   2.0967038599e+01    0.2468349    0.2058707 -45.71 0.0004315644    1.060    0.056
       349 -12.3603     93.6720     99.2492   5.5850372354e+01   4.4450305762e+01    0.3460865    0.2565872  44.45  0.001166382    1.336    0.252
       350 -12.1268     32.3013     98.4490   8.0489663260e+01   5.4665929022e+01    0.5041345    0.2285675 -41.55  0.001783662    2.713    0.631
       351 -11.4012    178.5193     97.9473   3.5232300181e+01   2.6755712467e+01     0.212543     0.122909 -39.64 0.0004990228    1.544    0.352
       352 -11.7200     58.2683     97.1666   6.8629767177e+01   5.1522742832e+01    0.3548006     0.238976 -35.25  0.001502408    1.828    0.453
       353 -11.8162     24.7928     97.2582   8.3833820547e+01   5.5756866136e+01    0.4142288    0.2521097 -31.75 0.0006025422    1.999    0.500
       354 -11.8954     81.9670     97.0071   5.9291152630e+01   4.7340217866e+01    0.2490789    0.2010633  -8.53 0.0008892177    1.681    0.405
       355 -10.5852     46.2759     97.3284   7.3880415873e+01   5.3261423366e+01    0.1576447    0.1150791 -35.60 0.0006990912    1.592    0.372
       356 -12.7136     98.6940     94.5839   5.2925888855e+01   4.4517866600e+01    0.5185841    0.2616066 -58.82 0.0009518916    2.253    0.556
       357 -11.6473     68.7986     95.3731   6.3858013833e+01   5.0216896968e+01    0.3099019    0.1431275  39.42  0.001125364    2.092    0.522
       358 -11.5500    117.3523     94.1062   4.7284586631e+01   4.0573075103e+01    0.2153318    0.1794295 -55.70 0.0003206793    1.178    0.151
       359 -12.1796     62.7265     92.9766   6.5708077685e+01   5.1902721111e+01    0.2292016    0.2008238 -70.40 0.0005487172    1.136    0.119
       360 -12.4183    207.4622     91.1267   2.9431711744e+01   2.2396317299e+01    0.2298244    0.1851682 -11.53  0.001404344    1.493    0.330
       361 -12.7915    230.2130     89.7381   2.6475882962e+01   1.8715615707e+01    0.2301773    0.1809406 -40.51  0.000481843    1.010    0.010
       362 -11.9245     27.7593     90.4086   8.1249013904e+01   5.7400227899e+01    0.2923029    0.1328886  27.98  0.001134939    2.126    0.530
       363 -12.1559      5.0986     87.3595   9.2382835091e+01   5.9952302695e+01    0.4022163    0.2751042 -42.38  0.001560502    1.516    0.340
       364 -12.0159     11.6502     86.9741   8.8936552487e+01   5.9690695998e+01    0.3009302    0.1970536  24.37 0.0006031141    1.564    0.361
       365 -10.9322    220.4513     89.5588   2.7517122687e+01   2.0360153456e+01    0.1242753   0.09884214 -43.19 8.397578e-05    1.019    0.019
       366 -12.2648     79.0299    101.4697   6.1536907803e+01   4.6770083209e+01    0.3218395    0.2404582  63.75 0.0007157989    1.461    0.316
       367 -12.4597    150.0000     84.0003   3.6802470046e+01   3.5281070343e+01    0.3303533    0.2262224   3.03  0.001302979    2.922    0.658
       368 -11.5063     77.9994     81.8194   5.6367486106e+01   5.1872422561e+01    0.3201826    0.2295062  43.95  0.001297207    1.375    0.273
       369 -12.6786     60.9840     85.8412   6.4523381008e+01   5.4066363484e+01    0.4467351    0.2128785 -49.09  0.001656824    2.152    0.535
       370 -12.5319     54.5140     85.9789   6.7428315532e+01   5.5107655626e+01    0.4720878    0.4141096  11.96  0.002390985    1.276    0.216
       371 -11.4247    244.2837     86.0289   2.4304861151e+01   1.7011240299e+01    0.1608674    0.1120583 -39.46 0.0002831561    1.074    0.069
       372 -11.2322    178.5004     86.5320   3.2438846622e+01   2.8704327385e+01    0.1389115    0.1214298 -52.42 3.146688e-05    1.014    0.014
       373 -11.7323    124.9534     85.0911   4.2703204616e+01   4.0768373407e+01    0.2854934    0.2365597 -27.87  0.001410894    1.400    0.286
       374 -11.1825     35.2462     86.2005   7.6679776757e+01   5.7749109394e+01    0.2045588    0.1633029  54.69 0.0005402601    1.277    0.217
       375 -12.5028    110.8721     83.6008   4.6014902595e+01   4.4304696426e+01    0.4442995    0.2567143  51.97  0.001344201    1.735    0.424
       376 -13.0942    215.1430     76.8075   2.5308840539e+01   2.3131766596e+01    0.6553797    0.1390784 -39.29  0.002356965    3.323    0.699
       377 -11.8862    190.0604     83.5020   2.9981954527e+01   2.6870272636e+01    0.1801411    0.1332017  64.91 0.0006270283    1.539    0.350
       378 -12.0317    171.1490     83.1862   3.2769007266e+01   3.0803605847e+01      0.20285    0.1886768 -15.42 0.0006831202    1.247    0.198
       379 -12.3054    206.6078     80.8342   2.7203147952e+01   2.4106082667e+01    0.2146576    0.1836975 -53.67 0.0004101126    1.073    0.068
       380 -12.4735    182.2485     80.6502   3.0401675244e+01   2.8905156706e+01    0.2538919    0.1677302 -40.55 0.0003713951    1.331    0.249
       381 -12.4084     77.5140     87.0152   5.8124673152e+01   5.0701088323e+01    0.4428073    0.2581843 -78.85  0.001519239    2.840    0.648
       382 -12.5921     87.5243     79.1396   5.2016279351e+01   5.0509070800e+01    0.3491768    0.3021414  55.39 0.0007251321    1.129    0.114
       383 -11.3631     85.7051     75.3692   5.1433466257e+01   5.1765368331e+01    0.2293105    0.2035773 -56.89   0.00066789    1.134    0.118
       384 -11.0153     69.3176     80.3503   5.9370116530e+01   5.3941551144e+01    0.1611494    0.1254592 -17.47 0.0007047698    1.735    0.424
       385 -11.9058     29.3092     79.2788   7.8234580105e+01   6.0324415372e+01    0.3027257    0.2481554  60.22   0.00155545    1.265    0.209
       386 -12.9435    112.8620     75.8513   4.3048140575e+01   4.5471827317e+01    0.4887288    0.4629227  24.40  0.001287217    1.231    0.188
       387 -11.1231      8.3302     78.3076   8.9615999376e+01   6.2307735092e+01    0.1540283   0.09538521 -41.47 0.0007039452    1.662    0.398
       388 -11.8762    161.2064     76.0503   3.2546842718e+01   3.4190211794e+01    0.2501815    0.1432475 -60.11 0.0009531432    1.984    0.496
       389 -12.0152     75.1571     75.3339   5.5401314150e+01   5.4000322306e+01    0.3352225    0.2294713 -53.31  0.001070868    1.477    0.323
       390 -12.2693    169.4769     74.5445   3.0775495418e+01   3.2616887391e+01    0.2938343    0.2103361 -59.34 0.0007782639    1.354    0.261
       391 -12.9396    187.8772     78.1857   2.8988353580e+01   2.8150405049e+01    0.2699492    0.2385169 -33.71 0.0005324552    1.171    0.146
       392 -10.8351    155.6827     74.2978   3.3033454220e+01   3.5737637227e+01     0.150057    0.1045933 -70.74 0.0004856293    1.612    0.380
       393 -13.0955     51.4495     71.8365   6.4766024596e+01   5.9266255459e+01    0.5854876    0.3551003 -47.81  0.001640737    1.690    0.408
       394 -11.7288     48.0196     67.5039   6.5100844649e+01   6.0915035477e+01    0.3178461    0.2460664  35.08  0.001065204    1.286    0.222
       395 -12.2949      2.1126     73.9595   9.2639760763e+01   6.3805163364e+01    0.4386835     0.185733 -48.97  0.001335675    2.254    0.556
       396 -11.4032      1.8372     68.3193   9.2168052013e+01   6.5358263411e+01    0.3265007    0.1821999  75.06  0.001465679    1.917    0.478
       397 -11.4150    105.1775     73.1035   4.4340515213e+01   4.7842405346e+01    0.2284821    0.2187227   1.66 0.0007363101    1.233    0.189
       398 -11.4554     93.9550     68.4827   4.6258288447e+01   5.1423907278e+01    0.2255715    0.2041031 -61.59 6.303236e-05    1.102    0.092
       399 -12.7552      7.0543     67.9472   8.8919425886e+01   6.5223054482e+01    0.2503739     0.209528 -62.74 0.0003340357    1.117    0.105
       400 -12.5669    203.0343     66.5156   2.4271419897e+01   2.6888770573e+01    0.2423521    0.1962121 -54.50 0.0003329405    1.055    0.052
       401 -12.4880    199.1143     65.4962   2.4469742830e+01   2.7810132312e+01     0.249268    0.1856922 -48.66 0.0004480124    1.108    0.098
       402 -11.6490     60.1526     67.0849   5.9028652257e+01   5.8905052707e+01     0.222484    0.2063427 -21.63 0.0003300859    1.194    0.163
       403 -10.6929     97.6981     66.2808   4.4290452000e+01   5.1008903951e+01    0.1561567    0.1191088 -87.82 0.0002002936    1.549    0.354
       404 -11.8381    178.8512     64.0947   2.6635930937e+01   3.2239247103e+01     0.206147    0.1768713 -55.63 0.0005236236    1.011    0.011
       405 -11.5287     44.7499     62.4463   6.5133010150e+01   6.2693114002e+01    0.2084809    0.1467224  17.59 0.0009474294    1.640    0.390
       406 -11.9387    109.0062     60.2343   3.8866083798e+01   4.9472388877e+01    0.2616845    0.2190651 -53.61 0.0005672281    1.182    0.154
       407 -10.8462     63.3099     61.6964   5.5631960183e+01   5.9558649704e+01    0.1556221    0.1193035  78.43 0.0003079779    1.609    0.378
       408 -11.7680     13.7781     60.5406   8.3303646682e+01   6.6797144791e+01     0.292979    0.1484496 -59.33  0.001280008    1.782    0.439
       409 -11.9161     41.2250     60.3764   6.6365453367e+01   6.3747296181e+01    0.2238606     0.129412  41.78 0.0009575005    1.730    0.422
       410 -10.7907     98.7008     59.3020   4.1476467564e+01   5.2161665144e+01    0.1571819    0.1174844 -82.01   0.00028028    1.584    0.369
       411 -11.2849     18.3717     57.7377   7.9616893507e+01   6.7166392239e+01    0.2080015    0.1189847 -57.28  0.000943144    1.620    0.383
       412 -11.5231    192.5124     57.4921   2.3246829239e+01   3.0307988936e+01    0.1339862     0.109922 -54.55  0.000810495    1.010    0.010
       413 -11.5639    160.0319     57.4916   2.7525815286e+01   3.7505867185e+01    0.2007183     0.136659  70.57 0.0004543768    1.518    0.341
       414 -11.4602    120.6319     57.1604   3.4880988728e+01   4.7153591259e+01    0.2001351     0.144913 -28.74 0.0002242481    1.613    0.380
       415 -10.9919    149.5280     56.4752   2.8916890172e+01   4.0158724226e+01    0.1471453    0.1289704 -68.61 0.0002791906    1.020    0.019
       416 -11.7001     52.4955     56.0743   5.8699759463e+01   6.2900648219e+01    0.3008914    0.1989777  55.01  0.001102247    1.677    0.404
       417 -10.8722    217.5395     55.4854   2.0245643674e+01   2.5634150868e+01    0.1242787   0.09835094 -48.06 8.690585e-05    1.029    0.028
       418 -11.2610    126.4246     54.1781   3.2574188065e+01   4.6220740491e+01    0.2237485    0.1266737 -50.51 0.0009456617    1.755    0.430
       419 -12.3541    110.5039     54.0593   3.6263694748e+01   5.0229248859e+01    0.2509281    0.2032904  65.78  0.001262616    1.188    0.159
       420 -11.9915    142.0840     52.3757   2.8935425541e+01   4.2623077635e+01    0.2557172    0.1905487 -49.14 0.0005828259    1.252    0.201
       421 -14.1143     30.8551     50.2656   6.9041125816e+01   6.7688033752e+01    0.4292788    0.3536862  35.71  0.001133916    1.216    0.178
       422 -11.6421    100.7446     51.0077   3.7762295134e+01   5.3206904641e+01    0.2157293    0.1913748 -61.51  0.000441732    1.118    0.106
       423 -12.1394     19.0235     48.6231   7.6580500874e+01   6.9440165817e+01    0.4075272    0.1915036 -68.72  0.001682274    2.183    0.542
       424 -11.2803      1.3917     51.3703   9.0108332334e+01   6.9899594722e+01    0.1724538    0.1240614  89.22 0.0004561357    1.419    0.295
       425 -11.0199    222.9565     50.0004   1.8544929659e+01   2.5341563772e+01    0.1441603     0.113616 -53.08 0.0003482515    1.046    0.044
       426 -11.1523    143.2049     45.0054   2.6391964161e+01   4.3477492429e+01    0.2251685    0.1727386  11.29  0.001084482    2.018    0.505
       427 -11.1491    175.4910     44.5503   2.1795747720e+01   3.5836129248e+01    0.1379488    0.1144715 -61.73 5.964898e-05    1.017    0.017
       428 -14.3727     36.6698     40.5746   6.1254573513e+01   6.9092694594e+01    0.4623773    0.4510263 -62.16  0.001575353    1.080    0.074
       429 -11.2497    227.0023     43.4872   1.6785133687e+01   2.5416325323e+01    0.1507245    0.1110945  86.57 0.0004310353    1.511    0.338
       430 -11.7750    118.9489     40.8210   2.9443605625e+01   5.0263630636e+01    0.3593019    0.2749663  18.62  0.001423938    1.924    0.480
       431 -11.1220    130.8406     40.8800   2.7146264933e+01   4.7204925405e+01    0.2016042    0.1548146 -73.72 0.0003845013    1.264    0.209
       432 -10.8302    241.7587     40.0448   1.5052552860e+01   2.3227809561e+01    0.1481897   0.07287395 -36.98 0.0003377306    1.518    0.341
       433 -12.9364    135.6427     38.7213   2.5570049115e+01   4.6295498666e+01    0.2756644    0.2477907 -49.14  0.000512376    1.150    0.130
       434 -12.9051     24.4231     38.0011   6.8677292465e+01   7.1410690460e+01    0.4701553    0.2913067 -10.45  0.002076753    2.210    0.547
       435 -11.5252    102.9898     39.5376   3.2640239499e+01   5.4569214941e+01    0.2324854    0.1399783  63.03  0.001025055    1.575    0.365
       436 -12.0124     53.3255     38.1231   5.0348783561e+01   6.6572376604e+01    0.2358987    0.1944253  31.88 0.0004146159    1.239    0.193
       437 -11.9482     77.9311     37.0932   3.9165905443e+01   6.1241861234e+01    0.2198705    0.2048561  65.64 0.0004143641    1.017    0.017
       438 -11.4106     99.9801     36.3159   3.2094612606e+01   5.5841734014e+01    0.2079144    0.1810794  75.87 0.0004513107    1.063    0.060
       439 -13.4526     44.6897     33.6623   5.2856559211e+01   6.9136007770e+01    0.4489644    0.3862243  78.76  0.001346597    1.391    0.281
       440 -12.9660    106.4670     32.8381   2.9085887380e+01   5.4678151120e+01    0.4073626    0.2968727  30.17   0.00193333    1.844    0.458
       441 -11.2324    230.4728     34.5553   1.4587411672e+01   2.5857900324e+01    0.1184815   0.08845443 -50.29 8.412966e-05    1.014    0.014
       442 -13.0824     31.8993     32.2465   6.0442455555e+01   7.1634019364e+01    0.4191206    0.3229939 -51.90   0.00226733    1.348    0.258
       443 -13.0369     78.2938     30.9589   3.6131997182e+01   6.2147271774e+01    0.3596451    0.2462409 -75.64  0.001620815    1.912    0.477
       444 -10.9796      8.8106     31.8559   7.9173173336e+01   7.4403130291e+01    0.1717564    0.1510746  49.32  0.000301107    1.271    0.213
       445 -10.9321    159.6319     31.1776   1.9785985914e+01   4.1341626807e+01    0.1719561    0.1280564 -24.33 0.0002338118    1.548    0.354
       446 -12.7067     19.3443     29.6296   6.8936764744e+01   7.3916220033e+01    0.2380698    0.2333475   7.49 0.0004959223    1.084    0.078
       447 -12.3795    208.2574     30.2400   1.5091914097e+01   3.0623962992e+01    0.2705955    0.1736607 -77.68  0.001373295    1.519    0.342
       448 -10.5569    123.3120     26.2662   2.3205613145e+01   5.1160595167e+01    0.1380733    0.1053402  44.82 0.0002842985    1.542    0.351
       449 -11.0851     95.2990     26.6412   2.9120843951e+01   5.8451828397e+01    0.1560503    0.1038041 -67.33 0.0003375047    1.710    0.415
       450 -12.4343     46.0671     25.9662   4.7777316820e+01   7.0296654036e+01    0.3310605    0.2027469  49.22 0.0008145886    1.574    0.365
       451 -11.1207    221.0237     25.2948   1.3106125557e+01   2.8688053246e+01     0.161052    0.1248926 -59.55 0.0003860678    1.077    0.072
       452 -12.3893    166.2208     22.4165   1.6478219722e+01   4.0826597880e+01    0.2953007    0.1926696 -42.84  0.001353437    1.354    0.262
       453 -12.5088     85.1682    250.3696   8.1376367909e+01   1.1978793304e+01    0.2613829    0.1244913  28.17 0.0006628734    1.577    0.366
       454 -12.9080     67.5053     22.6947   3.5778114537e+01   6.6018413803e+01    0.4267864    0.1348787 -35.62  0.001236113    3.267    0.694
       455 -11.6309     37.0112     23.0304   5.1636928980e+01   7.2570281732e+01     0.201997    0.1695072  86.09  0.000412796    1.577    0.366
       456 -11.3322    238.0399     22.7553   1.1626362837e+01   2.5838665865e+01    0.1261488   0.08597694 -84.89 0.0003584659    1.530    0.346
       457 -12.1106    162.0745    247.1015   6.5089128928e+01   4.1784153343e+00    0.1895718    0.1370325   0.81 0.0004773574    1.156    0.135
       458 -11.1332     80.3960    246.2283   8.2112492665e+01   1.3195906770e+01    0.1332199    0.1080576  66.01 0.0002556444    1.452    0.311
       459 -11.0705     31.3501     15.9977   5.1028651993e+01   7.4837631357e+01    0.1813616    0.1703389  -8.73 0.0004793153    1.079    0.073
       460 -11.3696    180.5939    243.9848   6.1283135916e+01   2.6988055637e+00    0.1488168    0.1155212  -2.76  0.001138522    1.097    0.089
       461 -11.2267    167.8363    243.1691   6.3521522911e+01   4.1126799689e+00    0.1600963    0.1276296  19.15 0.0006793503    1.229    0.187
       462 -12.2192     92.0296     16.4808   2.5235432062e+01   6.0588446416e+01    0.2457539    0.2094997 -38.26 0.0003303433    1.264    0.209
       463 -11.3835    143.0138    242.4506   6.8267299978e+01   6.8773429534e+00    0.1721936   0.09165081  24.66 0.0002918789    1.508    0.337
       464 -11.5141     60.5196    241.9786   8.6342176195e+01   1.6063903675e+01    0.1696972    0.1198884 -71.62 0.0008103639    1.765    0.434
       465 -13.4656     61.9270    233.9006   8.5463243796e+01   1.7423764891e+01    0.6888608    0.3699076  56.83  0.003111663    1.954    0.488
       466 -12.5537     53.4975    232.4581   8.7378854554e+01   1.8591548920e+01    0.2298829    0.1823165  57.35  0.001294447    1.231    0.187
       467 -11.2406    135.0409    241.4889   6.9784259008e+01   7.9046092722e+00    0.1776527   0.09316849  26.08 0.0004292326    1.523    0.343
