#   1 NUMBER                 Running object number                                     
#   2 MAG_AUTO               Kron-like elliptical aperture magnitude                    [mag]
#   3 X_IMAGE                Object position along x                                    [pixel]
#   4 Y_IMAGE                Object position along y                                    [pixel]
#   5 X_WORLD                Barycenter position along world x axis                     [deg]
#   6 Y_WORLD                Barycenter position along world y axis                     [deg]
#   7 A_WORLD                Profile RMS along major axis (world units)                 [deg]
#   8 B_WORLD                Profile RMS along minor axis (world units)                 [deg]
#   9 THETA_WORLD            Position angle (CCW/world-x)                               [deg]
#  10 FWHM_WORLD             FWHM assuming a gaussian core                              [deg]
#  11 ELONGATION             A_IMAGE/B_IMAGE                                           
#  12 ELLIPTICITY            1 - B_IMAGE/A_IMAGE                                       
         1 -11.9616     90.3330     59.1364   1.0105489098e+02   5.2684411998e+01     1.122862     0.854921 -63.62  0.005900519    1.869    0.465
         2 -11.4167     25.6233     56.1910   1.2250751774e+02   6.1574161575e+01     1.174515    0.7056555   4.22  0.007019182    1.964    0.491
         3 -12.4240     60.4678     45.6959   1.0636291970e+02   5.9614946458e+01    0.9728326    0.4587535 -40.44  0.004813988    1.960    0.490
         4 -12.2259    130.6261     13.7463   7.5130354756e+01   5.0380448694e+01     1.360914    0.6070568  73.34  0.005197896    3.207    0.688
         5 -12.3281    104.8462     12.7902   8.0534278982e+01   5.6098918778e+01    0.4918814    0.4143396 -17.72  0.002424686    1.290    0.225
         6 -11.0833    119.9213     17.9356   7.8807638344e+01   5.2366317839e+01    0.8866693    0.4350496  68.00  0.003792316    2.528    0.604
         7 -12.0960    124.8823     27.6629   8.0979927333e+01   5.0198223242e+01     0.741723     0.446629  50.59  0.002436096    1.472    0.321
         8 -13.6302    118.0941     41.6630   8.7325221397e+01   4.9909035629e+01     1.357811     1.050045   3.86  0.004609847    1.432    0.302
         9 -12.8099    112.9490     24.8546   8.2846973367e+01   5.3129051400e+01     1.168526    0.4075089  47.89  0.004730139    2.451    0.592
        10 -11.7918    145.5199     48.2446   8.2993182141e+01   4.2738238350e+01     1.058794    0.5294876 -21.70  0.003794374    2.659    0.624
        11 -11.6204    182.3644     25.2986   6.9695130676e+01   3.6674229959e+01      0.62404    0.3190541  50.39   0.00210065    1.921    0.479
        12 -11.4783    178.3309     21.1782   6.9175767998e+01   3.8146213332e+01    0.5626715     0.333805  37.71  0.001703673    2.090    0.522
        13 -10.6052    139.0193     32.8180   7.9559727555e+01   4.6339047989e+01     1.176064    0.5529021  -7.35  0.003652658    5.075    0.803
        14 -10.5161    147.5970     16.3162   7.2736780900e+01   4.6158700036e+01     0.709967    0.5663968  35.70  0.004187939    1.278    0.217
        15 -11.1528    140.8513     20.4513   7.5272634080e+01   4.7327691568e+01     1.107729    0.2316834  51.29  0.003595613    3.599    0.722
        16 -11.1518    164.2614     27.4825   7.3155020475e+01   4.0893854306e+01    0.4280133    0.3627269 -65.77  0.001437972    1.273    0.214
        17 -10.4485     60.4544     25.4207   9.8826379033e+01   6.2603935897e+01    0.5358636    0.2463643 -34.46  0.002751071    2.084    0.520
        18 -11.5483     26.3735     27.7748   1.1300297201e+02   6.6354586827e+01    0.4652265    0.4248111  -5.17  0.003152801    1.378    0.275
        19 -11.1437     22.5717     11.1270   1.0803255249e+02   6.9082675750e+01      1.36498     0.547706  13.38  0.005979917    4.068    0.754
        20 -11.2577     19.9313     23.1804   1.1401297460e+02   6.7625890747e+01    0.5333477    0.2546866 -40.86   0.00319812    1.730    0.422
        21 -11.1329     14.7563     23.4101   1.1633895535e+02   6.8013913470e+01    0.3848633    0.3084286 -31.22  0.002251694    1.231    0.187
        22 -11.4097     16.7187     13.4591   1.1161211250e+02   6.9303940683e+01    0.5637447     0.219101 -25.53  0.002786575    2.803    0.643
        23 -11.2276     14.4869      9.5135   1.1098885913e+02   7.0033307835e+01    0.3567216    0.2408906  19.79  0.002658402    1.546    0.353
        24 -11.4927     90.8513     20.4444   8.7107121353e+01   5.8080189498e+01    0.5288504    0.3977486 -17.02  0.002318545    1.340    0.254
        25  99.0000     88.6071      7.2592   8.2663787785e+01   5.9846653524e+01    0.7241231    0.2828719  56.46  0.003218006    2.655    0.623
        26 -11.6384     86.0978     14.2150   8.6082065957e+01   5.9641259186e+01    0.5205819    0.3023117 -14.12  0.001944557    1.841    0.457
        27  -9.6051     31.9599     12.1657   1.0442725261e+02   6.7974366092e+01     0.149856    0.1284101  -3.45 0.0004916677    1.303    0.233
        28 -10.7762     47.4081     18.7606   1.0097752940e+02   6.5272933674e+01     0.359969    0.2925407  11.22  0.001957778    1.158    0.137
        29 -11.8852     36.7126     19.1858   1.0538828518e+02   6.6522481787e+01    0.5891859    0.3440344 -34.25  0.003326539    1.549    0.355
        30 -12.1483     49.1507     12.9816   9.7895025379e+01   6.5751374970e+01    0.5924658    0.2892767  40.86  0.003029791    2.147    0.534
        31 -10.0721    206.4772     19.3221   6.5006804843e+01   3.1448066442e+01    0.5072196    0.2592582 -42.93  0.002461344    1.946    0.486
        32 -10.9092     77.3327      4.7567   8.4880711830e+01   6.2154525942e+01    0.4832107    0.2785737 -14.47  0.002795109    1.786    0.440
        33 -10.8117     71.5286      3.6929   8.6205954105e+01   6.3266499336e+01     0.528163    0.3043007 -12.90  0.003031334    1.763    0.433
        34 -10.5908     66.2948     10.6926   9.0816354511e+01   6.3450054460e+01    0.3370102    0.2055377  38.06  0.001854826    1.480    0.324
        35 -10.2416     62.7143      6.6867   9.0332444405e+01   6.4435226849e+01    0.4832013    0.1998807 -17.93  0.002287247    2.766    0.639
        36 -11.8224     68.3586     17.5941   9.2958659570e+01   6.2355196024e+01    0.7397724    0.3814328  51.27  0.003776656    2.382    0.580
        37 -11.8486    240.3727      6.3160   5.8731007602e+01   2.5011472587e+01    0.5127053    0.4007199  69.67  0.003345687    1.321    0.243
        38 -11.9817    245.7099      8.2390   5.8679781019e+01   2.3607824084e+01     0.888984    0.4167338 -25.03  0.004103975    3.075    0.675
        39 -12.0870    238.2026     15.6328   6.0864082226e+01   2.4422352122e+01     0.529579    0.4638118  39.54  0.002861665    1.590    0.371
        40 -11.2408    165.2899     17.2001   7.0043872606e+01   4.1787270957e+01    0.3775576    0.2407068  42.34 0.0006028985    1.645    0.392
        41 -10.6901    200.1730      6.0025   6.2518821837e+01   3.4424479729e+01    0.5518621    0.1837127  71.08 0.0009311024    2.630    0.620
        42 -10.8086    205.7061      2.3852   6.1076859592e+01   3.3464015709e+01    0.4328918    0.2096382  83.23  0.001582216    1.993    0.498
        43 -10.5733    186.3453     15.3327   6.6514831767e+01   3.6814427395e+01    0.3221535    0.2337332  50.10 0.0007032798    1.413    0.292
        44 -11.5567    192.2319      7.6615   6.3829394319e+01   3.6177234003e+01    0.7032701      0.42306  56.64  0.002889099    1.554    0.356
        45  -9.7921    193.9658      1.4490   6.2099345554e+01   3.6369514481e+01    0.1850226     0.148647  82.89 0.0005195094    1.036    0.035
        46  -9.9846    218.7209     13.0267   6.2188619530e+01   2.9238133747e+01    0.3489732    0.1928776  57.64  0.001792492    1.796    0.443
        47 -11.5790    211.3994     10.0034   6.2256423421e+01   3.1311426551e+01    0.4324099    0.3325952  30.01  0.001419688    1.849    0.459
        48  -9.7101    157.4272      9.8687   6.9169414184e+01   4.4432401329e+01    0.4025234    0.1148453 -36.15  0.001513746    3.548    0.718
        49 -10.4811    151.2688      7.5163   6.9458500277e+01   4.6129201330e+01    0.4992592    0.2115382  65.45  0.001019529    2.047    0.512
        50  -9.4260      4.2300     10.7413   1.1626652479e+02   7.0653635069e+01    0.3351121    0.1591932 -29.05  0.001776572    1.666    0.400
        51  -8.9335      5.2319      5.3781   1.1358743208e+02   7.1324697964e+01     0.108146   0.05483956 -23.61 0.0006902433    1.616    0.381
        52 -10.5205    169.1035      9.8701   6.7419431599e+01   4.1599237739e+01    0.3547688    0.2051057  49.03  0.001802671    1.661    0.398
        53  -9.3295    162.8414     10.1717   6.8423934540e+01   4.3093289245e+01    0.2133979    0.1597123  48.71 0.0007708858    1.279    0.218
        54 -10.0893    162.9245      5.6008   6.7119134397e+01   4.3502519680e+01    0.3087179    0.2173802  -4.49  0.001445735    1.868    0.465
        55  -9.6935    157.9479      2.6920   6.7019803267e+01   4.4959689936e+01    0.3019969    0.2080418  62.79   0.00134062    1.215    0.177
        56  -9.5404    162.3612      1.3520   6.6006543683e+01   4.4015852973e+01    0.2941079    0.1117738  70.22  0.001218323    2.362    0.577
        57 -10.1271      1.3074      7.2810   1.1626747055e+02   7.1338941404e+01     0.161193   0.07031141 -41.01 0.0002325688    1.791    0.442
        58 -10.5679     42.5052      3.6324   9.6371658879e+01   6.7690848424e+01    0.4572858    0.2314179   1.73  0.002358498    2.563    0.610
        59 -11.0537    218.6371      3.3071   6.0018453469e+01   3.0315340500e+01    0.3089054     0.269111 -84.24 0.0009736444    1.104    0.094
        60 -10.4362    228.3944      4.1630   5.9312728591e+01   2.7963009386e+01    0.2852154    0.2615824 -26.53  0.001955749    1.450    0.310
        61 -10.8586    223.9292      1.9931   5.9244630850e+01   2.9222463766e+01    0.3997996    0.2427046  78.83  0.001683232    1.408    0.290
        62 -10.4805     42.2269     14.3645   1.0116761277e+02   6.6488425688e+01    0.2559189    0.1901268  35.09  0.001081109    1.584    0.369
        63 -10.7577    173.9864      4.3538   6.5249068060e+01   4.0935914202e+01    0.5776682     0.217421  72.62  0.002339169    2.506    0.601
        64 -10.1848    117.4847      2.5135   7.4027667284e+01   5.4317417211e+01    0.3188698    0.1801976 -18.77  0.001129048    2.011    0.503
        65  -9.9551    113.4690      2.0160   7.4695904422e+01   5.5229134072e+01    0.3301445     0.185386  61.72  0.000905782    1.644    0.392
        66 -10.8985    105.2951      1.8178   7.6427269953e+01   5.6977846530e+01    0.6912935    0.2150417  62.08  0.002345435    3.403    0.706
        67 -10.3634    141.8333      3.6870   6.9858717929e+01   4.8696416644e+01    0.4736512    0.1818388  59.05  0.001707229    2.060    0.515
        68 -12.0874    133.7956      2.6947   7.0947879817e+01   5.0642921075e+01    0.3807517    0.2393086  58.09 0.0007279809    1.325    0.245
        69  -9.4972    122.7889      1.3490   7.2567109386e+01   5.3241023276e+01    0.3580474   0.09895282  61.46  0.001346716    3.032    0.670
        70 -11.0721      2.7319      1.8116   1.1327099588e+02   7.1980875332e+01    0.3250274    0.1483712  10.66   0.00201227    2.329    0.571
        71  -8.5351     15.9530      1.0000   1.0657270858e+02   7.0987493249e+01    0.1503472   0.05194389  29.27 0.0007964172    2.901    0.655
        72 -11.3546     82.3477    135.3078   1.2338497894e+02   3.7853178884e+01    0.7636442    0.4686883  15.70  0.003180586    2.692    0.628
        73 -11.1096     72.9377    133.2597   1.2549271247e+02   3.9724781523e+01    0.6404467    0.3608853 -35.57  0.002752376    2.408    0.585
        74 -10.5733     47.6045    134.7096   1.3245872759e+02   4.2592558092e+01    0.3362718    0.1808351 -56.40  0.001173238    1.590    0.371
        75  -8.8509    216.6869    134.7120   9.1646337976e+01   1.0134152518e+01    0.1480471    0.1174852   7.64 0.0003990934    1.584    0.369
        76  -9.9092     62.3516    131.8383   1.2805996653e+02   4.1491780820e+01     0.427087    0.1701104 -51.71  0.001765555    2.235    0.553
        77 -10.8023     92.7547    129.0196   1.1929561590e+02   3.7669586387e+01    0.3645745    0.2947636 -88.62  0.001502019    1.381    0.276
        78 -10.4585     79.8401    127.5836   1.2249485642e+02   4.0051003671e+01     0.663698    0.3688552 -22.63  0.002173769    4.455    0.776
        79  -9.9192     18.6178    124.7108   1.3850393728e+02   4.7640272516e+01    0.3517308    0.1002867 -60.35  0.001519073    2.465    0.594
        80 -11.2669     55.9940    123.3221   1.2820826697e+02   4.4273215966e+01    0.6705203    0.3408361  28.85  0.002684152    2.376    0.579
        81 -10.3674     45.7223    120.5395   1.3053928403e+02   4.6086304818e+01      0.32205    0.2424342 -85.68  0.001131851    1.393    0.282
        82  -9.6690      1.6883    124.5138   1.4278754223e+02   4.8874201805e+01    0.3105285    0.1527616 -77.15  0.001742218    1.662    0.398
        83  -9.8436      3.6822    121.3135   1.4189749892e+02   4.9454077970e+01    0.3429878    0.1811478  62.99  0.001865605    2.440    0.590
        84 -11.6925    104.8385    121.0556   1.1422135272e+02   3.7411138834e+01    0.5486705    0.5116523 -64.43  0.001998144    1.032    0.031
        85  -8.5765     40.6422    122.2561   1.3224005111e+02   4.6222707070e+01    0.1239358   0.09013573  71.63  0.000696596    1.616    0.381
        86  -9.1700    221.4572    120.5085   8.7449175844e+01   1.1766636717e+01    0.1485791     0.140644 -47.10 7.514484e-05    1.004    0.004
        87  -9.5889    148.3590    119.6716   1.0264507862e+02   2.8803918263e+01    0.3081602    0.2422954 -24.69  0.000670035    1.487    0.328
        88  -9.2264     72.0765    120.0152   1.2306185827e+02   4.2944635059e+01    0.2176309    0.1580126 -29.02 0.0008532321    1.662    0.398
        89 -11.2833     34.9061    118.8888   1.3324226937e+02   4.7556486300e+01     1.648802    0.2088946 -51.79  0.004860763    5.124    0.805
        90 -11.6880     45.0951     85.7132   1.2345328521e+02   5.3884532956e+01      1.13444    0.6637344 -67.59  0.005747513    1.965    0.491
        91 -11.6931     24.7478     99.7903   1.3278426065e+02   5.2714405703e+01     1.188487    0.4389147  36.45  0.005539521    3.168    0.684
        92 -11.9848     10.0722     97.9243   1.3679661555e+02   5.4166800360e+01     0.806064    0.5744072  78.84   0.00519633    1.706    0.414
        93 -12.2257      7.4009     88.8368   1.3605172432e+02   5.6269700512e+01    0.5172217    0.4291003 -57.69  0.001225487    1.084    0.078
        94 -11.8134     18.8875    106.1542   1.3560681710e+02   5.1765272926e+01     0.263243    0.2005502 -58.22 0.0002734885    1.060    0.056
        95 -12.7153     24.9008    108.8347   1.3434162992e+02   5.0703127731e+01     1.404311    0.6598483 -28.99  0.006085881    3.452    0.710
        96 -11.6075     28.0905    113.0120   1.3414677878e+02   4.9501476162e+01    0.4050596    0.2848391  10.87  0.001680287    1.889    0.471
        97 -12.7439     18.8173     95.6975   1.3381143746e+02   5.4055884774e+01    0.3819591    0.2758391 -14.16 0.0003535344    1.705    0.413
        98 -12.3378     18.3539     90.5588   1.3299524440e+02   5.5193408333e+01    0.7023804    0.3341473 -34.65 0.0007281898    2.343    0.573
        99  -9.6106     81.1338    117.8974   1.2005397353e+02   4.2107245458e+01    0.2144098    0.1932462 -49.63 0.0005160026    1.053    0.050
       100 -10.1920    113.9240    115.9603   1.1053037937e+02   3.6861093432e+01    0.2380982    0.2194329  43.67 0.0003823559    1.125    0.111
       101  -9.4999     88.1275    114.7005   1.1735009959e+02   4.1741416217e+01    0.2780877    0.1844392  50.18  0.001103655    1.690    0.408
       102 -10.6857     67.1632    111.9967   1.2274020213e+02   4.5463353547e+01    0.5240964    0.2965145 -64.59  0.002399419    1.802    0.445
       103 -12.0628      3.4132    111.4427   1.4068580653e+02   5.1637691623e+01    0.5078612    0.3566418 -60.25  0.002197602    1.131    0.116
       104 -11.6814      3.2424    105.0290   1.3983671806e+02   5.3043416102e+01    0.3525585    0.2683077 -40.92  0.001008626    1.361    0.265
       105  -9.4046    126.8492    113.9048   1.0658724092e+02   3.4721651964e+01    0.2285728    0.2103845  -5.24 0.0005436743    1.208    0.172
       106 -10.8251    103.2996    107.5576   1.1132615911e+02   4.0734892118e+01    0.7253081    0.5453863 -14.99  0.002571982    1.734    0.423
       107 -11.2691    171.5010    109.7036   9.4713132571e+01   2.5542790420e+01    0.7195424    0.4752057  32.40  0.002714765    1.855    0.461
       108  -9.8514     49.1412    112.0644   1.2797185204e+02   4.7653427344e+01    0.2035197    0.1964227  54.54  0.001120171    1.199    0.166
       109 -11.1778     86.5507    105.1927   1.1550908853e+02   4.4138565923e+01    0.4966454      0.36646  23.23  0.001713575    1.588    0.370
       110 -11.2095     79.2114    108.5666   1.1846075163e+02   4.4526223921e+01    0.5635955    0.4300902  53.61  0.002305105    1.507    0.336
       111  -9.3495     81.9488    102.8551   1.1627462972e+02   4.5383698344e+01     0.216072    0.1800614 -27.29 0.0005754308    1.255    0.203
       112 -10.4986    108.3654    112.8675   1.1126699047e+02   3.8614700893e+01    0.5236502    0.3374455 -70.32  0.001603352    2.087    0.521
       113  -9.8003    119.7262    109.0593   1.0721689399e+02   3.7244389968e+01    0.2201298    0.1940522 -44.98 0.0006413331    1.107    0.097
       114  -9.3428    150.2985    108.6589   9.9329431885e+01   3.0714607460e+01    0.1613849    0.1242388 -80.96 0.0007034712    1.666    0.400
       115 -10.4806    157.7427    105.6826   9.6777332709e+01   2.9609794163e+01    0.3420697    0.3026476  -3.54 0.0009350862    1.314    0.239
       116 -10.0067    143.4906    105.9939   1.0028232489e+02   3.2817695209e+01    0.3215979    0.2424962  50.41  0.001319126    1.336    0.251
       117 -11.3587    145.8159    100.5709   9.8248859308e+01   3.3415624088e+01    0.5958824    0.4610726  -9.44  0.002713359    1.694    0.410
       118 -10.1496     52.3821     96.6154   1.2371402117e+02   5.0741184731e+01    0.6102713      0.15632 -48.34  0.002157398    3.212    0.689
       119  -9.8878     57.4860    102.0270   1.2338648900e+02   4.8945585354e+01    0.3325121    0.1434495 -56.24 0.0008045054    2.023    0.506
       120 -10.3819     57.6144     97.6267   1.2233847817e+02   4.9901860327e+01    0.3029605    0.2657262 -68.36  0.001045888    1.180    0.153
       121 -11.1855     67.4830     97.2368   1.1922480611e+02   4.8719327996e+01    0.6111012    0.3660762 -46.35  0.002172522    1.487    0.327
       122 -10.7701     48.0703    103.0020   1.2643304599e+02   4.9811754645e+01     0.303138    0.2261418 -28.31 0.0003646752    1.476    0.323
       123 -10.0224     67.1340     54.9479   1.0719508169e+02   5.7127475138e+01    0.2477054    0.2250027  57.01 0.0007065412    1.494    0.331
       124  -9.8599    142.4726    249.5064   1.2811735029e+02   3.3178197091e+00    0.1269372     0.103225  50.83 8.933925e-06    1.007    0.007
       125 -10.2124     98.6405     62.2197   9.9551307580e+01   5.0642642589e+01    0.3038544    0.2434787  -1.94 0.0008554533    1.324    0.245
       126 -11.2001     90.1028     88.9864   1.1019392472e+02   4.7043778894e+01    0.8488027    0.4793568 -24.71  0.003400952    2.577    0.612
       127 -10.6714     93.9041     76.0924   1.0531160755e+02   4.8968597819e+01    0.5303224    0.3500672  23.34  0.001793437    1.777    0.437
       128 -10.3766     78.0272     97.0125   1.1597044836e+02   4.7262516577e+01    0.4119403    0.1812045 -53.84  0.001678512    2.182    0.542
       129 -11.6482     82.0587     93.2368   1.1377034322e+02   4.7456721062e+01    0.5968001    0.4067248  53.13  0.001168245    1.803    0.445
       130 -12.2124     74.4206     50.2077   1.0314088912e+02   5.6829610599e+01     1.113123    0.6758825 -48.92  0.005698438    1.933    0.483
       131 -11.4236     79.7040     82.5720   1.1156732703e+02   5.0044748890e+01    0.5806886    0.5030299 -72.83  0.002103226    1.404    0.288
       132 -11.8350     85.2388     73.2996   1.0712014497e+02   5.0987298512e+01    0.6358362    0.6056276  60.60   0.00336355    1.259    0.206
       133 -11.5566     78.8633     67.1474   1.0724195527e+02   5.3174883312e+01    0.6282086    0.5409676  68.74  0.003662579    1.600    0.375
       134 -11.2980     66.4518     81.8639   1.1556174385e+02   5.2117836959e+01    0.4746493    0.4377314 -24.15    0.0030137    1.060    0.056
       135 -11.6200     73.3399     77.4835   1.1212093194e+02   5.2028786955e+01    0.8758614    0.5355901 -22.88  0.004133317    2.021    0.505
       136 -10.1225    210.7894     97.8217   8.3870589784e+01   1.8433070927e+01    0.3347499    0.3206274  27.85  0.001232878    1.165    0.142
       137  -9.2707    140.5588     96.2578   9.8361203500e+01   3.5486435575e+01    0.2184061    0.1487271 -30.12 0.0009489473    1.642    0.391
       138  -9.5083    138.0947     93.3273   9.8160853939e+01   3.6630524330e+01    0.4135926    0.2354496  26.39  0.001476436    2.761    0.638
       139 -10.5659    120.6199     85.3307   1.0042847862e+02   4.2005872203e+01    0.5600938    0.2551329  46.88  0.002154848    2.227    0.551
       140 -10.2591    117.2794     93.0120   1.0353527174e+02   4.1148873145e+01    0.3714537    0.2476047  34.64  0.001408872    1.618    0.382
       141 -10.5636    122.1950     89.1252   1.0110033236e+02   4.0923839891e+01    0.4880443    0.2897696  22.50  0.001849779    2.622    0.619
       142 -10.6236    122.6021     93.8256   1.0232395868e+02   3.9886302234e+01    0.2853405    0.2648671 -78.50 0.0007929439    1.179    0.152
       143 -10.4112    126.3850     93.1193   1.0111967632e+02   3.9232917802e+01    0.3868048     0.294888  47.93 0.0008062816    1.331    0.249
       144  -9.4973    160.4913     93.4997   9.2854556988e+01   3.1396896181e+01    0.2842856    0.1510261  62.82   0.00103522    2.323    0.570
       145 -10.5059    152.7111     92.1220   9.4269580098e+01   3.3509407106e+01     0.389993    0.3278985  44.37  0.001822955    1.192    0.161
       146 -10.8766    102.5682     89.9454   1.0680054647e+02   4.4638322970e+01    0.5916326    0.4664865  -2.37  0.001922615    1.537    0.349
       147 -10.1759    183.9561     86.0115   8.5850571277e+01   2.7097564653e+01    0.6513813    0.2457913 -44.53  0.002203769    2.678    0.627
       148  -9.6153    104.1960     75.6037   1.0212442030e+02   4.7167791432e+01    0.2879078    0.2398527  19.59  0.001559803    1.253    0.202
       149 -11.2825    113.5701     83.3098   1.0176916049e+02   4.3846359521e+01    0.8033657    0.3595106 -33.43  0.002809683    2.651    0.623
       150 -11.2078    108.1270     80.2490   1.0239449265e+02   4.5520063369e+01    0.6301386    0.4991251  61.99  0.003238616    1.514    0.340
       151  -9.5690    212.1839     87.0953   8.0970239801e+01   2.0026882694e+01    0.2173833    0.2033883   8.14 0.0005074794    1.265    0.210
       152 -10.6604    165.5947     83.1857   8.8872016997e+01   3.2116526717e+01    0.4397415    0.3787095 -80.38  0.001536731    1.277    0.217
       153 -11.3076    143.4482     83.3732   9.4003734471e+01   3.7350358216e+01    0.4717806    0.3787392 -29.45  0.001549024    1.315    0.239
       154 -10.3619    127.4671     83.2598   9.8002214370e+01   4.0952665109e+01    0.4183403    0.2712397  44.97  0.001585477    1.539    0.350
       155 -11.1999     58.1622     78.0647   1.1721548560e+02   5.3971173023e+01     0.452682    0.3452561 -66.65  0.001291143    1.560    0.359
       156 -10.0641     53.7102     80.3770   1.1929950352e+02   5.4038145693e+01    0.2897063    0.1644939 -57.64 0.0007977374    1.744    0.426
       157 -11.5292     52.9200     76.1947   1.1844256997e+02   5.4982317442e+01     0.684162     0.312465 -49.32   0.00324175    1.877    0.467
       158 -10.4133    120.9165     79.5345   9.8640499538e+01   4.3063237222e+01    0.4165449    0.2024531  46.50  0.001403402    2.062    0.515
       159 -11.4634     33.6246     94.0327   1.2895548269e+02   5.3218215575e+01    0.9496025    0.7890457  79.69  0.006185271    1.481    0.325
       160 -10.1251     13.7823     54.3562   1.2641957608e+02   6.2792220354e+01    0.3140245    0.1733256 -39.37 0.0002404176    1.430    0.301
       161  -9.8623     52.1227     47.6121   1.1001899695e+02   6.0387527158e+01    0.4932487     0.376238 -63.29  0.001715453    1.976    0.494
       162 -11.0054     27.8530     47.1755   1.1899768871e+02   6.3022739953e+01    0.3991799    0.2087749 -11.56  0.002038612    2.547    0.607
       163 -10.7061     21.0762     46.8932   1.2153311397e+02   6.3632415195e+01    0.2963931    0.2134102 -43.60 0.0009095029    1.169    0.144
       164 -11.8781     13.7924     74.4782   1.3121196479e+02   5.8856425506e+01    0.7221436    0.4447779   5.82  0.004514948    2.023    0.506
       165 -11.9983     49.0449     60.0197   1.1512042399e+02   5.8561099692e+01    0.7665619    0.6123296  80.52  0.003949601    2.199    0.545
       166 -11.6148     40.1028     55.5572   1.1698005959e+02   6.0354681106e+01    0.4518456     0.388146  73.22  0.002952163    1.856    0.461
       167 -12.0861      2.0972     71.3661   1.3448495537e+02   6.0161244850e+01    0.6605189    0.1464951 -60.78   0.00264034    2.988    0.665
       168 -12.2463     12.7934     64.8548   1.2939466771e+02   6.0843112679e+01     0.511973    0.3097782 -75.11  0.001362203    2.101    0.524
       169 -12.0198      6.8969     62.1797   1.3086311409e+02   6.1719865796e+01    0.7674424      0.20436 -51.23  0.003624052    2.403    0.584
       170 -11.7745     45.8412     48.9628   1.1277388754e+02   6.0903367946e+01    0.4424149     0.328021 -20.54  0.001320072    1.183    0.155
       171 -12.0210     41.7771     45.4886   1.1313628090e+02   6.1949203915e+01    0.2803977    0.2104311  -5.96 0.0002992309    1.259    0.206
       172  -9.1974    213.5236    247.9926   1.1459896809e+02  -8.4667260273e+00    0.1621225   0.09747848  -7.39 0.0008085316    2.433    0.589
       173  -9.0884    134.7418     77.5251   9.4443106259e+01   4.0426007987e+01    0.2122377      0.14503  61.86  0.000950589    1.660    0.397
       174 -11.6212     37.6439     85.9595   1.2591746117e+02   5.4576996437e+01    0.8841438    0.3465121  33.14  0.004101214    2.899    0.655
       175 -12.0831    186.3054     70.4925   8.1245275236e+01   2.9227757882e+01    0.8803452    0.6768673 -36.45  0.003328423    1.352    0.260
       176  -9.5346    192.1399     65.6193   7.8901840051e+01   2.8577194907e+01    0.2996543    0.2233766 -80.22 0.0009908604    1.525    0.344
       177  -9.4285     66.2948     73.3474   1.1320591054e+02   5.3846965330e+01    0.2594332    0.1491924 -49.17  0.000825491    1.632    0.387
       178 -11.1560     32.4826     71.7893   1.2421921489e+02   5.7970185969e+01    0.4685165    0.2690472  28.93  0.002273634    2.028    0.507
       179 -10.0996     38.5338     73.5362   1.2259293959e+02   5.7057278109e+01    0.2229359    0.1795621 -41.85 0.0009290071    1.024    0.024
       180 -11.2474     40.8945     70.3830   1.2095144236e+02   5.7453075010e+01    0.3772367    0.3032995 -59.56   0.00174925    1.323    0.244
       181 -11.8269    122.5594     68.1148   9.4725676964e+01   4.4797072199e+01     0.927424     0.436841  45.14  0.003704516    2.079    0.519
       182 -10.0590    162.1164     70.4768   8.6028609545e+01   3.5217004957e+01    0.3649952    0.2713941  69.39  0.001742085    1.437    0.304
       183  -9.1730    151.4743     73.4866   8.9242555918e+01   3.7267732667e+01    0.1503498    0.1448367  37.29 0.0001311862    1.041    0.039
       184 -10.5365    172.1035     67.7845   8.3214706708e+01   3.3210092249e+01    0.4482859    0.3599637 -51.37  0.001555332    1.286    0.222
       185  -9.9464    167.7162     63.0796   8.2759847691e+01   3.5066721653e+01    0.2518438    0.2024125  63.22 0.0006627496    1.203    0.169
       186  -9.5152    128.4978     63.9993   9.1907845088e+01   4.4205572095e+01    0.2310156    0.2113995 -83.63  0.001012147    1.271    0.213
       187 -11.4931    219.6494     66.2083   7.4648595781e+01   2.1745642752e+01    0.6410947    0.3734454  60.30  0.002173549    1.701    0.412
       188  -9.9569    208.0103     68.1270   7.6907324477e+01   2.4252621887e+01    0.4061782    0.1820355  49.78  0.001572989    2.351    0.575
       189 -11.0116     58.4942     62.0693   1.1244527774e+02   5.7031248941e+01    0.5810045    0.3217116 -55.71  0.002836506    2.136    0.532
       190  -9.6741    174.6229    246.8716   1.2169069714e+02  -1.7829157717e+00    0.2591796    0.1551872  25.13  0.001320214    1.964    0.491
       191 -10.7861     60.7034     36.5657   1.0299686496e+02   6.1003419214e+01    0.3032803    0.1862375 -31.51 0.0009691028    1.489    0.329
       192  -9.0665     69.5742     66.9815   1.1021817894e+02   5.4606876143e+01    0.1913756    0.1162529 -40.81 0.0003195199    1.493    0.330
       193 -10.0987     21.0603     65.0749   1.2652138059e+02   6.0230381413e+01    0.1784382     0.162083  -7.30  0.000858606    1.253    0.202
       194 -10.0365    204.8097     63.5124   7.6248366847e+01   2.5778020581e+01    0.3184732     0.223777  42.17 0.0008303403    1.657    0.397
       195  -9.6548    198.1929     62.8335   7.7145869068e+01   2.7519750119e+01     0.309237    0.1845806 -49.71  0.001121563    1.708    0.415
       196 -10.9348    107.5192     63.9992   9.7548046724e+01   4.8623195446e+01    0.3304159    0.2608511 -83.12  0.001201831    1.928    0.481
       197 -10.7246    159.4036     61.8139   8.4097018839e+01   3.7314849724e+01    0.4764379    0.2912779  40.56  0.002090863    1.759    0.432
       198  -9.5858    198.9937    244.5345   1.1674593536e+02  -5.5903764721e+00    0.2015298    0.1050345  40.58  0.001036935    1.611    0.379
       199 -10.6986    127.4917    241.5126   1.2993551473e+02   7.2301939277e+00     0.257448    0.1671315 -57.53  0.001471311    1.788    0.441
       200 -10.2146    150.5454    237.6962   1.2499063311e+02   3.9092445158e+00    0.2198683    0.1275407 -46.24  0.001139038    2.080    0.519
       201  -9.6444     15.1636    233.5826   1.4928634901e+02   2.4551126547e+01    0.1978172    0.1108807 -66.60  0.001301623    1.855    0.461
       202 -11.7265    120.2366     57.5692   9.2004311339e+01   4.7067694617e+01     1.075673    0.5314937  57.36  0.004335236    2.348    0.574
       203 -10.4469    197.7257    231.8430   1.1494246239e+02  -3.4837894573e+00    0.2656458    0.1335117  30.23  0.001214441    2.081    0.519
       204 -11.6249    105.6627     32.9351   8.7569780401e+01   5.3674934302e+01    0.5582445    0.3299107  11.71  0.001309141    2.399    0.583
       205  -9.4439     23.3421    231.7904   1.4783318514e+02   2.4008620009e+01    0.1557608    0.1035986  69.48   0.00110154    1.135    0.119
       206  -9.4321    184.2132     60.8954   7.9032051324e+01   3.1308034238e+01     0.231294    0.1950807 -70.25 0.0008749201    1.222    0.182
       207  -9.5680    147.4716     60.6227   8.6333506573e+01   4.0386584114e+01     0.359916    0.1421546  58.74  0.001244091    2.728    0.633
       208  -9.3459    228.6243     59.1881   7.1710180810e+01   2.0715164359e+01    0.1975876    0.1628362 -87.63 0.0004821004    1.151    0.131
       209 -10.4011    139.6586     43.3848   8.2764783367e+01   4.4808712202e+01    0.6377454    0.3626676  26.13  0.002035754    2.537    0.606
       210 -11.2834    136.4445     56.0318   8.7470196157e+01   4.3697585805e+01    0.6302729    0.4331834 -29.47  0.002062512    1.548    0.354
       211 -10.5495    242.4220    231.1129   1.0651262334e+02  -1.0781686729e+01    0.2422943    0.1551147  49.45   0.00134876    1.967    0.491
       212 -10.5345    157.4862     56.5335   8.2948721281e+01   3.8614378865e+01    0.3777667    0.2393936  58.92 0.0005029871    1.517    0.341
       213 -11.3482    156.7691     53.5524   8.2216197136e+01   3.9243502072e+01    0.7714074    0.4639943 -50.55  0.003430051    1.905    0.475
       214  -9.8089      2.1202     56.0258   1.3115848209e+02   6.3159645456e+01    0.1707349    0.1328496 -31.96 0.0005431806    1.168    0.144
       215  -9.5541    187.7597     55.1471   7.6862608452e+01   3.1309230472e+01    0.3029296    0.1803873  52.07  0.001369941    1.641    0.391
       216  -9.4358     98.8497     54.3344   9.6892414806e+01   5.1922374325e+01    0.3675368    0.2533238 -74.49  0.001561638    3.043    0.671
       217  -9.6175    212.4619     53.7891   7.2652536986e+01   2.5402027094e+01    0.2651412    0.2183558 -67.63  0.001463315    1.156    0.135
       218 -10.0111    249.1810     52.9340   6.7754955906e+01   1.6964887347e+01    0.2857271    0.1916689 -71.29  0.001396582    1.479    0.324
       219 -11.1948    240.0296     50.3738   6.8251471656e+01   1.9394478412e+01    0.4235866    0.3717539  82.31  0.002105376    1.137    0.121
       220 -10.2013    244.5084     50.5013   6.7757016074e+01   1.8362762092e+01    0.2740466    0.1871241 -53.68 0.0009843187    1.313    0.239
       221 -11.0294    202.3238     47.9086   7.2657485598e+01   2.8753123452e+01    0.6596656    0.3580305 -30.41  0.002922061    2.069    0.517
       222 -11.5101     32.6486     41.9652   1.1545968069e+02   6.3480754198e+01    0.7144111    0.4118178  37.29  0.003726442    2.203    0.546
       223 -11.0800    173.7919     48.1647   7.7381829240e+01   3.5828498309e+01    0.6439266    0.3514651  62.77  0.002117406    1.743    0.426
       224 -10.1611    176.8081     43.4481   7.5535221600e+01   3.5739575781e+01    0.3776539    0.2916532 -80.44  0.001598558    1.420    0.296
       225 -10.8438    176.8235     37.0359   7.3754399514e+01   3.6596209807e+01    0.4162438    0.3094113 -37.18  0.002214905    1.441    0.306
       226 -10.8394    172.1745     33.1679   7.3445001612e+01   3.8247223823e+01    0.4036608    0.3051384  57.29  0.001579162    1.212    0.175
       227 -10.3770    175.8994     29.4067   7.1794462269e+01   3.7786773916e+01    0.3622306     0.311295  28.64  0.001300763    1.360    0.265
       228  -9.1898    190.1126    229.8427   1.1608107828e+02  -1.8297271991e+00    0.1779744    0.1400031  19.11 0.0004715645    1.290    0.225
       229  -9.8838      9.1347    227.2117   1.4988344778e+02   2.6399993219e+01    0.1512168    0.1164629  82.85 0.0003552175    1.176    0.150
       230 -11.0315    105.8972     20.3022   8.2994436783e+01   5.5113033075e+01    0.3306017    0.1987574 -22.30 0.0007959369    1.781    0.438
       231  -9.6435     90.8469     48.1666   9.7193464198e+01   5.4380992484e+01    0.2231562    0.2078774  -7.79 0.0009120749    1.107    0.097
       232  -9.4216      3.4347     49.0841   1.2896118814e+02   6.4389272834e+01     0.177199    0.1252655 -14.79   0.00128467    1.431    0.301
       233  -9.4280     13.9057     46.8420   1.2430728583e+02   6.4163230788e+01    0.3190897    0.1161556 -37.95   0.00159579    2.301    0.565
       234  -9.7333     18.0234     42.0103   1.2124756762e+02   6.4724122335e+01    0.2738053    0.1590449 -12.00   0.00166853    1.856    0.461
       235  -9.2280    193.0180     45.9418   7.3562077878e+01   3.1343736618e+01    0.2330801    0.1596623 -75.28 0.0008344439    1.673    0.402
       236  -9.9308    233.4766     44.7041   6.7749868850e+01   2.1718022832e+01    0.2644615    0.1909798  45.85 0.0009936608    1.723    0.420
       237  -9.3923    132.2883     45.1800   8.5014020918e+01   4.6264134838e+01    0.2478283    0.1704777  41.99  0.000566203    1.383    0.277
       238 -10.1638    100.7935     43.8086   9.2736294602e+01   5.3164057363e+01    0.3850586    0.3025239  89.38  0.002001863    2.095    0.523
       239 -11.2320     93.8799     41.4146   9.3914770586e+01   5.4831206227e+01    0.5153478    0.2800061  41.16  0.002099707    1.755    0.430
       240 -10.1037    161.9379     43.7516   7.8304710076e+01   3.9388793917e+01    0.3556713    0.2137522  58.04  0.001660472    1.525    0.344
       241 -11.5311    156.1758     41.8113   7.8842456066e+01   4.1066552475e+01    0.4103963    0.3798669  74.35 0.0009300486    1.065    0.061
       242 -10.9288    153.4993     36.3025   7.7711063458e+01   4.2443526024e+01    0.3251605    0.3015576 -64.08 0.0006927463    1.166    0.142
       243  -9.9044      4.1670     44.0942   1.2735529270e+02   6.5256432410e+01    0.3348649    0.1734441 -10.71 0.0009127678    2.238    0.553
       244 -10.0845    189.4768     37.9973   7.2013484106e+01   3.3315470270e+01    0.3524795    0.1526514 -23.36    0.0012947    3.261    0.693
       245 -10.3501    190.3512     32.7023   7.0490132115e+01   3.3785735370e+01    0.3415654    0.2767643 -85.98  0.001726581    1.193    0.162
       246 -10.3576    189.3864     27.8976   6.9371574626e+01   3.4622793878e+01    0.3575885    0.3195131  -0.57  0.001467131    1.412    0.292
       247 -11.3066     69.9741     32.6222   9.8293206832e+01   6.0186692749e+01     0.502781    0.2701399  35.28 0.0008605618    1.803    0.445
       248 -11.1754     81.6291     39.5415   9.7018657291e+01   5.7294756956e+01    0.4785461    0.3228772  42.00  0.001906116    1.506    0.336
       249 -10.7508     77.5763     34.1386   9.6338989397e+01   5.8744303489e+01    0.3578897    0.2438256  32.75 0.0009708836    1.386    0.279
       250 -11.3043     82.3977     31.5585   9.3837035262e+01   5.8267811919e+01    0.3981218    0.3493584  44.50  0.002442471    1.329    0.248
       251  -9.7181    231.7488     38.9995   6.6657850380e+01   2.2915722314e+01    0.3577531    0.1417043 -44.29  0.001510518    2.301    0.565
       252  -9.5545    218.3544     39.0740   6.8289508388e+01   2.6078082115e+01    0.2307485    0.1767285  62.39  0.000818491    1.299    0.230
       253  -9.9076    133.4542     37.2160   8.2180851552e+01   4.7075749884e+01    0.4115895    0.2982155 -69.73  0.002038695    1.946    0.486
       254 -10.0167    234.3211    222.9388   1.0652372018e+02  -8.3672969072e+00    0.1785925    0.1484234  -0.02 0.0006715279    1.093    0.085
       255  -8.7614    209.3214    223.3358   1.1127314505e+02  -4.1979312511e+00    0.1358206    0.0940014   8.35 0.0006644899    1.708    0.414
       256  -9.4847    134.4426     25.2802   7.8105072981e+01   4.8294672620e+01    0.2919925    0.2146527 -55.20   0.00101487    1.688    0.408
       257 -10.2114      9.9566    217.5415   1.4915413365e+02   2.8215499493e+01    0.1929934    0.1191935 -72.63  0.000530306    1.487    0.328
       258 -11.2571    154.8917     25.3748   7.4169955247e+01   4.3427558369e+01     1.104071    0.3022144  57.20  0.003886231    2.913    0.657
       259 -10.4134    157.6531     20.6336   7.2281779198e+01   4.3283595317e+01    0.5548325    0.1820025  56.03   0.00214065    2.470    0.595
       260 -11.0951    159.8721     28.9118   7.4330891900e+01   4.1801849324e+01    0.7172713    0.2729902 -35.45   0.00237799    2.719    0.632
       261  -9.7933    166.4749    213.4202   1.1806563013e+02   5.3214433317e+00     0.296786    0.1917389 -82.72 0.0009485945    2.903    0.656
       262  -8.6754      6.9708     30.8255   1.2225525281e+02   6.7380289512e+01    0.3577648    0.1466237  18.56  0.002037418    2.726    0.633
       263 -10.1876    206.7752     36.8511   6.9253349148e+01   2.9189285938e+01    0.2885247    0.2334028 -79.20 0.0009498027    1.164    0.141
       264  -9.5806      2.4047     39.0000   1.2663845659e+02   6.6255989100e+01    0.1839415    0.1086768  -4.35 0.0008670178    1.835    0.455
       265 -10.7900     22.3311     36.3168   1.1767895443e+02   6.5349943089e+01     0.367936    0.2333499  39.07  0.002313697    2.234    0.552
       266  -8.9391     94.1381     36.1195   9.1947813756e+01   5.5521473985e+01    0.1618204    0.1587841  82.14 0.0006720678    1.320    0.242
       267 -10.5645    240.6127     31.1617   6.3954443589e+01   2.1929061049e+01    0.4225239    0.3745695  -2.55  0.002632317    1.634    0.388
       268  -9.6243    152.9503    207.9635   1.1995449473e+02   8.9066732519e+00    0.2260044    0.1642275  73.98  0.001058456    1.691    0.409
       269 -11.7986     47.7336     30.5386   1.0551695684e+02   6.3616838914e+01    0.6580132    0.2767998  28.84  0.003231586    2.524    0.604
       270 -10.8810     56.8715     30.7486   1.0218971781e+02   6.2385047391e+01    0.3843384    0.2213776  31.54  0.001664015    1.712    0.416
       271 -11.1550    198.2563     28.8638   6.8396971416e+01   3.2311773624e+01    0.4211507    0.3408254  45.25  0.001582987    1.399    0.285
       272 -10.3654    199.8325     24.8406   6.7178892442e+01   3.2416087641e+01    0.2545514    0.2219497  73.74   0.00044315    1.087    0.080
       273  -9.3666    182.6793     32.0049   7.1449864851e+01   3.5781187305e+01    0.1863955    0.1736273 -73.79 0.0004067081    1.096    0.088
       274  -9.5394     36.0807     31.7345   1.1051311663e+02   6.4781632434e+01    0.1876239    0.1558919 -49.79  0.001303238    1.621    0.383
       275  -9.7409    211.0768     30.1393   6.7058676259e+01   2.9014963166e+01    0.2434718    0.2080113 -82.91 0.0009094993    1.035    0.034
       276 -11.3260      4.6189    204.5711   1.4923594824e+02   3.1343096116e+01    0.5538757   0.09741098 -68.19  0.002259405    3.874    0.742
       277 -12.3723      5.0289    184.6971   1.4776039542e+02   3.5451800227e+01    0.7756814    0.4468976  88.10   0.00495724    1.375    0.273
       278 -10.6168    245.1666    200.8578   1.0043178856e+02  -6.9018234454e+00    0.1844996    0.1739423  -6.15 0.0005340389    1.207    0.171
       279 -10.3399    234.5059    196.8433   1.0159064483e+02  -4.4528845715e+00    0.4294063    0.2969992  11.30  0.001669065    1.618    0.382
       280  -9.8919    238.4976    203.9669   1.0223662669e+02  -6.2543109167e+00    0.1937512    0.1218463 -33.39  0.001029169    1.578    0.366
       281  -9.5221     16.9074    192.4576   1.4610774919e+02   3.2703993242e+01    0.1753358    0.1213548 -85.49 0.0004838203    1.114    0.102
       282  -9.3999    230.5191     30.0206   6.4771578882e+01   2.4400498089e+01    0.3120207    0.1636572 -55.97  0.001235852    1.868    0.465
       283  -9.5647    230.3229     26.6705   6.4043636797e+01   2.4875897189e+01     0.195027    0.1447447 -70.73 0.0008482438    1.211    0.174
       284  -8.9441    221.5750     29.4957   6.5652856446e+01   2.6574580818e+01    0.1348127    0.1144254 -80.38 0.0001761036    1.018    0.018
       285  -9.5837    250.5322     25.3891   6.1765256868e+01   2.0461997786e+01    0.2316414    0.1154635 -36.83  0.000597243    1.993    0.498
       286 -11.2150    214.6342     23.4647   6.5043751290e+01   2.8987184344e+01    0.4009456    0.3641148 -14.31   0.00194741    1.435    0.303
       287  -9.9142    169.8985    191.1905   1.1339470570e+02   8.8953189814e+00    0.3935949    0.1809275  32.92  0.001337587    2.688    0.628
       288  -8.9954    239.6812    184.6834   9.8222747194e+01  -3.4034710194e+00    0.1400135    0.0984862   2.94 0.0004743274    1.656    0.396
       289  -9.8629    212.9939    181.4880   1.0261175848e+02   2.1426431660e+00    0.2068957     0.116652  22.61 0.0006302503    2.534    0.605
       290 -10.8509      4.9840     35.9643   1.2469275923e+02   6.6636304897e+01    0.3041848    0.2445213  -5.67   0.00125529    1.304    0.233
       291  -9.1003     44.4608     23.5311   1.0405083501e+02   6.5013967562e+01    0.1151619   0.09373922  -8.53 0.0001542072    1.082    0.076
       292  -9.2362    250.3921    179.7974   9.5323407463e+01  -4.4962340612e+00    0.1978513    0.1153655 -25.59 0.0009579576    1.739    0.425
       293  -8.3369    232.2905    179.3121   9.8482206009e+01  -1.1602200708e+00    0.1398528    0.1021874   1.16 0.0005140652    1.587    0.370
       294  -9.5681    247.9803    173.6517   9.4485228997e+01  -3.0715082689e+00    0.3412681    0.1529248  25.94  0.001136469    4.156    0.759
       295  -8.9264     57.6300    174.7467   1.3583121434e+02   3.2052255839e+01    0.1170588   0.09955364 -33.48 0.0006961922    1.636    0.389
       296  -9.5305    241.7765     22.2309   6.1926060739e+01   2.2810225649e+01    0.1625455    0.1440478  64.75 0.0007081536    1.338    0.253
       297  -9.5650    223.2169     22.3811   6.3838272737e+01   2.7075956110e+01     0.247798    0.1648552  73.17 0.0007611869    1.356    0.263
       298 -10.0871    220.8799     19.0765   6.3337053855e+01   2.8026273410e+01    0.2383388     0.208261 -79.23 0.0005112275    1.072    0.068
       299  -9.7314     52.0938    173.8585   1.3695273709e+02   3.2955110945e+01    0.2105618    0.1528914  79.41  0.001031988    1.274    0.215
       300  -9.8579     39.5905    173.2446   1.3963073929e+02   3.4566129099e+01    0.2372927    0.1011085 -64.78 0.0009906451    1.963    0.491
       301 -10.8643     35.2836    170.5141   1.4026147943e+02   3.5656340263e+01    0.3798206    0.2032727  84.00  0.001648479    2.009    0.502
       302 -11.0662     30.9499    151.8073   1.3903403943e+02   4.0371339856e+01    0.6606624    0.3425212 -78.49   0.00342027    1.741    0.426
       303 -10.1532     14.2868    133.3301   1.4073832540e+02   4.6033921737e+01    0.2761035    0.1851166 -89.77  0.001725193    1.390    0.281
       304 -10.3632     66.1682     21.8830   9.5423302677e+01   6.2190707308e+01    0.2226442    0.1577235  27.39 0.0004377593    1.278    0.217
       305 -11.6374     12.2616    138.2324   1.4182274555e+02   4.5087007246e+01    0.7943052    0.3588862  83.42  0.003511016    3.036    0.671
       306 -10.8360     10.7667    127.1277   1.4083485466e+02   4.7686096990e+01    0.4588012    0.1556855 -54.77  0.001628431    2.341    0.573
       307 -11.7540      9.5203    166.3319   1.4534016591e+02   3.9045332963e+01     0.528368    0.3356331 -71.62  0.002721732    1.262    0.208
       308 -11.4386     13.7313    157.6562   1.4360526114e+02   4.0614505964e+01    0.4776644    0.1839007 -74.08   0.00101479    2.081    0.519
       309 -10.4862    234.2183     16.3937   6.1399844668e+01   2.5239308807e+01    0.2791886    0.1892902 -88.85 0.0007809082    1.311    0.237
       310  -9.2466      1.7164     20.4635   1.2106255541e+02   6.9365295984e+01    0.1391519   0.08045282  -8.96 0.0009450102    1.673    0.402
       311 -12.1119     22.7307    149.4846   1.4067462986e+02   4.1673742098e+01    0.6627828    0.3647143 -44.86  0.003571365    2.161    0.537
       312  -9.4624    170.9232     17.6033   6.9293705392e+01   4.0363319220e+01    0.1880244      0.14309  72.48 0.0003612585    1.171    0.146
       313  -9.8985    225.5359     16.7957   6.2340372407e+01   2.7201188051e+01    0.2528684    0.1840971 -78.69  0.001120893    1.221    0.181
       314  -9.8057    191.6584     16.7259   6.6183127649e+01   3.5358419218e+01    0.2598337    0.2327367  46.05  0.001347788    1.275    0.215
       315 -10.2548    245.9719     20.6861   6.1210134067e+01   2.2063318974e+01    0.1989298    0.1820008  20.16 0.0007033013    1.626    0.385
       316 -10.6175     15.9343    148.0850   1.4208887570e+02   4.2577353707e+01    0.3503073    0.2228126  50.95  0.001493746    1.715    0.417
       317  -9.0830    197.8725    167.8621   1.0279725157e+02   7.7484230073e+00     0.199554     0.179011 -77.93 0.0007311792    1.311    0.237
       318  -9.1960    149.2314    168.4270   1.1351891460e+02   1.7838852184e+01    0.2194454    0.1377495  54.92 0.0009470116    1.656    0.396
       319  -9.7104     40.1641    166.0349   1.3866051208e+02   3.6144956666e+01    0.2124075    0.1178087 -48.82  0.001087789    2.071    0.517
       320 -10.0993     18.9091    165.2182   1.4324573821e+02   3.8471353086e+01    0.2321197     0.208827 -53.14  0.001402531    1.414    0.293
       321 -10.0043    188.8931    164.3062   1.0390217297e+02   1.0341736008e+01    0.2948587    0.2225056 -32.12  0.000973499    1.409    0.290
       322 -10.2742     28.1761    163.2528   1.4101458448e+02   3.8033790800e+01    0.3558298     0.179916 -69.96  0.001919208    1.598    0.374
       323  -9.7492    205.1196    163.1373   1.0030656864e+02   7.1482239901e+00    0.2542541    0.2094579  37.76 0.0005915448    1.209    0.173
       324 -10.2482     81.1122    160.0239   1.2818248065e+02   3.2193779923e+01    0.3771736    0.2872833  34.82  0.002050942    1.502    0.334
       325 -10.1605     81.1912     19.2963   8.9524579099e+01   5.9983887125e+01    0.3395513     0.170586  42.05  0.001076341    1.793    0.442
       326  -9.3641    215.2971    158.3482   9.7250181394e+01   5.9417734827e+00    0.1512232    0.1136038  -0.34 0.0007034593    1.680    0.405
       327  -9.8917      8.8155    155.9217   1.4450750224e+02   4.1403232906e+01    0.2481416    0.1182755 -63.42  0.001331563    1.688    0.408
       328  -9.1811    224.2000    156.6108   9.5170323118e+01   4.4392919412e+00    0.2060901    0.1321335  34.46 0.0007251847    1.697    0.411
       329 -10.4881    104.5811    153.8475   1.2130032588e+02   2.9797051021e+01    0.4965138     0.260957 -63.11  0.002050414    2.005    0.501
       330 -11.9366      4.8427    148.3254   1.4463286370e+02   4.3391513973e+01    0.6255211    0.3476855 -59.93   0.00281034    1.547    0.354
       331 -11.1037      2.4460    141.6303   1.4449598833e+02   4.5044081414e+01    0.3480493    0.2785452 -72.85   0.00198322    1.117    0.105
       332 -11.4433      3.8967    136.5842   1.4362386530e+02   4.6061295850e+01    0.2254119    0.1867919 -76.34 0.0004927375    1.112    0.101
       333 -11.2485     62.6126    149.9031   1.3108425202e+02   3.7199580828e+01    0.4670543    0.4283577  48.38   0.00206676    1.240    0.193
       334  -9.7926     48.1203    151.7238   1.3492277525e+02   3.8557544990e+01    0.2326214    0.2158604  54.30 0.0007894827    1.252    0.201
       335 -10.8905     46.7289    146.5600   1.3451500836e+02   3.9922477263e+01    0.5748909    0.4192679 -51.29  0.002378098    1.386    0.279
       336  -9.5073    214.6936    151.6736   9.5889281603e+01   7.3291850035e+00    0.1510317    0.1154683   2.17 0.0003859151    1.650    0.394
       337 -10.1658     71.2846    151.1413   1.2912476432e+02   3.5729061640e+01    0.2683161    0.2001144  49.48  0.001481277    1.404    0.288
       338 -10.0911     56.3811    149.1618   1.3251609990e+02   3.8168555981e+01    0.2410048      0.19801 -69.95 0.0006511297    1.064    0.060
       339 -10.6161    249.6330    142.5404   8.7588545124e+01   1.9112690342e+00    0.6206321    0.2307836 -37.59  0.002360913    2.468    0.595
       340  -9.5202    239.9701    146.5466   9.0105918995e+01   3.0943540017e+00    0.2047404    0.1405888  47.86 0.0008531623    1.568    0.362
       341  -9.0562    108.5552    145.9720   1.1873877452e+02   3.0934417985e+01    0.2139897     0.140616 -56.54 -1.811275e-05    1.470    0.320
       342  -8.6860     74.3031    145.6720   1.2742309974e+02   3.6594420830e+01    0.1430175     0.100619  80.56 0.0007033625    1.647    0.393
       343 -10.6956     33.2420    144.2738   1.3750856904e+02   4.1879137047e+01    0.2702135    0.2151968 -85.66 0.0006866396    1.102    0.092
       344 -10.1957    133.2900    140.7314   1.1140237693e+02   2.7344120181e+01    0.3728862    0.2752093 -42.19  0.001221221    1.407    0.289
       345 -12.1160     23.4699    136.1996   1.3883517541e+02   4.4634566036e+01    0.7937019    0.4836541  52.23  0.004634483    1.861    0.463
       346 -11.7832     29.8826    132.9825   1.3677480185e+02   4.4797915612e+01    0.4706292    0.2986801 -73.60 0.0004241889    1.331    0.248
