#   1 NUMBER                 Running object number                                     
#   2 MAG_AUTO               Kron-like elliptical aperture magnitude                    [mag]
#   3 X_IMAGE                Object position along x                                    [pixel]
#   4 Y_IMAGE                Object position along y                                    [pixel]
#   5 X_WORLD                Barycenter position along world x axis                     [deg]
#   6 Y_WORLD                Barycenter position along world y axis                     [deg]
#   7 A_WORLD                Profile RMS along major axis (world units)                 [deg]
#   8 B_WORLD                Profile RMS along minor axis (world units)                 [deg]
#   9 THETA_WORLD            Position angle (CCW/world-x)                               [deg]
#  10 FWHM_WORLD             FWHM assuming a gaussian core                              [deg]
#  11 ELONGATION             A_IMAGE/B_IMAGE                                           
#  12 ELLIPTICITY            1 - B_IMAGE/A_IMAGE                                       
         1 -13.3430    189.8232     26.2951   7.4036949993e+01   3.3945044871e+01     1.413267     1.280419  44.34  0.006339828    1.142    0.125
         2 -13.5460    203.0100      7.8548   6.6963149823e+01   3.2474815511e+01     1.594236     1.066631  43.90  0.008082725    1.653    0.395
         3 -10.1222     33.0000      6.0220   1.0998622294e+02   7.2428147644e+01    0.6327072     0.062986 -45.22  0.001426232    8.943    0.888
         4 -11.1989     18.0802      5.2094   1.1902857497e+02   7.4243573197e+01    0.2559417    0.2202097 -54.80  0.001758492    1.301    0.231
         5  -9.1280    171.3182    247.3202   1.2483474440e+02   6.0912895453e+00    0.1051956   0.06596421  17.52 0.0006932208    1.663    0.399
         6 -10.3257    139.6988    250.1005   1.3045095715e+02   9.9926289521e+00    0.1988323    0.1055094  43.13  0.001330616    1.397    0.284
         7 -10.4486    124.3009    250.1996   1.3308453032e+02   1.1991365707e+01    0.2857481   0.08967649  37.53  0.001474046    2.307    0.566
         8  -9.0072     89.4471    250.2419   1.3905156120e+02   1.6345577715e+01    0.1193738   0.08316205  72.25 0.0005158103    1.546    0.353
         9 -10.2725     67.0811    250.5227   1.4286487196e+02   1.8905703441e+01    0.2010712     0.158986  57.73  0.001115409    1.163    0.140
        10  -9.3102     63.6945    250.6742   1.4344296938e+02   1.9261745232e+01    0.1934849   0.08066321  36.78 0.0009415425    1.835    0.455
        11 -11.0509     33.5993    248.1808   1.4833203127e+02   2.2770006048e+01    0.3251496    0.2442057  53.81  0.002911483    1.144    0.126
        12 -11.9245     36.4752    243.7202   1.4767986453e+02   2.3138280845e+01    0.5616767    0.4532526  40.63  0.005004928    1.371    0.271
        13 -14.0652      4.9214     12.2599   1.3113411598e+02   7.3804831125e+01     13.49832          nan -63.56   0.02190127   19.218    0.948
        14 -13.4902      8.8359    206.6285   1.5116412842e+02   3.1671772930e+01     1.391763    0.6695161  81.19  0.004539779    1.818    0.450
        15 -14.0409     56.3296    213.4373   1.4255181963e+02   2.5800978332e+01     7.748496    0.9625793  44.33   0.03075895    3.916    0.745
        16  -9.4947     34.3474    229.0435   1.4742574697e+02   2.5593995909e+01    0.2905199    0.1025181  59.79  0.001658949    2.379    0.580
        17  -9.5212    178.0265    227.9970   1.2139974619e+02   7.3233536583e+00    0.1633874    0.1218788  56.19  0.000972962    1.768    0.434
        18 -10.6804    185.4385    238.0517   1.2139349995e+02   5.1693270501e+00    0.2453302     0.212126 -72.97  0.001604307    2.084    0.520
        19 -10.4835    173.0770    222.5314   1.2156545674e+02   8.6814090946e+00    0.3092794     0.130079  33.19  0.001624623    1.980    0.495
        20 -14.5373     18.6773    170.7168   1.4768492163e+02   3.7454878370e+01     4.898994     1.458888  80.24   0.01852339    4.671    0.786
        21 -11.6076     11.4824    239.4008   1.5167659728e+02   2.6144228700e+01    0.3841249    0.1327732  57.52  0.002239089    1.988    0.497
        22  -8.6223    152.5363    213.0304   1.2406997615e+02   1.2930886571e+01    0.1324228    0.1161976 -37.30 0.0001359201    1.438    0.305
        23  -9.5575     85.5825    246.7385   1.3947371981e+02   1.7287801298e+01    0.1251292   0.08390906  76.55 0.0007107879    1.672    0.402
        24 -12.2251     26.8074    203.3384   1.4764827914e+02   3.0618707536e+01    0.4346275    0.1385269  49.02  0.001525945    2.204    0.546
        25 -11.2811     67.3815    200.8395   1.3947114946e+02   2.6668750618e+01    0.2539794    0.2069593 -49.93  0.001201045    1.669    0.401
        26  -9.4967    195.1061    198.4592   1.1424216651e+02   8.3110555239e+00    0.2368855    0.1661908 -56.08  0.001393054    2.471    0.595
        27  -9.3258    191.8692    192.9669   1.1395585084e+02   9.5073945307e+00    0.2701344    0.1891016 -69.96   0.00133716    3.563    0.719
        28 -11.5592     72.8504    192.6240   1.3765112419e+02   2.7455171807e+01    0.2204719    0.2081998 -80.89 0.0006134087    1.296    0.229
        29  -8.5332     26.9723    239.7334   1.4911836883e+02   2.4665101442e+01    0.1175245   0.06307886  40.27 0.0006707946    1.444    0.307
        30  -8.4495    106.3063    181.7361   1.2936010138e+02   2.4832339616e+01    0.1231766   0.08167595  59.81 0.0002383775    1.528    0.345
        31 -13.0475     69.3490    177.7096   1.3700526719e+02   3.0670796959e+01    0.4243463     0.270538 -42.10  0.001922188    2.310    0.567
        32 -10.7238     82.0076    179.5573   1.3440040339e+02   2.8673523772e+01    0.2124261    0.1815229  56.67 0.0003708366    1.037    0.036
        33 -11.6234     88.6597    170.1015   1.3182551176e+02   2.9559474421e+01    0.5187154    0.5038887 -68.16  0.003669087    1.230    0.187
        34  -8.5001    250.7085    171.6765   1.0045771794e+02   2.8141434756e+00    0.1216669   0.07287764   9.23 0.0002683463    1.612    0.380
        35  -8.6806    196.0225    159.5359   1.0735022785e+02   1.3315395128e+01    0.1721883    0.1117521  62.80 0.0008090918    2.524    0.604
        36 -11.1758     32.8606    155.0286   1.4341948127e+02   3.9340153216e+01    0.5679672    0.0998195 -74.28  0.001878286    5.320    0.812
        37  -9.7466    100.5313    153.4931   1.2678259473e+02   3.1067735132e+01    0.2424623    0.2281189  10.77 0.0007903773    1.249    0.199
        38 -11.7957     89.4285    152.9685   1.2938902786e+02   3.2855581509e+01    0.2481714    0.2330269  -1.17  0.000584902    1.319    0.242
        39 -12.5623     66.2418    142.8389   1.3382793930e+02   3.8194661598e+01     1.087717      0.54787  69.25  0.002599562    2.716    0.632
        40  -8.2372    192.2388    144.0370   1.0497943149e+02   1.6265659992e+01    0.1588864    0.1099825 -29.33 0.0003896265    1.492    0.330
        41  -9.6473    175.1903    138.3912   1.0714751073e+02   2.0423955454e+01    0.4205443    0.2879621  85.09  0.001266756    3.338    0.700
        42  -8.1943    223.0049    145.0000   9.9696821876e+01   1.0475349071e+01    0.1926615   0.06792139  45.81 0.0003699958    2.758    0.637
        43 -10.4614     98.7306    135.5030   1.2431040978e+02   3.5052729179e+01    0.2483877    0.2291197 -11.67  0.000839927    1.305    0.234
        44  -9.5802    111.1294    137.8377   1.2159088460e+02   3.2507871621e+01    0.3437231    0.2417529 -17.33  0.001224581    2.267    0.559
        45  -8.8320    103.1496    149.1523   1.2547745128e+02   3.1527455859e+01    0.1871614    0.1762262  -5.13 0.0004479143    1.266    0.210
        46  -8.7648    108.0114    124.6376   1.1987435602e+02   3.5785291159e+01    0.1867667    0.1601045  43.05  0.000335582    1.130    0.115
        47  -8.7946     71.7549    125.3671   1.2983663703e+02   4.1310525315e+01    0.1696615    0.1253164  26.87 0.0006843787    1.541    0.351
        48 -10.9892     32.9279    120.1476   1.4017025291e+02   4.6988328115e+01     0.831627   0.07885464 -72.89  0.001520088   14.223    0.930
        49 -12.5460     42.8987    236.0498   1.4625006215e+02   2.3636774198e+01    0.2580491    0.2369669  63.21 0.0007993462    1.393    0.282
        50 -13.6759     48.5502    227.7983   1.4483954733e+02   2.4321939891e+01    0.7824492    0.4876241  60.22  0.003574177    1.254    0.203
        51 -11.5406     28.5972    139.5182   1.4322371991e+02   4.3058666279e+01    0.3328829    0.1877671 -85.91  0.001408534    1.613    0.380
        52  -9.9088    168.1521    113.1610   1.0290686214e+02   2.6116392824e+01    0.3284208    0.2745534 -85.49   0.00109883    1.619    0.382
        53  -9.0085    203.3724    111.8006   9.5729905573e+01   1.8888189038e+01    0.1985919    0.1257928 -17.55 0.0004859757    1.699    0.412
        54  -9.0346     53.3275    110.6784   1.3286281602e+02   4.7024239431e+01    0.1384586   0.09022418  68.72   0.00070482    1.688    0.408
        55  -8.5478    125.9007     99.2641   1.0937584700e+02   3.7665253972e+01    0.2071173    0.1748557  51.74 0.0007200701    1.188    0.158
        56  -8.9699    155.4834     75.4771   9.5508029681e+01   3.5560912317e+01    0.1520288    0.1452187  12.43 0.0002078867    1.036    0.035
        57 -10.2374     77.1812    245.9637   1.4087029067e+02   1.8389351874e+01    0.1920286    0.1078829  43.56  0.001353656    1.260    0.206
        58 -11.1216      8.6119     53.9818   1.3968666673e+02   6.4284952550e+01    0.3303896    0.1849634  19.54  0.001127163    2.132    0.531
        59 -10.1666    248.5793    249.4585   1.1296520556e+02  -4.0101931366e+00    0.2673599   0.08403693  30.78  0.001476208    2.428    0.588
        60  -9.7968     81.7059    248.9602   1.4028764116e+02   1.7441360525e+01    0.2020947   0.09452329  51.72  0.001322689    1.660    0.398
        61 -10.0573     66.9720    243.3787   1.4247190792e+02   1.9932816718e+01    0.1856913    0.1086737  69.59  0.001247938    1.690    0.408
        62 -14.3995      2.9476    228.1153   1.5280413821e+02   2.8625989408e+01     5.625314    0.1416638 -76.50   0.01895362   10.045    0.900
        63  -9.6128     47.0071    249.5001   1.4617244063e+02   2.1221405705e+01     0.144548   0.06942478  39.99 0.0004657555    1.520    0.342
