#   1 NUMBER                 Running object number                                     
#   2 MAG_AUTO               Kron-like elliptical aperture magnitude                    [mag]
#   3 X_IMAGE                Object position along x                                    [pixel]
#   4 Y_IMAGE                Object position along y                                    [pixel]
#   5 X_WORLD                Barycenter position along world x axis                     [deg]
#   6 Y_WORLD                Barycenter position along world y axis                     [deg]
#   7 A_WORLD                Profile RMS along major axis (world units)                 [deg]
#   8 B_WORLD                Profile RMS along minor axis (world units)                 [deg]
#   9 THETA_WORLD            Position angle (CCW/world-x)                               [deg]
#  10 FWHM_WORLD             FWHM assuming a gaussian core                              [deg]
#  11 ELONGATION             A_IMAGE/B_IMAGE                                           
#  12 ELLIPTICITY            1 - B_IMAGE/A_IMAGE                                       
         1 -15.6080    179.3458     79.4252   3.5461360878e+01   2.8884695584e+01     2.222225     1.729955 -28.66   0.00655008    1.479    0.324
         2 -14.7546    214.9892     29.2704   1.8506383702e+01   2.7956280018e+01     7.576797    0.9258883 -45.31   0.02255416    5.674    0.824
         3 -17.2175    217.0550     77.9811   2.8908697281e+01   2.0352646118e+01     10.72034     4.730526 -49.97   0.04452309    2.180    0.541
         4 -15.7506    231.1003     32.7664   1.7591750221e+01   2.3982727869e+01     2.474626     1.730539  57.35   0.01500782    1.665    0.399
         5 -17.0682    238.8183     61.3402   2.2543050928e+01   1.8310000893e+01     6.143467     2.319941  63.69   0.01973632    2.699    0.629
         6 -12.3222    135.2499     16.5763   2.6308759863e+01   4.8098256263e+01    0.3995017     0.211247 -11.99  0.001870916    2.769    0.639
         7 -10.8306    238.3709     12.6260   1.3089432827e+01   2.4925850778e+01    0.2595665    0.1712177  53.05 0.0008451197    2.041    0.510
         8  -9.8100     79.5014     10.9038   3.7138558811e+01   6.0710675819e+01    0.1629318    0.1151625 -10.76   0.00054092    1.531    0.347
         9 -11.3642    236.0408      3.7432   1.1634598212e+01   2.6402868427e+01    0.2837386    0.1915703  60.50  0.001011826    1.736    0.424
        10  -9.4623    240.3502      1.3105   1.0891774666e+01   2.5784246838e+01    0.1032474   0.07923359  58.67 0.0007044952    1.717    0.418
        11 -11.2203    128.0669      8.0148   2.5043764236e+01   5.0529105999e+01    0.1929582    0.1593091  59.02 0.0004174041    1.015    0.015
        12 -11.1772    122.9665      7.4938   2.5811819323e+01   5.1738304080e+01    0.2012254    0.1033814  61.62 0.0008018274    1.577    0.366
        13 -10.9481    106.6434      4.1664   2.7972731494e+01   5.5640715576e+01    0.2699889    0.1466307 -23.83  0.001111425    2.184    0.542
        14 -10.8136    158.7401      2.7694   1.8927710490e+01   4.3822277919e+01    0.2589548    0.1973336  16.26 0.0006581924    1.832    0.454
        15 -11.8696    230.3693      1.5180   1.1641026507e+01   2.7819542061e+01    0.1923765    0.1150101  77.61  0.001208817    1.411    0.291
        16 -12.0743    249.3138    210.8203   5.1556119520e+01  -9.5611792263e+00    0.3077992    0.2908169 -55.96  0.001722052    1.571    0.363
        17 -11.7698    207.3411    137.5566   4.4175411329e+01   1.1312644338e+01    0.2830903    0.2515923 -23.52 0.0007132539    1.163    0.140
        18 -10.6069    187.3198    136.3123   4.7925291880e+01   1.5856136182e+01    0.1566949    0.1241522   0.16 0.0002943953    1.649    0.393
        19 -12.2886    246.8113    202.5801   5.0432922161e+01  -7.8660152214e+00     0.443436    0.3464653  64.95  0.002321696    2.291    0.563
        20 -11.2718    136.0967    129.6957   5.8459010901e+01   2.8726867634e+01    0.8794599    0.1339104 -46.73  0.001787419    6.548    0.847
        21 -10.8221    135.1315    120.6995   5.6425573242e+01   3.0996433080e+01     0.544581    0.2114772 -45.23  0.001615742    2.571    0.611
        22 -12.2015    202.9360    131.4823   4.3634341625e+01   1.3471445086e+01    0.3368599    0.2880941  89.13 0.0009430163    1.352    0.261
        23 -12.0877    160.8420    128.6482   5.2002561102e+01   2.3442316728e+01    0.4460937    0.3663877 -57.97  0.001523213    1.264    0.209
        24 -12.3955    225.0292    129.9162   3.9249203083e+01   9.2035404501e+00    0.4004942    0.2753624 -78.15  0.001347123    2.143    0.533
        25 -12.1095    213.6384    124.0552   3.9936755243e+01   1.2676027608e+01    0.3032126    0.2725803  62.14  0.001038291    1.196    0.164
        26 -12.0181    172.8267    124.1585   4.8136733299e+01   2.1688065667e+01    0.4967565    0.2406895 -57.29  0.001650504    2.782    0.641
        27 -11.9695    167.0149    116.5087   4.7526471444e+01   2.4647650782e+01    0.3977898     0.249117  36.97  0.001615718    1.810    0.447
        28 -11.8330    217.4109    117.7768   3.7852094402e+01   1.3095133441e+01    0.2760828    0.2207501 -80.60 0.0007864271    1.434    0.302
        29 -11.5245    135.0000    111.0152   5.3912374837e+01   3.3173725301e+01    0.7452238    0.2368177 -41.94  0.002202938    3.255    0.693
        30 -12.6033    134.4233    104.2953   5.2246543583e+01   3.4743933554e+01    0.6244454    0.3923673 -54.03  0.002595674    1.769    0.435
        31 -11.7594    135.6954    100.0530   5.0748782225e+01   3.5340851717e+01    0.3375925    0.3015703  79.66 0.0009864452    1.242    0.195
        32 -10.8231    177.4338    110.8860   4.3833279147e+01   2.3388199797e+01    0.3273429    0.1980794  37.05   0.00132536    1.970    0.492
        33 -12.9654    126.9645    105.6464   5.4609540878e+01   3.6116673732e+01     0.792172    0.4996605 -60.20  0.003200097    1.987    0.497
        34 -12.6635    117.2708    102.9612   5.6565950701e+01   3.8785184089e+01    0.7923834    0.6319214  15.94  0.003768865    1.443    0.307
        35 -13.1056    123.1768     96.0143   5.2960609214e+01   3.8971361220e+01    0.6078969     0.451639 -19.73  0.002773962    1.614    0.380
        36 -11.7385    115.0061     95.0173   5.4970565284e+01   4.0937621183e+01    0.7602882    0.2221234  41.86  0.001914214    3.475    0.712
        37  -9.6676    211.5520    165.8125   4.9603865714e+01   4.7819009608e+00    0.1970989    0.1337979 -51.72 0.0004333957    1.563    0.360
        38 -11.5014    149.9530    104.3745   4.8355091106e+01   3.1159302516e+01      0.35763    0.2973927  27.98 0.0007609695    1.334    0.250
        39 -13.6797     19.9437    158.0402   9.6728995071e+01   3.9715127908e+01    0.8366995    0.5217466 -61.87  0.004628004    1.360    0.265
        40 -13.5385    191.7254    153.9408   5.1056070406e+01   1.1177721676e+01    0.9051793    0.5936046 -64.35  0.003761666    2.055    0.513
        41 -12.4603    130.8211     88.6148   4.8794726731e+01   3.8739932602e+01    0.6435232     0.296294 -48.03  0.002012574    2.394    0.582
        42 -12.2420    143.7643     94.6268   4.7211450061e+01   3.4575602377e+01    0.4310123      0.37606  89.33  0.001068413    1.293    0.227
        43  -9.8484    207.8430    157.8607   4.8613258413e+01   7.0970578853e+00    0.1954023    0.1759198 -74.51 0.0003771507    1.300    0.231
        44 -11.2128    142.9857     79.6813   4.3202532331e+01   3.7583840721e+01    0.2179248    0.1891785  50.97 0.0003364584    1.102    0.092
        45 -10.4178    127.4221     77.1020   4.6318225317e+01   4.1664039144e+01    0.5102969    0.1195353 -45.31  0.001304054    5.177    0.807
        46 -11.2315    208.9579    180.4985   5.3235917588e+01   2.3646869544e+00    0.2097081    0.1421605  39.68 0.0005425297    1.537    0.349
        47 -10.2772     64.9922    143.1275   8.1861357579e+01   3.8392127988e+01     2.334805    0.7040246  40.06  0.007744604    3.405    0.706
        48 -12.1144    236.9466    172.0235   4.6122813063e+01  -9.7390428847e-01    0.2836569     0.240872 -86.40  0.001581582    1.723    0.420
        49 -11.8627    177.2041    170.7315   5.7972744409e+01   1.0563284298e+01    0.3280503    0.2092734 -36.36  0.001415415    1.615    0.381
        50 -11.4106    191.9256     46.8875   2.5309046988e+01   3.0957041357e+01    0.2925912     0.223881 -72.93 0.0006221579    1.267    0.211
        51 -13.8321     32.3602    151.1134   9.2511451730e+01   4.0263304430e+01     0.633607    0.4850495 -80.73  0.001199743    1.190    0.159
        52 -13.1526      2.2659    164.6550   1.0183068135e+02   3.9546055849e+01    0.7941636    0.2287253 -74.41  0.002901093    2.817    0.645
        53 -11.6080    124.8719     37.8806   3.4902748988e+01   4.8195223168e+01    0.2222416    0.1737422  34.04 0.0008308781    1.270    0.213
        54 -10.9653    190.0484     35.7287   2.2912196805e+01   3.2890117827e+01    0.2252317    0.1845066 -40.80 0.0007955296    1.368    0.269
        55  -9.9147    166.0992     33.8687   2.5921889234e+01   3.8859441677e+01    0.1984379    0.1625576 -85.28 0.0003380272    1.196    0.164
        56 -12.2589    192.3411    194.4068   5.9570988762e+01   2.6808932414e+00     1.123037    0.5746197 -64.76  0.002979096    6.282    0.841
        57 -13.0044    134.4028     27.2637   2.9639939793e+01   4.7205935864e+01    0.4839578    0.2592636  53.67  0.001683987    1.568    0.362
        58 -11.9551    134.4974     23.0485   2.8363519823e+01   4.7631387754e+01    0.2568989    0.2095657  -7.39  0.001083233    1.497    0.332
        59 -10.7328    159.8120     27.5816   2.5255537114e+01   4.1112045743e+01    0.2373126    0.1926977 -66.98 0.0006958329    1.306    0.234
        60 -10.9590    143.9908     20.6804   2.5963814609e+01   4.5634986882e+01    0.1883761    0.1522897  64.68 0.0005570231    1.042    0.040
        61 -14.7580    233.1381     72.0167   2.5437878067e+01   1.7836557509e+01    0.9354588    0.5646929  68.52  0.002649473    1.716    0.417
        62  -9.7317    189.9911     15.2439   1.8161964142e+01   3.5303258670e+01    0.1826212    0.1376959  82.80 0.0007856206    1.090    0.082
        63 -12.8786    228.5721    194.8267   5.2293180517e+01  -3.7184762994e+00    0.5019001    0.4256656  37.24  0.001537167    1.337    0.252
        64 -11.7709    209.3956    187.0824   5.4508239499e+01   1.0054322849e+00    0.6368772    0.3253961 -61.39  0.001972963    4.624    0.784
        65 -14.4844     42.9340    147.0166   8.8936660095e+01   4.0172109498e+01     1.102639    0.8283118  15.83   0.00505521    1.636    0.389
        66 -13.1559    216.0639    185.2661   5.2795974039e+01   1.6505500560e-01    0.7575083    0.4871374 -31.64  0.003696885    1.495    0.331
        67 -14.2382    159.7348     91.2567   4.2566091384e+01   3.1447895026e+01     1.543943    0.6688091 -45.26 0.0007021834    2.368    0.578
        68 -10.3396    211.9259    155.3736   4.7264018947e+01   6.7950007881e+00    0.3769003    0.1758819  46.23  0.001422193    2.321    0.569
        69 -14.5886    199.4963     84.8607   3.3241826262e+01   2.3166722058e+01     2.323643    0.8204302  42.23  0.006540514    5.046    0.802
        70 -11.9636    247.7093    249.1730   5.8795519897e+01  -1.5017534032e+01    0.5660384    0.1779765  28.14  0.002329716    3.388    0.705
        71 -11.5377    248.8264    221.9145   5.3717935444e+01  -1.1226822904e+01    0.2978872    0.1752995  41.46  0.001103203    2.072    0.517
        72 -11.4443    133.6651    145.7655   6.2987227915e+01   2.5456777004e+01    0.9028955    0.2487105 -53.48  0.002236638    4.543    0.780
        73  -9.3798    136.4350    221.4077   7.7149631203e+01   7.4332665093e+00    0.1430765    0.1291056  41.49 0.0001311282    1.009    0.009
