#   1 NUMBER                 Running object number                                     
#   2 MAG_AUTO               Kron-like elliptical aperture magnitude                    [mag]
#   3 X_IMAGE                Object position along x                                    [pixel]
#   4 Y_IMAGE                Object position along y                                    [pixel]
#   5 X_WORLD                Barycenter position along world x axis                     [deg]
#   6 Y_WORLD                Barycenter position along world y axis                     [deg]
#   7 A_WORLD                Profile RMS along major axis (world units)                 [deg]
#   8 B_WORLD                Profile RMS along minor axis (world units)                 [deg]
#   9 THETA_WORLD            Position angle (CCW/world-x)                               [deg]
#  10 FWHM_WORLD             FWHM assuming a gaussian core                              [deg]
#  11 ELONGATION             A_IMAGE/B_IMAGE                                           
#  12 ELLIPTICITY            1 - B_IMAGE/A_IMAGE                                       
         1 -11.1564    201.8304     27.0366   5.8633715433e+01   3.2108043112e+01    0.6972675    0.4255076  39.62  0.003559519    2.627    0.619
         2 -11.5558    247.9561     31.2441   5.4990967516e+01   2.2015253686e+01    0.8428126    0.4081086 -58.98  0.004703365    1.773    0.436
         3  -9.7419    222.9254      6.0662   5.2446609419e+01   3.0018127735e+01    0.4195177    0.2478615  79.49  0.001628444    1.413    0.292
         4  -9.7260    239.9837      2.1221   5.0465436405e+01   2.7032025718e+01    0.2740344     0.133781  89.71  0.001058419    1.799    0.444
         5 -11.0881    220.8684     14.9331   5.4297385834e+01   2.9462657800e+01    0.7009366    0.4106769 -89.21  0.004216851    1.503    0.335
         6 -10.8243    250.1410     18.9210   5.2640070958e+01   2.3139611356e+01    0.7197489    0.1883314 -35.83  0.002830082    4.620    0.784
         7  -9.7980    230.4250     15.2472   5.3539654956e+01   2.7465658130e+01    0.2611509    0.1666539 -59.66  0.001044231    1.338    0.252
         8 -10.1065    249.2369      7.2693   5.0708462784e+01   2.4677813216e+01    0.3184263    0.2247597 -80.64  0.002332291    1.062    0.058
         9 -10.0396    248.8771      2.5132   4.9932149746e+01   2.5276622896e+01    0.2866981    0.1581757 -67.52  0.001550772    1.446    0.308
        10  -9.6351    231.6853      2.5169   5.1126321313e+01   2.8626836119e+01    0.4212822    0.1671985 -89.25  0.001690633    2.701    0.630
        11 -10.3932    244.6207     13.5802   5.2123705865e+01   2.4840998691e+01     0.422494    0.2201849  77.12  0.002579996    1.697    0.411
        12 -10.5091    235.2688      9.2376   5.2060079711e+01   2.7177783164e+01    0.6275679    0.3260819  60.30  0.002718585    2.101    0.524
        13 -10.9962    239.2988     17.1730   5.3170504801e+01   2.5461973392e+01    0.5051824    0.2959656 -64.44  0.003185881    1.421    0.296
        14 -10.1690    234.3969     19.6257   5.4017176504e+01   2.6147873539e+01    0.3175265      0.25265  38.74  0.001779127    2.125    0.529
        15 -10.8836    170.2979     31.0354   6.3542723102e+01   3.8691842036e+01    0.3829416    0.2325139 -14.54  0.001867611    2.664    0.625
        16  -9.5180    200.2379      6.1593   5.4439832651e+01   3.4769081372e+01    0.3147718    0.1452035  51.07  0.001574418    2.657    0.624
        17  -8.8969    198.1081     10.6000   5.5562708080e+01   3.4769398872e+01    0.1995984    0.1733542 -41.57   0.00123272    1.422    0.297
        18  -9.6371    199.7932     15.1504   5.6342749229e+01   3.3916947532e+01    0.2656087    0.2164849  88.04 0.0007988845    1.057    0.054
        19  -9.2283    201.5421     11.5579   5.5422012123e+01   3.3926689469e+01    0.2187455    0.1308438  79.64 0.0006871253    1.411    0.291
        20 -10.1392     67.8276     11.5232   7.9094395056e+01   6.2231452147e+01    0.2356513    0.2023627   4.81  0.001726156    1.178    0.151
        21  -9.2543    168.4097     11.1294   5.8997669906e+01   4.1263557346e+01    0.2786475    0.1573488 -62.26  0.001495388    2.009    0.502
        22 -10.7663    213.1256      8.2683   5.3689092043e+01   3.1814086798e+01    0.4000298    0.3609841  88.53  0.003026944    1.291    0.225
        23  -9.7346    187.1193      9.6542   5.6495703399e+01   3.7262748438e+01    0.3058893    0.1785281 -66.52  0.001740435    1.752    0.429
        24 -10.4269    155.1303      9.0351   6.0223005770e+01   4.4426755831e+01    0.3291025    0.1803851 -38.64   0.00138282    2.032    0.508
        25  -9.7773    112.5005     10.9464   6.7831612200e+01   5.3585963967e+01    0.1626469    0.1205966 -18.41  0.001035557    1.600    0.375
        26  -8.9070     84.4146     10.7474   7.4166892337e+01   5.9267108094e+01    0.1525628    0.1051943   1.82 0.0009487787    1.617    0.381
        27  -9.8215    116.7024      6.3781   6.5626985945e+01   5.3077039154e+01    0.2467608    0.1394068 -43.56 0.0008019155    2.200    0.545
        28  -9.3021    206.5713      6.8348   5.3990851375e+01   3.3348327592e+01    0.2278104     0.136682 -37.60  0.001395843    1.861    0.463
        29  -8.7127    148.3277      8.3169   6.0993268376e+01   4.6006620018e+01    0.1241446   0.07873752  43.48 0.0006047903    1.677    0.404
        30  -9.7081    102.7505      6.9048   6.8564870970e+01   5.5950472045e+01    0.2031701    0.1467089 -27.05  0.001319069    1.635    0.389
        31 -10.0887    171.4436      5.2542   5.7255606686e+01   4.1146884806e+01    0.1863373    0.1683214  73.00 0.0008957694    1.189    0.159
        32  -9.3719    111.1546      5.4137   6.6387366179e+01   5.4326040526e+01    0.1724382    0.1418764 -27.90 0.0006938636    1.457    0.314
        33  -9.1188    164.7570      2.7891   5.7466942377e+01   4.2849246619e+01    0.2417592   0.09545849 -31.05  0.001184462    2.887    0.654
        34  -9.9447     63.9043      2.1531   7.6669302422e+01   6.3708889394e+01    0.1945182    0.1741278  32.26 0.0008976266    1.240    0.193
        35  -9.0240    190.1917      1.8725   5.4512943149e+01   3.7356139819e+01    0.1946346    0.1301713  79.11 0.0008786513    1.205    0.170
        36  -9.0079    194.0188      1.5110   5.4069974467e+01   3.6564659865e+01    0.3011752    0.1330646 -89.53  0.001433387    2.465    0.594
        37 -10.2881    238.1413    191.8593   8.7981591548e+01  -3.6980350147e+00    0.4238913    0.2747765 -41.20  0.001441586    1.373    0.272
        38 -11.3237    111.2926    188.3186   1.1483033896e+02   1.9738927940e+01    0.6836725    0.2055948 -45.56  0.001966644    3.986    0.749
        39  -9.5231    193.9227    188.2017   9.5763575345e+01   4.4229955527e+00    0.2157179    0.2006874  74.58 0.0009466002    1.281    0.219
        40 -10.4315    121.2656    187.9911   1.1231857062e+02   1.8036664814e+01    0.2197739    0.2001502 -65.34 0.0008810181    1.084    0.078
        41  -8.8594     58.7009    188.6802   1.2790293198e+02   2.7865416833e+01    0.1371495    0.1030292 -39.95 0.0005100148    1.620    0.383
        42  -9.0706    250.2978    185.6720   8.4692833631e+01  -4.4192827541e+00    0.1227536   0.09817842 -63.07  0.000702725    1.635    0.388
        43  -9.2207    224.9740    184.9772   8.9020161399e+01  -3.2823441084e-01    0.2064479    0.1710147 -76.95  0.001071957    1.689    0.408
        44 -10.4697    105.6308    184.3195   1.1552495434e+02   2.1706027716e+01    0.3554676    0.2087636  60.54  0.001430712    2.142    0.533
        45 -11.1927    152.0162    178.3277   1.0302744555e+02   1.4517776482e+01     0.312895     0.279985  73.04  0.001122024    1.227    0.185
        46 -11.8934    157.2710    178.8324   1.0190474387e+02   1.3381377427e+01    0.6135724     0.409348 -32.16  0.002024456    1.719    0.418
        47  -9.1746    242.6041    182.1819   8.5322748570e+01  -2.6302982860e+00    0.2011368    0.1543718 -33.41 0.0005936628    1.111    0.100
        48 -10.0555    227.1533    179.3460   8.7497641478e+01   3.8237587498e-01    0.3909945    0.2498298  53.54   0.00191476    2.037    0.509
        49  -9.2766     64.5109    179.5138   1.2513545762e+02   2.9367241574e+01    0.1440461     0.128159 -82.73  6.84133e-06    1.004    0.004
        50  -9.7223    218.1841    177.9957   8.8888992819e+01   2.1686245009e+00    0.4611948    0.2316288  58.77  0.001654031    3.721    0.731
        51  -9.7008    233.7717    174.7222   8.5387272085e+01   1.6284239423e-01    0.2594806    0.2464252 -67.32   0.00120698    1.245    0.197
        52  -9.5391     84.9808    175.0315   1.1915158095e+02   2.7457011187e+01    0.1841734    0.1657826 -73.90 0.0004475886    1.034    0.033
        53  -9.5395    193.7923    173.8488   9.2850388762e+01   7.4338490341e+00    0.2056259    0.1777404 -74.85 0.0009656696    1.373    0.272
        54  -9.2312    225.1980    172.9412   8.6564321883e+01   1.9443256198e+00     0.270218    0.1766017 -26.95  0.001115962    1.618    0.382
        55  -9.7101    212.8793    169.6485   8.8185394030e+01   4.7650444752e+00      0.28453    0.1999082 -48.97 0.0007175157    1.363    0.266
        56 -10.9116    170.3036    169.2768   9.6935224869e+01   1.2981947707e+01    0.4195446    0.2637663 -68.36  0.001655872    2.276    0.561
        57 -11.7786    147.7927    167.9516   1.0187117291e+02   1.7763009284e+01    0.4118407     0.336491  80.04  0.001274859    1.476    0.323
        58  -8.8371    237.4254    170.1532   8.3838786816e+01   4.2197755699e-01    0.1925986    0.1152564 -50.94 0.0007330623    1.659    0.397
        59 -10.9353    193.2341    166.0027   9.1311167573e+01   9.1972924481e+00    0.3961564    0.2978867 -52.34  0.001962284    1.319    0.242
        60  -9.7497    184.7882    166.3812   9.3157044577e+01   1.0760448137e+01    0.2097185     0.143837  31.76 0.0009509127    1.644    0.392
        61  -9.1507    234.6575    164.9985   8.3279954477e+01   1.8586058539e+00    0.2329585    0.1928945 -84.59  0.001298095    1.630    0.387
        62  -9.5927    213.2517    164.2053   8.6982178400e+01   5.7925749406e+00    0.2889996    0.2189215 -16.80  0.001458633    1.539    0.350
        63  -9.3410    138.6600    163.6806   1.0318144137e+02   2.0583894215e+01    0.1609142    0.1253464 -10.39  0.000704971    1.713    0.416
        64  -9.7189    178.3084    161.9426   9.3591547884e+01   1.3013945255e+01    0.2568463    0.1197804 -63.08 0.0007037752    4.383    0.772
        65  -8.4730     94.4815    160.4854   1.1395125283e+02   2.9571837803e+01    0.1526591    0.1433595 -72.47 -1.149261e-05    1.006    0.006
        66 -10.0341    247.0121    158.3079   7.9884329534e+01   1.0600624455e+00    0.5176244    0.2194997  38.29  0.002165964    3.046    0.672
        67 -10.3947    183.8615    158.6007   9.1671989298e+01   1.2631793686e+01    0.3654473    0.1626751 -34.88  0.001239547    2.758    0.637
        68  -8.8249     51.5377    159.5019   1.2541082690e+02   3.6129743370e+01    0.1425188    0.1244094 -76.50 0.0002026356    1.034    0.033
        69 -10.9196    145.9682    157.9935   1.0016063129e+02   2.0469832082e+01    0.2486654    0.2394979 -48.24  0.000921718    1.023    0.023
        70  -9.3337    226.2891    156.8154   8.3064298008e+01   4.8944225140e+00    0.2519096    0.1820505   6.63  0.001218151    2.013    0.503
        71 -10.4828    156.1471    157.3051   9.7579684790e+01   1.8558786974e+01    0.2463008    0.2033702  18.03 0.0007721207    1.424    0.298
        72  -9.1834     41.1974    157.6318   1.2790422613e+02   3.7818188978e+01    0.1683262    0.1348504   6.97  0.000394991    1.613    0.380
        73  -9.7685    249.9400    151.2349   7.8019032857e+01   1.8857305463e+00    0.3417942    0.2044511 -53.54  0.001262755    1.644    0.392
        74  -8.9879    243.0069    153.5293   7.9574238305e+01   2.6151238253e+00    0.3388211     0.253893 -40.65  0.001763049    1.136    0.120
        75 -10.7615    244.2605    148.9037   7.8444187204e+01   3.2684376393e+00    0.3864219    0.3088742 -69.04  0.001241391    1.441    0.306
        76  -9.5588    222.0715    153.1908   8.3056281568e+01   6.3720287935e+00    0.2740115    0.1753362 -64.61  0.001227826    2.047    0.512
        77 -10.3472    118.7245    153.5460   1.0606157354e+02   2.6923762651e+01    0.2724675    0.1923601 -76.00 0.0006792604    1.766    0.434
        78  -9.8633    229.8473    148.0703   8.0637056707e+01   5.9565266775e+00    0.2542635    0.1730428 -52.68 0.0009033449    1.395    0.283
        79  -8.9254    233.1306    152.8630   8.1069937438e+01   4.4451654097e+00    0.2537347    0.1789568 -37.10  0.000847769    1.279    0.218
        80  -8.9205    229.2017    152.1958   8.1601826953e+01   5.2725573429e+00    0.2469282    0.1987382  57.20 0.0008946791    1.467    0.318
        81 -10.9609    197.4314    149.8740   8.6976198657e+01   1.1779557682e+01    0.5416354    0.2551491 -52.69  0.001838567    2.250    0.555
        82  -9.2282    182.4710    150.9826   9.0286764928e+01   1.4569765956e+01    0.2179472    0.1298561 -66.56 0.0008087867    2.457    0.593
        83 -10.1451    192.0535    148.8657   8.7831630707e+01   1.3073356606e+01    0.2367219    0.2066049 -77.58  0.001197235    1.271    0.213
        84  -9.4391    234.9920    147.9556   7.9751899676e+01   5.0572138137e+00    0.2177347    0.1855273 -45.20 0.0009343258    1.020    0.020
        85 -11.4335    205.2023    147.1595   8.4874380508e+01   1.0802680079e+01    0.5449123    0.2901226  53.16  0.002285102    2.180    0.541
        86 -10.2967    111.8529    147.3694   1.0652912570e+02   2.9736830282e+01    0.2741126    0.2133904 -66.45  0.001045481    1.340    0.254
        87 -10.2457    224.3303    146.2022   8.1193031296e+01   7.3320080376e+00    0.3208107    0.2862957 -47.66  0.001111869    1.023    0.023
        88  -9.2768    172.4780    144.5312   9.0985897869e+01   1.8057008085e+01    0.1553191    0.1467852 -63.68 0.0004445381    1.042    0.040
        89  -9.0874    182.4816    142.9765   8.8485931516e+01   1.6302313276e+01    0.2220471    0.1286671 -65.59 0.0008098951    2.508    0.601
        90 -10.0056     88.9898    143.4692   1.1197876310e+02   3.4753644322e+01    0.2245082    0.1504865  38.28 0.0006632845    1.577    0.366
        91 -10.1844    230.6216    141.1657   7.9072304234e+01   7.1502872508e+00     0.356422    0.2564358 -57.92  0.001363757    1.391    0.281
        92  -8.4894    215.2779    142.6561   8.2037162883e+01   9.7503529767e+00    0.1463906      0.10755 -69.44 0.0007006128    1.628    0.386
        93  -9.2881    250.1920    140.1750   7.5783850420e+01   3.8793206858e+00    0.2242441    0.1985326 -57.96 0.0009442422    1.120    0.107
        94 -10.2363    249.2167    135.1639   7.4930487083e+01   4.9668521884e+00    0.4474458    0.2132975 -48.08  0.001288496    1.801    0.445
        95  -9.8760    248.8173    130.6025   7.4077993149e+01   5.8727742482e+00    0.3027705    0.2128892  68.70  0.001602451    1.816    0.449
        96  -9.8353    187.4916    140.9044   8.6979957303e+01   1.5703178256e+01    0.2406709    0.1427755 -45.30  0.001030014    1.582    0.368
        97  -9.4977    123.6325    141.3084   1.0202743931e+02   2.8932146371e+01    0.1645289    0.1238747  80.39 0.0007036582    1.756    0.431
        98 -10.4477    225.1537    138.2734   7.9381621045e+01   8.7292361808e+00    0.5294775    0.2049367 -41.36  0.002023421    2.334    0.572
        99  -9.7560    219.5032    138.8544   8.0475056585e+01   9.6920192532e+00    0.3492535    0.2442612  82.01  0.001624199    2.107    0.525
       100  -9.5144    216.2111    135.4040   8.0309789154e+01   1.1014320551e+01    0.2397915    0.1869324  65.22 0.0008878586    1.483    0.326
       101  -9.5892    209.5077    138.0074   8.2075971973e+01   1.1816891935e+01    0.2170127    0.1882387 -49.89 0.0008234984    1.046    0.044
       102 -10.0003    147.7466    138.6068   9.5309375046e+01   2.4615897602e+01    0.2209209    0.1494461  54.49 0.0007855085    1.605    0.377
       103 -11.8102    141.0470    135.3261   9.6170832519e+01   2.6778310432e+01    0.6385012    0.3816705  24.59  0.002371279    2.490    0.598
       104 -10.7761    164.5445    136.1826   9.0815858701e+01   2.1586579279e+01    0.2846194    0.2266492  47.32 0.0006904881    1.304    0.233
       105  -9.1582    233.9091    133.2340   7.6889006148e+01   8.0631489048e+00    0.6629443    0.1471413 -42.05  0.001968249    4.003    0.750
       106 -11.0162    169.7244    133.9993   8.9151581754e+01   2.0955150277e+01    0.3875123    0.2361385 -46.51  0.001094703    1.572    0.364
       107 -10.5366    241.9845    133.2996   7.5642670792e+01   6.5823476069e+00    0.4690506    0.3355439 -64.55    0.0025297    1.508    0.337
       108 -10.9460     86.6443    130.0965   1.0969718621e+02   3.8421288311e+01    0.4175914    0.2830544  87.53    0.0017176    2.343    0.573
       109  -9.3115    131.4858    130.5026   9.7422072519e+01   2.9881021982e+01    0.1562033    0.1516306 -57.85 0.0002962747    1.001    0.001
       110 -10.3146    193.4501    127.9756   8.2855378671e+01   1.7160895484e+01    0.3801182    0.2503717 -69.89   0.00140849    1.986    0.496
       111  -8.9418     68.9832    128.0078   1.1446871412e+02   4.1662294833e+01    0.1784774    0.1610869 -51.48 0.0004791922    1.012    0.012
       112 -10.4329    206.3021    126.6715   8.0159940132e+01   1.4744424763e+01    0.2832793    0.2541934 -50.58  0.000682571    1.032    0.031
       113 -10.5979    212.1214    124.2968   7.8604687804e+01   1.4025161878e+01    0.4534864    0.3723334   7.85  0.002352254    1.699    0.411
       114 -10.6158    241.3441    124.4207   7.3930721912e+01   8.3471729459e+00    0.3698619    0.2988276 -86.87  0.002021427    1.420    0.296
       115  -9.3293    229.1216    125.2580   7.5984145195e+01   1.0480436381e+01    0.3115318    0.2397924  42.97   0.00170707    1.547    0.354
       116  -9.6877    161.5367    124.2753   8.8650481766e+01   2.4842646151e+01    0.2598401     0.237346  78.53 0.0005112229    1.140    0.123
       117 -10.2105    189.0224    123.0910   8.2593210101e+01   1.9107201765e+01    0.3643751    0.2454305 -44.28   0.00170056    1.402    0.287
       118 -10.0498    196.4866    121.4460   8.0786041475e+01   1.7845521244e+01    0.3794842    0.2515274  30.51  0.001666817    2.108    0.526
       119  -9.6913    221.4725    129.5125   7.8138860152e+01   1.1142323258e+01    0.2509082    0.2039487  69.92 0.0007999642    1.403    0.287
       120  -9.4672    221.8418    121.0264   7.6257042696e+01   1.2706988099e+01    0.2326321     0.210367  69.87 0.0009093818    1.207    0.172
       121  -9.3220    244.3222    119.5316   7.2502717968e+01   8.6997363159e+00    0.2998554    0.1816302 -79.66  0.001303078    2.719    0.632
       122  -8.8009    125.1165    120.0854   9.6500252537e+01   3.3566780112e+01    0.2066779    0.1820657 -86.85 0.0004203174    1.276    0.216
       123 -10.6981    230.4044    115.8919   7.3813472056e+01   1.1994273162e+01    0.4972074    0.3593732  53.05  0.002514386    1.570    0.363
       124 -10.9878    212.8757    115.4263   7.6523360775e+01   1.5594733960e+01    0.7024976    0.4131655  44.20  0.003222179    2.000    0.500
       125 -10.2115    231.9329     83.1585   6.6765808732e+01   1.7499882823e+01    0.5824133    0.2870818 -57.35  0.002566901    2.026    0.507
       126 -10.6302    241.8883    104.6736   6.9834479526e+01   1.1826378474e+01    0.6672288     0.242343 -47.75  0.002696753    2.365    0.577
       127 -11.1734    236.0995    100.0964   6.9695951396e+01   1.3751168765e+01    0.8924213     0.270652 -42.63  0.003277375    2.868    0.651
       128  -9.2694    236.0591     59.9946   6.1582867162e+01   2.0351464554e+01    0.5891773    0.2766148  82.70  0.002542019    2.902    0.655
       129 -12.2863    247.6021    106.8388   6.9497514417e+01   1.0374089108e+01     1.519262    0.4958874 -41.07  0.005842329    2.732    0.634
       130 -10.3371    243.1564     92.5413   6.7220600511e+01   1.3696823625e+01    0.4388761    0.3148132 -55.60  0.001515449    1.171    0.146
       131 -10.1913    237.7748     89.8468   6.7372679604e+01   1.5203138390e+01    0.3704686    0.2695448  88.83  0.001424081    1.472    0.320
       132  -9.6477    238.0734     84.0766   6.6163965404e+01   1.6118169958e+01    0.3445438    0.1960613 -63.13  0.001258203    1.791    0.442
       133 -12.0410    245.4453     80.9279   6.4631537079e+01   1.5198537630e+01     1.484521    0.5967735 -56.46  0.006200059    2.590    0.614
       134 -10.8174    235.5261     74.3679   6.4518307559e+01   1.8218994092e+01    0.8622608    0.1992877 -46.78  0.002949992    3.636    0.725
       135  -8.8492    203.5463    115.9710   7.8255750655e+01   1.7436047228e+01    0.2234817    0.1345295 -43.19  0.001012441    1.548    0.354
       136  -9.3924     52.1138    113.5862   1.1650785949e+02   4.7340627520e+01    0.2830252    0.1760458 -49.28 0.0009058462    1.407    0.289
       137  -9.4406    182.3628    116.1187   8.2272965977e+01   2.1976934549e+01    0.2567063    0.2131433  41.82 0.0008893525    1.327    0.247
       138 -10.1076    104.6234    111.7284   9.9979222291e+01   3.9498594741e+01    0.2780954    0.2387369  10.64 0.0004752086    1.298    0.229
       139  -9.0617    104.4969    107.5152   9.8911559688e+01   4.0450139806e+01    0.2185664    0.1435445 -57.97 0.0007233639    1.691    0.409
       140  -9.4340     15.1506    111.8414   1.2798023320e+02   5.1354848480e+01     0.181822    0.1569599 -73.07 0.0004680609    1.178    0.151
       141 -10.6262    215.2350    107.5796   7.4409455880e+01   1.6594965862e+01    0.3573138    0.2699653 -87.37  0.001561786    1.507    0.337
       142 -10.3043    183.4741    108.4180   8.0223215282e+01   2.3273653690e+01    0.3307138    0.1407146 -43.44  0.001230691    2.244    0.554
       143  -8.9371    197.6505    108.2670   7.7549777517e+01   2.0194699496e+01    0.1483531    0.1092868 -82.61 0.0003997273    1.618    0.382
       144  -9.1237    190.3238    108.3665   7.8909790963e+01   2.1772867035e+01    0.1482437    0.1196444   0.47 0.0007037665    1.797    0.443
       145  -9.5541     73.9683    108.4922   1.0835204565e+02   4.5500676960e+01    0.2104545    0.1425409  33.51 0.0007323103    1.569    0.363
       146  -8.9471    196.2008    103.3403   7.6670422415e+01   2.1453013614e+01    0.2027155    0.1334324  67.06 0.0006414427    1.691    0.409
       147  -9.8638    238.4435     64.6878   6.2242765800e+01   1.9157242868e+01    0.3351593    0.3196747 -30.09  0.001688398    1.465    0.317
       148 -10.6009    221.4895    100.5049   7.1895335831e+01   1.6606420064e+01    0.3343981    0.2120513 -83.45  0.001524133    2.158    0.537
       149 -10.0072    216.9384    100.0300   7.2488401448e+01   1.7634237305e+01    0.2607118    0.1965994  -8.37  0.001258551    2.189    0.543
       150  -8.9713    167.2483    100.9689   8.1659289441e+01   2.8373703078e+01    0.2046212    0.1248643 -44.10 0.0008918167    1.607    0.378
       151 -10.2006    130.3554     97.8225   8.9319135920e+01   3.7209312227e+01    0.2690763    0.2399934  17.48 0.0006150128    1.233    0.189
       152  -9.2796    195.9805     97.4882   7.5352165224e+01   2.2599605670e+01    0.2019623    0.1231342  84.81 0.0008094529    2.459    0.593
       153  -9.8186    176.8243     95.1114   7.8290082912e+01   2.7327959870e+01    0.3387533    0.2443909  -0.58  0.001445895    2.444    0.591
       154 -10.0020     51.2974     95.3805   1.1242886397e+02   5.1533553596e+01    0.2378225    0.2078342 -50.19 0.0002785159    1.142    0.124
       155 -10.5938    230.5783     94.1151   6.9222287372e+01   1.5896798607e+01    0.3849197    0.3299428 -42.41  0.001697551    1.237    0.192
       156  -9.8283    224.5615     94.2574   7.0104597179e+01   1.7092691077e+01    0.3428846    0.1258252 -39.36  0.001300365    2.670    0.626
       157  -8.8120    208.0454     95.2322   7.2827112492e+01   2.0387560599e+01    0.1769372    0.1158708  58.34 0.0005950121    1.600    0.375
       158 -10.7879    218.5042     90.4867   7.0177414927e+01   1.9011687865e+01    0.3681128    0.2013053 -54.17  0.001682398    1.734    0.423
       159  -9.9141    215.4746     89.5263   7.0416974170e+01   1.9818397172e+01    0.2609559    0.2004195 -39.88     0.001393    1.341    0.254
       160 -10.2139    196.4979     90.0728   7.3542888337e+01   2.3837732111e+01      0.35098    0.3020766 -51.67  0.001978568    1.124    0.111
       161  -9.5628    171.8372     91.1935   7.8290953089e+01   2.9190343106e+01    0.1954665    0.1775787  20.09  0.000608274    1.334    0.250
       162 -10.5614    225.5671     86.3146   6.8279176787e+01   1.8265365528e+01     0.437732    0.3768053  -7.34  0.002422911    1.714    0.416
       163  -9.8604    176.3840     87.2155   7.6431660251e+01   2.8879898523e+01    0.2892668     0.204305 -71.64 0.0008644174    1.647    0.393
       164  -9.2257    165.4749     87.4805   7.8619275951e+01   3.1323943964e+01    0.1483095    0.1361306 -83.43 0.0001073161    1.058    0.055
       165  -9.2819    139.5750     87.2550   8.4202323593e+01   3.7233850167e+01    0.1989343    0.1433404 -29.82 0.0005843052    1.555    0.357
       166  -8.9251    179.6420     85.3076   7.5359676377e+01   2.8479080817e+01    0.1532103     0.107583 -80.08 0.0007041309    1.729    0.422
       167  -8.5865     10.6222     85.2817   1.2427985662e+02   5.7546480264e+01    0.1111698   0.09097238  64.80  0.000701097    1.714    0.417
       168  -9.0674    116.9746     84.5181   8.9101066457e+01   4.2627430626e+01    0.2186069    0.1405234  46.10 0.0006663522    1.531    0.347
       169  -8.8226    205.7671     83.5556   7.0563459404e+01   2.2944011631e+01    0.1896883    0.1276764  77.74 0.0006459526    1.625    0.385
       170  -9.1579     87.9794     82.1371   9.6738028329e+01   4.8697700166e+01    0.2012903    0.1916023 -82.18   0.00051003    1.268    0.211
       171  -8.7679    159.3247     80.3588   7.8031860419e+01   3.4004568896e+01    0.1473227    0.1156778  14.92 0.0007043809    1.778    0.437
       172  -9.1031    194.4947     76.4944   7.0714837500e+01   2.6639151172e+01    0.2127666    0.1202163 -51.94 0.0009776775    1.730    0.422
       173  -9.7813    119.3769     78.8752   8.6851800402e+01   4.3157112563e+01    0.2911412    0.2051902  39.53  0.001244516    1.412    0.292
       174 -10.3797    214.4262     75.9983   6.7619103617e+01   2.2343055773e+01    0.3463211    0.2423552 -38.22  0.001712589    1.511    0.338
       175  -9.2082    189.7371     77.6251   7.1753867459e+01   2.7519718548e+01    0.2534252    0.1798079 -30.25  0.001270822    1.677    0.404
       176  -9.6666    175.9287     77.5006   7.4114603076e+01   3.0685358849e+01    0.2882384    0.1862141 -56.94  0.001370467    1.625    0.385
       177  -9.9614    220.6985     69.8543   6.5453270865e+01   2.2002621497e+01    0.5378955    0.2536368 -69.97  0.001967577    3.534    0.717
       178 -10.2323    226.5219     74.2420   6.5619986099e+01   2.0078344973e+01    0.3783344    0.3173491  87.45  0.001780061    1.143    0.125
       179  -9.0560    230.3830     71.7755   6.4622841462e+01   1.9679325484e+01    0.1948063    0.1583678 -10.84 0.0007869096    1.989    0.497
       180  -8.7793    126.4878     76.4728   8.4358927772e+01   4.2059271884e+01    0.1419292    0.1372678  50.80 2.692479e-05    1.019    0.018
       181  -9.4320    202.5720     72.2162   6.8490355095e+01   2.5546137183e+01    0.2661432    0.1528757  87.36 0.0008345917    2.360    0.576
       182  -8.9358    245.2572     59.3311   6.0460536619e+01   1.8620332125e+01     0.456709   0.09577679 -39.80  0.001523421    4.453    0.775
       183  -9.5513    250.0501     70.3567   6.2056672751e+01   1.6004983985e+01    0.2313615    0.1888416 -50.22 0.0008763261    1.236    0.191
       184 -10.5469    250.1084     65.2875   6.1085066616e+01   1.6778176190e+01    0.3860342    0.1907431 -48.62  0.001483039    1.686    0.407
       185  -9.7060    214.0473     57.2316   6.3624365028e+01   2.5370972232e+01    0.3906093    0.2808475  85.48  0.002090642    1.319    0.242
       186  -9.8046    227.0984     60.9002   6.2794713840e+01   2.2052415344e+01    0.3304496    0.1530938 -50.44  0.001575409    1.927    0.481
       187 -10.7167    225.6902     66.4297   6.4102922937e+01   2.1494462274e+01    0.6771387    0.4013015 -83.73  0.003345878    1.996    0.499
       188  -9.2246    221.1150     60.9407   6.3526352980e+01   2.3301851807e+01    0.2631299    0.2025554 -69.41 0.0008157282    1.129    0.114
       189  -9.2018    198.1008     63.6983   6.7215349871e+01   2.7893813974e+01    0.2313916    0.1697757 -55.47 0.0008654697    1.286    0.222
       190  -8.4933    181.3230     61.6503   6.9308224359e+01   3.2008540683e+01    0.1473794   0.09759496 -73.77 0.0007048777    1.748    0.428
       191  -8.5142    158.4800     61.4836   7.3258486367e+01   3.7293510818e+01    0.1392831    0.1274177  81.32 2.427754e-05    1.024    0.023
       192  -8.9958     47.8135     60.6366   1.0373430275e+02   5.8766458619e+01     0.169708    0.1106887  37.40 0.0009457833    1.711    0.415
       193  -9.5789    206.9281     59.3344   6.5005079355e+01   2.6605373956e+01    0.1892769    0.1577448  86.86  0.001148917    1.089    0.081
       194  -9.7529    199.3961     46.7859   6.3227086003e+01   3.0088200200e+01    0.3485169    0.2011261 -53.36   0.00181045    1.677    0.404
       195 -10.3689    202.5029     57.5212   6.5202260147e+01   2.7853205793e+01    0.2241061    0.1214549  64.91 0.0006660746    1.773    0.436
       196 -10.8884    201.5797     53.2371   6.4373398842e+01   2.8687928217e+01    0.5158572    0.3278784 -16.00  0.002352746    2.912    0.657
       197  -9.9969    198.4646     51.4964   6.4403153319e+01   2.9631738683e+01    0.2683901    0.1947325 -69.62  0.001074261    1.318    0.241
       198  -9.4283    171.6353     58.8104   7.0214381011e+01   3.4663908586e+01    0.2985861    0.1820613  56.42  0.001477768    1.552    0.356
       199  -9.8988    126.8025     58.5722   7.9107657264e+01   4.4897810732e+01    0.2164301    0.1645867 -42.68 0.0006933059    1.412    0.292
       200  -9.5486    250.3569     54.5266   5.9036065926e+01   1.8339647411e+01    0.2671756    0.1370955 -47.13  0.001399712    1.659    0.397
       201  -9.4149    233.2855     44.3983   5.8817512145e+01   2.3172816534e+01    0.3891123     0.356896  41.70  0.002669742    1.627    0.385
       202 -10.4940    236.3784     53.7155   6.0313016262e+01   2.1217852344e+01     0.578041    0.2513344  65.79  0.002808673    2.298    0.565
       203 -10.8855    228.6665     51.8533   6.0782417089e+01   2.3067004754e+01    0.4106619     0.388241 -49.85   0.00203176    1.376    0.273
       204 -10.0016    131.6022     54.2975   7.6775545016e+01   4.4466142604e+01    0.2615545    0.1261236 -40.47  0.001144316    2.211    0.548
       205  -8.9660     41.7583     55.0149   1.0420142493e+02   6.0477802763e+01    0.1572506   0.09353129 -40.55 0.0004179979    1.562    0.360
       206  -8.9416    238.6180     44.8261   5.8363902091e+01   2.2033865812e+01    0.2087949    0.1484169  80.11 0.0008138051    1.313    0.238
       207 -11.0768    244.3346     41.9938   5.7279596052e+01   2.1288803321e+01    0.3727123    0.2944609 -56.34  0.001425919    1.216    0.178
       208 -10.7520    244.6096     51.3417   5.9007188081e+01   1.9920117413e+01     0.400738    0.2417383 -74.84  0.001593045    1.596    0.373
       209 -10.4187    249.8145     46.6132   5.7622328776e+01   1.9577960727e+01    0.5384068    0.1879199 -41.03  0.002466529    2.614    0.617
       210  -9.3811    221.4855     52.9290   6.1818163075e+01   2.4414588437e+01    0.2684987    0.1507773  63.26  0.001419423    1.759    0.432
       211  -8.9554    207.5681     53.5147   6.3648965169e+01   2.7327321079e+01    0.1314959    0.1109519 -78.69 3.882951e-05    1.010    0.010
       212  -9.3312    163.3066     52.7113   7.0101266009e+01   3.7474344596e+01    0.2488766    0.1531333 -49.37  0.001238445    1.709    0.415
       213  -8.4408     87.3461     49.6821   8.6755734869e+01   5.4251983871e+01    0.1237603    0.1058233  88.93  0.000704872    1.725    0.420
       214  -8.4732    158.0000     47.9762   6.9803482096e+01   3.9355661769e+01    0.2038057   0.07693739 -34.65 0.0007945252    2.888    0.654
       215 -10.3187    215.7555     42.6040   6.0341732419e+01   2.7089292959e+01    0.4797056    0.3325775 -22.37  0.002518944    2.187    0.543
       216  -9.5315    219.7720     42.2040   5.9811570668e+01   2.6287720218e+01    0.2521519     0.177501 -33.04  0.001478517    1.746    0.427
       217 -10.8195    185.8246     37.1049   6.2826096053e+01   3.4421525201e+01    0.5969257    0.2765534 -36.53  0.002629211    2.303    0.566
       218  -9.8707    192.6042     40.2026   6.2636934302e+01   3.2494756044e+01    0.2325041    0.1858867 -21.19  0.001190391    1.702    0.412
       219  -8.7000     76.9829     43.9880   8.8014146527e+01   5.6921343015e+01     0.152938    0.1330722   0.88 0.0005776102    1.073    0.068
       220 -10.1181    189.5473     43.3062   6.3752496774e+01   3.2769638707e+01    0.4317603    0.1747178 -33.50  0.001824782    2.843    0.648
       221 -10.2674    176.0514     40.7660   6.5068564986e+01   3.6170726646e+01      0.48874    0.2870654  86.61  0.002363121    1.972    0.493
       222  -8.7451    134.3483     42.6677   7.2843921176e+01   4.5435880392e+01    0.1367105   0.09995141 -79.50 0.0007048649    1.770    0.435
       223  -9.5096    209.0880     39.5629   6.0468384644e+01   2.8937590236e+01    0.2117883     0.149511 -60.98 0.0006976598    1.290    0.225
       224  -9.2350    199.5860     20.7370   5.7540864440e+01   3.3337628458e+01     0.233161   0.09147491 -43.60  0.001113754    2.435    0.589
       225 -11.5737    201.1625     37.9078   6.1051706261e+01   3.0891453551e+01    0.4615507    0.2863474 -29.13  0.002167428    2.069    0.517
       226 -11.4241    204.0988     31.7159   5.9374966044e+01   3.1037660299e+01    0.3612388    0.2126664 -68.29  0.001953466    1.717    0.417
       227  -9.6084    235.1455    248.0809   9.8782496241e+01  -1.2598192451e+01    0.2555864     0.156489  33.02  0.001408472    1.646    0.392
       228  -9.4069    165.6755     39.5964   6.6366428852e+01   3.8696490538e+01    0.2340234     0.159949 -41.95  0.001057842    1.560    0.359
       229  -8.6759    153.6857     40.3113   6.8541618240e+01   4.1353163343e+01    0.1341949   0.09588215 -77.66 0.0004744259    1.634    0.388
       230 -10.2299    238.5419     38.2806   5.7128144135e+01   2.2944330218e+01    0.2725595    0.1923099  82.90  0.001224906    1.282    0.220
       231 -10.6577    234.9717     31.4717   5.6175729525e+01   2.4559514224e+01    0.5215118    0.2017393  66.46   0.00256341    2.411    0.585
       232  -8.7812    233.0123     38.0000   5.7605822070e+01   2.4100372600e+01    0.2796451    0.1244206  83.35  0.001055004    2.624    0.619
       233 -10.7527    227.5927     33.0331   5.7173262966e+01   2.5867090458e+01    0.6063173    0.2633915 -53.09  0.003047301    2.077    0.518
       234  -8.8868     61.2536     37.9955   9.1111889413e+01   6.0344465040e+01    0.1727406    0.1403276 -11.36  0.001131795    1.149    0.130
       235  -8.7717    187.0195    247.2603   1.0796777673e+02  -5.6308953891e+00    0.1660004    0.1019046  32.79 0.0004187567    1.489    0.328
       236  -8.9375    226.7598    244.3699   9.9705885902e+01  -1.0926594895e+01    0.1716171     0.103306  21.35 0.0008605813    1.621    0.383
       237  -8.6242    230.6980    237.3696   9.7756053891e+01  -1.0367912206e+01    0.1103516    0.1015346 -75.02 0.0007032643    1.745    0.427
       238  -9.3632    206.4590    237.1145   1.0236400508e+02  -6.8597490950e+00    0.2584816    0.1644017  48.93  0.001328003    2.016    0.504
       239  -9.1660    243.7416    236.3701   9.5194942675e+01  -1.1940579892e+01    0.1573565    0.1478297  77.43 0.0008581483    1.798    0.444
       240  -9.2325    219.0053    235.5026   9.9639380252e+01  -8.4313040797e+00    0.1952361    0.1167995  32.39  0.001046949    1.633    0.388
       241  -9.3311    238.9851    231.9662   9.5277382946e+01  -1.0632588704e+01    0.2674903    0.1482223  46.21  0.001343667    2.519    0.603
       242  -8.7300    230.4689    229.4854   9.6403402763e+01  -9.0708986013e+00    0.1268903     0.107161  -9.60 8.943599e-05    1.026    0.025
       243  -8.9900    248.1460    227.6621   9.2867754089e+01  -1.1161377556e+01    0.1646784     0.148572  35.93 0.0006605751    1.498    0.333
       244  -8.8681    211.2523    228.4170   9.9888817465e+01  -6.0941204581e+00    0.1747166    0.1191861  41.38 0.0009467862    1.603    0.376
       245  -9.2066    164.4395    228.3334   1.0953548024e+02   1.4798070851e+00     0.252266    0.1214749  37.57  0.001082315    1.957    0.489
       246 -10.5777    244.1357     21.8444   5.3621306543e+01   2.3946192403e+01    0.3055201    0.2650159 -61.34   0.00125927    1.338    0.253
       247  -9.1782     99.1915    225.9256   1.2358824902e+02   1.2959467775e+01    0.2160048    0.1719867  73.72 0.0008155701    1.260    0.206
       248 -10.1218    239.0174    220.7203   9.3248158971e+01  -8.8219646191e+00    0.3128577    0.2788113  84.93   0.00195681    1.879    0.468
       249  -9.6992    242.2322     33.9825   5.5986733426e+01   2.2779871385e+01    0.2787122    0.1593073 -72.27  0.001278532    1.604    0.377
       250  -8.8049    105.4669     34.4888   7.6845068035e+01   5.2668226898e+01    0.1275467    0.1129257  40.97 0.0001066527    1.026    0.025
       251 -10.9781    224.8526     22.8135   5.5454188592e+01   2.7712342744e+01      0.42355    0.2772184  82.67  0.002681962    1.315    0.239
       252 -10.7856    215.0080     30.4296   5.7922996331e+01   2.8843135385e+01    0.5101894    0.3248649  71.95  0.003053176    1.420    0.296
       253  -9.5845    221.6305     30.9868   5.7359728656e+01   2.7371568404e+01     0.358789    0.1819786 -44.42  0.001949418    1.855    0.461
       254  -9.1444    181.3126     32.2978   6.2313455543e+01   3.6040269699e+01    0.1219361   0.09246595  43.36 0.0002606019    1.602    0.376
       255  -8.6440    229.5157    222.4926   9.5319286095e+01  -7.7772642133e+00    0.1291811    0.1098783 -11.88 0.0001604378    1.018    0.017
       256 -10.2977    190.9850     33.2766   6.1282201527e+01   3.3743850303e+01    0.1807382    0.1510907  84.99  0.001159962    1.037    0.036
       257 -10.5864    118.4723     24.5108   7.0768651442e+01   5.1027470278e+01    0.3502606      0.20733 -46.39  0.001858386    2.080    0.519
       258 -10.5592    144.0713     24.8562   6.6049126695e+01   4.5340683470e+01    0.3867245    0.1973783  65.75  0.001919881    1.752    0.429
       259  -9.5698    109.4610     25.5036   7.3037501174e+01   5.2837656230e+01    0.1253671    0.1083605  45.96 9.482545e-05    1.013    0.013
       260  -8.8109    164.1546     33.1462   6.4979476120e+01   3.9841166492e+01    0.1771556     0.138854 -74.21 0.0008811657    1.305    0.234
       261  -9.8934    165.6269     19.4745   6.1373311329e+01   4.1043378549e+01    0.2369148     0.122985 -60.28  0.001140992    2.362    0.577
       262  -9.2000    150.3597     18.0338   6.3219220732e+01   4.4632216568e+01    0.3166133    0.1072838 -50.54  0.001138644    4.419    0.774
       263  -8.6633    141.2285     16.9573   6.4376318230e+01   4.6783285861e+01    0.1443309    0.1039527 -30.88  0.000798618    1.629    0.386
       264  -8.6489     48.5418    219.5188   1.3393630186e+02   2.1777646497e+01    0.1314733     0.110532  83.27 0.0001929598    1.022    0.021
       265  -8.7567    160.9366    218.7871   1.0865460634e+02   3.9945253553e+00    0.1923195    0.1101644  36.39 0.0004717243    1.685    0.407
       266 -10.2706    214.9809    215.5225   9.6808918525e+01  -4.3920554013e+00     0.288575    0.2332111  -7.96  0.001483859    1.181    0.153
       267  -9.7045    219.0607    215.5009   9.6015162667e+01  -5.0177594905e+00    0.2558602    0.1859602  10.57   0.00118807    1.451    0.311
       268  -8.5929    187.4182     16.5182   5.7969283581e+01   3.6480918503e+01    0.1228158    0.0985597 -87.37 0.0001559019    1.048    0.046
       269  -9.1584    162.7978     15.1174   6.0690860497e+01   4.2127184987e+01    0.1966173    0.1470859 -83.11  0.001225038    1.310    0.236
       270  -8.8788    105.4867     14.5104   7.0421911194e+01   5.4737788918e+01     0.121272    0.1027312  49.67 3.769173e-05    1.038    0.036
       271  -9.0731    207.7184     13.4266   5.5206109731e+01   3.2400336267e+01    0.1552405   0.09346934  65.95 0.0004106189    1.526    0.345
       272  -9.3486    247.7959    216.3591   9.0885041967e+01  -9.3053751423e+00    0.2811219    0.1921457  38.48  0.001662127    1.715    0.417
       273 -10.1497    187.5013    214.3156   1.0214230798e+02   3.0911745735e-01    0.3529371    0.2400936 -81.21  0.001439919    3.122    0.680
       274 -10.2281    132.5952    214.1016   1.1421164402e+02   9.9705588658e+00    0.2917356    0.2453649  76.56 0.0008518285    1.325    0.245
       275  -8.8756    232.8233    213.8212   9.3110642585e+01  -6.7806148240e+00     0.170241    0.1490292 -46.74  0.001064642    1.363    0.267
       276  -9.3499    207.1445    208.9548   9.7121366362e+01  -1.9372971617e+00    0.2158235    0.1659335 -73.29  0.001088788    2.034    0.508
       277  -9.1375     86.4860    208.5182   1.2405131843e+02   1.8979914228e+01    0.1436571     0.127452  77.74 0.0001312474    1.034    0.033
       278  -9.9896    166.4109    205.2271   1.0499597497e+02   5.8489301196e+00    0.3093689    0.1425426 -51.71  0.001205438    2.306    0.566
       279  -9.1396    188.1905    203.8004   1.0002209948e+02   2.2698074723e+00     0.230787     0.162294  84.32 0.0009502778    2.845    0.648
       280  -9.1672    173.3240    203.6463   1.0317963909e+02   4.9374261708e+00    0.1461923    0.1167959  83.38 0.0007047015    1.761    0.432
       281  -9.1925     65.2309    202.9464   1.2825573083e+02   2.3468171964e+01    0.1868643     0.107191 -68.56 0.0008776272    1.641    0.391
       282  -8.8403    160.4664    202.5131   1.0581381633e+02   7.5063892128e+00    0.1438361    0.1416456  20.21 0.0001365028    1.026    0.025
       283  -8.8691     16.4652    201.4617   1.3904734932e+02   2.9661928609e+01    0.1268508    0.1008281 -89.32 0.0001210228    1.016    0.015
       284  -9.4892    184.9807    197.2765   9.9440837743e+01   4.1656094860e+00    0.2071227     0.191209  15.50 0.0008689085    1.074    0.069
       285  -9.8801    248.3364    194.0209   8.6620180322e+01  -5.5998120457e+00    0.3066726    0.1993349  45.01  0.001688699    1.911    0.477
       286  -9.0587    231.5037    194.4925   8.9685367402e+01  -3.1507737107e+00    0.2215683    0.1266789  50.76  0.001031594    2.370    0.578
       287  -9.5382    163.0230    193.8064   1.0357754842e+02   8.9313030896e+00    0.2166377    0.1704861 -75.05   0.00104515    1.592    0.372
