#   1 NUMBER                 Running object number                                     
#   2 MAG_AUTO               Kron-like elliptical aperture magnitude                    [mag]
#   3 X_IMAGE                Object position along x                                    [pixel]
#   4 Y_IMAGE                Object position along y                                    [pixel]
#   5 X_WORLD                Barycenter position along world x axis                     [deg]
#   6 Y_WORLD                Barycenter position along world y axis                     [deg]
#   7 A_WORLD                Profile RMS along major axis (world units)                 [deg]
#   8 B_WORLD                Profile RMS along minor axis (world units)                 [deg]
#   9 THETA_WORLD            Position angle (CCW/world-x)                               [deg]
#  10 FWHM_WORLD             FWHM assuming a gaussian core                              [deg]
#  11 ELONGATION             A_IMAGE/B_IMAGE                                           
#  12 ELLIPTICITY            1 - B_IMAGE/A_IMAGE                                       
         1 -12.0989     18.0741     40.4864   1.2444492976e+02   6.6570751321e+01     1.010158    0.7510263 -77.73   0.00494681    1.746    0.427
         2 -11.6150    163.2510     25.5265   7.3831034874e+01   4.1805947662e+01     3.281567    0.4706137  61.60  0.008523783    4.948    0.798
         3 -12.2098     51.6189     34.8706   1.0809338947e+02   6.4116705150e+01     1.293126      1.10409 -24.88  0.007214199    1.049    0.046
         4 -11.4330    148.6716     16.0734   7.3066754113e+01   4.6616315390e+01      1.08604    0.6565365  -9.57  0.005003666    2.007    0.502
         5 -12.2387    163.7581     10.9481   6.8974779811e+01   4.3261305845e+01     1.299016     1.086506  15.18  0.007314777    1.373    0.272
         6 -12.1110     61.5746     71.2106   1.1692500186e+02   5.5717558499e+01     3.084959     1.990755 -68.44   0.01531173    1.884    0.469
         7 -12.5670    135.0145      4.9879   7.1428127856e+01   5.1122055964e+01     1.886906    0.8408762  49.60   0.00819478    2.006    0.501
         8 -11.9299     68.6050     20.6924   9.5376311766e+01   6.3727733813e+01     1.452789    0.5260524  33.00  0.004821542    3.812    0.738
         9 -12.9646     19.0919     99.8514   1.3720225703e+02   5.3635913528e+01     2.248639    0.5541123 -58.18    0.0092368    2.786    0.641
        10 -12.1637     37.6361     47.0867   1.1832778545e+02   6.3522911373e+01     1.196697    0.9117758  64.65  0.007101351    2.062    0.515
        11 -11.9437     88.2319     32.4766   9.3906424514e+01   5.8476176273e+01     1.761374    0.3776158 -37.07  0.005405756    4.304    0.768
        12 -12.2501     92.2969     17.0423   8.6063555067e+01   5.9715550857e+01     0.645645    0.3628387  -1.44  0.002884745    2.366    0.577
        13 -12.2315    130.5757     20.1095   7.7943070798e+01   5.0696772358e+01     1.232975    0.6908605  68.65  0.005518335    1.919    0.479
        14 -11.2792    113.4760      9.2082   7.7328704332e+01   5.5905216022e+01     1.029872    0.7195276  52.02  0.005624704    1.306    0.235
        15 -12.3332    112.0737     22.1309   8.2928588838e+01   5.4825675438e+01    0.7685549    0.5839859  65.18  0.001931223    1.435    0.303
        16 -11.4856    117.1410     15.6961   7.9137664349e+01   5.4390333547e+01    0.3242437     0.300703 -85.43 0.0004603696    1.247    0.198
        17 -13.2434     99.9380      6.7593   7.9481331467e+01   5.9188027932e+01    0.8315651    0.4127387 -31.77  0.002145777    2.081    0.520
        18 -12.1028     93.3121      8.5236   8.1987181553e+01   6.0436473270e+01    0.6217088    0.4031231  38.38  0.002834788    1.419    0.295
        19 -11.4672    142.5784     39.4520   8.2443508136e+01   4.5279866267e+01     2.060272     0.760654  42.01  0.006659267    3.313    0.698
        20 -11.6575    122.2234     55.6358   9.2958595749e+01   4.7620084762e+01     2.003312    0.8775831 -30.54  0.007367531    2.502    0.600
        21 -11.7423    111.1394     64.5207   9.9033515158e+01   4.8451453256e+01     1.217639    0.8318527 -18.09  0.002697192    1.805    0.446
        22 -12.7544     41.0646     64.9607   1.2246294148e+02   5.9506240628e+01     1.594366      1.16761  41.45  0.008840914    1.658    0.397
        23 -12.6339     86.8164     51.9900   1.0198967531e+02   5.5530860700e+01     2.073805     1.049032 -31.48  0.008880347    2.087    0.521
        24  -9.6409     27.1847      4.6800   1.0501045064e+02   7.1825474755e+01    0.9527192    0.4669116  31.69   0.00516661    2.179    0.541
        25  -8.9903     31.2161     11.5319   1.0657187377e+02   7.0384947150e+01    0.3297088    0.1829422 -25.68  0.001719649    1.613    0.380
        26 -11.8945     77.9086      7.4075   8.5957245478e+01   6.3654098251e+01    0.5667784    0.3674412   1.61 0.0005476866    1.617    0.381
        27 -12.4524     19.1713     13.6798   1.1359263133e+02   7.1296454288e+01    0.6173173    0.5806862   4.56  0.004802564    1.422    0.297
        28 -12.6674     63.6378      4.2331   8.9156083989e+01   6.6603170192e+01     1.853802    0.4619659  51.06  0.006731295    4.213    0.763
        29 -12.2216     28.5647     26.8508   1.1476636172e+02   6.8194772943e+01     1.111113    0.5626644 -35.96  0.006162916    1.670    0.401
        30 -12.3398     41.3129     16.3015   1.0424617292e+02   6.8449418006e+01     1.005926    0.5690202 -38.86  0.005782149    1.621    0.383
        31 -12.6127     50.3643     10.9296   9.7702611317e+01   6.7944868197e+01    0.3639507     0.261912  23.50  0.000328945    1.340    0.254
        32 -11.9609      7.7238     26.6963   1.2464508775e+02   6.9915239725e+01     0.813611    0.3689385   8.52   0.00440734    2.872    0.652
        33 -11.1159      8.9954     19.4490   1.2130620841e+02   7.1140412590e+01    0.4024688    0.2197499  18.47  0.002534625    2.114    0.527
        34 -11.2558      2.7232      3.0370   1.1750463061e+02   7.4316205538e+01    0.4233688    0.2408336   7.09  0.002016179    1.919    0.479
        35 -11.4660      2.8523     18.6979   1.2419261904e+02   7.1669153403e+01    0.4102319    0.1732511 -51.11  0.001626278    1.755    0.430
        36 -12.5120      6.7089     11.8868   1.1936038224e+02   7.2598870130e+01     1.200477    0.2964358 -35.68  0.004541756    4.392    0.772
        37 -12.0007      3.4671      8.4676   1.1963180677e+02   7.3389368355e+01    0.5630391    0.1852601 -40.27  0.002918182    2.252    0.556
        38 -11.8487    184.8703     26.3398   7.0826185009e+01   3.6076925195e+01    0.6252235    0.4260246  10.70 0.0009753808    2.075    0.518
        39 -10.1141    230.5911     19.0896   6.3621337902e+01   2.5388443195e+01    0.5429335    0.4325794 -26.92  0.003153291    1.360    0.265
        40 -10.1766    243.1199     12.4340   6.0925991839e+01   2.3191694750e+01    0.4401349    0.3353715 -15.80  0.002558478    1.612    0.380
        41 -10.7913    244.4068     19.6018   6.2522678719e+01   2.2073248637e+01    0.5795575    0.3615254  87.21   0.00241385    1.619    0.382
        42  -9.5162    226.8981      9.1079   6.1451108812e+01   2.7393775267e+01    0.3055442    0.2259899 -63.44  0.001087419    1.216    0.178
        43 -11.5685    223.1642      2.0640   5.9998808135e+01   2.9030432958e+01    0.5150786    0.2940269  82.72   0.00262118    1.657    0.396
        44  -9.7192    230.0234      3.0130   5.9689833458e+01   2.7283097005e+01    0.3478901    0.2288496  30.04  0.001755838    2.316    0.568
        45  -9.3037    237.2958     14.5761   6.1915367335e+01   2.4309627946e+01    0.2752734    0.1788081 -79.53  0.001101165    1.508    0.337
        46 -10.5130    233.0013     11.4059   6.1503403162e+01   2.5680028307e+01    0.4708762    0.2591639 -45.52  0.001648476    1.612    0.380
        47  -9.5391    221.8204     11.2408   6.2437814202e+01   2.8399257698e+01    0.3933701    0.1935246 -48.62  0.001367161    1.884    0.469
        48 -10.3001    212.4454     14.8232   6.4272155723e+01   3.0330489343e+01    0.5525004    0.2532982 -34.77  0.001709311    2.035    0.509
        49  -9.9217    216.9569     14.5922   6.3763605311e+01   2.9231293146e+01    0.4143685    0.3157986  -3.56   0.00198741    1.716    0.417
        50 -10.5374    202.3363     18.6755   6.6405906948e+01   3.2457933333e+01    0.6413994     0.386248  44.41  0.003006218    1.943    0.485
        51  -9.7175    185.0520     14.3048   6.7190506436e+01   3.7390130272e+01    0.4592064    0.2209101  60.17  0.001999636    1.898    0.473
        52  -9.3481    178.5305     14.7431   6.8154550128e+01   3.9037443489e+01    0.3098446    0.2518204  20.52 0.0007084928    1.472    0.321
        53 -10.4188     54.7345     18.0869   9.9431092779e+01   6.6317253858e+01    0.4894657    0.2893343  -4.02  0.002061722    2.154    0.536
        54 -10.5349    189.9789      8.1457   6.4797888503e+01   3.6750586769e+01    0.3793755    0.2213571  55.72  0.001442376    1.670    0.401
        55  -9.8845    196.7726      4.0144   6.2899235130e+01   3.5416365871e+01    0.5769621     0.360061 -21.74  0.002923293    1.794    0.443
        56 -11.7131    204.2334      6.5922   6.2869022226e+01   3.3267869084e+01    0.5833532    0.4163956  53.30 0.0003370765    1.484    0.326
        57 -11.7852    209.7264      3.7134   6.1576011564e+01   3.2175766069e+01    0.5764367    0.3256072 -88.46 0.0004968239    1.783    0.439
        58  -9.9245    171.2457      1.3065   6.4912572023e+01   4.2226839690e+01    0.2440219    0.1189609  73.75 0.0002000407    1.902    0.474
        59 -10.2471    173.4136      8.7490   6.6964309412e+01   4.0975624824e+01    0.3161496    0.2375908 -43.94 0.0005324535    1.368    0.269
        60 -10.0480    175.4829      4.0993   6.5267563325e+01   4.0881375058e+01     0.383137    0.2652865  70.88 0.0007679664    1.311    0.237
        61 -10.8614    247.7191      6.1146   5.9105699512e+01   2.2832054645e+01    0.6278914    0.3488917 -57.77  0.003310919    1.606    0.377
        62  -9.2468    180.5954      7.4963   6.5689476947e+01   3.9237172715e+01    0.3248522    0.1403607 -19.93  0.001305832    2.676    0.626
        63  -9.5026    157.6624      7.1508   6.8596808159e+01   4.5198563745e+01    0.2661415    0.1890774 -75.45 0.0007018371    1.580    0.367
        64  -8.8643    241.9690      1.4764   5.8440479150e+01   2.4638295839e+01    0.2389946    0.1143434  85.25  0.001131516    2.082    0.520
        65  -8.5141    189.7087      1.3831   6.2874605451e+01   3.7469665633e+01    0.1866089    0.1117631  63.42 0.0008050019    1.533    0.348
        66 -10.9052    124.0769      2.9706   7.2643662268e+01   5.3968028688e+01    0.4268073    0.2521577  49.40  0.001088744    1.504    0.335
        67 -12.2329     71.7299     31.1788   9.8898787271e+01   6.1666682363e+01      3.00792     1.347839  50.95   0.01287134    2.840    0.648
        68  -9.5116    136.5931    225.9081   1.2726369198e+02   1.0502913985e+01    0.3001229    0.1202748 -53.53  0.001400468    2.982    0.665
        69  -8.0900    115.2715    223.3322   1.3094935379e+02   1.4390191868e+01    0.1055468    0.0957361   5.10 0.0006985185    1.591    0.371
        70  -8.9357     26.4537    212.4854   1.4638408716e+02   2.8389190090e+01    0.1115699   0.07925247  74.35 0.0002318795    1.005    0.005
        71  -8.0373    244.6981    204.6469   1.0436615478e+02  -4.6555725186e+00    0.1278027   0.08066361   7.51 0.0007038903    1.703    0.413
        72 -10.4406     26.8756    191.6476   1.4492497451e+02   3.2474538098e+01     0.331863    0.2152926 -81.38   0.00209159    1.307    0.235
        73 -11.5443     17.3201    186.1528   1.4638939352e+02   3.4561918223e+01    0.4505132    0.2969463  42.37  0.000686125    1.617    0.381
        74 -10.6834      5.9782    185.7640   1.4853390840e+02   3.5686047729e+01    0.4383561    0.1470079  56.47  0.002262553    2.535    0.606
        75  -9.5193     38.8654    176.7864   1.4130249052e+02   3.4303988770e+01    0.2659943    0.1514771 -77.53  0.001225379    1.503    0.335
        76  -9.3517      1.7186    177.9428   1.4889581672e+02   3.7653848476e+01     0.162498     0.105451  87.38 0.0006957066    1.129    0.115
        77  -9.3566     62.8607    167.8656   1.3512637029e+02   3.3344243058e+01    0.2690798    0.1633806 -78.13   0.00115196    1.521    0.342
        78  -9.6822     92.0058    120.2851   1.1994349529e+02   4.0003736728e+01    0.3696955    0.2890012 -11.81  0.001834741    1.883    0.469
        79 -10.3852    105.2008    116.3269   1.1548484499e+02   3.8602692831e+01    0.4945526    0.2079047  39.70  0.001842838    2.574    0.611
        80  -9.3451     41.6505    118.2920   1.3354773477e+02   4.7316645337e+01     0.209068    0.1565654  75.79 0.0006207884    1.371    0.270
        81  -9.0629     39.3021    115.6313   1.3378311562e+02   4.8182986067e+01    0.2343359    0.1338713 -87.18 0.0009402964    1.902    0.474
        82  -9.8641     97.7853    114.8964   1.1716156204e+02   4.0262228253e+01    0.3062507    0.3034819 -86.11  0.001039258    1.107    0.096
        83 -10.2243    132.8227    111.0177   1.0698098528e+02   3.4279926994e+01    0.6692289    0.4221385 -38.00  0.002896875    1.681    0.405
        84  -9.3962    134.0131    103.1524   1.0460224111e+02   3.5710405851e+01    0.3157892    0.2980494 -62.34  0.001494342    1.038    0.037
        85  -8.6560     45.2063    113.3435   1.3172612876e+02   4.8097879273e+01    0.1689808    0.1124387  46.71 0.0009396428    1.663    0.399
        86  -9.0462     27.8601    115.9192   1.3703079634e+02   4.9205597708e+01    0.1818185    0.1327247 -61.43 0.0002774915    1.211    0.174
        87  -9.5294    105.5246    109.6897   1.1380071577e+02   4.0053656651e+01     0.293454    0.2795334 -86.82  0.001608425    1.042    0.041
        88  -9.2612     34.8652    109.2903   1.3403130371e+02   5.0102907615e+01    0.2651693    0.2120031 -42.82  0.001682855    1.386    0.279
        89  -8.6840     38.6532    107.2160   1.3257542866e+02   5.0216095021e+01    0.1857548    0.1236661 -51.83 0.0007271957    1.398    0.285
        90  -9.5855    120.4943    109.0226   1.0962664852e+02   3.7287704938e+01    0.2271458    0.2107715  57.60 0.0005866887    1.103    0.093
        91  -8.6414     53.5109    105.4331   1.2783384887e+02   4.9008024742e+01    0.2502983    0.1187538 -73.21  0.001037502    2.405    0.584
        92  -9.1140      9.3534     99.8025   1.4009670655e+02   5.4330160764e+01    0.2070041    0.1765689  84.43  0.001140479    1.197    0.165
        93 -10.5303      4.0518     99.7791   1.4165000087e+02   5.4664573489e+01    0.4885581    0.2941813 -63.54  0.001698338    1.297    0.229
        94 -11.2838      3.2325     89.1178   1.4048074133e+02   5.7106139811e+01    0.7188254    0.3885595 -71.91  0.003236409    1.407    0.289
        95 -11.2394      4.9117     80.4831   1.3864857626e+02   5.8935923481e+01    0.4867321    0.2541545 -48.77   0.00264675    1.678    0.404
        96 -11.6979     13.1318     89.0819   1.3736017170e+02   5.6509770033e+01    0.4373521    0.2429038 -67.70 0.0006391816    1.386    0.279
        97  -9.2412    151.3395    100.4323   9.9650295005e+01   3.2366209174e+01     0.323106    0.1948623 -45.25  0.001349455    1.638    0.389
        98  -9.0665    140.8161    101.1126   1.0235682626e+02   3.4631985818e+01    0.2382849    0.2120888 -76.34 0.0007590393    1.199    0.166
        99 -10.5681    114.9831    100.4908   1.0885222189e+02   4.0277780540e+01    0.6760304    0.4922848  35.72  0.003234867    1.520    0.342
       100 -10.6583    117.6657     98.3108   1.0753595328e+02   4.0210232717e+01    0.6459048    0.4029232  72.89    0.0024041    2.632    0.620
       101  -8.7785     97.5275    103.8627   1.1457075862e+02   4.2831467128e+01    0.2977835    0.1870672  60.90  0.001303716    2.010    0.502
       102 -11.2541     81.0732     68.8475   1.0964684546e+02   5.3277014314e+01    0.7423406    0.4624372  24.94  0.001138762    2.029    0.507
       103  -9.9450    159.2428     96.8542   9.6843554057e+01   3.1224331291e+01    0.4084418    0.3716746  43.92  0.001342269    1.127    0.112
       104  -9.8545    187.9727     93.2542   8.9852009273e+01   2.4946854794e+01    0.4532973    0.3292583 -51.48  0.001527561    1.422    0.297
       105 -12.4232    119.5758     86.3344   1.0360243709e+02   4.2355697673e+01     2.546123     1.081916 -34.80  0.008596765    2.861    0.650
       106  -8.9862      9.0277    167.6954   1.4678425570e+02   3.9190333099e+01    0.1567516    0.1216218  74.51  0.001137003    1.127    0.113
       107  -9.2005     13.4237    164.9686   1.4566959915e+02   3.9394532242e+01    0.2099186    0.1575391  54.77  0.001460013    1.345    0.257
       108 -11.6587     96.6658     62.5096   1.0260944918e+02   5.1740521875e+01    0.9723179    0.7200559  -6.86  0.003426714    1.698    0.411
       109 -11.2679    105.7895     53.7698   9.6817791899e+01   5.1514506314e+01     1.308123    0.4862754  40.27  0.003828733    3.089    0.676
       110 -10.5149    102.3891     70.7529   1.0363156175e+02   4.9027549783e+01    0.5478223    0.3447078 -57.58  0.002299874    1.875    0.467
       111 -10.5897      2.4970    159.7517   1.4759694093e+02   4.1423894254e+01    0.5505109    0.1966411 -85.62   0.00269371    2.371    0.578
       112 -10.5457    135.0619     34.1818   8.2187860740e+01   4.7860926347e+01    0.3702546    0.2736319  49.25 0.0004639224    1.297    0.229
       113  -8.9830    206.4596     91.3206   8.5954482157e+01   2.0804506642e+01    0.3295828    0.1323799 -40.08  0.001101198    2.326    0.570
       114 -10.5017    130.5962     40.3219   8.5421975567e+01   4.8085142588e+01    0.6362658    0.3708533 -15.22  0.002288669    2.160    0.537
       115  -9.2138    194.2183     90.3150   8.7872341988e+01   2.3947213019e+01     0.323931    0.2404365  -2.74  0.001443418    1.798    0.444
       116  -9.3027     74.2585     88.9628   1.1766917069e+02   5.0021058334e+01     0.316851    0.2176399  30.67  0.001625514    1.689    0.408
       117  -8.9473     76.8605     85.0319   1.1579789539e+02   5.0500459346e+01    0.2872425    0.1810426 -48.14 0.0007855708    1.429    0.300
       118 -10.0943    152.7617     87.5065   9.5646069767e+01   3.4598592412e+01    0.3672678    0.2871107  43.97  0.001008927    1.318    0.241
       119  -9.0072    238.0210     86.5156   7.9762616187e+01   1.4247897595e+01    0.2085114    0.1434128  60.48 0.0009192477    1.594    0.373
       120 -10.0939    161.1215     82.4991   9.2300004816e+01   3.3525051486e+01    0.5585165    0.4576602 -66.59  0.002702955    1.355    0.262
       121 -10.8233    134.3976     80.8511   9.8075151094e+01   4.0199034207e+01    0.7379299    0.4583632 -33.03  0.002442655    1.695    0.410
       122 -10.6586    144.2175     76.8356   9.4437726461e+01   3.8677512219e+01    0.4994479    0.3629544   9.60  0.002146194    1.971    0.493
       123 -10.2576    150.1737     75.2465   9.2558382065e+01   3.7540796924e+01    0.7163941    0.5079887 -11.97  0.002803405    1.864    0.463
       124 -10.3566    138.6521     74.0586   9.4912533978e+01   4.0515363796e+01    0.5759718    0.2088089 -43.95  0.001606322    2.773    0.639
       125  -9.6950    155.4953     69.5255   8.9593325615e+01   3.7265106269e+01     0.716388    0.2834767 -32.52  0.002405643    2.700    0.630
       126 -10.1580    150.6277     67.2304   8.9948900696e+01   3.8870203315e+01    0.4364107    0.2918541  51.28  0.001148043    1.491    0.329
       127  -9.7881    132.1519     68.2064   9.4650595682e+01   4.3117070841e+01    0.4687651    0.3125164  69.99  0.001816148    1.931    0.482
       128  -9.8506    143.8674     71.0873   9.2724104998e+01   3.9825022800e+01    0.3712246    0.3043371 -64.38 0.0008050803    1.364    0.267
       129 -10.1521    139.5672     67.6960   9.2663443038e+01   4.1467364314e+01    0.5959877     0.445776  19.13  0.002580083    1.695    0.410
       130  -9.8833    216.7689     81.9734   8.1780777303e+01   1.9895894863e+01    0.3491931    0.1625766 -26.65  0.001286475    2.428    0.588
       131  -9.7265     17.0800     82.4848   1.3494913973e+02   5.7724337126e+01     0.244094     0.177031   0.38  0.001483983    1.839    0.456
       132  -8.3762    188.4987     80.4588   8.6198230679e+01   2.7086311265e+01     0.153842    0.1475163 -63.62 7.470715e-05    1.024    0.023
       133 -10.6529      9.4388     85.3001   1.3793803477e+02   5.7597030274e+01    0.2258823    0.1625345 -70.35 0.0004899747    1.085    0.079
       134  -9.5418     36.8285     75.5801   1.2673101664e+02   5.7624812880e+01    0.2388718    0.1612217 -47.86  0.000625186    1.268    0.211
       135 -10.5767     16.5080    158.8012   1.4451877124e+02   4.0463652314e+01    0.4231807     0.245625 -48.89  0.002450963    2.246    0.555
       136  -9.2620     17.9779     73.9911   1.3300871504e+02   5.9551310222e+01    0.2748075    0.1824291 -78.28  0.001663419    1.473    0.321
       137  -9.4439     20.9491     71.9118   1.3151954191e+02   5.9793155700e+01    0.2179037    0.1756233  70.81  0.000832189    1.516    0.341
       138  -9.0489      2.4668     75.1284   1.3860110498e+02   6.0248473714e+01    0.2100255    0.1256854 -28.13   0.00113831    2.013    0.503
       139  -9.6459    214.9460     71.6673   7.9327308343e+01   2.1990297851e+01    0.3888662    0.2126985 -28.68   0.00130987    1.877    0.467
       140  -9.8551      4.5771     70.6176   1.3709100400e+02   6.1123999217e+01    0.3747651    0.2441614  47.13  0.001461628    1.958    0.489
       141 -11.9072     15.8965     61.9113   1.3114831248e+02   6.2321579821e+01    0.7557831    0.4267949  -2.25  0.003806943    2.491    0.599
       142 -11.1546     12.8241     56.4176   1.3104050794e+02   6.3689592996e+01    0.2457164    0.2426799  60.03  0.001011075    1.298    0.230
       143  -9.1131      8.2490     50.4687   1.3142632090e+02   6.5209288421e+01    0.4277993     0.270169  54.72  0.002555345    2.363    0.577
       144 -10.4321    250.1168     67.5464   7.3523031788e+01   1.4422777723e+01      0.60919     0.221311 -26.93  0.002142888    3.093    0.677
       145  -8.7076    202.0929     68.6567   8.0523009892e+01   2.5646909852e+01    0.2110655    0.1957625  77.38  0.001138325    1.093    0.085
       146 -10.1490    174.0232     48.1206   7.9226026641e+01   3.6001181035e+01     1.171464    0.3889713  52.19  0.003904793    2.860    0.650
       147  -9.7124    149.5865     60.0803   8.7884565055e+01   4.0351713643e+01    0.6603668    0.4903466 -12.00  0.003060769    1.620    0.383
       148 -10.7561    158.0395     50.9844   8.3142759377e+01   3.9683946622e+01    0.5791906    0.4727983  35.02  0.002650826    1.315    0.240
       149 -10.9701    150.0414     51.5610   8.4984350338e+01   4.1615585923e+01    0.6583578    0.5668948 -43.83  0.003054111    1.177    0.150
       150 -11.7489    141.5106     51.5832   8.6862976751e+01   4.3727348599e+01     1.035883    0.3726456  48.97  0.002746955    2.702    0.630
       151 -10.7047    164.6350     57.0433   8.3772975480e+01   3.7055072486e+01    0.5622887    0.4424071   8.14  0.002099175    1.591    0.371
       152  -9.5995    178.0668     60.3721   8.2254424162e+01   3.3082649168e+01     0.446081    0.3064184 -17.82 0.0005876375    1.726    0.421
       153 -11.1869    174.2826     56.4466   8.1752549901e+01   3.4674247900e+01    0.6160845    0.5274662 -12.18 0.0009117001    1.303    0.232
       154  -8.6214    189.1459     64.8597   8.1613374520e+01   2.9529147475e+01    0.2392337    0.1972859 -65.62 0.0006022858    1.273    0.214
       155  -8.9344    135.6893     63.5704   9.2254973979e+01   4.3122605914e+01    0.2953828    0.1821491 -38.43 0.0006964547    1.597    0.374
       156  -9.8480     78.2054     61.6103   1.0822110825e+02   5.5204294302e+01    0.4248881    0.2958561 -37.03  0.002230879    1.330    0.248
       157 -11.7793     19.8056    148.0194   1.4281868415e+02   4.2562739806e+01    0.6669984    0.4913481 -65.76  0.003177424    1.321    0.243
       158 -10.2815    221.2445     58.2701   7.4849576203e+01   2.2498079708e+01    0.5398945    0.4113052  -0.21  0.002664162    1.732    0.423
       159 -10.6560    222.5391     48.9342   7.2208868466e+01   2.3523768126e+01    0.4932449    0.3926397 -62.39  0.002658309    1.215    0.177
       160  -8.7149    185.6491     61.3032   8.1180402759e+01   3.0989541612e+01    0.1614882    0.1141444 -70.27 0.0003259071    1.701    0.412
       161 -10.4558    201.1806     57.5047   7.7538205864e+01   2.7610916041e+01    0.5865121    0.4051912  16.72  0.002545779    2.150    0.535
       162  -9.3714    158.5103     58.5023   8.5470941068e+01   3.8376927076e+01    0.4703632    0.3126343  10.46  0.001883462    2.347    0.574
       163  -9.9122      3.0843     57.3728   1.3506512355e+02   6.4046743421e+01    0.3298939    0.2284098 -83.44  0.001874445    1.525    0.344
       164 -10.1025    126.6917     63.9882   9.4650367408e+01   4.5138664145e+01    0.4117644    0.2847373  17.74 0.0003062547    1.997    0.499
       165  -8.7945     75.8760     46.1820   1.0348620190e+02   5.8480133593e+01    0.2433532    0.1750962 -29.90 0.0009173924    1.293    0.226
       166 -10.0409     71.9421     54.7645   1.0800283744e+02   5.7540394377e+01    0.5479664     0.429037  66.10  0.001595273    1.815    0.449
       167  -9.8102     60.8871     54.4486   1.1184772579e+02   5.9243979715e+01    0.3632321    0.2374875 -48.65  0.001373095    1.407    0.289
       168 -10.1166    186.3500     53.3340   7.8702012959e+01   3.2037622053e+01    0.3679179    0.2294559  -3.91  0.001438723    2.519    0.603
       169 -10.0415    188.8714     49.0011   7.7007045913e+01   3.2025943117e+01    0.3993911    0.2657097 -47.69 0.0004778955    1.502    0.334
       170  -9.2602    237.2039     49.4866   7.0582621333e+01   1.9931386200e+01    0.3670866    0.1560365 -41.94  0.001517512    2.059    0.514
       171 -12.6139    101.1850     81.4990   1.0734370216e+02   4.7063581353e+01     1.655962     1.301202  82.67   0.00779529    1.692    0.409
       172  -8.7662    192.8547     54.0230   7.7845072035e+01   3.0259824635e+01    0.2261084    0.1866494 -69.28 0.0003490553    1.254    0.203
       173 -10.5051     76.2350     51.6999   1.0541696689e+02   5.7422663762e+01    0.5138423    0.3842733  82.77  0.002455404    2.371    0.578
       174 -10.0619    206.9734     44.3375   7.3001280260e+01   2.8044945817e+01    0.5267397    0.4067022 -54.31  0.002573333    1.253    0.202
       175  -9.9872    194.6666     30.9046   7.0840930498e+01   3.2973656090e+01    0.3530487    0.3126375   1.74   0.00118159    1.334    0.251
       176 -10.9137    203.0778     37.7411   7.1675712179e+01   2.9929226308e+01    0.5732517    0.4016123  46.11  0.002821657    1.583    0.368
       177 -10.3753    199.7849     31.3553   7.0296618235e+01   3.1597766776e+01    0.4088116    0.2688371 -68.49 0.0002957817    1.670    0.401
       178 -11.2527     48.3775     25.4276   1.0541650060e+02   6.6117686135e+01    0.4205587    0.2041252  36.25  0.002152163    2.239    0.553
       179  -8.7682    248.9845     44.7046   6.8120729550e+01   1.7868667184e+01    0.2597692    0.1720028   4.65  0.001178052    2.556    0.609
       180  -9.7056    232.5552     43.2498   6.9534561776e+01   2.1883232601e+01    0.4510237     0.277655  24.36  0.001877055    2.859    0.650
       181  -9.4978    234.4808     39.4938   6.8368076643e+01   2.1925073187e+01    0.2583404    0.1999617  72.42  0.001012566    1.323    0.244
       182  -9.0645    215.1741     42.2446   7.1351238877e+01   2.6267626745e+01    0.3166339     0.211384  28.61  0.001197016    2.142    0.533
       183 -11.7899    164.3051     62.5839   8.5575516854e+01   3.6239769006e+01    0.7397685    0.7020505  -8.38  0.001590266    1.115    0.103
       184  -8.8911    113.8756     37.1303   8.8375082651e+01   5.2429669526e+01    0.2784434    0.2016283 -20.97  0.001413501    1.418    0.295
       185 -10.7031    118.4718     41.7266   8.8915528720e+01   5.0711559480e+01    0.5396793    0.4250596 -40.62  0.002840489    1.310    0.236
       186 -10.1092    109.8793     38.2611   8.9877028653e+01   5.3149144645e+01    0.4031398    0.2136081 -36.63  0.000619431    1.867    0.465
       187 -10.9469    107.2100     30.1893   8.7428595527e+01   5.4880582841e+01    0.7984275     0.326099  53.39  0.003187755    2.403    0.584
       188  -8.8077    125.7654     28.3463   8.2104026846e+01   5.0870470608e+01    0.2026016     0.192364 -62.71 0.0002060144    1.167    0.143
       189 -10.0644    124.8798     37.3688   8.5696404638e+01   4.9866492938e+01    0.4050932    0.2994792  -7.55  0.001207055    1.532    0.347
       190  -9.8077    125.1752     32.5118   8.3812010229e+01   5.0467030161e+01    0.3596354    0.2447001  -5.06 0.0009797264    1.770    0.435
       191  -8.4396    167.5617     44.2519   7.9158876905e+01   3.8234786538e+01      0.20238    0.1477073 -12.66 0.0009424779    1.618    0.382
       192  -8.1231      1.5269     44.4565   1.3274463880e+02   6.6801721425e+01    0.1159868   0.08302323 -49.90 0.0001290821    1.061    0.058
       193  -8.9179    196.5130     41.5204   7.3662499690e+01   3.1106343583e+01    0.2643491    0.2003384 -76.84  0.000749994    1.408    0.290
       194 -10.0695    190.9816     40.4445   7.4154690598e+01   3.2681837858e+01    0.5606143    0.2810133 -16.27  0.001313993    2.789    0.641
       195  -9.3713    194.5329     38.5089   7.3071845587e+01   3.2023704114e+01    0.3210709    0.1895788 -41.25 0.0005791914    1.636    0.389
       196 -10.8953    162.1125     38.7699   7.8374165631e+01   4.0409996469e+01    0.5228177     0.304619 -27.50  0.001820875    1.797    0.444
       197  -9.2878     77.0661     41.5417   1.0127714178e+02   5.9080263850e+01    0.2303937    0.2159128 -42.37 0.0007902457    1.213    0.176
       198  -8.5719      4.9185     41.1846   1.3042733255e+02   6.7284553851e+01    0.1156007   0.08516668  10.91 0.0008076933    1.659    0.397
       199  -9.8305    180.7444     39.0137   7.5291645118e+01   3.5535977847e+01    0.4304163    0.2784666 -60.43  0.001796613    1.757    0.431
       200  -8.8391    173.2444     38.8008   7.6444455318e+01   3.7518015834e+01    0.2322959    0.1878473 -68.60 0.0007348186    1.318    0.241
       201  -9.8300    168.6844     36.0821   7.6349391744e+01   3.9068364179e+01    0.3272798    0.2836242 -38.08  0.001129435    1.175    0.149
       202  -8.5927    222.0406     35.9547   6.8844144219e+01   2.5399245850e+01     0.210836    0.1682585  28.42 0.0009458283    1.615    0.381
       203 -10.2028    210.8675     32.5887   6.9255689162e+01   2.8618119968e+01    0.4982135     0.332522 -11.75  0.002359399    1.920    0.479
       204 -11.2287    238.1899     32.5063   6.6233430251e+01   2.1950227267e+01    0.6462169    0.3821749  69.46  0.002830901    1.720    0.419
       205 -10.3225    246.2444     33.0661   6.5585270052e+01   2.0008181993e+01    0.3912581    0.2547966  53.02 0.0005282912    1.774    0.436
       206  -9.7040     38.5982     33.0322   1.1278442840e+02   6.6045455934e+01    0.3736227    0.2151855  15.40  0.001738319    2.137    0.532
       207  -8.8445     10.5426    157.2784   1.4569598147e+02   4.1310601539e+01    0.1623493   0.08324457 -69.10 0.0009488391    1.629    0.386
       208  -8.6444     52.8743    151.5287   1.3539606234e+02   3.8301727718e+01    0.1727664    0.1230224  40.66 0.0009169142    1.538    0.350
       209 -11.1850     34.5893    150.1531   1.3958047746e+02   4.0664845370e+01    0.6069438     0.289769  58.19  0.003049607    2.184    0.542
       210 -10.6644     38.9483    145.6158   1.3801824313e+02   4.1244042158e+01    0.4683349    0.2835504 -77.57  0.001623401    1.394    0.283
       211  -9.7132     66.9965    148.4662   1.3154540206e+02   3.7193152785e+01    0.2606006    0.1699041 -86.51  0.001362097    1.537    0.349
       212  -9.0937     60.9672    147.3469   1.3286365593e+02   3.8250989360e+01    0.3172805    0.1461345 -49.76  0.001397919    2.445    0.591
       213 -12.0958     36.6862     27.5444   1.1137748405e+02   6.7214608110e+01    0.2915983    0.2220368  15.77  0.001931552    1.396    0.284
       214  -9.7517      1.4174    143.8879   1.4668278916e+02   4.4953242637e+01    0.4291664   0.07861544 -74.90    0.0015924    3.886    0.743
       215  -9.9689      4.9102    147.3285   1.4616199925e+02   4.3939351693e+01    0.2344788    0.1599959 -76.06 0.0009841911    1.199    0.166
       216  -9.8735      7.0718    142.9100   1.4530869153e+02   4.4751777185e+01    0.3444221    0.1943835  61.36  0.002104902    1.700    0.412
       217 -10.5444     18.7759     26.0692   1.1906037717e+02   6.9222165188e+01    0.2739326     0.186292 -12.95 0.0002095449    1.499    0.333
       218 -10.2845     22.1084    138.1356   1.4127326340e+02   4.4593585519e+01     0.361151    0.1925993 -41.89  0.001837599    2.672    0.626
       219  -9.7333     47.2277    137.3762   1.3489588242e+02   4.2238855470e+01    0.4826564     0.172057  53.40  0.001842257    3.533    0.717
       220 -11.1506     55.1570    131.8771   1.3203100169e+02   4.2590865663e+01     1.065664    0.2046357 -57.81  0.003476191    3.869    0.742
       221  -9.1299     63.8582    138.3141   1.3078263208e+02   3.9974969279e+01    0.2183776    0.1513311  62.42 0.0007751513    1.485    0.326
       222  -9.9023     12.7660    117.2257   1.4132744031e+02   5.0124537237e+01    0.2959546    0.2025318  54.63  0.001912922    1.581    0.368
       223 -10.6020    226.4297     28.6734   6.6466681853e+01   2.5247198680e+01    0.6509141    0.2969534 -50.75  0.002755762    2.142    0.533
       224 -10.7045    177.4851     29.3923   7.2829064807e+01   3.7630669962e+01    0.5471017    0.4473937 -14.02   0.00214569    1.379    0.275
       225  -9.0749     28.4357    121.7528   1.3767886725e+02   4.7799691609e+01     0.389547    0.1555593 -72.68  0.001786361    2.128    0.530
       226  -8.7341    120.2877     28.9770   8.3626752366e+01   5.2081657679e+01    0.2972914    0.1411327 -48.20   0.00113438    2.775    0.640
       227  -8.8862    192.8764     25.2162   6.9420057433e+01   3.4132384980e+01    0.3711832    0.1993656  25.88  0.001340804    3.392    0.705
       228  -9.5801     18.9967    119.9592   1.3998443404e+02   4.9020226982e+01    0.5360958    0.2668338 -59.76  0.002867703    1.681    0.405
       229 -10.3872      3.6329    135.2866   1.4546456826e+02   4.6699541870e+01    0.4371314    0.2723749  78.83  0.002655913    1.392    0.281
       230  -9.5720    240.9746     23.3655   6.3727444240e+01   2.2423452463e+01    0.4375681    0.1926867 -46.36  0.001414803    1.992    0.498
       231 -10.3652     26.8774    127.6199   1.3885229143e+02   4.6581844969e+01    0.4093318     0.318808  46.35  0.002153741    1.444    0.307
       232  -9.8509      9.1129    134.8564   1.4410890507e+02   4.6396619866e+01    0.1901375    0.1685456 -68.97 0.0006451861    1.291    0.226
       233 -11.6032     13.1922    128.9879   1.4251930393e+02   4.7412227667e+01    0.7543964    0.3790132  88.79  0.004026442    1.866    0.464
       234 -10.5666     20.0906    128.5591   1.4071876525e+02   4.6955830964e+01    0.3358929    0.2980106 -32.72  0.001075952    1.506    0.336
       235 -10.6048     72.1143    128.9522   1.2703758083e+02   4.1042377264e+01    0.4882942    0.2996533 -63.83  0.001661475    1.469    0.319
       236  -9.7286     74.6291    125.1314   1.2565222914e+02   4.1580655816e+01    0.3309265    0.1874362  46.34  0.001314775    1.863    0.463
       237  -9.2124    219.6363     25.1697   6.6270311989e+01   2.7343533291e+01    0.2476368    0.1828703  82.51 0.0005410133    1.318    0.241
       238  -8.5847    201.2338     25.5540   6.8468169274e+01   3.1939012903e+01    0.1856087    0.1255161  58.58 0.0004367298    1.467    0.318
       239 -10.1379     98.0015     22.4071   8.6756872679e+01   5.7874973920e+01    0.3116131    0.2348542  50.76  0.001053633    1.337    0.252
       240  -8.7742     95.7439    130.4258   1.2107289205e+02   3.7018302728e+01    0.2477563    0.1685936 -39.55    0.0011809    1.731    0.422
       241  -8.9560    216.1886     21.0105   6.5534608779e+01   2.8693008010e+01    0.8520946    0.3530707  89.93  0.002895529    3.617    0.724
       242 -10.3354     65.3507    130.4163   1.2909679752e+02   4.1630266697e+01    0.3071097    0.2247568  69.39  0.001335075    1.433    0.302
       243 -10.3531     38.1513    127.0318   1.3580707034e+02   4.5633506342e+01    0.2514281    0.1903063 -53.83 0.0009067745    1.357    0.263
       244  -9.9422     47.8924    126.3484   1.3310218358e+02   4.4744276095e+01     0.349555    0.1443273 -68.43  0.001528965    2.141    0.533
       245  -9.3150    197.9373     16.7944   6.6377869423e+01   3.3794168729e+01    0.2541486    0.2040724  56.11  0.001406454    1.281    0.220
       246  -9.9241    177.9298     20.1601   6.9904212245e+01   3.8603483680e+01    0.3164653    0.2543752 -46.19  0.001243229    1.258    0.205
       247 -10.0961     66.0524    115.0233   1.2607710561e+02   4.5163326539e+01    0.6376223    0.2075062  49.71  0.002090104    4.273    0.766
       248  -9.3882     65.3213    125.3188   1.2821391353e+02   4.2835099972e+01    0.1898375     0.175666 -10.18 0.0005822944    1.395    0.283
       249 -10.4600     67.9858    121.7431   1.2682902396e+02   4.3317008290e+01    0.5824556    0.2809378 -49.30  0.002017301    2.052    0.513
       250  -8.5825     61.5695     15.8235   9.5684268989e+01   6.5557193442e+01    0.1488731    0.1083523 -35.02 0.0003873134    1.416    0.294
       251  -8.2783    192.4200     12.4918   6.5779562361e+01   3.5676726605e+01    0.1368139    0.1266629  89.42 4.893517e-05    1.035    0.034
       252 -12.4346     88.1318     94.3676   1.1485188300e+02   4.6601514574e+01     2.394001     1.573687 -24.59   0.01065716    2.148    0.534
       253 -11.3803     26.7373     52.1476   1.2434089848e+02   6.3540938931e+01    0.5284496    0.2443049 -34.77  0.002576855    2.287    0.563
       254  -9.2671     34.2083    246.5879   1.4702521428e+02   2.1381296896e+01    0.1289091   0.08638123  41.32 0.0007090578    1.653    0.395
       255  -9.9935    142.0046    243.5383   1.2840830866e+02   6.8768020237e+00    0.2491617    0.1816343  37.18 0.0006129236    1.266    0.210
       256  -8.9729    211.0162    240.3018   1.1591237766e+02  -3.6968327693e+00    0.1809758    0.1474722 -46.60  0.001271079    1.714    0.417
       257  -9.0460    113.5110    239.4946   1.3303124931e+02   1.1950114320e+01    0.1187804   0.09145728  56.89 -9.113444e-05    1.008    0.008
       258  -9.5931     13.1990    238.3219   1.4993103898e+02   2.5058152922e+01    0.2123646    0.1028307 -67.12  0.001402972    2.304    0.566
       259 -12.2051     39.2184     88.7154   1.2887164700e+02   5.4436501652e+01     2.368857     1.440633 -56.22   0.01315009    1.349    0.259
       260 -11.9076     53.3484     87.0780   1.2389310840e+02   5.3262020425e+01     1.447688    0.7385009 -44.46  0.006850019    1.874    0.466
       261  -9.5285     12.2988    232.5299   1.4981673718e+02   2.6163833756e+01    0.2271841    0.1013969  70.63  0.001449538    1.736    0.424
       262  -8.2337    226.7000    231.6477   1.1193906951e+02  -5.1010385247e+00    0.1208097   0.07619934  11.48 0.0007037465    1.696    0.410
       263  -8.3425     80.3182    229.6705   1.3803619559e+02   1.8496495080e+01    0.1242598   0.06882124  67.05 0.0007047126    1.685    0.406
       264 -12.2647      5.9638    114.4551   1.4284047403e+02   5.1226807210e+01     1.200597     0.227423 -57.75  0.004667078    3.610    0.723
