#   1 NUMBER                 Running object number                                     
#   2 MAG_AUTO               Kron-like elliptical aperture magnitude                    [mag]
#   3 X_IMAGE                Object position along x                                    [pixel]
#   4 Y_IMAGE                Object position along y                                    [pixel]
#   5 X_WORLD                Barycenter position along world x axis                     [deg]
#   6 Y_WORLD                Barycenter position along world y axis                     [deg]
#   7 A_WORLD                Profile RMS along major axis (world units)                 [deg]
#   8 B_WORLD                Profile RMS along minor axis (world units)                 [deg]
#   9 THETA_WORLD            Position angle (CCW/world-x)                               [deg]
#  10 FWHM_WORLD             FWHM assuming a gaussian core                              [deg]
#  11 ELONGATION             A_IMAGE/B_IMAGE                                           
#  12 ELLIPTICITY            1 - B_IMAGE/A_IMAGE                                       
         1 -13.8491    215.7802     12.9201   4.3378831797e+01   2.9194242843e+01     1.765837     1.226171 -73.43  0.009378205    1.445    0.308
         2 -13.4320    221.9313      2.9660   4.0238151850e+01   2.8718899871e+01     1.920707    0.3724665  68.24  0.006228155    4.076    0.755
         3 -14.0502    191.4826     36.9005   5.3136295176e+01   3.2533746038e+01     1.364514     1.083459 -30.13  0.003182844    1.284    0.221
         4 -14.3767    199.6075     27.3266   4.9205649647e+01   3.1640839553e+01     1.484031     1.095833 -14.98   0.00133512    1.552    0.356
         5 -12.0576     51.3178      8.0931   7.6949119157e+01   6.7566839875e+01    0.2926849    0.1430794  30.96  0.001499001    2.069    0.517
         6 -10.6257     51.3642    226.2103   1.2400802461e+02   2.2142396743e+01    0.2153773    0.1149759  70.01 0.0008950014    1.657    0.396
         7 -16.2828     71.4940    148.7195   1.1154049420e+02   3.5731485145e+01     8.313025      4.12997  82.00   0.02304981    4.063    0.754
         8 -10.1326     62.9061    205.0792   1.2016873067e+02   2.4700673663e+01    0.2587286    0.2129549  67.23 0.0009994835    1.103    0.094
         9 -11.0124     56.2382    212.5557   1.2207818434e+02   2.4093022240e+01    0.5003821    0.3076461  57.35  0.001763623    1.337    0.252
        10 -13.7260     55.3867    203.5071   1.2146417596e+02   2.5964431327e+01    0.5371752    0.4516746  46.01  0.002264937    1.380    0.275
        11 -19.3774      6.7954    137.9552   1.2581944394e+02   4.4918291441e+01       17.668     1.928121 -75.64   0.04032989    9.934    0.899
        12 -12.1084     38.4710    212.1128   1.2526824471e+02   2.6286678328e+01    0.2294985    0.1252551  52.46 0.0006810353    1.518    0.341
        13 -11.8654     32.8552    206.7304   1.2589992405e+02   2.7947631908e+01      0.45241    0.1392802  56.21  0.002095347    2.946    0.661
        14 -11.9078    107.3881    210.2868   1.1206323168e+02   1.7294174408e+01    0.6645557    0.2163833  48.01  0.002519122    2.694    0.629
        15  -9.7503     44.9766    210.6561   1.2398873428e+02   2.5819422630e+01     0.351864    0.1230228  52.87  0.001748145    2.414    0.586
        16  99.0000     43.1368    206.0089   1.2396992008e+02   2.6937441358e+01    0.3076437    0.2504789  76.31  0.001736121    1.122    0.109
        17 -10.5259    104.9672    215.9454   1.1320389138e+02   1.6627718907e+01    0.2245113    0.1548929  41.93  0.001338739    1.353    0.261
        18 -12.1073    193.1357    194.9234   9.2615787129e+01   4.9529424310e+00    0.9389003    0.5181681 -64.28  0.003073685    5.547    0.820
        19  -9.2115     43.8158    220.2062   1.2489375868e+02   2.4145226223e+01    0.1550849   0.06401692 -64.27 0.0008412787    2.471    0.595
        20 -10.8090     96.6796    200.4797   1.1300600297e+02   2.0835975788e+01    0.3161103    0.2535548 -19.04  0.001105168    2.092    0.522
        21 -12.2420    108.0820    203.1089   1.1103007284e+02   1.8541592820e+01    0.5710023    0.1976573  48.26  0.001637793    2.599    0.615
        22 -12.1007    112.2735    196.4298   1.0928910050e+02   1.9158585271e+01    0.5449909     0.349663  11.70  0.002277565    3.517    0.716
        23 -12.3410     29.5910    197.1571   1.2582328088e+02   3.0189018543e+01    0.1933068    0.1447842  67.66 0.0004454152    1.115    0.103
        24 -11.1430    208.6595    196.9386   9.0021736808e+01   1.8305656961e+00    0.2443619    0.1793597  41.65 0.0005772199    1.306    0.234
        25 -10.1517     34.8474    197.2133   1.2484257437e+02   2.9615968864e+01    0.1635796    0.1116877  68.09 0.0004366446    1.179    0.152
        26 -10.0222     82.1300    194.8770   1.1530056564e+02   2.4121057784e+01    0.2684564    0.1592363  49.83  0.001490289    1.501    0.334
        27  -9.0364     78.6668    193.3018   1.1582858890e+02   2.4937168052e+01     0.161737    0.1126187  38.72 0.0008647285    1.524    0.344
        28  -9.7311     52.4888    194.9229   1.2125526465e+02   2.8049727604e+01    0.3313226   0.09709798  49.00  0.001185296    2.953    0.661
        29 -13.2813     64.9115    190.0978   1.1829195211e+02   2.7475547804e+01    0.7360261    0.6179459 -63.46  0.003387303    1.377    0.274
        30 -10.3087     97.3190    193.0684   1.1194540588e+02   2.2215925855e+01    0.3000624    0.2358581 -20.36  0.001668814    2.122    0.529
        31 -12.4145    149.8315    189.1876   1.0034552496e+02   1.3980130211e+01    0.5454664    0.3582943 -80.62   0.00215116    2.517    0.603
        32  -9.2699     73.7172    189.6006   1.1642760703e+02   2.6393677503e+01    0.1628282   0.09939788  54.23 0.0002499302    1.475    0.322
        33  -9.6362     47.3577    191.4585   1.2195285746e+02   2.9375121153e+01    0.1509661   0.08949865  57.20 0.0007201026    1.478    0.324
        34 -16.5845     66.7693    247.0277   1.2290781459e+02   1.6599520961e+01     8.454242     2.735079  32.77   0.02968741    6.299    0.841
        35 -11.0835     99.3699    180.7211   1.0983343210e+02   2.4443804588e+01    0.2550315    0.2154522  53.28 0.0005754133    1.131    0.116
        36 -10.0144    219.4184    177.4879   8.4236962427e+01   2.8138215235e+00    0.1368904    0.1188619   7.90 6.693383e-05    1.015    0.015
        37  -9.4896     57.0083    193.0364   1.2018340821e+02   2.7879431918e+01    0.1563086     0.137829 -48.93            0    1.576    0.366
        38  -9.5494     59.5039    177.0100   1.1800623170e+02   3.0952762096e+01     0.180062    0.1080642 -70.35 0.0005645843    1.519    0.341
        39 -10.7114     37.4296    176.3528   1.2259304829e+02   3.3678692151e+01    0.3185018    0.1625285  58.95  0.001752523    1.847    0.459
        40 -11.7386    131.9201    172.5782   1.0134250692e+02   2.0543294215e+01    0.4175813    0.2779889  34.07   0.00205292    1.593    0.372
        41 -12.1932    130.4148    212.9940   1.0788431052e+02   1.3064088954e+01    0.3621396    0.2424022 -79.20  0.001470169    1.977    0.494
        42 -10.0582    201.6580    169.3223   8.5957298154e+01   7.5311434267e+00    0.2479884    0.1747915 -47.65 0.0008631125    1.650    0.394
        43 -10.1092    205.1442    167.0750   8.4805161579e+01   7.2229260515e+00    0.3571491    0.2667439 -14.15  0.001277992    1.432    0.302
        44 -10.1672    163.7520    169.5981   9.3818262471e+01   1.5023392077e+01     0.259887    0.2193847 -71.55 0.0005861582    1.422    0.297
        45 -10.3193    142.6446    170.7005   9.8627233496e+01   1.8916792540e+01    0.1425111    0.1125911   6.14 0.0007036618    1.703    0.413
        46 -10.7734    193.0367    165.3691   8.6848583333e+01   9.9291787119e+00    0.3003536    0.2876526  37.76  0.000931406    1.125    0.111
        47 -10.0428    230.2995    165.6559   7.9782292328e+01   2.6058220368e+00    0.1276559    0.1108472 -65.24 0.0003660152    1.675    0.403
        48 -11.0349     44.8591    198.1097   1.2301288367e+02   2.8309459371e+01     0.342432    0.2469902  62.67  0.001045223    1.165    0.142
        49 -10.0597    158.2804    162.0183   9.3492743361e+01   1.7593976474e+01    0.2016221     0.193186 -43.18 0.0005005248    1.096    0.087
        50 -12.4982     94.2643    154.5432   1.0694442733e+02   3.1002314476e+01     0.664914    0.4704125 -28.54  0.003222008    2.126    0.530
        51 -10.7220    188.8696    154.9153   8.5452419294e+01   1.2663464865e+01    0.5648353    0.2503163  40.18  0.002164059    2.252    0.556
        52 -11.3806    133.7809    144.8632   9.5549926883e+01   2.6078902344e+01      1.15246    0.2852337 -54.11  0.002815628    5.685    0.824
        53 -11.8365     71.2439    207.1196   1.1876163005e+02   2.3197771806e+01    0.8483862    0.4424543  24.90  0.002836524    3.481    0.713
        54 -10.5419    174.4563    148.9457   8.7169852177e+01   1.6824243737e+01     0.290273    0.2575152  64.44  0.001031179    1.247    0.198
        55 -10.9954    144.1542    146.5524   9.3459927121e+01   2.3636779388e+01    0.3864557    0.2537445 -68.37  0.001653014    2.024    0.506
        56 -11.4104    106.3371    139.9021   1.0127309669e+02   3.2324904787e+01    0.5686458     0.332133 -36.19  0.002385799    2.259    0.557
        57  -9.8039    112.2708    141.8527   1.0017849860e+02   3.0823813635e+01    0.2434729    0.1504815  78.92  0.000685612    2.698    0.629
        58 -12.4862     94.2434    139.9314   1.0434193698e+02   3.4362706370e+01    0.3480202    0.3046092  10.82 0.0004171434    1.454    0.312
        59 -11.1534    105.8023    130.6911   9.9507502209e+01   3.4539654871e+01    0.4675881    0.3377609 -44.45  0.002310773    1.415    0.293
        60 -10.8723    114.0508    130.3343   9.7297218137e+01   3.3122521439e+01    0.3191162    0.2897768   4.09  0.001148449    1.302    0.232
        61 -10.7785    135.8667    127.6953   9.1181327439e+01   2.9420031954e+01    0.5201601    0.1890583 -51.96   0.00165866    3.034    0.670
        62 -10.1055    160.8830    128.1370   8.5320341675e+01   2.3954018755e+01    0.2498434     0.219831 -86.46  0.001249117    1.330    0.248
        63 -11.0732    101.4422    126.5342   9.9757832005e+01   3.6267679848e+01    0.2763355    0.2316731 -28.90 0.0005031776    1.389    0.280
        64 -10.9134    119.7694    123.7558   9.4322140412e+01   3.3531291069e+01    0.4736323       0.3017 -19.39  0.001687614    2.738    0.635
        65  -9.7220    135.0000    119.9128   8.9502163873e+01   3.1308967389e+01    0.2543252   0.08663197 -46.00 0.0007800497    2.886    0.653
        66 -10.2286    109.4727    119.1727   9.5953244587e+01   3.6528793384e+01    0.2345812    0.2071865  45.06 0.0003209873    1.184    0.155
        67  -8.5479     49.8439    216.6806   1.2356839869e+02   2.4091552700e+01    0.3553699    0.2475034  16.20  0.002099142    2.768    0.639
        68 -10.1737    167.6712    112.4492   7.9768056190e+01   2.5615123335e+01    0.3701866    0.2642319 -80.13  0.001361871    2.183    0.542
        69  -9.7965    135.0000    113.0165   8.7746935699e+01   3.2816564023e+01    0.2626684   0.08701513 -45.03 0.0008041054    2.954    0.661
        70 -11.3758    118.3418    110.5503   9.1454388716e+01   3.6788732711e+01    0.5538829    0.3549992  60.64  0.002350401    1.959    0.490
        71 -10.1302    205.3662    110.2180   7.1380880172e+01   1.7229008462e+01    0.3078515    0.2133191  44.30 0.0009753684    1.487    0.328
        72 -10.2934     65.5994     99.8684   1.0400538225e+02   4.8029865907e+01     0.278838    0.1641466  13.14  0.001210795    2.705    0.630
        73 -11.6537     53.4439     91.1662   1.0580388784e+02   5.1556312406e+01    0.3830023    0.2476449 -57.34  0.001391215    1.309    0.236
        74 -11.1198     41.9839     91.7188   1.0957772375e+02   5.2663566611e+01     0.240329    0.2352219 -31.60  0.000690153    1.199    0.166
        75  -9.2918     72.3037    230.4495   1.2067633443e+02   1.8711097028e+01    0.1434296   0.08405716  54.88  0.000326024    1.353    0.261
        76  -9.1167    155.4785     80.4625   7.3452054783e+01   3.4788417192e+01    0.1578525    0.1520425   1.60 0.0002895002    1.039    0.038
        77  -9.6131     66.7195     70.9216   9.6042705152e+01   5.4390153046e+01    0.1881325     0.160803 -46.50 0.0003006972    1.078    0.072
        78 -11.2931    159.5636     61.2545   6.6519087541e+01   3.7177041605e+01    0.4128848    0.3008958 -76.08 0.0006876328    1.883    0.469
        79  -9.5657     73.7747    218.7915   1.1938894852e+02   2.0629885500e+01    0.1649064    0.1076071  65.61 0.0008929393    1.300    0.231
        80 -11.6327     49.1339    233.0733   1.2486900505e+02   2.1181443486e+01     0.339108    0.1578186  79.32  0.001896854    2.253    0.556
        81 -13.6779    180.5134     46.2779   5.7740876686e+01   3.4099347480e+01     1.059026    0.8939934  -4.92 0.0008215026    1.323    0.244
        82  -9.6817     35.9056    234.0236   1.2712281483e+02   2.2549434503e+01     0.120663   0.08471023  68.85 0.0003721202    1.015    0.015
        83 -10.6820     53.6831    231.3065   1.2397536983e+02   2.0943107499e+01    0.1914704    0.1274751  83.56 0.0006907852    1.292    0.226
        84 -11.2204    161.8362     54.8555   6.3980596812e+01   3.7633773181e+01    0.3313154    0.2447894  65.59 0.0006058349    1.431    0.301
        85 -10.5689     59.4015    228.6499   1.2279345463e+02   2.0706925533e+01    0.1725369    0.1118159  70.46  0.001166405    1.258    0.205
        86 -10.8650    189.7505     14.9718   4.6882872863e+01   3.5589647641e+01    0.2478912    0.1966282  72.16 0.0006774417    1.182    0.154
