#   1 NUMBER                 Running object number                                     
#   2 MAG_AUTO               Kron-like elliptical aperture magnitude                    [mag]
#   3 X_IMAGE                Object position along x                                    [pixel]
#   4 Y_IMAGE                Object position along y                                    [pixel]
#   5 X_WORLD                Barycenter position along world x axis                     [deg]
#   6 Y_WORLD                Barycenter position along world y axis                     [deg]
#   7 A_WORLD                Profile RMS along major axis (world units)                 [deg]
#   8 B_WORLD                Profile RMS along minor axis (world units)                 [deg]
#   9 THETA_WORLD            Position angle (CCW/world-x)                               [deg]
#  10 FWHM_WORLD             FWHM assuming a gaussian core                              [deg]
#  11 ELONGATION             A_IMAGE/B_IMAGE                                           
#  12 ELLIPTICITY            1 - B_IMAGE/A_IMAGE                                       
         1 -10.8986     23.6908     32.6631   9.2588889378e+01   6.7347592860e+01     1.216667    0.4344535 -37.43  0.003472869    2.442    0.591
         2 -10.3028      4.9346     41.6504   1.0449630991e+02   6.7061024754e+01    0.9829176    0.3682496 -65.34  0.004292549    3.062    0.673
         3 -10.8647    134.0279     31.0224   5.4742593612e+01   4.7768699884e+01     0.373988    0.2729083  -0.48  0.001897906    1.632    0.387
         4 -10.4025     35.8967     38.0176   8.9119392608e+01   6.5138341466e+01    0.6986127    0.3552407 -22.35 0.0003636891    2.353    0.575
         5  -9.3442    101.0662     31.7727   6.2960511412e+01   5.5221272445e+01    0.6852804    0.2101997 -31.37   0.00141566    3.238    0.691
         6 -10.1098     62.5818      3.3610   6.2370743335e+01   6.6022742006e+01    0.4856026    0.3616167  11.61  0.002400759    1.165    0.141
         7  -9.5322     62.9585     20.9614   7.0623198307e+01   6.3963128154e+01    0.4663502    0.2629969 -45.00  0.001695341    2.347    0.574
         8  -9.8084     64.5072     12.8917   6.6307809894e+01   6.4680610582e+01    0.3928775    0.2472942 -26.70  0.001548766    1.561    0.359
         9 -10.6798     37.3709      9.4824   7.5594520274e+01   6.9342014316e+01    0.8911158    0.2906667 -38.57  0.002314179    3.150    0.683
        10 -10.0724     51.0896     15.5362   7.2694779935e+01   6.6580300685e+01    0.9549306     0.514291  10.06  0.004501202    2.519    0.603
        11 -10.3047     27.4106     11.5581   8.1380393697e+01   7.0324639447e+01    0.7763656    0.5121071  31.53  0.004054293    1.666    0.400
        12 -10.2307     18.2989      5.3599   8.2866308144e+01   7.2192480846e+01    0.6216447    0.3362522 -43.82  0.002846936    2.113    0.527
        13 -10.0769     46.2880     29.6647   8.1175131465e+01   6.5254886608e+01    0.4515768    0.2588409 -49.18  0.001036608    2.189    0.543
        14  -9.4394      2.3063     14.4867   9.6073261009e+01   7.2185054539e+01    0.3608627    0.1898258 -57.73  0.001541661    2.331    0.571
        15 -10.4509      5.6870      4.8763   8.9643052036e+01   7.3443943504e+01    0.5129719    0.3425898  -9.64  0.001887528    1.253    0.202
        16  -9.5499    133.5263     11.8101   4.8146847797e+01   4.9979521830e+01     0.350773    0.1869373 -51.43  0.001557861    2.417    0.586
        17  -8.9319    132.3782     17.3422   5.0292505394e+01   4.9711971960e+01    0.3168704    0.2309579  52.32  0.001054897    1.241    0.194
        18  -9.1617    140.0561     22.5719   5.0657434837e+01   4.7291553961e+01    0.3248808    0.1595078 -36.89 0.0007822381    2.119    0.528
        19  -9.4593    118.8166     20.9198   5.4371258929e+01   5.2549002191e+01    0.3861588    0.2510985 -25.69  0.001077541    1.619    0.382
        20  -9.8607     10.1409     18.8013   9.3677162486e+01   7.0897535341e+01    0.6373373    0.2701239 -16.72  0.002745054    3.610    0.723
        21  -8.1827     72.3914      8.7028   6.1664234833e+01   6.3688888596e+01    0.2375338    0.2107906  89.79 0.0005859494    1.702    0.412
        22  -9.3060     73.6775     19.5685   6.6205541596e+01   6.2238925029e+01    0.3475623    0.2121556 -36.02  0.001234287    1.766    0.434
        23  -8.8213     73.4739     14.0262   6.3769889553e+01   6.2920435660e+01    0.4251484    0.2057602  -3.73  0.001708109    3.227    0.690
        24  -9.1791     96.4068     14.6944   5.7322561273e+01   5.8224622642e+01    0.6487151     0.264897 -14.16  0.002502287    3.270    0.694
        25  -7.8058     97.8964      6.0169   5.3341472533e+01   5.8727906310e+01    0.2118469     0.125442  30.42 0.0002802252    1.676    0.404
        26  -8.0001     95.5751      3.0006   5.2638790693e+01   5.9488109894e+01    0.2255294    0.1965552  49.84 0.0005385475    1.130    0.115
        27  -8.2901    104.3994     14.8812   5.5381516651e+01   5.6461932319e+01    0.3259285    0.1706807  17.99  0.001360751    2.702    0.630
        28  -9.3809     85.3686     13.1783   5.9721138276e+01   6.0685210958e+01    0.3999946    0.2439337 -50.95  0.001743868    2.533    0.605
        29  -8.3423     84.8017      6.1396   5.6783422741e+01   6.1486924587e+01    0.4080944    0.1939635   6.62  0.001646815    3.247    0.692
        30  -8.7804    125.2140     13.0143   5.0128456251e+01   5.1855063401e+01    0.2769923     0.188558 -49.40 0.0006120685    1.751    0.429
        31  -9.0336    126.6069      9.1772   4.8476793257e+01   5.1881163152e+01    0.2668731    0.1839887  18.45 0.0005599932    1.658    0.397
        32  -9.9066    124.2358      5.8086   4.7698494406e+01   5.2738900855e+01    0.6017686    0.2246127  55.58  0.002554497    2.175    0.540
        33  -8.2902    141.0967     11.4070   4.6705642434e+01   4.8178941311e+01    0.2933245    0.1340075 -49.74  0.001185493    2.825    0.646
        34  -8.9286    114.2161      9.9756   5.1232930147e+01   5.4712958318e+01     0.263809    0.1831265  37.66 0.0003525386    1.348    0.258
        35  -8.8083    236.5645      8.7525   3.5246725262e+01   2.5608491801e+01    0.2181262    0.1977244 -89.95 0.0004449708    1.199    0.166
        36  -8.7785    153.2763      5.2917   4.2865247543e+01   4.5746777621e+01    0.3498352    0.1711385 -34.83  0.001646059    2.126    0.530
        37  -9.2159    144.5771      6.7503   4.4604846739e+01   4.7753031669e+01    0.5334522    0.2249423 -57.51  0.001843917    4.106    0.756
        38  -8.6858    101.9510      8.2552   5.3294569421e+01   5.7639359783e+01    0.2020898    0.1723949 -37.59 0.0005958243    1.364    0.267
        39  -7.0524     68.3028      9.2589   6.3272082582e+01   6.4393794794e+01    0.1266395    0.0805617  21.50 0.0001996759    1.513    0.339
        40  -7.8785     80.5392     12.3186   6.0771806171e+01   6.1741811719e+01    0.2388621    0.1104364 -31.65  0.001125268    2.230    0.552
        41  -9.3547    133.6290      4.2160   4.5494137369e+01   5.0629166210e+01    0.4048074    0.1604368 -23.98  0.001730253    2.693    0.629
        42  -9.2285    110.4087      4.5868   4.9953133657e+01   5.6057413967e+01    0.4747792    0.2336301 -28.05  0.002295777    2.158    0.537
        43  -8.4018     77.3169      6.3125   5.9023878011e+01   6.2972753358e+01    0.2109211    0.1620698 -16.76  0.000549654    1.320    0.243
        44  -8.7963     78.6877      3.0054   5.7099966934e+01   6.3002212313e+01    0.3387109    0.2397767  22.59  0.001579168    1.280    0.219
        45  -8.9409    115.1465      4.2595   4.8861487123e+01   5.4996122235e+01    0.2159061    0.1863659 -23.55  0.000464215    1.282    0.220
        46  -8.2141    248.2231      3.1928   3.3241788337e+01   2.3715749291e+01     0.163688    0.1465611 -73.26 0.0005259842    1.188    0.158
        47  -8.2602    104.1813      2.3212   5.0386098096e+01   5.7649256150e+01    0.2549975    0.1545039  38.18  0.001004905    1.509    0.337
        48  -7.8745     89.1701      2.4897   5.4011979704e+01   6.0897439555e+01    0.2272213    0.1626972 -12.86 0.0008488259    1.445    0.308
        49 -10.4791    123.1340     92.4700   7.7602054928e+01   3.9841561268e+01     1.001994    0.4939513 -40.65  0.002119023    1.984    0.496
        50 -10.3242    202.5536    250.1204   9.2826263151e+01  -5.4472109074e+00    0.4316801     0.161794  38.82  0.002077523    2.246    0.555
        51 -10.0969    175.4822    249.1994   9.7650223314e+01  -1.2788539841e+00     0.362262      0.19899  27.05  0.001963545    1.764    0.433
        52  -8.9798    126.3724     83.6572   7.4088771831e+01   4.0948102160e+01    0.7258045    0.3698662  25.84  0.002205229    3.887    0.743
        53 -10.1134    117.1702    125.2077   8.7993994032e+01   3.3731871533e+01    0.7248725    0.4688634 -66.67  0.001779676    1.881    0.468
        54 -10.5292    131.9364    119.7554   8.2754657754e+01   3.1996553438e+01    0.9151504    0.6275916 -86.38  0.002640497    2.423    0.587
        55 -10.9449    133.7662    109.3208   7.9542008919e+01   3.3927191299e+01     1.020057    0.4815373 -47.75  0.002358146    2.095    0.523
        56 -10.5132    109.0427    113.2198   8.7235779088e+01   3.8091371902e+01     1.203802    0.5281146 -53.09  0.002152435    2.305    0.566
        57 -10.6142    108.6838     99.8803   8.3764425264e+01   4.1198362097e+01     1.026588    0.6598648  67.50  0.004086516    2.406    0.584
        58 -11.1874    120.7817    110.1187   8.3186471634e+01   3.6477710680e+01     1.352708    0.6348618 -50.11  0.003181954    2.119    0.528
        59 -10.1924    127.6086    102.5532   7.9291651172e+01   3.6725848088e+01    0.5841933    0.3966728 -35.47  0.001572313    1.507    0.336
        60  -9.6501    198.9207    125.2909   6.9075461172e+01   1.6175212775e+01    0.2581396    0.2411624 -19.50 0.0002811255    1.038    0.036
        61  -9.9804     27.3392    122.7623   1.1325384383e+02   4.7170950219e+01    0.5902336    0.3002666  72.40  0.002128969    2.890    0.654
        62  -9.8709     41.9194    122.7192   1.0901238570e+02   4.5773565499e+01    0.6814311    0.3263593 -86.47  0.002540641    3.236    0.691
        63  -7.9124    203.8634    121.9110   6.7308630343e+01   1.5748210919e+01    0.2258145     0.197755  -7.38 0.0003630661    1.206    0.171
        64  -8.2203    158.0670    122.0599   7.6945630657e+01   2.5842547067e+01    0.2481328    0.1933332 -76.29 0.0009461612    1.650    0.394
        65  -8.1562    160.7268    128.4609   7.7940475052e+01   2.3896273699e+01     0.396764    0.2115015 -51.97  0.001516435    2.039    0.510
        66  -8.4738      1.6242    116.9003   1.1981515666e+02   5.0456760826e+01    0.3536476    0.1330597 -83.52   0.00150923    2.653    0.623
        67 -10.2798     92.0914    113.0732   9.2067243233e+01   4.1201630227e+01    0.6128844    0.4386974 -85.04  0.002178063    1.913    0.477
        68  -8.7183     92.2397    104.2899   8.9794210631e+01   4.3238858354e+01    0.6113045    0.3800481  -5.62  0.002155893    3.380    0.704
        69  -8.3272    152.9838    115.5071   7.6442793261e+01   2.8366380166e+01    0.2357667    0.1570926  49.71 0.0005411814    1.560    0.359
        70 -10.3158     78.1614    112.4140   9.6059421442e+01   4.3621309043e+01    0.7455292     0.365663 -64.65  0.001692692    2.341    0.573
        71  -9.7258     81.4931     99.2773   9.1770702587e+01   4.6203922372e+01    0.6995317    0.2792508 -53.96  0.001845016    2.395    0.582
        72  -9.0820     55.3241    111.9746   1.0295693897e+02   4.6876784876e+01    0.5932977    0.3576251 -84.94  0.002605801    2.260    0.558
        73  -9.2487     59.6351    109.5533   1.0110491600e+02   4.6923235822e+01    0.5028208    0.2936485 -75.07  0.001464647    2.057    0.514
        74 -10.2978     65.8649    110.8423   9.9456190023e+01   4.5785069241e+01    0.9273456    0.5674549 -83.41  0.001032994    2.379    0.580
        75  -9.7125     65.5116    105.4951   9.8347682636e+01   4.7119465578e+01    0.4146095    0.2568165 -71.60  0.001840639    1.856    0.461
        76  -9.9823     14.1856    110.4265   1.1532202668e+02   5.1184080780e+01    0.6917334    0.2753825 -76.84  0.002936867    2.395    0.582
        77  -8.6816    158.9311    111.8208   7.4079739002e+01   2.7805719603e+01    0.2715687    0.2190284 -43.21 0.0004780129    1.203    0.169
        78  -9.1972     35.9809    111.2344   1.0879905303e+02   4.9174159531e+01    0.2560713    0.1779326  72.90  0.001046473    1.744    0.427
        79 -10.9874     20.9822    100.9200   1.1170849002e+02   5.2950669783e+01     1.399759     0.685955  86.01  0.004558872    3.419    0.707
        80  -9.7944     19.6617     86.1598   1.0941536689e+02   5.6511056275e+01    0.9102076    0.2093678 -59.00  0.003455099    2.868    0.651
        81 -10.5321     25.6159     78.0790   1.0554126940e+02   5.7896307142e+01    0.6568623    0.4364675  65.14   0.00196691    2.265    0.558
        82 -10.6488     32.0728     64.3233   9.9533336049e+01   6.0353853927e+01     1.211351    0.5195668 -29.22  0.004798093    3.236    0.691
        83  -9.4613     39.3496     56.8776   9.4357514387e+01   6.1163948072e+01    0.7740643    0.2648708 -49.25  0.003222294    2.404    0.584
        84 -10.0622     34.6030     90.8378   1.0521525498e+02   5.4171507643e+01    0.5952724    0.2757529 -75.08  0.001788797    2.911    0.656
        85 -10.1889     36.8852     81.0724   1.0214919072e+02   5.6202822121e+01    0.7358837    0.3749821 -20.60  0.003012081    3.189    0.686
        86  -7.3211    144.6891    110.3000   7.7059453101e+01   3.1324944795e+01    0.1574816    0.1258859 -83.90 0.0003254674    1.603    0.376
        87 -10.8222     44.6759    102.4966   1.0435069212e+02   5.0392237217e+01    0.7997623    0.4585906  68.55  0.002953384    2.980    0.664
        88  -8.7652     40.0622    106.9804   1.0673107934e+02   4.9797964412e+01    0.3080459    0.1683963 -81.84 0.0008553508    2.314    0.568
        89  -9.5052      6.5904    103.8872   1.1669781749e+02   5.3230770042e+01    0.3903785    0.2219845  77.10  0.001104403    2.138    0.532
        90  -9.6254    149.4609    103.0744   7.3928681967e+01   3.1778319431e+01    0.4948823    0.2960595 -55.02  0.001080941    1.910    0.477
        91  -8.4843      1.6709    104.7268   1.1831028083e+02   5.3317631387e+01    0.2768631    0.1294205 -79.79  0.001389908    1.888    0.470
        92  -8.3879    166.0034    103.9783   7.0378052395e+01   2.7786550013e+01    0.2380843    0.2223454 -51.41 0.0004705561    1.060    0.057
        93  -8.1772     73.9172    102.7383   9.5034797408e+01   4.6570298555e+01     0.300997     0.181788 -51.12 0.0007531412    1.482    0.325
        94  -8.3607    158.9447    101.3432   7.1236095781e+01   2.9953637462e+01    0.2594877    0.2072036 -52.31 0.0004262288    1.275    0.216
        95  -9.5036     94.3763     97.2838   8.7260724675e+01   4.4467867476e+01     0.365611     0.281822 -56.81 0.0007440428    1.302    0.232
        96  -8.8105     95.8530     91.2097   8.5089881472e+01   4.5556518878e+01    0.4931495    0.3107399 -10.19   0.00185005    2.847    0.649
        97 -10.3901     62.9653     95.8113   9.6826988164e+01   4.9757171822e+01    0.5747905    0.3803977 -83.15  0.001711427    2.209    0.547
        98  -9.0890     65.8539     85.6451   9.3176793835e+01   5.1689999838e+01    0.7274971     0.408311  -5.64  0.002471297    4.160    0.760
        99  -9.7216    239.7878     96.9291   5.5351167196e+01   1.2548947059e+01    0.2835992    0.2143355  26.04 0.0004882516    1.718    0.418
       100  -9.2439    130.4134     96.9744   7.6973504293e+01   3.7316356125e+01    0.4017736    0.2238827  31.34  0.001502252    2.336    0.572
       101  -7.1768    171.2525     95.6526   6.6965573283e+01   2.8193695555e+01    0.1580227    0.1178413 -64.68 0.0002120665    1.588    0.370
       102  -8.9569    164.3430     94.0389   6.7996815055e+01   3.0137841342e+01    0.4863196    0.2334937 -38.62  0.001204544    2.026    0.506
       103  -8.6392    163.5381     87.1990   6.6230361620e+01   3.1639286678e+01    0.5318273    0.2143382 -39.93  0.001482838    2.384    0.581
       104  -9.1931    140.3421     82.4235   7.0151950089e+01   3.8027939636e+01    0.6266778     0.321075 -34.60  0.001214284    2.015    0.504
       105  -8.6490    139.9815     75.2302   6.8032224653e+01   3.9472078820e+01    0.5090927    0.2278221 -42.40  0.001609297    2.213    0.548
       106  -9.3159    138.7609     92.5897   7.3566850391e+01   3.6370125163e+01    0.4595762    0.3531129 -80.24  0.001238219    1.755    0.430
       107  -8.3718    139.3122     87.8321   7.2028802282e+01   3.7203962605e+01    0.4227225     0.226593  27.95  0.001128697    3.066    0.674
       108 -10.2559      4.4823     89.5090   1.1520978533e+02   5.6707144284e+01    0.6360179    0.2925217 -87.83  0.001920455    2.812    0.644
       109  -7.4257    250.6295     92.7139   5.2894636899e+01   1.1050517518e+01    0.1315702    0.1034498  10.04 0.0007019438    1.707    0.414
       110  -9.0717    157.4267     91.1076   6.8698923793e+01   3.2340853220e+01    0.4001385    0.2342463 -28.03  0.001580408    1.967    0.492
       111  -9.5876    110.9084     89.8215   8.0225847340e+01   4.2950238856e+01    0.7567009    0.4125382  24.76  0.002684618    2.903    0.656
       112  -9.7152      6.5233     78.3681   1.1256318680e+02   5.9140790999e+01    0.7020665     0.238261 -37.27  0.002930444    3.253    0.693
       113 -10.2439     47.8534     84.4232   9.9079815104e+01   5.4273650036e+01    0.6345348    0.3983115 -73.11  0.001633765    1.964    0.491
       114  -9.2500     48.4923     77.6366   9.7049598858e+01   5.5726091696e+01    0.6503952    0.4057226 -15.85  0.003123926    2.135    0.532
       115  -9.5041    150.8582     88.5736   6.9470978582e+01   3.4380389365e+01    0.4098475    0.2135977 -34.22  0.001323018    1.994    0.499
       116 -10.3292     85.2702     86.6041   8.7048660381e+01   4.8442225029e+01    0.5535946      0.41537  65.48 0.0008003667    1.812    0.448
       117  -9.5882     87.3840     78.8525   8.4027306135e+01   4.9742028952e+01       0.6028    0.3941232   5.19  0.001882294    2.359    0.576
       118  -7.6701    174.4032     88.2053   6.4243962538e+01   2.8851875064e+01    0.2269815    0.1370829 -47.76 0.0005551335    1.674    0.403
       119  -8.4119    149.6956    109.5830   7.5651112824e+01   3.0360205897e+01    0.2826112    0.1402877 -42.86 0.0007700344    1.955    0.488
       120 -10.2425    103.9134     82.6715   8.0101613660e+01   4.5853349540e+01    0.5460086    0.3245587 -54.93  0.000857941    1.913    0.477
       121  -9.6285    105.0083     71.6613   7.6265180376e+01   4.7849037222e+01    0.7740244    0.4030882 -26.65  0.002797004    2.477    0.596
       122  -9.4021    109.7182     63.8889   7.2291367977e+01   4.8330335701e+01    0.3747477    0.3053269 -60.91 0.0007352885    1.478    0.323
       123  -9.1902    110.6748     58.3829   7.0123325056e+01   4.9099594284e+01    0.4512265    0.2805968  26.87  0.001301494    1.977    0.494
       124  -7.8968    170.6351     83.5247   6.3689513736e+01   3.0618448287e+01    0.2599204    0.1432053 -37.42 0.0006925993    1.764    0.433
       125  -8.7986    157.8927     83.1226   6.6279884423e+01   3.3755207153e+01    0.4396156     0.217635 -36.04  0.001282974    2.015    0.504
       126  -7.4740     63.6024     81.8653   9.2884465647e+01   5.2850651177e+01    0.1936884    0.1254532 -61.51 0.0005258115    1.657    0.397
       127  -8.8584    149.8297     80.2650   6.7248756135e+01   3.6212063005e+01    0.4343697    0.2406321 -36.73 0.0007905269    1.788    0.441
       128  -9.0355    118.4538     80.1699   7.5151856671e+01   4.3367596686e+01    0.3960279    0.3072658 -88.06  0.001294915    1.845    0.458
       129  -8.2289    119.8421     76.1821   7.3511764527e+01   4.3851410195e+01    0.2768559    0.2177304 -15.71 0.0006154189    1.420    0.296
       130  -9.1384     74.1895     79.3306   8.8522554725e+01   5.1838094435e+01    0.6205219    0.2343365 -49.84  0.001263535    2.465    0.594
       131  -8.9258    201.1314     77.7394   5.6482102182e+01   2.4318262638e+01    0.3635086    0.2262924 -29.64  0.001141634    1.654    0.396
       132  -8.1812    184.3390     78.2247   5.9537537643e+01   2.8251444889e+01    0.2533821     0.226487  -6.28 0.0006140572    1.258    0.205
       133  -8.4274    166.5057     78.9570   6.3223474130e+01   3.2444793963e+01    0.2307498    0.2128204  63.64 0.0004862785    1.109    0.098
       134  -8.7191    157.1761     75.9224   6.4304060999e+01   3.5248807449e+01    0.4418038     0.217376 -34.66   0.00118319    2.051    0.512
       135  -9.5484    127.3627     75.2117   7.1195604453e+01   4.2373782541e+01    0.4108451    0.2840684 -54.88 0.0008579787    1.653    0.395
       136  -9.0592    129.3208     68.8773   6.8660292949e+01   4.3102786347e+01    0.4903495     0.297928  19.00  0.001582752    2.733    0.634
       137  -8.7422    130.4830     64.9730   6.7095533959e+01   4.3529936530e+01    0.3679098     0.178917 -38.73  0.001193525    2.028    0.507
       138  -9.8973     81.6532     72.5453   8.3899762644e+01   5.2044725644e+01     0.435306    0.3208714 -70.53  0.001110365    1.923    0.480
       139  -9.0601     83.7043     64.5044   8.0542894264e+01   5.3288228583e+01    0.5713941    0.3510413  -6.35  0.002292038    2.685    0.628
       140  -8.2541    162.7865     73.1994   6.2301985327e+01   3.4370615366e+01    0.2648286    0.1940712 -49.59 0.0008586315    1.397    0.284
       141  -8.8981    115.0185     72.8925   7.3786916109e+01   4.5525318967e+01     0.360799    0.2317395 -44.54 0.0005716688    1.556    0.357
       142  -7.7157    116.6248     68.6927   7.1964741788e+01   4.5970051768e+01    0.2709032    0.1822227  25.51  0.001193766    1.805    0.446
       143  -8.3848     44.3774     53.6374   9.1248398942e+01   6.1238129236e+01    0.2780921    0.1749541 -11.70 0.0009456211    1.918    0.479
       144 -10.5265     55.2987     70.9375   9.2627596343e+01   5.6344283504e+01    0.6460369    0.4215115  61.02  0.001415044    2.603    0.616
       145  -8.9205     54.6283     63.5887   9.0570861378e+01   5.7965502356e+01    0.5015432    0.3259681  24.95  0.002655457    1.704    0.413
       146 -10.1746     50.0089     54.4877   8.9296881011e+01   6.0378928324e+01    0.5957322     0.362013 -60.59  0.002213663    2.167    0.538
       147  -9.7730     55.1780     44.4656   8.3580566362e+01   6.1545712115e+01    0.9952322    0.5129061  -1.78  0.003143117    5.347    0.813
       148  -9.7864     16.0240     70.6884   1.0743158621e+02   6.0270741511e+01    0.5244964    0.1952617 -59.99   0.00133524    2.069    0.517
       149  -9.8894     17.2767     61.0345   1.0456745402e+02   6.2281367259e+01    0.7279241    0.5459577   9.28  0.004738323    1.550    0.355
       150 -10.7485    185.2432    249.1234   9.5834602969e+01  -2.7478265973e+00    0.5486087    0.2009592  35.20  0.002511862    2.339    0.572
       151 -10.8878     21.7619     53.2611   1.0052308685e+02   6.3564700854e+01     0.781377    0.5003597 -89.31   0.00285437    3.239    0.691
       152  -9.4897    162.7553    248.3613   9.9911328456e+01   7.9436025421e-01    0.2190854    0.1545284 -43.16  0.001382682    1.712    0.416
       153  -9.5449      6.8286     32.7776   1.0075432396e+02   6.8655512345e+01    0.2739989    0.1806823 -28.02 0.0009191484    1.271    0.213
       154 -10.1109      7.5544     28.2927   9.8796864894e+01   6.9434197070e+01    0.4204358    0.2627698  33.46  0.001145682    2.121    0.529
       155  -8.3620    169.5275     70.8541   6.0249510764e+01   3.3128269917e+01    0.3529999    0.1416702 -37.62 0.0007677951    2.390    0.582
       156  -9.1895    146.9693     69.2584   6.4535090183e+01   3.8891132602e+01    0.3726207    0.2613911 -59.25    0.0010211    1.702    0.412
       157  -7.8668    156.6523     70.0635   6.2650895016e+01   3.6410544633e+01    0.2145287    0.1921905 -36.29 0.0004729091    1.109    0.098
       158  -9.6568     94.8800     68.4848   7.8290779149e+01   5.0460617805e+01    0.4472658    0.2503513 -47.40 0.0006975725    1.829    0.453
       159  -9.0517     97.0956     58.4876   7.4154625104e+01   5.1889087933e+01    0.7245271     0.413109  -6.37  0.002480389    3.619    0.724
       160  -7.3233    175.7518     67.6666   5.8132948816e+01   3.2136168511e+01     0.145503    0.1178223   7.80 0.0003144623    1.553    0.356
       161  -9.5321    141.5809     47.9294   5.8873032477e+01   4.3646015287e+01    0.7100531     0.353709 -22.21  0.001746527    2.477    0.596
       162  -8.9717    138.8260     56.9659   6.2465748965e+01   4.2913504447e+01    0.3875646    0.2657051 -24.48 0.0004879445    1.571    0.364
       163  -8.6729    138.0921     66.4556   6.5716123680e+01   4.1493990183e+01    0.3278365    0.2365665 -49.60 0.0005649959    1.477    0.323
       164  -8.5032    138.5059     62.0110   6.4185261733e+01   4.2158106176e+01    0.3201787    0.2259292  16.63  0.001006221    1.887    0.470
       165  -8.9816    121.2936     66.2305   6.9883782834e+01   4.5392621367e+01    0.3798885    0.2637819 -58.19    0.0010471    1.796    0.443
       166  -8.1018    122.4806     61.0067   6.7822945951e+01   4.6046076684e+01    0.3372013    0.1952904  35.12 0.0009825247    1.960    0.490
       167  -9.8318     62.3737     61.0086   8.6824553490e+01   5.7413126049e+01    0.6355287    0.3071828  30.70  0.002810168    2.311    0.567
       168  -8.1761    170.5790     65.1981   5.8385431516e+01   3.3816332249e+01    0.2825496    0.1357891 -39.70 0.0006955537    2.011    0.503
       169  -8.4631    157.6478     63.2170   6.0351775055e+01   3.7325250553e+01    0.2577752    0.2148704 -59.25 0.0007415324    1.278    0.218
       170  -9.7616     73.2320     59.4092   8.2355366839e+01   5.6047658138e+01    0.4175599    0.2637282 -54.84  0.000897318    1.898    0.473
       171  -9.5529     74.3163     51.8139   7.9228089527e+01   5.7268207322e+01    0.8557732    0.4778046   3.03  0.003009579    3.859    0.741
       172  -9.9814     13.4657     45.2127   1.0169517451e+02   6.5812001806e+01    0.6966915    0.3230473 -20.88  0.002800148    2.706    0.630
       173  -7.5732    164.7307     60.5395   5.8120567169e+01   3.6015290845e+01    0.2018783    0.1452611  74.57 0.0009349771    1.561    0.360
       174  -7.8290    152.5019     60.5188   6.0590194745e+01   3.9027649602e+01    0.1472006    0.1462133  60.71 5.413161e-05    1.003    0.003
       175  -9.1822    147.0464     57.0610   6.0662882772e+01   4.0915112998e+01    0.7255813    0.2358103 -28.82  0.002162399    3.815    0.738
       176  -8.3797     87.3130     58.5680   7.7281055916e+01   5.3750214971e+01    0.2437308     0.210501 -61.75 0.0007051615    1.435    0.303
       177  -8.8137    130.1326     57.2321   6.4616113942e+01   4.4924014874e+01    0.4727124    0.2307641 -28.09  0.001197898    2.286    0.563
       178  -9.2723    118.1323     54.8426   6.6854492944e+01   4.8059982986e+01    0.5425751    0.3322487 -37.17  0.001461412    1.629    0.386
       179  -9.0402    121.0838     47.1270   6.3384373359e+01   4.8609739488e+01    0.3338317    0.2161681 -35.24 0.0004388317    1.560    0.359
       180  -7.4574    168.9769     55.7529   5.5882466063e+01   3.5713198801e+01    0.1903384    0.1235131  59.51 0.0004612449    1.524    0.344
       181  -9.0088    162.9972     52.8108   5.6104674699e+01   3.7646135520e+01    0.5238943    0.2273089 -28.49  0.001936156    2.537    0.606
       182  -8.0445    162.5673     46.6939   5.4307699437e+01   3.8651709073e+01    0.2580426    0.1224266 -43.08   0.00102448    2.154    0.536
       183  -8.9906    105.4910     51.9671   6.9321253222e+01   5.1284707517e+01    0.5611804    0.3041355 -28.54  0.001949614    1.943    0.485
       184  -8.4962     88.5591     53.2661   7.4959693404e+01   5.4461740574e+01    0.5214418    0.2718603  26.17  0.002063322    2.628    0.619
       185 -10.1142     85.1759     48.1210   7.4142684832e+01   5.5973690390e+01    0.3834703    0.3027632 -66.15 0.0009984906    1.852    0.460
       186  -8.2993    152.6540     52.7786   5.8121182257e+01   4.0210189467e+01    0.3270997    0.1750975 -38.70  0.001376627    1.861    0.463
       187  -9.0492    157.1035     48.9317   5.6027570742e+01   3.9685842526e+01    0.3203718    0.2133707 -27.33  0.001503751    1.590    0.371
       188  -9.6971    130.6915     46.1019   6.0698524186e+01   4.6525964862e+01    0.9270993    0.3785402 -21.51  0.002868581    3.642    0.725
       189  -8.5459    132.8558     35.8449   5.6665006657e+01   4.7437167056e+01    0.2631814    0.1978436 -33.80 0.0005898799    1.380    0.275
       190  -8.8047    222.6674    248.0201   8.8928890800e+01  -8.0519615487e+00    0.1612137    0.1250445   0.71 0.0006727589    1.141    0.124
       191  -9.9422    153.1813     34.9682   5.2335555507e+01   4.2577384522e+01      0.53356    0.2465981 -50.36  0.001943813    2.709    0.631
       192  -9.5570    149.6353     46.4520   5.6710649298e+01   4.1892269734e+01     0.678452    0.2110881 -36.51  0.001853829    3.064    0.674
       193  -8.9197    153.3900     41.2264   5.4299630377e+01   4.1698030301e+01    0.2921979    0.2442173  66.04 0.0009030071    1.171    0.146
       194  -8.7999    112.4484     44.7087   6.4755319654e+01   5.0918944417e+01    0.8042211    0.3511858 -19.79  0.002674655    3.587    0.721
       195 -10.0266     69.4898     40.6141   7.6632375780e+01   5.9986604549e+01     0.828792    0.3344099 -39.87  0.002204077    2.381    0.580
       196  -9.8527     75.7750     32.2335   7.0972984266e+01   6.0174039349e+01    0.4954697    0.2664249  49.36  0.001761916    2.052    0.513
       197  -9.8782     37.7758     42.1636   8.9885328628e+01   6.4177674018e+01    0.3537793    0.3196987 -71.87  0.001458892    1.592    0.372
       198  -7.4872    230.6585    244.2807   8.6944643417e+01  -8.7039433532e+00    0.1012845   0.08669161  41.92 0.0007009775    1.629    0.386
       199  -8.2128    122.6789     41.1410   6.0863693788e+01   4.9118278588e+01    0.4307024     0.235029  16.35  0.001482662    3.550    0.718
       200  -8.5334    105.0118     41.0169   6.5415946712e+01   5.3089083816e+01    0.3020158     0.191594 -43.11 0.0008811778    1.734    0.423
       201  -8.2515    106.4924     36.1413   6.3162805885e+01   5.3460726638e+01    0.2891812    0.2055544  31.60  0.001491475    1.408    0.290
       202  -8.9515    139.4054     39.6533   5.6571776919e+01   4.5347902365e+01    0.4461783    0.2610868 -38.14   0.00203916    1.755    0.430
       203 -10.2265     90.4475     38.1396   6.8590301802e+01   5.6525690069e+01    0.8161177    0.3001114  36.68  0.002873959    3.266    0.694
       204  -8.5891    160.2820     38.8917   5.2302650102e+01   4.0298152335e+01    0.2866244     0.110228 -36.54  0.001073809    2.524    0.604
       205  -8.3102     53.8092     39.1322   8.2023967815e+01   6.2662361829e+01    0.1859443    0.1656478 -28.93 0.0006126203    1.211    0.174
       206  -9.1487    144.3462     36.7161   5.4582257103e+01   4.4533229015e+01    0.3211263    0.2169009 -51.06  0.000657466    1.669    0.401
       207  -8.9738    118.9476     34.5553   5.9385815253e+01   5.0878670048e+01    0.3509049    0.1912587 -33.29 0.0007314268    1.873    0.466
       208  -9.9057    152.1585    248.6709   1.0194380818e+02   2.3824613313e+00    0.2813697    0.2251689 -53.32   0.00189463    1.547    0.354
       209  -9.1859     60.2880     33.8309   7.7288667244e+01   6.2554665738e+01     0.399747    0.2225376 -45.77  0.001230964    2.068    0.517
       210  -8.7717    246.9579    242.0418   8.3795411215e+01  -1.0624084423e+01    0.1719437    0.1315298   7.19            0    1.044    0.042
       211  -8.5926     63.1936     26.7213   7.3117743215e+01   6.3142210609e+01    0.3975658    0.1769575  36.43  0.001824908    2.249    0.555
       212  -8.3537    192.3006    240.3110   9.3227471523e+01  -2.5958607582e+00    0.1223115   0.08335074   8.35 0.0002888633    1.605    0.377
       213  -8.2511    107.0415    238.9090   1.0938839586e+02   1.0911047561e+01    0.2193863    0.1381673  46.96 0.0007457474    1.317    0.240
       214  -9.0281    110.2558     33.0087   6.0978971412e+01   5.3051462347e+01    0.3616768    0.2117219 -44.11  0.001078309    1.974    0.493
       215  -7.0645     13.2732     34.6874   9.8300135599e+01   6.7853260833e+01    0.1001701   0.08943092 -71.53 0.0002580106    1.555    0.357
       216  -8.6951     40.9996     20.5325   7.9366702623e+01   6.7349167097e+01    0.2687232    0.1495266 -32.88 0.0003398627    1.603    0.376
       217  -9.6660    188.0843    233.8119   9.3018592108e+01  -1.0074075949e+00    0.3069861    0.2034064 -52.66    0.0014982    2.066    0.516
       218  -8.3748    218.0290    231.9301   8.7173047454e+01  -5.3278819417e+00     0.177947    0.1442686  11.53 0.0003828513    1.017    0.017
       219  -8.0885    109.7884    223.9092   1.0710073952e+02   1.3245249974e+01    0.2381151    0.1711679  83.33  0.001367853    1.604    0.377
       220  -9.1103    216.4358    214.1417   8.4413689539e+01  -2.5848100948e+00    0.2740991    0.2390272 -77.67  0.001007811    1.962    0.490
       221 -10.4936    236.2657    207.4444   7.9622367693e+01  -4.6811767339e+00    0.2267869    0.1904579 -14.72 0.0002146813    1.162    0.139
       222  -8.5120     42.2722     28.0009   8.2179192229e+01   6.6050886469e+01     0.191353    0.1510395  -8.79 0.0002084941    1.066    0.062
       223  -8.9073    204.9009    208.9035   8.5641284135e+01   6.7497530568e-02     0.235577    0.1941981  32.43 0.0007168896    1.186    0.157
       224  -9.0065    205.9594    204.1312   8.4573688412e+01   6.4383309515e-01    0.2054571    0.1807737   7.02 0.0002829903    1.033    0.032
       225  -9.1054     91.4575     26.3105   6.3510337862e+01   5.7936282107e+01    0.4171909    0.2086499 -40.98  0.001244129    2.301    0.565
       226  -7.8780     92.5048     20.5438   6.0819390124e+01   5.8412925330e+01    0.2255671     0.149361   9.31 0.0005647277    1.695    0.410
       227  -9.1010     71.1917     26.2556   7.0010878778e+01   6.1832023936e+01    0.4418217    0.2758664  34.11  0.002016902    1.534    0.348
       228  -9.6574     79.5546     23.8500   6.6146902906e+01   6.0603246384e+01     0.516755    0.2659703  25.14  0.001770926    2.423    0.587
       229  -9.0548     84.6921     21.9019   6.3692569133e+01   5.9842983424e+01    0.2373486    0.2184529 -10.79 0.0006810424    1.164    0.141
       230  -8.4693    156.5145     27.4678   4.9365926282e+01   4.2668815453e+01     0.140605    0.1281042 -83.98 0.0008073234    1.110    0.099
       231  -9.8787     11.0031    207.2737   1.2513673413e+02   2.9241759958e+01    0.4872399    0.2941435  26.00  0.003035394    2.246    0.555
       232  -8.5526    128.4996     25.8897   5.4093323522e+01   4.9708764806e+01    0.2715366    0.2074549 -63.92 0.0006004017    1.626    0.385
       233  -8.6729    130.2296     21.0003   5.2000886592e+01   4.9843036553e+01    0.3125912    0.2239787  16.02  0.001297943    1.625    0.385
       234  -8.0678    241.3170    205.6197   7.8402496609e+01  -5.1824128949e+00    0.1638184    0.1541959 -58.23 0.0007124484    1.678    0.404
       235  -8.1897    109.8740     26.6024   5.8630263533e+01   5.3941929648e+01    0.1984483    0.1658531  20.22  0.001136663    1.164    0.141
       236  -7.8394    171.4357     26.0106   4.6588412848e+01   3.9117281041e+01    0.1964259    0.1357687 -28.84 0.0005307398    1.536    0.349
       237  -8.8858    144.4774     25.8326   5.0939519057e+01   4.5839913541e+01    0.2150835    0.1855083 -76.84 0.0008018924    1.268    0.212
       238  -7.0701    128.2791    206.3685   1.0085883626e+02   1.3648702504e+01    0.1302172    0.1050375 -12.83 0.0007011318    1.686    0.407
       239  -9.8056    123.9953    206.0012   1.0172093214e+02   1.4440483550e+01    0.1896349    0.1716853  53.72  0.001163338    1.007    0.007
       240  -7.8996    111.0649     22.0096   5.6571059692e+01   5.4207380359e+01    0.2103799    0.1638154 -67.30 0.0008848258    1.736    0.424
       241  -9.0476    102.9958     21.1517   5.8238286353e+01   5.6100961416e+01    0.2940762    0.1872634 -29.69 0.0007710427    1.633    0.388
       242  -9.1317    192.4370    195.1028   8.5534767451e+01   4.4617892237e+00     0.890036    0.4421197 -61.59  0.002455165    7.023    0.858
       243  -8.9855    149.5980     24.7435   4.9669755870e+01   4.4700903252e+01    0.2070593    0.1400537 -25.23  0.001044422    1.593    0.372
       244  -8.5319    206.5446    199.4617   8.3596972646e+01   1.2934874685e+00    0.2245784    0.1985599   0.78 0.0004116798    1.040    0.039
       245  -7.1316    216.2722    199.6916   8.1801032557e+01  -3.6922025277e-01    0.1130747    0.1067092 -76.46 0.0002769636    1.546    0.353
       246 -10.2680    174.0798    194.6307   8.9180571136e+01   7.8267174805e+00    0.2408735    0.2306057 -36.51 0.0004658863    1.147    0.128
       247  -7.3768    151.2810     20.6629   4.8063769455e+01   4.4736402506e+01    0.1399234   0.09976742 -63.00 0.0003675738    1.620    0.383
       248  -7.8095    155.3690     18.1255   4.6599000458e+01   4.3993008056e+01    0.1892252    0.1174641 -40.27 0.0005646796    1.687    0.407
       249  -7.5760    232.9854    195.3089   7.7919096303e+01  -2.4062405179e+00    0.1732888    0.1466665   7.19 0.0003890059    1.064    0.060
       250  -8.4395    126.1467    193.5121   9.9328157339e+01   1.6618065477e+01    0.2137164    0.1859601 -61.44 0.0002823177    1.212    0.175
       251  -9.3279     58.8235    186.9537   1.1356543143e+02   2.8373320649e+01    0.2028676    0.1839693 -85.02 0.0002826969    1.159    0.137
       252  -8.4691    112.4710     15.5079   5.3738589479e+01   5.4580446184e+01    0.2177526    0.2030237  34.89 0.0002130239    1.052    0.049
       253  -8.8062    195.2331    179.1631   8.1868836273e+01   6.7665778240e+00    0.2168471    0.1952386  12.07 0.0003310735    1.036    0.034
       254  -7.5025    189.4480     15.4982   4.1274870009e+01   3.5836816747e+01    0.1318743     0.119658  89.07 0.0008081108    1.036    0.034
       255  -8.1087    181.0823    177.3420   8.4397831344e+01   9.7552059503e+00    0.2861334     0.186791 -57.25  0.001312372    1.952    0.488
       256  -8.4181     59.8699    171.1389   1.1141078616e+02   3.1893875898e+01    0.1887397    0.1636793 -88.55 0.0002550326    1.028    0.028
       257  -8.2815    248.1646    170.1767   7.0291488997e+01  -1.0114309109e+00    0.1691937    0.1496119 -39.94 0.0004670174    1.344    0.256
       258  -7.4581    153.5049    150.5962   8.4819382420e+01   2.0658573358e+01    0.1503492    0.1454943  10.37 0.0001421286    1.047    0.045
       259  -8.7659    133.8266    146.1824   8.8553396783e+01   2.5605015925e+01    0.6589079    0.1849441 -53.93  0.001741186    4.448    0.775
       260  -9.1359    235.5176    146.4990   6.7376456140e+01   5.0123218775e+00    0.2789411    0.1373718  45.48  0.001232006    2.239    0.553
       261  -8.8914     68.4927    145.4955   1.0543199883e+02   3.6929732731e+01    0.3019921    0.2822237  27.83  0.001154651    1.258    0.205
       262  -8.9684     65.3919    143.2220   1.0588109516e+02   3.7909187537e+01    0.3300739    0.2340108 -84.08  0.001351498    1.448    0.309
       263  -9.9396    133.2757    132.4765   8.5550744729e+01   2.8836659907e+01    0.6189157    0.5639411 -32.92  0.003221954    1.123    0.110
       264  -7.2561     95.6797    136.2923   9.6323687710e+01   3.5006221739e+01     0.150529    0.1133881  77.97 0.0002909368    1.607    0.378
       265  -8.8707    112.4853    134.0394   9.1307993628e+01   3.2549457373e+01    0.4405132    0.2852756  73.83  0.001268386    2.409    0.585
       266  -9.1131     83.3329    131.5883   9.8758423664e+01   3.8162186040e+01    0.6661724    0.3908981  79.52  0.002413097    3.181    0.686
       267  -8.1389    143.1541    132.4623   8.3091867348e+01   2.6793205027e+01    0.5120525    0.2609711  65.19  0.001462141    4.316    0.768
       268 -10.8566     70.4776    126.2026   1.0132580939e+02   4.1396302369e+01    0.7448911    0.5794305 -34.27  0.001453534    1.453    0.312
       269 -10.2237     58.2456    124.4927   1.0455019105e+02   4.3450971223e+01    0.6537254    0.3893942  81.43  0.002126836    2.523    0.604
       270  -9.8303     98.9291    128.8026   9.3807812428e+01   3.6254362695e+01    0.7305619    0.4276996  69.19  0.002587825    2.977    0.664
       271  -8.7149    126.2717    129.0571   8.6524212487e+01   3.1038602441e+01    0.2300063    0.1923537 -48.37  0.001137572    1.160    0.138
       272  -8.8967    142.0711    126.0459   8.1785676098e+01   2.8449682031e+01    0.4447284     0.325248 -84.22  0.001596101    1.982    0.496
       273  -9.9609    140.7204    118.4090   8.0182337931e+01   3.0429236463e+01    0.5568206    0.3677785 -59.76   0.00196402    1.746    0.427
       274 -10.3033    139.5278    103.5095   7.6484021648e+01   3.3921326787e+01    0.9962363    0.3847126 -45.01  0.001604609    2.530    0.605
