#   1 NUMBER                 Running object number                                     
#   2 MAG_AUTO               Kron-like elliptical aperture magnitude                    [mag]
#   3 X_IMAGE                Object position along x                                    [pixel]
#   4 Y_IMAGE                Object position along y                                    [pixel]
#   5 X_WORLD                Barycenter position along world x axis                     [deg]
#   6 Y_WORLD                Barycenter position along world y axis                     [deg]
#   7 A_WORLD                Profile RMS along major axis (world units)                 [deg]
#   8 B_WORLD                Profile RMS along minor axis (world units)                 [deg]
#   9 THETA_WORLD            Position angle (CCW/world-x)                               [deg]
#  10 FWHM_WORLD             FWHM assuming a gaussian core                              [deg]
#  11 ELONGATION             A_IMAGE/B_IMAGE                                           
#  12 ELLIPTICITY            1 - B_IMAGE/A_IMAGE                                       
         1 -13.7527     12.8698     48.6101   7.2253955166e+01   6.6722194941e+01    0.9144373    0.4435497 -54.56  0.001112109    1.566    0.362
         2 -12.2669     57.0024     34.7568   4.4031173721e+01   6.4629447589e+01     0.885157     0.396865 -33.00  0.002517401    2.322    0.569
         3 -12.5463      3.4012     13.7866   6.5476340276e+01   7.5118984079e+01    0.6299664    0.3923992 -58.07  0.002990036    1.502    0.334
         4 -11.3004     14.5155     17.5546   5.9309238975e+01   7.3511425116e+01    0.5875704    0.3164945  14.62  0.003100853    2.086    0.521
         5 -11.1320     10.2753     10.7144   5.8652146750e+01   7.5206175336e+01    0.4940929    0.3497222 -67.21  0.002854692    2.010    0.502
         6 -11.6947     55.7763     17.7708   3.5710387446e+01   6.7729171100e+01    0.7723191    0.3047047 -40.72  0.003101544    2.617    0.618
         7 -11.9200    248.9411     20.6100   1.8299442276e+00   2.2143504365e+01    0.3773764    0.1799772 -45.85 0.0004050696    1.566    0.361
         8 -10.5090    193.3191     20.8992   6.4212180377e+00   3.4356501114e+01    0.2264619    0.1888573  74.74 0.0002006618    1.256    0.204
         9 -11.4511    133.0691     18.2295   1.3583691013e+01   4.9888277156e+01    0.4573192    0.2859808 -55.67  0.000898394    1.787    0.440
        10 -11.1517    137.1347     14.9303   1.1632114001e+01   4.9214147379e+01    0.5186152    0.2626881 -70.21 0.0004297005    2.993    0.666
        11 -12.6054    240.3570     14.7952   1.0357795175e+00   2.4560446535e+01    0.4898058    0.2863864 -20.13  0.001992052    1.987    0.497
        12 -11.7715    232.3519     12.9607   1.1190785969e+00   2.6440019337e+01    0.4018365    0.1330129 -38.49  0.001584218    2.177    0.541
        13 -12.2398    235.6670      9.9298   1.8217301256e-01   2.6086632650e+01    0.4711374     0.252585 -88.90  0.001345537    1.980    0.495
        14 -11.6772    166.5222     12.7921   6.8457336547e+00   4.1917329299e+01    0.5949863    0.3008516  80.29  0.002589485    2.072    0.517
        15 -11.2308    159.8236      8.8601   6.3307020971e+00   4.4030189932e+01    0.3852048    0.2366318 -85.76  0.001102862    1.730    0.422
        16 -10.5316    154.2594      8.0249   6.7137468109e+00   4.5533868882e+01    0.3499172    0.2736239  13.37  0.001319767    1.576    0.365
        17  -9.6999     49.8687     16.3338   3.7647733107e+01   6.8998922840e+01    0.3179177    0.1623954 -40.85  0.001476492    2.001    0.500
        18 -12.2487     75.2463     11.6214   2.4630389886e+01   6.4629042939e+01    0.7061096    0.4679995  21.86  0.002205572    1.633    0.388
        19 -11.5823     82.1818      7.0132   1.9985937531e+01   6.3591075403e+01     0.244953     0.218725  36.16 0.0002995456    1.050    0.048
        20 -10.5708     60.2596     11.9113   3.0386955258e+01   6.7700150095e+01    0.4864488    0.1764372 -29.93  0.001733447    2.649    0.622
        21 -11.9691     65.2371     11.8477   2.8360485289e+01   6.6712692732e+01    0.2642366    0.2258177   5.12 0.0003383176    1.060    0.056
        22  -9.8544    125.2027     13.8376   1.3253702946e+01   5.2389392231e+01    0.3523202    0.1821944 -65.21  0.001319771    2.915    0.657
        23 -10.3343    145.8942     12.5830   9.4306162057e+00   4.7212511701e+01    0.3738396    0.1593063 -34.69  0.001108435    2.183    0.542
        24 -10.6206    145.5987      8.0145   7.8206402334e+00   4.7754746684e+01    0.3341693    0.1916217  68.17  0.000913767    1.650    0.394
        25 -11.8461    249.4925      7.0311   3.5872335179e+02   2.3600492608e+01    0.6533064    0.3299946 -43.78  0.003688494    1.454    0.312
        26 -11.7164    238.2769      4.6495   3.5878908824e+02   2.6126662137e+01    0.4926673    0.1707861 -49.64  0.002269536    2.193    0.544
        27 -12.1271    242.1100      3.3541   3.5828291237e+02   2.5481319664e+01    0.5323204    0.2998045  82.38  0.002450653    1.871    0.466
        28 -10.8014    176.7538     11.3384   5.2660118104e+00   3.9505983366e+01    0.4526854     0.275917 -59.75 0.0005820045    1.604    0.376
        29 -10.0145    119.8701     10.0894   1.2689383905e+01   5.4135206778e+01    0.3103728    0.1891586  -8.92 0.0008469744    1.914    0.478
        30 -10.3426     28.3437     10.7073   4.6129095649e+01   7.3207687850e+01    0.2728163    0.2401094  76.12  0.001670528    1.995    0.499
        31 -10.0191    100.3822     10.1617   1.6795319732e+01   5.8973418020e+01    0.2395379    0.2278186  47.74 0.0006817894    1.041    0.039
        32 -10.1963    101.6644      6.9872   1.5010441266e+01   5.8979249841e+01    0.3468086    0.1647004 -42.41  0.001456024    2.353    0.575
        33 -10.2632     36.0732      7.8005   3.9607168206e+01   7.2540135236e+01    0.3927161    0.2309692 -20.25  0.002056883    1.666    0.400
        34  -9.9482     89.9833      8.4654   1.8570614549e+01   6.1634624762e+01    0.2657466    0.1826195   8.60  0.001342931    1.624    0.384
        35  -9.3911    114.1860      8.6293   1.3145158150e+01   5.5714374052e+01    0.1904569    0.1177044  54.91  0.000338838    1.508    0.337
        36  -9.5108     19.9458      8.2947   5.0156687622e+01   7.4660784126e+01    0.1746327    0.1469765 -28.72 0.0004457939    1.188    0.158
        37 -10.2913     16.4494      7.1306   5.1897920083e+01   7.5252683999e+01    0.2964827    0.1766353 -40.28  0.001253355    1.449    0.310
        38 -10.1327     19.6956      4.3674   4.7723226540e+01   7.5339776121e+01    0.2688187    0.2215896 -43.93  0.001255568    1.486    0.327
        39 -10.9482     27.6274      3.0259   4.1439841908e+01   7.4494799024e+01    0.3168027     0.270506 -86.88  0.001867077    2.368    0.578
        40 -10.0890     22.0525      1.5064   4.4051658571e+01   7.5484364162e+01     0.247238    0.1490314  17.07  0.001241683    1.739    0.425
        41 -10.5566    228.8024      6.1245   3.5969096658e+02   2.7958155721e+01    0.2047901    0.1345364 -53.64 0.0008294284    1.216    0.178
        42 -10.5323    223.1054      5.2079   3.5981963905e+02   2.9288337864e+01    0.2594507    0.1565942 -32.12 0.0009833437    1.503    0.334
        43 -11.3144    164.7855      4.9040   4.4755629706e+00   4.3165166233e+01    0.2817091    0.2147331 -70.99 0.0004537136    1.252    0.201
        44 -10.0743     58.6381      5.2515   2.7050566533e+01   6.8835320910e+01    0.2743637    0.1453323  54.56  0.001259685    2.005    0.501
        45 -11.5316    179.3694      3.6509   2.6720158213e+00   3.9649421608e+01     0.335172    0.2107222  64.41 0.0001306011    1.604    0.376
        46  -9.8958    134.8173      4.3952   7.9689356964e+00   5.0865258806e+01    0.2691927     0.130283  76.83  0.001135494    2.107    0.525
        47 -10.2639    126.1164      3.0975   8.7555781095e+00   5.3206363679e+01    0.2338535    0.1971534 -40.76 0.0007269625    1.222    0.182
        48 -10.3147     97.8750      3.2296   1.4068648611e+01   6.0251607477e+01     0.264616    0.1889911  -7.93 0.0007464707    1.486    0.327
        49 -10.0770     68.3141      5.3354   2.3469504929e+01   6.6828631137e+01    0.2245975    0.1390502  44.28 0.0006799658    1.500    0.333
        50  -9.9185    118.5375      3.0558   9.9688782772e+00   5.5135078987e+01    0.3379698    0.1325324  49.35 0.0009555545    2.417    0.586
        51  -9.8670    173.9942      1.6111   2.5345268754e+00   4.1175054749e+01    0.1860351     0.153843  89.02 0.0004122787    1.136    0.120
        52 -10.0721     91.1387      2.1411   1.5090180933e+01   6.1967082335e+01    0.1974371    0.1624534  29.14 0.0002642741    1.163    0.140
        53 -10.6748     73.7963      1.4867   1.9456966426e+01   6.6020921983e+01    0.2671761    0.1371362  56.35 0.0007456479    1.833    0.454
        54 -10.3485     34.9483      1.8907   3.6213312067e+01   7.3537400924e+01    0.1873065    0.1503191   4.84 0.0003156273    1.062    0.058
        55 -10.1196     14.1802      2.0697   5.0183920189e+01   7.6350029345e+01    0.1809864    0.1279273 -20.49 0.0002552119    1.164    0.141
        56 -10.2908    230.2319      1.4061   3.5847242695e+02   2.8157067656e+01    0.1963091    0.1096945  76.97 0.0006673791    1.870    0.465
        57  -9.1707     85.9975      1.1901   1.5875344705e+01   6.3263931539e+01    0.1769742    0.0981135  61.77 0.0004107002    1.728    0.421
        58  -9.5642     60.2038    192.3819   7.8823265924e+01   2.4695273278e+01    0.1927313   0.09948711  45.28 0.0009451757    1.708    0.414
        59 -11.8811    248.1532    249.0119   4.9107049847e+01  -9.6456131600e+00    0.5110112    0.2746525   3.34  0.003395972    1.654    0.395
        60 -11.9350    225.9545    246.2111   5.2279710127e+01  -6.9548285241e+00    0.5520371    0.2485999 -16.34  0.002905445    2.734    0.634
        61  -9.7535    110.0003    250.2930   7.3920062025e+01   7.0556999638e+00    0.1654814    0.1204942  38.11 0.0005668859    1.094    0.086
        62 -10.5718     91.4000    249.5583   7.7400950609e+01   9.5330425222e+00    0.1907126    0.1569322  66.14 0.0007094495    1.214    0.176
        63  -9.0998     72.3051    249.9911   8.1051613741e+01   1.1797133594e+01    0.1526057   0.06885771 -45.25 0.0007000427    4.037    0.752
        64 -11.6150     21.8751    248.6515   9.0223789119e+01   1.7584912291e+01    0.4397103    0.1489062  46.54  0.002233295    1.969    0.492
        65 -11.0419      8.3249    248.7721   9.2597707815e+01   1.8873809067e+01    0.3392648    0.2050188  25.22  0.001936291    2.039    0.510
        66  -9.3409     13.3119    249.6846   9.1762822636e+01   1.8240030223e+01    0.1503493   0.08591959  81.88 0.0005974775    1.539    0.350
        67  -9.4791    190.2883    191.3422   4.9794903095e+01   5.3193700455e+00    0.1358036    0.0914174  -6.31 0.0004598818    1.646    0.392
        68  -9.7198    145.1864    190.1089   5.8937473697e+01   1.2679203768e+01    0.2045053    0.1737552  -4.24 0.0006124825    1.251    0.201
        69 -10.4762    244.6962    188.0476   3.9516880665e+01  -1.9163272094e+00    0.1748613    0.1263409 -15.53 0.0004614495    1.075    0.070
        70 -10.2919    225.8765    188.1714   4.2674154364e+01   5.9804692714e-01    0.1791037    0.1235622  -5.75 0.0005193671    1.327    0.247
        71  -9.5641      2.3192    187.2963   9.1590548825e+01   3.1841199778e+01    0.1080749   0.08397132 -58.59 0.0005361171    1.613    0.380
        72  -9.7341     61.9572    184.5434   7.7621782390e+01   2.6282860117e+01    0.2049681    0.1650507 -83.90   0.00104101    1.170    0.145
        73  -9.9252     24.4487    181.4580   8.6280277838e+01   3.1218300479e+01     0.262844    0.1173266  62.75 0.0009561367    2.084    0.520
        74  -9.5225     21.6829    178.7020   8.6746093126e+01   3.2137683930e+01    0.1809995    0.0996524  87.38  0.000503747    1.582    0.368
        75 -10.8151    249.4476    179.7988   3.7211167645e+01  -1.3922222639e+00    0.2399667   0.09737571 -37.03  0.001154477    2.171    0.539
        76 -11.1766      2.9434    179.7801   9.1125922246e+01   3.3520195398e+01    0.3288095    0.2146138  -4.03  0.001823718    2.664    0.625
        77 -12.1251      8.1081    172.7504   8.9588774047e+01   3.4762590247e+01    0.4322937    0.2552846 -59.15  0.001989929    1.861    0.463
        78 -10.2651     54.0735    175.5275   7.8608996161e+01   2.9412068338e+01    0.2569041    0.1749844 -66.16 0.0009134428    1.431    0.301
        79  -9.5314      1.4756    175.5122   9.1266053405e+01   3.4636997974e+01     0.125445   0.09415086  76.98 4.012053e-05    1.001    0.001
        80 -11.5433     17.1643    172.3123   8.7406193722e+01   3.4089793575e+01    0.4344521     0.152978  63.80  0.001730304    2.923    0.658
        81  -8.9723    116.4724    170.5231   6.2303351503e+01   2.1539824300e+01    0.1400313    0.1385552  40.58 8.892375e-06    1.041    0.039
        82 -11.0855      1.6840    165.2341   9.0727737494e+01   3.7083157166e+01    0.3719979    0.1373942 -89.44  0.001642286    2.296    0.565
        83  -9.0660     93.3241    166.7645   6.7495721935e+01   2.6134157039e+01    0.1443483    0.1015149  62.10 0.0002014917    1.518    0.341
        84 -10.0116     67.4591    165.6952   7.4048313717e+01   3.0130103798e+01    0.2547897    0.1319648 -74.40 0.0007752458    1.946    0.486
        85 -10.8683      7.6607    163.6195   8.9186421911e+01   3.7017737599e+01    0.2728443    0.2089126 -21.97  0.001642313    1.981    0.495
        86  -9.7045     51.3941    160.7970   7.7683674859e+01   3.3403343557e+01    0.1963841    0.1142165 -62.31 0.0003014349    1.622    0.383
        87 -10.9926    248.2399    156.3703   3.2769711465e+01   2.1712144008e+00    0.3240491    0.2264781  -3.26  0.001925026    1.417    0.294
        88  -9.4642     19.7089    157.6848   8.5739126575e+01   3.7491222540e+01    0.1622785    0.1082746  43.00 0.0009067887    1.499    0.333
        89 -10.0167    185.8382    165.8300   4.5779385236e+01   1.0529389528e+01    0.1830343    0.1734428 -64.71  0.001081059    1.345    0.257
        90 -10.0957    216.2891    154.2113   3.7573581139e+01   7.4593839488e+00    0.2807049    0.1749841 -30.14  0.001437722    1.398    0.285
        91 -10.2637    158.8063    153.6821   4.9010611250e+01   1.7767545578e+01    0.3461478    0.2325053  29.06  0.001211583    1.610    0.379
        92 -10.3413     10.9431    152.9339   8.7678614803e+01   3.9431290865e+01    0.3573004    0.1412146  47.90  0.001619589    2.315    0.568
        93  -9.9894     40.7981    151.9525   7.9549788156e+01   3.6893810087e+01     0.204669    0.1667795 -66.80  0.000459492    1.212    0.175
        94 -10.3044    144.5918    150.1132   5.1546863156e+01   2.1191072438e+01    0.4400004     0.249384 -69.95  0.001500955    3.282    0.695
        95  -9.2329    177.3124    150.6040   4.4314819167e+01   1.4970262196e+01    0.1473547    0.1171026 -76.17 0.0007002421    1.850    0.459
        96 -11.7100     13.8587    147.6786   8.6521440449e+01   4.0545048529e+01    0.3255694    0.1906404  88.87 0.0002545186    1.426    0.299
        97 -10.9971      6.9771    145.2636   8.8206988075e+01   4.1692780597e+01    0.5200346    0.1542356  23.71  0.002063448    3.694    0.729
        98  -9.4157     41.6060    146.3038   7.8676931893e+01   3.8288117601e+01    0.1557551   0.08924255  63.62 0.0007007558    1.817    0.450
        99 -10.6096    217.5569    144.9938   3.5354693631e+01   8.8257942954e+00    0.3081075    0.1772137  29.20  0.001253087    2.061    0.515
       100 -11.1697     17.5809    143.6028   8.5169383746e+01   4.1300357037e+01    0.3825225    0.1874303  71.37  0.001348312    2.036    0.509
       101 -10.4161     13.9967    140.0177   8.5872430846e+01   4.2526509033e+01    0.2011315    0.1599468 -74.35 0.0003419218    1.160    0.138
       102  -9.7084    239.8126    140.2331   3.0666896073e+01   5.9502206247e+00    0.1858577    0.1358751 -10.37 0.0006693943    1.327    0.246
       103 -10.1884    189.0236    139.7462   3.9479057732e+01   1.4915696332e+01    0.2533292    0.1944699 -36.03 0.0004508941    1.180    0.153
       104 -10.0715    235.9470    138.0049   3.0781796845e+01   6.9312545237e+00     0.207981     0.167595 -26.18 0.0004786098    1.038    0.037
       105  -9.5130    144.1587    136.8090   4.8699631731e+01   2.4275158530e+01    0.2131133    0.1801372 -11.19 0.0003450285    1.335    0.251
       106 -13.4084     37.5991    134.7598   7.8433686363e+01   4.1794841799e+01    0.6242858    0.3809571 -73.90  0.003067615    1.403    0.287
       107 -11.6119     16.9317    131.1446   8.4226718029e+01   4.4643469686e+01    0.4428929    0.3063319  11.29  0.002410444    1.933    0.483
       108 -11.1612     53.1707    132.5167   7.3397350469e+01   4.0644862335e+01     0.351839    0.2649484 -82.73 0.0004385679    1.211    0.175
       109 -12.5527     81.5526    124.9441   6.3300043899e+01   3.8699104735e+01    0.9243338     0.535221 -59.55  0.002770749    1.585    0.369
       110 -11.6642     74.1020    128.6232   6.6313329263e+01   3.8860223265e+01    0.4297033     0.373258  -4.92  0.001179702    1.451    0.311
       111  -9.4197     64.4726    131.4929   6.9777986375e+01   3.9460047635e+01    0.1525291    0.1335849 -85.78 0.0001662103    1.046    0.044
       112 -10.2712     59.5598    131.2835   7.1244923269e+01   4.0171542859e+01    0.2373249    0.1852984 -16.08   0.00116946    1.752    0.429
       113 -11.3968      4.7000    130.2206   8.7760386598e+01   4.5763645190e+01    0.2450479    0.1845727 -80.60 0.0002658382    1.086    0.079
       114  -9.5550    217.2875    129.3306   3.1864569981e+01   1.1604601581e+01    0.1440443    0.1012339  -8.78 0.0002782372    1.619    0.382
       115 -10.8337     24.7294    127.5086   8.1478402165e+01   4.4975720738e+01    0.3535866    0.1951341 -72.26   0.00170315    1.490    0.329
       116  -9.6679     55.4851    127.4364   7.1867413847e+01   4.1736346201e+01    0.1490481    0.1312762 -71.70 0.0001576077    1.052    0.049
       117 -10.1565    229.5112    124.9958   2.8873624355e+01   1.0175591985e+01    0.2243709     0.115535 -36.00  0.001033382    1.596    0.373
       118 -11.5216     47.0790    124.3005   7.4014347935e+01   4.3601992096e+01    0.2973488     0.253545  43.92 0.0003448231    1.289    0.224
       119 -10.0276    117.4623    124.0029   5.2591756049e+01   3.2566420841e+01    0.2515902    0.1499189 -49.47 0.0007741352    1.583    0.368
       120 -10.2401     20.4665    135.2924   8.3584136513e+01   4.3252084047e+01    0.2798216     0.146225 -75.16   0.00081983    1.570    0.363
       121 -11.0852     10.8532    122.3251   8.5233303126e+01   4.7448201558e+01    0.3357188    0.2068025  78.37 0.0008907622    1.487    0.328
       122 -11.2696      7.6030    118.8020   8.5919827953e+01   4.8605849257e+01    0.2751746    0.1732412  88.69  0.001465558    1.334    0.250
       123  -9.7467    225.8495    123.1241   2.9019958636e+01   1.1141701978e+01    0.2056172    0.1740404 -46.68 0.0006799331    1.260    0.207
       124 -11.0057     61.1027    121.6792   6.9075047637e+01   4.2575221092e+01    0.2876086    0.2162846 -54.02 0.0005750201    1.263    0.209
       125 -11.2942     69.3309    121.6440   6.6442558547e+01   4.1439795238e+01    0.3891023    0.2703892  28.45  0.001504822    1.657    0.397
       126 -10.0879     65.1479    119.8211   6.7421520255e+01   4.2527940049e+01    0.2412405    0.2240732  39.19 0.0004355798    1.209    0.173
       127 -10.7921     23.3152    119.5540   8.0985988030e+01   4.7250356730e+01    0.4179723    0.2697614 -38.95  0.002098762    1.855    0.461
       128  -9.7928     56.7112    121.3370   7.0424816561e+01   4.3242928783e+01    0.1553686    0.1068865  76.45 0.0002901657    1.636    0.389
       129 -10.6999      1.9394    118.7121   8.7684506721e+01   4.8972517139e+01    0.2742307    0.1819478  66.54  0.001109079    1.435    0.303
       130 -10.6549    249.4589    117.6611   2.4288603195e+01   7.9789061442e+00    0.2625014    0.1454018 -24.10 0.0009797834    1.693    0.409
       131 -12.0591     16.0678     96.9477   8.0505649411e+01   5.3944267784e+01    0.7595389    0.2086195 -62.25  0.002804449    2.545    0.607
       132 -12.3916     14.0907    110.0651   8.2895054276e+01   5.0526999622e+01    0.4669931    0.3336612 -76.95 0.0004259499    1.121    0.108
       133  -9.9543     98.4897    117.3193   5.6444466912e+01   3.7825144916e+01    0.2761984    0.1491308  38.13  0.001078004    1.986    0.496
       134  -9.7780     85.9923    116.2574   6.0026926315e+01   4.0282639138e+01    0.2082769    0.2020521 -77.22 0.0002007563    1.069    0.064
       135 -11.0782    182.2273    114.6782   3.4743066937e+01   2.1225412938e+01    0.4973131    0.2812462  38.98  0.001542652    2.040    0.510
       136 -10.7639     70.9830    115.0141   6.4548336347e+01   4.2989756432e+01     0.242352    0.2257976 -83.11  0.001057682    1.058    0.055
       137 -10.6356     75.6218    112.3813   6.2457475815e+01   4.2992405460e+01    0.2677746    0.2521759 -38.61 0.0005258333    1.147    0.128
       138  -9.8924     29.3262    112.8828   7.8114286423e+01   4.8549437098e+01    0.2183169     0.183888  62.48 0.0003560462    1.250    0.200
       139  -9.5474    225.4473    110.8761   2.6197317659e+01   1.3312621087e+01    0.2092621    0.1179405 -36.32 0.0003300048    1.460    0.315
       140  -9.2574    101.4858    111.3709   5.4072027380e+01   3.8803030115e+01    0.1564283     0.149912 -64.85 4.353233e-05    1.035    0.034
       141 -10.6166     62.9229    106.9292   6.5493122768e+01   4.6339184842e+01    0.2591301    0.2225434 -77.69 0.0002952469    1.105    0.095
       142 -11.9352     61.7449     99.7278   6.4269797919e+01   4.8448245374e+01    0.6042718    0.2632826 -51.13  0.002286817    2.034    0.508
       143 -10.7464     58.9799    105.9985   6.6651815427e+01   4.7130407530e+01     0.250977    0.2230172  56.13 0.0003509876    1.225    0.183
       144 -11.6687     31.3693    107.3368   7.6573270100e+01   4.9881439787e+01    0.4737161    0.3468556  67.91  0.001917775    1.451    0.311
       145 -10.2478      3.5952    105.0000   8.5905408116e+01   5.2535686039e+01    0.3098339    0.1815529  27.47  0.001636056    2.026    0.506
       146 -11.9412     51.1234    103.6798   6.8921781195e+01   4.8767607063e+01    0.3329367    0.2958866 -76.10 0.0005261914    1.051    0.048
       147  -9.5669     48.2719    100.3077   6.9245366885e+01   5.0029158488e+01    0.1508669    0.1012635 -42.17            0    1.544    0.352
       148  -9.8439     75.0817    104.1228   6.0698775811e+01   4.5284020453e+01    0.2316755    0.1979938 -42.37 0.0003391363    1.180    0.153
       149 -10.1717     38.2410    103.2567   7.3443930069e+01   5.0330146067e+01    0.2760127    0.1550409 -64.26  0.001255572    1.480    0.324
       150  -9.5337    112.4882    102.4713   4.8420482669e+01   3.8882115153e+01    0.1634891    0.1524091 -47.54 0.0008097747    1.022    0.021
       151  -9.5736      3.3491    107.7154   8.6255037298e+01   5.1822880604e+01    0.2550464    0.1688473  67.95 0.0007376306    1.490    0.329
       152  -9.6916    108.8250    100.6032   4.8978068216e+01   4.0082793740e+01    0.2145816    0.1533259  56.13 9.465871e-05    1.603    0.376
       153 -10.9054     75.7682     98.6675   5.9094741541e+01   4.6618647402e+01    0.5017401    0.3168928 -24.07  0.001958832    2.366    0.577
       154  -9.8165     40.9505     99.7692   7.1805607888e+01   5.0999796323e+01    0.1713331    0.1267516  23.52 0.0004870478    1.609    0.378
       155 -10.5174     22.8430     99.2132   7.8352264856e+01   5.2830056427e+01    0.3222236      0.15357  30.55  0.001218943    2.350    0.575
       156 -11.1197     19.7872    108.8933   8.0813152506e+01   5.0431467703e+01    0.3261928     0.238239 -31.50  0.001542388    1.670    0.401
       157  -9.3072    226.0140     98.2247   2.3050309627e+01   1.5356769794e+01    0.1558599    0.1209204  52.97 0.0002140904    1.566    0.361
       158  -9.1865     81.9599     97.4922   5.6672793867e+01   4.5897540288e+01    0.2036123    0.1605959  33.63 0.0003466197    1.410    0.291
       159 -11.4382     55.2534    109.7517   6.8715511235e+01   4.6594579645e+01    0.3140913    0.2480271 -61.77 0.0006042937    1.115    0.103
       160 -10.6374     52.2621     93.7837   6.6334466040e+01   5.1307500387e+01    0.2679012    0.2152011  68.75 0.0003686739    1.420    0.296
       161 -11.8337     57.4390     90.3890   6.3568991086e+01   5.1537582087e+01    0.4872289    0.3505708 -22.26 0.0006747877    1.751    0.429
       162 -10.7219     26.9989     94.0182   7.5943688486e+01   5.3902207881e+01    0.2110041    0.1749086 -71.10  0.001198268    1.013    0.013
       163 -10.3638    226.2205     93.1131   2.1764113249e+01   1.6175269157e+01    0.2250544    0.2057136 -78.09 0.0004160615    1.297    0.229
       164  -9.8149    101.9667     95.4564   4.9596602101e+01   4.2721313651e+01    0.2253345    0.1381911  65.78 0.0008085335    2.510    0.602
       165  -9.8573     31.8745     92.7023   7.3841155824e+01   5.3827010763e+01    0.1872862    0.1702726 -82.33 0.0003530063    1.110    0.099
       166 -10.4598     36.0258     90.8931   7.1882443378e+01   5.3918199449e+01     0.360257    0.2296766  76.35  0.001222099    1.968    0.492
       167 -11.4610     10.8123     91.0683   8.1645441277e+01   5.5866126569e+01    0.2721669    0.2136476  46.50 0.0005343106    1.473    0.321
       168 -12.1638     16.1843    115.3627   8.2809260754e+01   4.8944478675e+01    0.3709143    0.3566066 -63.04 0.0005657701    1.238    0.193
       169  -9.9428    231.5164     91.4695   2.0625957989e+01   1.5417963010e+01    0.1430993    0.1160114 -37.06 7.406842e-05    1.008    0.008
       170  -9.5908    105.7833     91.1373   4.7139520509e+01   4.3010294154e+01    0.2504431    0.2214672 -78.97  0.001186871    1.236    0.191
       171 -11.2249     95.4273     89.0825   4.9791551691e+01   4.5572586739e+01    0.5008251    0.3593542  53.70  0.001893583    1.590    0.371
       172 -10.3812     23.5632     90.1537   7.6584414546e+01   5.5229744881e+01    0.2796534     0.218491  -3.87  0.001553804    1.613    0.380
       173  -9.3058    177.3161     89.2810   2.8859456963e+01   2.7323594790e+01    0.1514716     0.121752   5.43 0.0002379932    1.576    0.366
       174 -11.3645    108.2849     85.6014   4.4669716740e+01   4.3809666647e+01    0.5515704    0.4086215  89.93  0.002312585    1.941    0.485
       175  -9.6366     83.1395     88.7318   5.3808550159e+01   4.7939191736e+01    0.2151967    0.1759155 -25.43 0.0004499386    1.363    0.266
       176  -9.5968     73.8079     89.0293   5.7181183025e+01   4.9449536398e+01    0.2136482    0.1806428 -52.33  0.001074917    1.064    0.060
       177  -9.4642     46.6116     87.7853   6.7074509374e+01   5.3603762378e+01    0.2050997    0.1297685 -73.88 0.0002543516    1.588    0.370
       178 -10.6163     65.2146     84.8922   5.9171434124e+01   5.1865573469e+01    0.3869587    0.2311091 -70.66 0.0009713774    1.953    0.488
       179 -10.6307     29.2678     85.3978   7.3425409705e+01   5.6032451560e+01    0.2841308    0.1924282  36.98 0.0007615439    1.706    0.414
       180 -10.7205     30.1708     81.6157   7.2264533022e+01   5.6962023505e+01    0.3251678    0.2296087 -59.89 0.0008263949    1.167    0.143
       181  -9.1917     34.3014     84.6616   7.1242837899e+01   5.5762524468e+01    0.1458474    0.1038862  76.80 0.0007036847    1.666    0.400
       182 -10.1908    116.9756     83.3003   4.1368390055e+01   4.2469107782e+01    0.2213371    0.2191923  51.11 0.0006733022    1.080    0.074
       183 -10.5894     42.9324     83.0311   6.7383866087e+01   5.5291738147e+01    0.2210411     0.215681   2.19  0.000703755    1.187    0.157
       184 -11.0925     76.9075     81.9600   5.3983204389e+01   5.0727544934e+01    0.3904999     0.228878  40.45  0.001239673    1.871    0.466
       185 -10.0610      7.4302     81.0414   8.1523839115e+01   5.8730601261e+01    0.3508307    0.1176999 -56.17  0.001438154    2.229    0.551
       186 -11.2090     49.1369     77.8703   6.3521554959e+01   5.5906180439e+01    0.3955782    0.2900423  35.53  0.001820351    1.551    0.355
       187 -12.8770     88.4257     77.3130   4.8425820764e+01   4.9771817594e+01    0.3926634    0.3644671  13.43 0.0005259098    1.177    0.150
       188  -9.2805     65.4323     79.4210   5.7496940042e+01   5.3232745808e+01    0.1526528     0.137619 -56.85 4.078249e-05    1.046    0.044
       189  -9.6633     40.7938     79.6103   6.7409485655e+01   5.6431861662e+01    0.1964784      0.13155  41.51 0.0009537352    1.729    0.422
       190  -9.0266      3.0000     78.9145   8.3027188931e+01   5.9509154507e+01    0.2328271   0.06162988 -74.70 0.0008044109    2.956    0.662
       191 -10.2215    203.4778     77.8346   2.1166154850e+01   2.3515182330e+01    0.2175843    0.2082801  89.57 0.0003531022    1.176    0.150
       192  -9.9545    112.4429     78.1129   4.1001922069e+01   4.4632677643e+01    0.2971466    0.2282529  20.39 0.0008675772    1.630    0.386
       193 -10.8158     11.7435     75.9648   7.8895163797e+01   5.9831922094e+01    0.4418058    0.2599576  55.75  0.002165796    2.101    0.524
       194 -10.8275      6.4852     68.0341   7.9789182788e+01   6.2187079365e+01    0.2530512    0.1969047 -78.07 0.0006257513    1.150    0.131
       195 -14.2582     17.0216     67.7284   7.4939920800e+01   6.1648859929e+01      0.87162    0.5792927  79.21  0.001539385    1.833    0.454
       196 -11.3984      2.6605     63.3837   8.0710076034e+01   6.3559508827e+01    0.6897501    0.2566215 -59.26  0.002881765    1.909    0.476
       197 -10.6493      6.9846     41.1524   7.3382069174e+01   6.8858663422e+01    0.3705671    0.2078146 -41.56  0.001175711    1.505    0.335
       198 -10.2750     83.6821    248.3279   7.8771631945e+01   1.0696274304e+01    0.2144395    0.0999065  43.54 0.0005848926    1.655    0.396
       199 -11.9896      2.8121     50.5840   7.8076683020e+01   6.6773729104e+01    0.9136747    0.2588401 -64.59  0.003660991    2.430    0.589
       200 -11.1210      7.9168     51.5799   7.5644835494e+01   6.6283013055e+01    0.3372263    0.2401558 -84.97  0.001008607    1.488    0.328
       201 -11.6368    167.8128     73.4897   2.6071187873e+01   3.2551740668e+01    0.4259456    0.2565381 -46.85 0.0003341523    1.570    0.363
       202  -9.6643    167.5776     69.5429   2.4910068957e+01   3.3333987236e+01    0.2321508    0.1997058  43.19 0.0001317867    1.298    0.230
       203 -10.3623     76.3820     76.3265   5.2401946329e+01   5.2209769037e+01    0.4628587    0.3338536  75.84   0.00140665    2.062    0.515
       204 -10.4229     99.3456     75.5284   4.4184568099e+01   4.8012150662e+01    0.3163579    0.2416932 -50.43  0.001471385    1.248    0.199
       205 -10.1593     37.9059     75.7936   6.7652389242e+01   5.7741491622e+01    0.3340037    0.1938189 -24.21  0.001427684    2.311    0.567
       206 -10.9006     55.4066     70.9351   5.8897967723e+01   5.6838906401e+01     0.220111    0.1648061 -50.10 0.0004364997    1.166    0.142
       207  -9.8676     44.7284     74.5656   6.4438876390e+01   5.7296932580e+01    0.2164147     0.167584  51.17 0.0009008732    1.540    0.351
       208 -10.6916     58.4752     73.4688   5.8428876429e+01   5.5769546142e+01    0.2352155    0.1526741  29.99 0.0006068638    1.748    0.428
       209 -10.2438      6.6776     73.6495   8.0672980174e+01   6.0715901045e+01    0.2693858    0.1830871   7.02  0.001146598    1.855    0.461
       210  -9.4549    206.8197     73.2121   1.9420591231e+01   2.3561156304e+01    0.1887479    0.1585062 -17.83 0.0003372891    1.284    0.221
       211  -9.6094     61.5387     73.4715   5.7197221283e+01   5.5318265104e+01    0.2348298    0.1255024 -46.49 0.0006412097    1.673    0.402
       212 -11.6881    104.0060     69.8575   4.0747507059e+01   4.8294140522e+01    0.6450496    0.5307351 -55.66   0.00154028    1.236    0.191
       213 -11.4624     92.4259     67.8733   4.3812462974e+01   5.1159424675e+01    0.5402805    0.3796891 -15.44  0.001798041    1.895    0.472
       214 -12.2998     50.2801     68.3699   6.0254201992e+01   5.8173760131e+01     0.758293    0.3466496 -34.29 0.0002884989    2.888    0.654
       215 -11.4321     51.4702     63.5161   5.8170622773e+01   5.9206964292e+01    0.4895514    0.3395925 -18.56  0.002310461    1.754    0.430
       216  -9.2291    199.4738     68.4303   1.9193754340e+01   2.6004841710e+01    0.1486292    0.1313779 -41.92 0.0001466763    1.033    0.032
       217 -10.9464    122.7367     67.4354   3.4445671893e+01   4.4574236296e+01    0.3052876    0.2652919 -49.98  0.000578817    1.119    0.106
       218 -11.6788    147.0689     65.6367   2.7877810511e+01   3.9064115258e+01     0.324592      0.24099 -49.02  0.000824174    1.304    0.233
       219  -9.0412     76.3738     67.6852   4.9489852201e+01   5.4273282928e+01    0.1559273    0.1222428  86.14 0.0007032005    1.791    0.442
       220 -12.7924     30.2523     63.3510   6.7725776874e+01   6.1696932325e+01    0.4710364    0.4073844 -64.47  0.001119948    1.114    0.102
       221  -9.6591    135.1948     66.4044   3.0891880154e+01   4.1810691903e+01     0.210547     0.155721  69.61 0.0005544217    1.582    0.368
       222 -10.9268    109.8900     63.7906   3.6782725729e+01   4.8278338211e+01    0.5765284    0.3267541 -57.88  0.001962536    2.288    0.563
       223 -10.3436    159.4913     64.5346   2.4916231254e+01   3.6213758006e+01    0.2710645    0.2399887 -41.88  0.000501359    1.049    0.047
       224 -11.0954    155.5108     62.6766   2.5117146900e+01   3.7528634694e+01    0.3484634    0.2777603  31.73  0.001661219    1.490    0.329
       225 -10.1701     81.5139     65.0157   4.6625699644e+01   5.3939829538e+01    0.2283836    0.2072074  32.89 0.0005011975    1.190    0.159
       226 -10.6856    209.9781     63.1373   1.6266605429e+01   2.4503713928e+01    0.2350963    0.1805749 -39.90 0.0003313809    1.109    0.098
       227  -9.6542    179.7335     64.0010   2.1044427481e+01   3.1376490217e+01    0.2162793    0.1773579 -41.64 0.0003740333    1.097    0.088
       228 -10.8549    202.0911     62.2574   1.7102765605e+01   2.6419597043e+01    0.3283987    0.1951548 -29.05 0.0008781809    1.618    0.382
       229  -9.2582    193.5067     62.4991   1.8415241057e+01   2.8362136202e+01    0.1514699    0.1323407 -46.89 -7.631145e-05    1.004    0.004
       230 -11.5208     45.9142     60.8187   5.9733053887e+01   6.0591755468e+01    0.4285161    0.2900347  -1.10 0.0004131384    1.932    0.483
       231  -9.5982    150.6706     60.6846   2.5460764369e+01   3.9083452059e+01    0.2343068    0.2032541  53.20 0.0004430707    1.225    0.184
       232  -9.7561    153.2906     59.2786   2.4454064534e+01   3.8682945518e+01    0.2283497    0.1939018 -44.69 0.0002019044    1.100    0.091
       233 -10.1725    119.1761     60.8835   3.3081497033e+01   4.6716104335e+01    0.2345893    0.2046161 -59.68   0.00027301    1.198    0.165
       234 -11.5573    115.9540     55.4205   3.1946563552e+01   4.8523453008e+01    0.4853142     0.355278  74.61  0.002167378    1.739    0.425
       235 -10.3304     90.1700     61.0603   4.2080556537e+01   5.3105569983e+01    0.2467285    0.2256376  41.09 0.0003301955    1.173    0.147
       236  -9.5683     80.6410     61.6859   4.5718389934e+01   5.4848758106e+01     0.160048    0.1181127  -8.21 0.0007043256    1.749    0.428
       237 -10.7458    136.0269     58.7952   2.8063656969e+01   4.3045455094e+01    0.4365943    0.2949874  85.66  0.001773865    2.125    0.530
       238 -10.0226    171.2855     57.6286   2.0543414867e+01   3.4508389550e+01    0.3184724    0.1948097  83.39 0.0007229263    2.231    0.552
       239  -9.7514     93.2272     58.1807   3.9941942152e+01   5.3076641510e+01    0.2421695    0.1930327 -80.78 0.0008156823    1.695    0.410
       240 -11.1816     89.4705     53.1385   3.9239091121e+01   5.4890061778e+01    0.6204806    0.2765715 -38.67  0.002309864    2.143    0.533
       241 -10.2538     79.4112     57.0407   4.4401621357e+01   5.6093748276e+01    0.2971239    0.2374339 -13.20 0.0009873548    1.392    0.282
       242 -10.6424     82.3273     51.7691   4.1220912542e+01   5.6623630615e+01     0.638055    0.3066453 -28.53  0.002233896    2.723    0.633
       243 -10.8548     82.4733     47.5251   3.9408299841e+01   5.7437219917e+01    0.4050139    0.2755456  70.02  0.001718701    2.310    0.567
       244  -9.3044     38.9205     57.7655   6.1946696036e+01   6.2174336515e+01    0.1605935    0.1207143  17.09 0.0004055848    1.527    0.345
       245  -9.6354    176.8416     56.1357   1.9146028971e+01   3.3392605560e+01    0.2007396    0.1808804   7.30 0.0005454376    1.314    0.239
       246  -9.5008     98.4352     55.8910   3.7344718336e+01   5.2424517640e+01     0.293543    0.1847829  23.89  0.001160106    2.233    0.552
       247  -9.3070     50.6332     56.3493   5.6040052489e+01   6.1026343523e+01    0.1460469    0.1138444  81.94 -4.23948e-05    1.877    0.467
       248 -10.2729    145.8320     54.1372   2.4262936857e+01   4.1438521091e+01    0.3004725    0.2312206  36.60 0.0004446818    1.490    0.329
       249 -10.9384    149.4726     52.0539   2.2799071720e+01   4.0879338222e+01    0.4398675    0.2743511 -60.26   0.00181731    1.917    0.478
       250 -11.7681     38.7990     50.4574   5.9461819863e+01   6.3920970110e+01    0.6446342    0.3519659 -42.91  0.003011541    1.596    0.374
       251 -11.2420    104.6848     52.3953   3.4032306477e+01   5.1709319764e+01    0.2883114    0.2705263 -40.45 0.0002650819    1.048    0.046
       252 -10.1398    126.6734     51.3551   2.7631363124e+01   4.6679866427e+01    0.3271254    0.2371929 -49.41  0.001508185    1.399    0.285
       253 -10.9362    133.3615     50.4286   2.5697900869e+01   4.5188532242e+01    0.3885159    0.2415896 -75.94  0.001436894    2.642    0.621
       254  -9.9635     73.2733     49.6691   4.3790692573e+01   5.8798388056e+01    0.3547288    0.1223038 -42.37  0.001196116    2.689    0.628
       255 -10.6177     50.6685     43.1483   5.0796301188e+01   6.3957119000e+01    0.4585671    0.3323345 -52.30  0.002387423    1.391    0.281
       256 -11.7579     45.3144     44.8992   5.4105204399e+01   6.4344611049e+01    0.9152644    0.4557087 -59.50   0.00371952    2.401    0.584
       257 -10.8489     44.9340     38.2560   5.1441060091e+01   6.5810179613e+01    0.2688589    0.1983161 -44.14  0.001456534    1.232    0.188
       258 -11.6331     54.7008     48.7728   5.1280095788e+01   6.2143079035e+01    0.4919598    0.3703003  20.14 0.0006067761    1.474    0.322
       259 -11.0610     54.5421     43.5085   4.9145494207e+01   6.3290141630e+01    0.2886659    0.2600658  46.71  0.001615921    1.336    0.252
       260 -10.2038    182.7558    246.6241   5.9847636902e+01  -1.8348998172e+00    0.1629813   0.08634213  36.97 0.0008391819    1.692    0.409
       261 -10.1071    181.4200     48.4534   1.6088558381e+01   3.3489704317e+01    0.4230499    0.1934588 -60.21  0.001416031    3.182    0.686
       262 -10.6260    141.8482     48.9945   2.3308903183e+01   4.3306632146e+01    0.2647233    0.2315681 -70.81 0.0003043863    1.197    0.165
       263 -10.3012    163.3303     44.1297   1.7587363219e+01   3.8650718824e+01    0.2765962    0.1882252 -52.46  0.000470268    1.452    0.311
       264  -9.4557     78.4986     47.5015   4.0869211401e+01   5.8234768078e+01    0.1505208    0.1376296 -21.13 0.0008106597    1.013    0.013
       265  -9.0749     62.6406     47.3008   4.7169202516e+01   6.1179786418e+01    0.1406866    0.1176572  88.97 0.0007036753    1.716    0.417
       266  -9.6635    164.1694     48.1805   1.8766945403e+01   3.7812252142e+01     0.214931    0.1652122 -59.80 0.0003702311    1.315    0.240
       267  -9.7959    104.2159     46.3978   3.1776014822e+01   5.2919117410e+01    0.2022906    0.1489546  65.63 0.0004030825    1.595    0.373
       268  -9.7858    112.3989     45.2782   2.8995183991e+01   5.1194304486e+01    0.2235319    0.2063224  -0.44 0.0004493066    1.119    0.107
       269 -10.6373    108.9021     41.0509   2.8245986228e+01   5.2740264220e+01    0.4252267     0.280133  79.59  0.001764332    2.226    0.551
       270  -9.4140    236.9954     44.2267   8.3697631445e+00   2.1513430913e+01    0.2224688    0.1221639 -62.42  0.001028872    1.933    0.483
       271  -9.6897    189.0025     43.9868   1.3677869281e+01   3.2316501324e+01    0.2277121     0.150948 -61.19            0    1.549    0.354
       272  -9.7778    186.7334     41.2776   1.3179006880e+01   3.3260282919e+01    0.2099614    0.1768028 -77.85            0    1.189    0.159
       273 -11.5438     96.6482     41.9499   3.2235573969e+01   5.5427007152e+01    0.4362074    0.3331456   6.81  0.001459031    1.576    0.365
       274 -11.2757     72.5733     42.3466   4.0921951853e+01   6.0384003493e+01    0.4005775    0.3009467 -56.63  0.001131146    1.577    0.366
       275 -11.8435     62.1145     41.3270   4.4800668458e+01   6.2485666863e+01    0.4349973    0.3577543  44.95  0.002370575    1.395    0.283
       276 -11.9055     83.9266     36.9508   3.4255495143e+01   5.9073858373e+01    0.7807787    0.4541878 -13.14   0.00291316    2.504    0.601
       277 -12.0494     75.1425     35.2560   3.6684916957e+01   6.1179584742e+01    0.6055831    0.4997713 -57.49  0.001584868    1.466    0.318
       278 -11.8025     65.7108     36.7823   4.1180561043e+01   6.2716109833e+01    0.4488935    0.3231871  48.79 0.0002947478    1.599    0.375
       279  -9.5235     34.4931     43.6489   5.9062576588e+01   6.5975564840e+01     0.134674    0.1167795 -32.05 0.0001471065    1.048    0.045
       280  -9.6387    115.7473     42.5650   2.7020642921e+01   5.0845785632e+01     0.221812    0.2062865  30.71 0.0005510828    1.107    0.097
       281 -10.1526    120.9722     41.4599   2.5260910172e+01   4.9748536612e+01    0.2858968    0.2334984 -72.87 0.0006774355    1.427    0.299
       282 -10.3679    117.5249     39.5139   2.5347280969e+01   5.0906265083e+01    0.3282495    0.2423105 -20.55   0.00142508    1.433    0.302
       283 -10.3726     89.3465     41.3629   3.4356121757e+01   5.7142380660e+01    0.2551293    0.2500601 -80.46  0.000606655    1.152    0.132
       284 -10.4026     23.6784     41.5378   6.4072181094e+01   6.7562147282e+01    0.3451465    0.1608003 -54.93 0.0007299592    1.762    0.432
       285 -12.6127     27.6442     37.6427   6.0358404566e+01   6.8053555752e+01     0.273697    0.2311806 -32.91 0.0003121063    1.039    0.037
       286 -11.1366     24.0327     35.0000   6.1329535530e+01   6.8993850382e+01    0.4265047    0.2499746 -10.98 0.0006393267    2.131    0.531
       287  -9.0524    136.9972     41.4876   2.1624369105e+01   4.5735761602e+01     0.215628    0.1322165 -85.38  0.000810152    2.527    0.604
       288 -10.7155    234.0958     39.6154   7.5026891935e+00   2.2742204289e+01    0.3635737    0.1913132  88.01  0.001069107    2.455    0.593
       289 -11.0366    226.4236     39.3875   8.1597614491e+00   2.4397452578e+01    0.3530617    0.1819107 -41.61  0.001102874    1.544    0.352
       290 -10.4436    148.0912     39.5664   1.8734804049e+01   4.3207716609e+01    0.3300405    0.1829503 -41.27 0.0005978429    1.708    0.415
       291 -10.0363    130.9974     42.0220   2.3124916273e+01   4.7164333585e+01    0.3444367    0.1449736 -32.06  0.001239385    2.316    0.568
       292  -9.4767    165.3524     37.8140   1.5190037970e+01   3.9072489697e+01     0.207452     0.138309 -19.84 0.0009412395    1.673    0.402
       293  -9.5257    154.9761     37.7915   1.6884978961e+01   4.1712396680e+01    0.2329898    0.1406469 -49.04 0.0009372422    1.651    0.394
       294 -11.5295    248.0642     36.2693   5.5168950749e+00   2.0353950268e+01    0.2350992    0.1913361 -55.11 0.0003167246    1.090    0.083
       295 -10.1567    221.6031     36.7151   7.9380953945e+00   2.5805812832e+01     0.260288    0.1198704 -28.46  0.001080827    2.057    0.514
       296  -9.8571    202.1573     37.2024   1.0101918296e+01   3.0150120804e+01    0.1994712    0.1426299 -58.75 0.0004922871    1.300    0.231
       297 -10.3155     92.5473     35.5295   3.0733809991e+01   5.7430136583e+01    0.3424015     0.237977  -7.83  0.001206469    1.742    0.426
       298 -10.0928    129.2097     35.8645   2.1175871874e+01   4.8555719415e+01      0.21221    0.1960517 -59.00  0.000329482    1.093    0.085
       299  -9.8802     97.4752     36.1584   2.9480587185e+01   5.6210784099e+01    0.2181621     0.198653 -66.71 0.0003150821    1.253    0.202
       300 -10.0447    241.0518     34.4609   5.6517164648e+00   2.1993692129e+01    0.2061956    0.1430153 -39.53 0.0004511306    1.167    0.143
       301 -10.1515    193.8842     34.5719   1.0309293401e+01   3.2469895268e+01    0.4298448    0.1118497 -45.17  0.001364921    3.393    0.705
       302 -11.1019    110.9931     34.7884   2.5088273229e+01   5.3232478160e+01      0.36725     0.247514  49.48  0.001014988    1.484    0.326
       303  -9.4316    146.1776     34.0092   1.7114038970e+01   4.4501552887e+01    0.2316699    0.1652939   7.89 0.0005389265    1.901    0.474
       304 -10.4880     97.7814     32.4671   2.7759978673e+01   5.6721724033e+01    0.3939345    0.1857726  58.08  0.001535875    2.307    0.567
       305  -9.7111     34.0351     33.7743   5.5142600376e+01   6.8168059195e+01    0.1851631    0.1552393 -34.31  0.000683374    1.041    0.039
       306 -10.3115      1.3948     24.6271   7.1495964513e+01   7.2931274775e+01    0.3839779    0.1262091 -48.82   0.00142781    2.097    0.523
       307 -10.3711     11.0149     24.3224   6.4893098278e+01   7.2406812931e+01     0.350695    0.1455744 -35.52  0.001060862    2.237    0.553
       308 -11.0268     73.5003    244.0234   8.0389871240e+01   1.2679928448e+01    0.2600652    0.2255769 -31.13  0.001346063    1.657    0.397
       309 -12.2708     74.8459    239.4785   7.9782077106e+01   1.3318283971e+01    0.4732435    0.4261009 -70.40   0.00289536    1.354    0.261
       310 -10.2994      4.9307    244.1952   9.3051935195e+01   2.0006508267e+01    0.1774108    0.1134308  70.20 0.0005591474    1.182    0.154
       311 -11.4184      7.1804     28.7812   6.9197813635e+01   7.1693402767e+01    0.6286908    0.2811991 -75.71  0.002148504    3.438    0.709
       312 -10.5738      6.5061     25.0407   6.8203282627e+01   7.2557295912e+01    0.2984171    0.2086479 -83.26  0.000362551    1.942    0.485
       313  -9.7542      3.0160     33.0032   7.3285516793e+01   7.0964865920e+01    0.2664848    0.1577398  86.60  0.001244854    2.528    0.604
       314  -9.6191    117.1491     33.3397   2.2942544357e+01   5.1941744181e+01    0.3383234    0.1420262  43.95  0.001198534    2.647    0.622
       315 -10.3126     19.5243     31.0035   6.2337242180e+01   7.0281499212e+01    0.2853296    0.2265641 -22.99  0.000766295    1.164    0.141
       316 -10.1160     15.7308     31.6660   6.4926452153e+01   7.0456221361e+01    0.2357106    0.1454271 -44.20 0.0008299651    1.293    0.226
       317 -10.5471     12.1466     29.2571   6.6203537515e+01   7.1257744147e+01    0.2240917    0.1573767 -37.70 0.0003907865    1.168    0.144
       318 -11.0721    196.8493     28.0459   8.1012035614e+00   3.2621975287e+01    0.5564299    0.2364218  84.02  0.002070657    3.144    0.682
       319 -10.3018    101.7148     28.7695   2.4988319108e+01   5.6348740486e+01    0.2876131    0.1891762 -48.12   0.00132818    1.692    0.409
       320 -10.3159     79.8745     27.7597   3.1354225971e+01   6.1432459142e+01    0.3582498    0.2059247 -26.83  0.001615127    1.743    0.426
       321  -9.2793     49.2683     29.5943   4.5156178797e+01   6.6858881135e+01    0.1326741    0.1069323 -65.39 0.0006971522    1.751    0.429
       322 -12.2681    231.3560     26.6045   4.5244007703e+00   2.5014535558e+01    0.4684493    0.2435376  82.28    0.0018473    2.200    0.545
       323  -9.4023    139.3445     28.6488   1.6407014168e+01   4.6985691287e+01    0.1624242    0.1050117 -62.30 0.0007040929    1.813    0.448
       324 -11.3541    119.7430     26.8040   1.9660868882e+01   5.2211272750e+01     0.668646    0.3692195  65.89  0.002511922    1.909    0.476
       325 -10.4755    112.4763     27.0714   2.1461379654e+01   5.3981443901e+01    0.3270859    0.2569938 -27.83  0.001012409    1.268    0.211
       326 -10.3238     61.1373     27.3064   3.8483443180e+01   6.5230493910e+01    0.2889745    0.1820279 -35.78  0.001430454    1.490    0.329
       327 -12.3294    216.3728     25.6117   5.5327303100e+00   2.8410491444e+01    0.3517312    0.2789591  72.31  0.002095083    1.393    0.282
       328 -10.8937    176.4464     26.3141   9.9502564128e+00   3.7829577840e+01    0.3332133    0.2131851 -48.52 0.0007644424    1.446    0.308
       329 -10.0037     16.1382     26.5365   6.2520144495e+01   7.1531270598e+01    0.2406505    0.1585598 -62.75 0.0004186825    1.621    0.383
       330  -9.0286     51.4345     26.4674   4.2493771658e+01   6.7070846360e+01    0.1384109    0.1193928 -15.33 0.0002171122    1.007    0.007
       331 -10.1658    155.9842     21.7874   1.1224678267e+01   4.3577690973e+01    0.2327698    0.2045389 -28.44 0.0006891994    1.170    0.146
       332 -11.0908    160.2134     24.4810   1.1532547007e+01   4.2165369427e+01    0.3919421    0.2041104 -45.81 0.0009739749    1.848    0.459
       333 -10.3834    161.6118     20.1945   9.9000461646e+00   4.2328366932e+01    0.2450886    0.1949483   3.34 0.0004394293    1.550    0.355
       334 -11.6951    128.8503     24.1260   1.6674479588e+01   5.0255551894e+01    0.2647184    0.2493706 -19.74 0.0002974326    1.087    0.080
       335  -9.9156    127.1302     19.4646   1.5158590279e+01   5.1263337231e+01    0.2810957    0.1807468 -42.83 0.0009131884    1.578    0.366
       336 -10.0299     90.9375     25.2109   2.6490776452e+01   5.9365301522e+01    0.3727239    0.1594659  46.59  0.001457787    2.291    0.564
       337 -10.4088     21.6239     23.9657   5.7836431273e+01   7.1554818046e+01    0.3198075    0.1809018  20.28  0.001293529    1.959    0.489
       338 -10.0765     24.4968     20.0155   5.3998269836e+01   7.2024540800e+01    0.2203998    0.1685859 -27.91 0.0004301988    1.077    0.072
       339 -11.9586     28.8720     19.6988   5.1107843058e+01   7.1567889791e+01    0.3392687    0.2272294  -1.94 0.0003735042    1.642    0.391
       340 -10.8848     32.3946     15.3945   4.6518562581e+01   7.1874215747e+01    0.3427912     0.218973  20.75  0.001877223    1.653    0.395
       341  -9.8679     82.4263     21.7926   2.7534688805e+01   6.1751838274e+01    0.2978477    0.2164243  23.04  0.001123577    1.470    0.320
       342 -10.4368     81.6404     17.9302   2.5841968511e+01   6.2442936545e+01    0.3681003    0.1819703 -21.99  0.001499736    2.148    0.535
       343  -9.8606     53.8726     22.8877   3.9427006333e+01   6.7264696850e+01    0.2070454    0.1819816 -12.58 0.0004288611    1.035    0.034
       344 -10.0449     59.5021     21.4859   3.6118260157e+01   6.6474666603e+01    0.2567756    0.1324019  44.97  0.001166156    2.013    0.503
       345 -10.1256     46.0332    244.3853   8.5625437014e+01   1.5805070353e+01    0.2338426   0.08993244  45.26  0.001272757    1.880    0.468
       346 -12.0708     34.2351     22.6779   4.9550227781e+01   7.0329102468e+01    0.2590203    0.2017142  -4.49 0.0002099628    1.242    0.195
       347 -11.0568     88.9013    240.7528   7.7133406592e+01   1.1336932929e+01    0.1787156     0.156544 -53.30  0.001301412    1.436    0.304
       348 -10.5982    224.5726     21.5688   3.8072066752e+00   2.7095861886e+01    0.2263978    0.2064491 -33.32 0.0004971269    1.240    0.194
       349  -9.6888    101.7997     22.2040   2.2014827312e+01   5.7225549982e+01    0.3717031    0.1235942  39.99  0.001081312    4.241    0.764
       350 -10.9419     69.3973     21.6865   3.2150232154e+01   6.4522346054e+01    0.3185463    0.2370821  54.10  0.001303287    1.514    0.340
       351  -9.4867    115.7262    240.3531   7.1821697629e+01   7.9099282202e+00    0.1160325   0.07956288  60.85 0.0007002222    1.640    0.390
       352 -10.2074    121.7885     19.0619   1.6043182842e+01   5.2667963044e+01    0.4011263     0.297124  81.78 0.0008649059    1.480    0.324
       353  -8.9697     99.2472     20.2865   2.1810474660e+01   5.8081905782e+01    0.1387669    0.1039205  20.13 0.0006837886    1.467    0.319
       354 -10.6199    195.7035    238.5063   5.6388066127e+01  -2.4120672478e+00    0.1960479     0.175373  -0.97  0.001013546    1.298    0.230
       355 -10.8690     30.8376    234.1734   8.7951068726e+01   1.9323528133e+01    0.3843525    0.1904807 -82.80  0.002143932    1.997    0.499
       356  -9.6689      3.5486    237.9026   9.3113056693e+01   2.1284338143e+01    0.1477957   0.08501453  87.39 0.0007737754    1.530    0.347
       357  -9.8834     40.7424    237.5692   8.6245790128e+01   1.7629905585e+01    0.1561681   0.07838574  46.15 0.0003829766    1.509    0.337
       358 -10.9704     35.0910    237.8618   8.7330617548e+01   1.8183289829e+01    0.2455012    0.1099789  57.36  0.001395351    1.793    0.442
       359 -10.8013    169.8310     17.1952   7.8767213593e+00   4.0591321652e+01    0.2197004    0.2011734  13.30  0.001022812    1.296    0.229
       360 -11.1641    160.7661    234.4157   6.2318308703e+01   2.7497171120e+00    0.3352463     0.245513 -29.53  0.002197447    1.517    0.341
       361 -10.1969     67.3777    236.1607   8.0994798087e+01   1.4828554283e+01    0.2603001    0.1569405  27.67  0.001415188    1.750    0.429
       362 -11.0035    182.9192    234.2511   5.8110581747e+01  -1.9294628140e-01    0.2613579    0.1785647  31.82  0.001266016    1.303    0.232
       363  -9.9730    108.8560     16.6069   1.7770684852e+01   5.6190785408e+01    0.1962381    0.1704669  61.67 0.0005249736    1.141    0.124
       364 -10.2057     59.6456    240.8583   8.2830188450e+01   1.4892116469e+01    0.1589275    0.1259639  43.99  0.001140134    1.162    0.139
       365 -10.2562    217.0025     16.2215   3.0365627658e+00   2.9405313974e+01    0.4157117    0.1206343  61.68  0.001588605    3.523    0.716
       366  -9.8383     46.3800     20.5767   4.1808262716e+01   6.8906807378e+01     0.226415    0.1716113  70.33  0.001135124    2.411    0.585
       367 -10.0897     98.9739     15.2900   1.9551931462e+01   5.8751486822e+01    0.2308672      0.19302  -8.92 0.0005588121    1.217    0.178
       368 -10.2144     54.5203    232.1163   8.3243912349e+01   1.7105161502e+01    0.2040526    0.1273491  55.07  0.001287225    1.290    0.225
       369  -9.8216     76.5400     15.6014   2.6327516464e+01   6.3859808656e+01    0.1955761    0.1635602 -25.05 -3.540267e-06    1.191    0.160
       370  -9.2280     23.5330    232.5354   8.9256363603e+01   2.0383713211e+01     0.110503   0.08576244  63.19 0.0003526119    1.075    0.070
       371 -11.6512    185.1868    227.8921   5.6764236371e+01   4.0042993037e-01    0.4247379    0.2585591  -3.67  0.002351374    1.988    0.497
       372 -10.4622    191.8604    225.7828   5.5207863011e+01  -1.9313983844e-01    0.2392626    0.1767328 -17.56  0.001478495    1.306    0.234
       373 -10.2202    155.5118     13.9363   8.5895046678e+00   4.4597943950e+01     0.203084    0.1361708 -26.48 0.0004289577    1.516    0.340
       374 -10.8539     39.6306    229.3312   8.5999524966e+01   1.9313691657e+01    0.2601302    0.1308044  59.64  0.001094918    1.664    0.399
       375 -10.0492    248.8023    228.6267   4.5869159865e+01  -7.5091479889e+00    0.2030739   0.06985639 -30.67  0.001035241    2.618    0.618
       376  -9.6309     59.1985    229.3884   8.2123766789e+01   1.7076294309e+01    0.1688387   0.08404949  44.74 0.0005158716    1.589    0.371
       377 -10.3609      4.0738    225.6576   9.2642678535e+01   2.3571253968e+01    0.1776399    0.1612903 -54.27  0.001310629    1.657    0.396
       378  -9.4007    168.6796    250.6720   6.2934133230e+01  -5.8580528489e-01    0.1146724    0.0747906   3.92 0.0003517965    1.687    0.407
       379  -9.9902     16.2775    222.1037   9.0192154790e+01   2.3138571220e+01    0.1605951    0.1138888  71.17 0.0005575055    1.092    0.084
       380 -10.1274    123.6440    221.7168   6.8103117423e+01   1.0016641391e+01     0.176172    0.1183549  19.72 0.0005079199    1.617    0.382
       381 -11.6724     48.6803    218.5199   8.3496362566e+01   2.0446941292e+01    0.4993974    0.2518961  28.48  0.002623627    2.115    0.527
       382  -9.9847     70.0026    217.7580   7.8977029854e+01   1.8037253953e+01    0.1634434    0.0907208  36.58 0.0008690273    1.598    0.374
       383 -10.0244    139.0103     10.5724   9.6960951965e+00   4.9192012447e+01    0.2160911    0.1323515  72.64  0.001021731    1.596    0.374
       384  -9.6795    211.8086    218.8328   5.0498150748e+01  -1.8589197893e+00    0.1471678    0.1313754   5.09 0.0007248356    1.316    0.240
       385 -10.5286     14.9337    215.5074   9.0174025257e+01   2.4604869825e+01    0.1971033    0.1259853  52.44 0.0005706091    1.238    0.192
       386 -11.9781     11.5614    209.8754   9.0607221556e+01   2.6091719165e+01     0.446628    0.2369849  80.18  0.002645439    1.580    0.367
       387 -11.4589      3.4699    205.0148   9.2046771411e+01   2.7843991828e+01    0.2990293    0.2406693  43.45  0.002175534    1.348    0.258
       388 -11.3913      7.9886    215.4965   9.1541147459e+01   2.5252587337e+01    0.2527066    0.2133562  79.51  0.001919106    1.232    0.188
       389 -12.1615      5.2268    211.4126   9.1931906831e+01   2.6343519831e+01    0.5310312    0.1895735 -83.54  0.002649999    2.481    0.597
       390  -9.6840    135.6961    216.6628   6.4946817597e+01   9.1816972904e+00    0.1252693   0.09360863  -5.44 0.0007038959    1.669    0.401
       391 -11.1008     29.3891    215.1885   8.7251107377e+01   2.3235750501e+01    0.2316153    0.1910325  37.57  0.001296485    1.361    0.265
       392 -10.0975     23.9809    216.0228   8.8390458989e+01   2.3615033943e+01    0.1922883   0.09802452  60.94 0.0003647536    1.588    0.370
       393  -9.5989    110.3905    211.8311   6.9691048525e+01   1.3747902838e+01    0.1710809    0.1151762 -45.64 0.0009453917    1.732    0.423
       394 -10.1722     20.4132    212.2005   8.8922287294e+01   2.4761915635e+01    0.1709182    0.0874192  79.99 0.0009531354    1.730    0.422
       395  -9.8425    216.9984    209.4604   4.8022939428e+01  -1.2506664158e+00    0.1921845    0.1364062 -24.11  0.001016217    1.288    0.224
       396 -10.0741     73.0710    208.3366   7.7454376608e+01   1.9576698245e+01    0.2872058    0.1600845  13.97  0.001247503    3.093    0.677
       397  -9.8314    147.8335    205.9063   6.0868503527e+01   9.3002697149e+00    0.2048669    0.1677469  -0.65  0.001232607    1.297    0.229
       398 -11.0808     27.9261    205.5238   8.7008604599e+01   2.5427661593e+01    0.2250911    0.1456823  82.33  0.000581558    1.330    0.248
       399 -12.1700     20.4239    201.3640   8.8367839013e+01   2.7078506616e+01    0.6362143    0.2744641 -57.90   0.00309398    2.771    0.639
       400  -9.6165     67.6996    203.3546   7.8166822346e+01   2.1323817784e+01    0.1708836    0.1146141  28.64 0.0005444364    1.601    0.375
       401 -10.5293    175.1739    202.0609   5.4640864829e+01   5.8244370564e+00    0.2122834    0.1663215  23.10 0.0004139499    1.154    0.133
       402  -9.1695    238.2500    200.9779   4.2916295003e+01  -2.8467233985e+00    0.1460065   0.08498883 -29.03 0.0004114155    1.494    0.331
       403  -9.0329    120.3217    200.3265   6.6004989339e+01   1.4547023168e+01     0.131657    0.1018608  -9.79 0.0007047823    1.686    0.407
       404 -10.2621     41.0153    198.0177   8.3672041542e+01   2.5680825961e+01    0.3433051    0.1628004  80.99  0.001564192    2.256    0.557
       405 -10.0461    134.8345    196.4621   6.2226661123e+01   1.3077922945e+01    0.2175245    0.1810292 -49.23 0.0005181202    1.294    0.227
       406  -9.2099     56.4770    197.4728   8.0150628897e+01   2.4008306351e+01    0.1274772    0.1094654  69.02 0.0003967845    1.043    0.041
       407 -12.0113     15.5654    192.1830   8.8929956949e+01   2.9580023679e+01    0.3716561    0.3375714  77.33  0.001651171    1.254    0.203
       408 -12.0035     15.8045    182.3986   8.8338550870e+01   3.1809070811e+01    0.5053098    0.2355613  73.63  0.001904647    1.940    0.484
       409 -10.1123    186.5119    193.4938   5.0918090506e+01   5.5377984020e+00     0.188415    0.1142834 -28.41  0.000664928    1.672    0.402
