#   1 NUMBER                 Running object number                                     
#   2 MAG_AUTO               Kron-like elliptical aperture magnitude                    [mag]
#   3 X_IMAGE                Object position along x                                    [pixel]
#   4 Y_IMAGE                Object position along y                                    [pixel]
#   5 X_WORLD                Barycenter position along world x axis                     [deg]
#   6 Y_WORLD                Barycenter position along world y axis                     [deg]
#   7 A_WORLD                Profile RMS along major axis (world units)                 [deg]
#   8 B_WORLD                Profile RMS along minor axis (world units)                 [deg]
#   9 THETA_WORLD            Position angle (CCW/world-x)                               [deg]
#  10 FWHM_WORLD             FWHM assuming a gaussian core                              [deg]
#  11 ELONGATION             A_IMAGE/B_IMAGE                                           
#  12 ELLIPTICITY            1 - B_IMAGE/A_IMAGE                                       
         1 -11.1610      9.1370     24.1583   1.2448370346e+02   7.0072068333e+01    0.4539248    0.2203046 -58.82  0.002535651    1.997    0.499
         2 -10.8160     84.3947     22.3791   9.0743795888e+01   6.0501994813e+01    0.2606674    0.2014312  18.40  0.000630181    1.196    0.164
         3 -10.7861    107.8153     17.9856   8.1897294129e+01   5.6023967612e+01    0.3924693    0.2393471 -10.74 0.0009080716    1.844    0.458
         4 -10.7988    217.3742     16.2652   6.3075781895e+01   2.8096420607e+01    0.4900386    0.1918069  56.15  0.001741362    2.478    0.596
         5 -11.2893     75.3253     17.4459   9.1653209732e+01   6.2862137347e+01    0.3443622    0.2197527   9.03  0.000814632    1.728    0.421
         6 -12.1921    130.7221     13.5253   7.4800984772e+01   5.0965961012e+01    0.5323927     0.394728  24.67  0.002141807    1.409    0.290
         7 -10.1636     99.6266     14.4175   8.2618767550e+01   5.8256720573e+01    0.2282335    0.2002698  -5.48 0.0006065807    1.158    0.137
         8 -11.9381     26.1134     13.6504   1.1134017644e+02   7.0498304060e+01    0.2458989    0.2021049  -1.80 0.0003711903    1.178    0.151
         9  -9.8893    175.5067     11.9747   6.6786184407e+01   3.9422101092e+01    0.2172329    0.1717677  71.21 0.0003572328    1.130    0.115
        10 -10.9648    119.6456     11.8643   7.6544032554e+01   5.3865046848e+01    0.2420573    0.1878991  62.24 0.0005657766    1.252    0.201
        11 -10.6694     75.0610      5.1362   8.5915852164e+01   6.4311417142e+01    0.4059672    0.1783487 -24.53  0.001900077    2.275    0.560
        12 -11.3452     78.1228      9.6210   8.7035463308e+01   6.3247081084e+01    0.3813806    0.2505018  33.15  0.001635312    1.354    0.262
        13 -11.7001     81.4254      6.1803   8.4330130122e+01   6.2953203771e+01    0.2872044    0.2155644 -17.30 0.0001467368    1.346    0.257
        14  -9.1841    107.6664      9.7119   7.8507346323e+01   5.6915267956e+01    0.1470142   0.08820189  32.37 0.0007017225    1.627    0.385
        15  -9.4728     23.4731      9.4685   1.1072973106e+02   7.1406961593e+01    0.1177392   0.08733381 -17.15 0.0001074297    1.036    0.035
        16  -9.8239      1.9710      8.5443   1.2235774603e+02   7.3236474666e+01    0.2089399    0.1476409  81.00  0.001100455    4.087    0.755
        17 -10.0104    161.0205      8.0075   6.7589002318e+01   4.3636013704e+01    0.2096968    0.1845588  69.26 0.0003228222    1.017    0.017
        18 -10.1505      9.5442      7.1613   1.1735751897e+02   7.2967673968e+01    0.2533334    0.1200624 -28.30  0.001288282    1.841    0.457
        19 -11.1314    127.6139      6.4626   7.2767497023e+01   5.2401901680e+01     0.312507    0.1846882 -39.74 0.0008195702    1.963    0.490
        20  -9.4172     60.2558      5.2733   9.1393144359e+01   6.6982300455e+01     0.272005    0.1029341  47.95  0.001194476    2.719    0.632
        21  -9.9993     91.8085      3.8788   8.0159536674e+01   6.1008371345e+01    0.2003941    0.1529297  24.89 0.0006190976    1.162    0.139
        22 -11.8080     27.4233      2.8801   1.0525678980e+02   7.1941412385e+01    0.4998488    0.2323972  28.97    0.0023868    2.177    0.541
        23  -9.8988     18.7595      3.9833   1.1055923448e+02   7.2683080843e+01    0.1538863    0.1109911 -21.48 0.0003069675    1.059    0.056
        24  -9.4291    100.6132      3.5609   7.7664037195e+01   5.9093028378e+01    0.1354011    0.1102607  30.73  0.000181632    1.066    0.062
        25 -10.0343    115.8643      4.7014   7.4532322838e+01   5.5435172266e+01    0.2353462    0.1787937  10.42  0.001312211    1.380    0.276
        26 -10.2000     86.4979    233.5279   1.3734155503e+02   1.7202182669e+01     0.194017     0.102285 -85.47  0.001028671    2.441    0.590
        27  -9.9106    243.0164    247.4893   1.1042773834e+02  -9.4523867086e+00    0.1644468    0.1366423  19.76 0.0004980726    1.297    0.229
        28 -10.9317    247.7885    249.8201   1.0999026822e+02  -1.0357300172e+01    0.4434352    0.1376663  32.93  0.002069812    2.652    0.623
        29 -10.3826    250.4893    243.9512   1.0862536407e+02  -1.0158642555e+01    0.3248126    0.1629894 -20.78  0.001924587    2.151    0.535
        30 -11.6706    178.4309    243.9583   1.2132263743e+02   9.8285451700e-01    0.4998392    0.1611504  42.71   0.00218614    2.399    0.583
        31  -9.4378    168.6320    250.6974   1.2400054074e+02   1.6886886865e+00    0.1214704    0.0785214  21.41 0.0007033955    1.742    0.426
        32 -10.1294    127.9006    249.6833   1.3130872172e+02   8.3358324403e+00     0.164012     0.162935   4.41  0.001165383    1.374    0.272
        33  -9.6967     72.7265    250.1986   1.4118205137e+02   1.6305252767e+01    0.1312887    0.1206296  59.77  0.001054431    1.415    0.293
        34 -11.7576     27.8678    246.2023   1.4844018544e+02   2.2409829211e+01    0.3613964    0.1582826 -80.42  0.002298372    2.188    0.543
        35 -12.4642     22.4115    249.1260   1.4944770633e+02   2.2508344722e+01    0.7956235    0.1674258  54.21  0.003857288    3.139    0.681
        36 -12.0176     17.5070    247.4780   1.5014715834e+02   2.3294258334e+01    0.4166885    0.1331702  53.80  0.002371498    2.124    0.529
        37 -10.6688     11.0077    250.2898   1.5126876053e+02   2.3489257446e+01    0.2598607    0.1123757  40.61  0.001728765    2.020    0.505
        38  -9.4983     53.6840    234.6807   1.4339940849e+02   2.1391104043e+01   0.08924013   0.08772183 -44.86 0.0007039962    1.656    0.396
        39  -9.9654     79.5844    231.3745   1.3843563997e+02   1.8557385084e+01    0.2095181    0.1183554  42.43 0.0005975136    1.516    0.340
        40  -9.6272     89.0000    240.9701   1.3754999493e+02   1.5577841909e+01    0.1566348   0.06361081 -65.45  0.000721481    2.887    0.654
        41  -9.6035    235.9977    230.4959   1.0891896777e+02  -6.6037985953e+00    0.1741979   0.09436955  34.83  0.000450008    1.489    0.328
        42  -9.8124    169.8478    229.1500   1.2086153369e+02   4.4741440753e+00    0.1744978    0.1310734  23.70  0.001016694    1.319    0.242
        43 -10.4039    152.3508    228.3013   1.2411822223e+02   7.5955319808e+00    0.1945477     0.141659  14.81  0.001116798    1.768    0.434
        44 -10.4678    144.2669    226.9285   1.2550834073e+02   9.1860781768e+00    0.2204154    0.1680587  77.36   0.00112176    1.641    0.391
        45 -10.4498    129.8025    226.8462   1.2832580613e+02   1.1624054090e+01    0.3820536    0.1687212  53.58  0.001747912    2.241    0.554
        46 -10.8981    115.8811    226.4501   1.3099911968e+02   1.3958358973e+01     0.269119    0.1438449 -65.45  0.001421971    2.338    0.572
        47 -10.2848    190.3281    226.5181   1.1657205921e+02   1.3387503582e+00    0.2049686    0.1710157 -24.14 0.0008092507    1.415    0.293
        48 -10.2804     88.0854    227.1576   1.3644534790e+02   1.8090506580e+01    0.1720016    0.1498166  46.83  0.001220564    1.279    0.218
        49 -10.4548     66.2479    226.5366   1.4050729957e+02   2.1236757708e+01    0.2394634    0.1566055  47.40 0.0009035512    1.296    0.228
        50  -9.4848      6.6733    227.2969   1.5103082411e+02   2.7837045344e+01    0.1098575      0.05012  63.42 0.0004775655    1.630    0.387
        51 -10.3743     81.4354    224.6128   1.3747416588e+02   1.9502824682e+01    0.2244764     0.161198  72.75 0.0009406699    1.246    0.197
        52 -10.8466     13.1231    222.1452   1.4972049039e+02   2.8142622470e+01    0.1699912    0.1374027  80.09 0.0003578651    1.243    0.196
        53 -11.2878    141.4595    221.3724   1.2531961415e+02   1.0566827829e+01    0.3067238    0.2046384  29.45  0.001285142    1.571    0.364
        54  -9.2474    134.8626    223.0000   1.2684298478e+02   1.1418160113e+01    0.2113401   0.06022556  41.36 0.0007884826    2.847    0.649
        55 -11.0127    123.4534    221.4854   1.2891412215e+02   1.3579766394e+01    0.2678758    0.2089682  42.83 0.0009201301    1.134    0.118
        56 -10.2148    174.1140    219.8786   1.1866234898e+02   5.1073996554e+00    0.1966561    0.1559132  49.02 0.0005790928    1.224    0.183
        57  -9.9608    165.5632    220.5006   1.2042983268e+02   6.5157547712e+00    0.1303435     0.106275  36.97 8.305942e-05    1.025    0.024
        58  -9.4722     21.9625    220.2454   1.4809717016e+02   2.7603900929e+01    0.1265584   0.07326229  46.13 0.0003700875    1.507    0.337
        59  -9.6572    250.4517    219.0704   1.0450328387e+02  -7.5143016566e+00     0.162736       0.1047 -19.65 0.0007330492    1.539    0.350
        60 -10.9300    192.5779    216.6149   1.1457312942e+02   2.3371696057e+00    0.3870494     0.227503  17.66  0.001879105    2.152    0.535
        61  -9.7114     49.8658    218.3681   1.4292382197e+02   2.4824260359e+01    0.1479293   0.09939221  33.12 0.0008244221    1.770    0.435
        62 -10.7395     10.1067    217.0928   1.4999698769e+02   2.9357014894e+01    0.2528751    0.1356063  58.61 0.0009374253    1.409    0.290
        63  -9.3398     37.5595    217.4714   1.4513683639e+02   2.6435962312e+01      0.11115   0.08351211  70.66 0.0001177218    1.027    0.026
        64 -10.0331     24.5782    216.9163   1.4744941917e+02   2.7949893784e+01    0.2330044    0.0917294  53.76  0.001325728    1.971    0.493
        65 -10.3968    234.8263    216.6205   1.0678088415e+02  -4.7972677709e+00    0.1725744     0.101591  44.67 0.0009484618    1.762    0.432
        66 -10.7003    201.5991    215.9483   1.1274567851e+02   8.5557125353e-01    0.2459171    0.1595611  30.50  0.001388579    1.303    0.232
        67  -9.5689    137.1795    215.6229   1.2539538428e+02   1.2269975760e+01    0.1918731    0.1064181  34.33 0.0009457545    1.752    0.429
        68  -9.7437     30.9991    215.5078   1.4620818871e+02   2.7531325555e+01    0.1666936   0.05349357  54.67  0.000810316    2.537    0.606
        69 -10.4169    208.9889    212.1548   1.1071239769e+02   9.5366824394e-02    0.2020956    0.1715346   5.50 0.0004677949    1.145    0.127
        70 -10.3105    169.9535    213.1376   1.1843810835e+02   6.8838721288e+00    0.2045921    0.1623265  51.01  0.001227838    1.234    0.190
        71  -9.7455    142.7988    213.3922   1.2394447822e+02   1.1674358460e+01    0.1824573    0.1080471  35.02 0.0004164298    1.578    0.366
        72 -10.9766     20.6837    211.5996   1.4784572095e+02   2.9348619632e+01    0.2848976     0.137543  67.15 0.0009124844    1.717    0.418
        73  -9.7261    212.8787    211.8787   1.0993810907e+02  -5.3916026507e-01    0.1624455     0.142534  41.73 0.0005619905    1.321    0.243
        74 -11.8527      4.4817    207.4678   1.5052414857e+02   3.1670068743e+01    0.3927999    0.2181517  72.76  0.002728837    1.367    0.269
        75  -9.6836    218.0213    207.2688   1.0817606232e+02  -8.0277992247e-01    0.2634963    0.1477574  -3.83  0.001167531    2.759    0.638
        76 -10.0081    206.0000    206.0039   1.1020876287e+02   1.4791734248e+00    0.1919582   0.07422726 -37.62 0.0008023602    2.942    0.660
        77  -9.2309     27.6940    205.3672   1.4617664955e+02   2.9823767784e+01    0.1227339   0.06071488  67.41  0.000703602    1.749    0.428
        78  -9.4309    238.5260    201.4502   1.0341142924e+02  -3.5094271111e+00    0.1295805    0.1012376  13.90  0.000116442    1.043    0.041
        79 -10.1281    222.9261    200.9538   1.0613212672e+02  -7.9519486716e-01    0.2729776    0.2040396  89.13  0.001231479    3.605    0.723
        80  -9.1032     34.6715    200.7275   1.4452493826e+02   2.9988079015e+01   0.09494416   0.08629477 -54.09 0.0002745555    1.585    0.369
        81 -10.4323    227.1660    196.7786   1.0458286349e+02  -9.6325265129e-01    0.2615441    0.1799333   5.61 0.0008815401    1.499    0.333
        82 -11.8716    192.2633    195.1017   1.1093480240e+02   5.6210579565e+00    0.3630701    0.3129136 -76.52  0.002106097    1.689    0.408
        83 -11.6060    215.5410    194.1346   1.0624475295e+02   1.4702329659e+00    0.3285824    0.1964597 -33.85  0.001707285    1.814    0.449
        84 -11.2640    232.3885    191.5489   1.0264744841e+02  -1.1585220089e+00     0.346883     0.208465  13.94  0.001733409    1.887    0.470
        85 -10.4640    163.3050    191.1717   1.1617345168e+02   1.1778617591e+01    0.2647946    0.1235563 -37.96  0.001095636    2.671    0.626
        86  -9.1740     60.2901    192.7033   1.3865140161e+02   2.8564936439e+01    0.1262479   0.07607558  67.95 0.0002233909    1.556    0.357
        87  -9.8632    202.9124    195.8675   1.0898238625e+02   3.5220683853e+00    0.2080969    0.1614191  15.83 0.0006247616    1.230    0.187
        88  -9.4542    205.5942    190.2315   1.0741349207e+02   3.8770548627e+00    0.1741093    0.1240151 -17.38 0.0005060713    1.550    0.355
        89 -10.7948    225.8457    189.1302   1.0337500042e+02   3.3157301943e-01    0.2937576    0.1583358  18.26  0.001280839    2.408    0.585
        90 -10.1924    218.0000    186.9765   1.0441948325e+02   2.0640925430e+00    0.2086671   0.07487015 -36.00 0.0008078949    2.980    0.664
        91 -10.5756    168.1724    184.2638   1.1391107749e+02   1.2061214458e+01    0.4736254    0.2750326  67.07  0.001793061    3.187    0.686
        92  -9.2465     62.0000    184.9859   1.3749593931e+02   2.9948589672e+01    0.1950151   0.06484628 -67.87 0.0008019789    2.939    0.660
        93 -11.9393     16.3309    183.2521   1.4693887338e+02   3.5365490588e+01    0.3670978    0.2010703  83.47  0.001926245    1.544    0.352
        94 -11.4692    248.6930    182.3792   9.7998407798e+01  -2.7236523831e+00    0.4580578    0.1879941  29.77  0.001875721    2.813    0.645
        95 -11.5582    224.3195    178.3435   1.0153909199e+02   2.1690946787e+00    0.3054709    0.2534873  11.86 0.0005420836    1.063    0.060
        96 -10.4112      2.1513    180.1355   1.4956509083e+02   3.7222564741e+01    0.1811298    0.1244292  65.62  0.000525714    1.195    0.163
        97 -11.3642    244.6546    177.8633   9.7796626320e+01  -1.4223231257e+00    0.2879732    0.1517529 -17.82   0.00134121    2.152    0.535
        98 -10.0414    236.4893    182.4695   1.0014806928e+02  -6.2655668716e-01    0.1330466    0.1114427  11.11 0.0003330456    1.010    0.010
        99  -8.9672     36.4246    178.5062   1.4240068558e+02   3.4358026409e+01    0.1196471   0.09337661  79.51   0.00032766    1.022    0.022
       100 -10.5097    200.1469    176.8165   1.0588356433e+02   7.0347262984e+00     0.199643    0.1534437  14.45 0.0006188853    1.332    0.249
       101  -9.4232     70.2179    177.5984   1.3483575680e+02   3.0420880981e+01    0.1537921    0.1197217  32.07  0.000403888    1.497    0.332
       102  -9.7854    250.4681    190.0193   9.9182484718e+01  -4.0156646947e+00    0.1820077    0.1134005 -26.59 0.0005393453    1.566    0.362
       103 -10.3453    241.6239    173.2456   9.7391971867e+01  -2.4768691283e-01    0.1864572    0.1142659 -18.62 0.0009475565    1.665    0.399
       104  -9.8052    183.3207    173.3300   1.0862528420e+02   1.0979962027e+01       0.1487    0.1074917  10.32 0.0005078079    1.692    0.409
       105  -9.8136    193.3376    172.3357   1.0635694294e+02   9.1324775980e+00    0.1511369    0.1054507  11.03 0.0007051649    1.750    0.428
       106  -9.5759     59.6284    171.8148   1.3656928597e+02   3.3079357189e+01    0.1799382    0.1063705 -84.04 0.0009454798    1.693    0.409
       107  -9.6877     74.4968    171.4921   1.3308861340e+02   3.1147049413e+01    0.1303243    0.1138619  76.85 -4.554469e-05    1.024    0.024
       108  -9.6473      4.5826    167.7134   1.4833434748e+02   3.9588026068e+01    0.2172281   0.08135768 -74.24   0.00114536    2.131    0.531
       109  -9.7703    210.0104    166.2993   1.0178942948e+02   6.7901706897e+00    0.2005949     0.172125  25.51 0.0004676942    1.054    0.051
       110 -10.6933      9.9887    165.1693   1.4702037285e+02   3.9690789597e+01    0.1811458    0.1263871 -89.59 0.0003342945    1.120    0.107
       111 -10.6548     53.0205    163.0422   1.3708997164e+02   3.5832436304e+01    0.5293671    0.2934045 -31.36  0.002089945    4.329    0.769
       112  -9.1902    229.5111    164.5382   9.7749678124e+01   3.2571407564e+00    0.1400074    0.1196154   9.54 0.0001271227    1.037    0.036
       113 -10.5328     36.2716    161.6482   1.4085780776e+02   3.8020009838e+01    0.3748052    0.1367079 -67.14  0.001742772    2.338    0.572
       114 -11.3146    247.9245    158.9288   9.3338942318e+01   6.5110857055e-01    0.4057716    0.2453255 -33.30  0.002098554    1.602    0.376
       115  -9.3784    200.0384    162.7726   1.0301943292e+02   9.3929733422e+00    0.1914068     0.112247  44.19 0.0004387155    1.603    0.376
       116  -9.9623    238.4051    158.7845   9.4944107411e+01   2.4333321364e+00    0.1905049    0.1202119 -18.12 0.0006250394    1.642    0.391
       117  -9.8873     48.7124    158.7608   1.3761583469e+02   3.7296092171e+01    0.1953855   0.07834192  45.17 0.0008889131    2.360    0.576
       118 -10.8382     22.2608    156.7187   1.4362415911e+02   4.0461251168e+01    0.3060491    0.2526979  54.32   0.00219099    1.267    0.211
       119  -8.5650     23.6911    152.6762   1.4292247019e+02   4.1222496994e+01    0.2019393    0.0972987 -69.70  0.000617842    1.736    0.424
       120 -10.1222      9.0505    158.3261   1.4673208762e+02   4.1225856177e+01    0.3062645    0.1214259  30.20  0.001567892    2.777    0.640
       121  -9.1559    235.6752    154.6895   9.4545179537e+01   3.5666467256e+00    0.1443591   0.09855132  10.08 0.0004850418    1.656    0.396
       122  -9.4427    217.4050    155.0000   9.7952241355e+01   7.1329923392e+00    0.3137133   0.07748034  46.84 0.0009347837    3.935    0.746
       123  -9.9326    205.3899    152.7303   9.9779387325e+01   9.9894077903e+00    0.2040735    0.1354353 -23.02 0.0009495472    1.654    0.395
       124 -10.1117    197.2120    153.6100   1.0161467128e+02   1.1561102615e+01     0.216391    0.1286985  36.06 0.0008299426    1.655    0.396
       125  -9.2551    151.6709    153.3330   1.1152155554e+02   2.1309089634e+01    0.1537589    0.1180039  80.57 0.0006610662    1.720    0.419
       126 -10.1116     13.3249    153.3382   1.4538508843e+02   4.1962692589e+01    0.1347971    0.1198021 -22.59 0.0009878564    1.618    0.382
       127 -10.4540    178.3077    151.4316   1.0511105807e+02   1.6003765120e+01    0.3270671    0.2609842  61.05  0.001634183    1.402    0.287
       128  -9.3036    169.3253    152.2820   1.0727214699e+02   1.7774601771e+01    0.1517025    0.1151958  13.72  0.000345234    1.597    0.374
       129  -9.4462     92.9750    148.0027   1.2497224349e+02   3.3585472196e+01    0.1735769    0.1585084  67.08  0.001008351    1.042    0.040
       130  -9.2210    233.6176    147.1504   9.3259801086e+01   5.1229600061e+00    0.2011128    0.1242977 -19.85 0.0009437045    1.718    0.418
       131 -10.3752    206.8929    145.9700   9.7972617362e+01   1.0825214276e+01    0.2520601    0.2039233  40.20 0.0006968173    1.193    0.162
       132  -9.6034    215.6654    145.6813   9.6214832431e+01   9.0193957532e+00    0.1530267    0.1073207  11.68 0.0006159111    1.698    0.411
       133 -10.8540      3.8530    142.7831   1.4673596741e+02   4.4975465870e+01    0.3085262    0.1572412 -49.61   0.00174671    2.272    0.560
       134 -10.2347    212.4330    141.5991   9.5903219896e+01   1.0385908363e+01    0.3991581    0.2055186  29.88  0.001526584    2.476    0.596
       135  -9.8104     37.2358    142.3680   1.3851182543e+02   4.2246554876e+01    0.1698957    0.1021749  46.21 0.0009513206    1.690    0.408
       136 -11.3465     12.3111    141.5221   1.4461417538e+02   4.4637789471e+01    0.2869156    0.1598516 -30.38  0.001472366    3.131    0.681
       137 -10.5831    236.1773    138.7571   9.0938617779e+01   5.9154438913e+00    0.2345247    0.2163314 -11.50 0.0005715407    1.070    0.065
       138 -11.2483     57.4668    138.4147   1.3271230718e+02   4.0893871526e+01    0.4001772    0.2259208  67.92 0.0006829936    2.210    0.548
       139 -11.6085      3.7647    135.9583   1.4620610025e+02   4.6475849862e+01    0.4619555    0.1933603 -54.74  0.001567643    2.341    0.573
       140 -11.7102      9.1321    136.7929   1.4496611762e+02   4.5920211246e+01    0.2071389    0.1699861 -75.65  0.000251809    1.135    0.119
       141 -10.3659     21.8141    136.1541   1.4173139318e+02   4.5079144899e+01    0.2016142     0.143384  55.39  0.001296162    1.428    0.300
       142  -9.9998    138.3165    135.2689   1.1079007047e+02   2.7883747556e+01    0.2875858    0.1814022  33.77 0.0007730635    1.717    0.418
       143  -9.3734     67.7271    133.9907   1.2924370267e+02   4.0597425849e+01    0.1716185     0.109657 -64.13 0.0008724816    1.449    0.310
       144  -9.9342     79.8020    133.3892   1.2583797123e+02   3.9014567035e+01    0.1762322     0.135112  25.33 0.0004298134    1.543    0.352
       145 -12.1200     36.4621    130.9540   1.3727909602e+02   4.4938901467e+01    0.3741522    0.2811921 -73.77  0.001535916    1.131    0.116
       146 -10.3448    249.7597    130.1346   8.6744861221e+01   4.5384366452e+00    0.2457926    0.2225624 -19.50  0.001489138    1.071    0.066
       147  -9.5931     29.0492    130.6845   1.3922590093e+02   4.5695554058e+01    0.1575947    0.1409139 -81.39  0.001092386    1.107    0.096
       148 -10.1417     74.0403    129.3746   1.2669171365e+02   4.0794258376e+01    0.2313582    0.1766742 -53.12 0.0006095608    1.285    0.222
       149  -9.3647    242.9924    128.2940   8.7417590373e+01   6.1608872303e+00    0.1864601     0.171777  10.30 0.0004973494    1.066    0.062
       150  -9.5153     60.0866    128.5314   1.3043444053e+02   4.2867521010e+01    0.1773039    0.1299322  37.93 0.0003678788    1.470    0.320
       151 -10.2582    125.4188    130.0052   1.1287027984e+02   3.1692985602e+01    0.4251783     0.208967  25.85  0.001299817    3.829    0.739
       152  -9.8282      1.3402    126.6429   1.4601198028e+02   4.8683665687e+01    0.2198961   0.08649689 -81.00 0.0008598893    2.107    0.525
       153 -10.4435    219.5821    124.5154   9.0564969658e+01   1.1705830639e+01    0.2676631    0.2358267   4.38  0.000554507    1.132    0.117
       154 -11.5554     10.9042    122.3046   1.4310460573e+02   4.9030828672e+01    0.4293236    0.2793885 -21.59  0.002570444    2.277    0.561
       155 -10.3923     17.7455    116.0352   1.4051596372e+02   4.9962264522e+01    0.2638078    0.1621802 -76.20  0.001072796    1.344    0.256
       156 -10.1289     19.7941    112.9701   1.3954584775e+02   5.0507701959e+01    0.2240606    0.1369793 -66.38 0.0006984353    1.323    0.244
       157 -12.0401     16.6361    108.8467   1.3992120595e+02   5.1675913506e+01    0.3497092     0.287094 -80.13 0.0005896988    1.054    0.051
       158  -9.1147     20.5161    121.5305   1.4041708665e+02   4.8501442272e+01     0.120952   0.09820062 -76.98 0.0001311595    1.018    0.018
       159 -10.7531     10.0404    102.2646   1.4101474051e+02   5.3599502550e+01    0.3076897    0.1778667  60.54  0.001756129    2.039    0.510
       160  -9.7179     41.2879    120.6383   1.3447580451e+02   4.6844565671e+01    0.1324862   0.08783612  77.16 0.0007024056    1.690    0.408
       161  -9.3796    209.6701    118.3269   9.0893336849e+01   1.4977521275e+01    0.1516128    0.1198216 -73.51 0.0007050961    1.707    0.414
       162  -9.0733    166.6316    118.7488   9.9974108016e+01   2.4966409618e+01    0.1611072    0.1194439  21.20 0.0002609928    1.629    0.386
       163  -9.8032     54.1644    117.7889   1.3028342507e+02   4.6097515802e+01    0.1741419    0.1487654 -31.41 0.0009177056    1.360    0.265
       164 -10.1323    179.4341    116.4580   9.6534250505e+01   2.2391545414e+01    0.2696583     0.253535  41.65 0.0004922443    1.039    0.037
       165 -11.3633     36.0808    111.0989   1.3450448849e+02   4.9565214377e+01    0.5427399    0.2643665 -65.41  0.002154524    1.724    0.420
       166  -9.5897    106.8089    110.7866   1.1335934852e+02   3.9629014642e+01    0.2008521    0.1746362  83.47  0.000371478    1.291    0.225
       167  -9.8359     42.5020    110.4835   1.3247822068e+02   4.9079355709e+01    0.1288052      0.11104 -70.67 0.0001015441    1.007    0.007
       168  -9.6174    167.4704    109.0154   9.7248995465e+01   2.6673978546e+01    0.2336658    0.1568913 -37.88 0.0004846604    1.529    0.346
       169 -10.0946    242.1405    108.3737   8.2914487113e+01   9.4117525869e+00    0.1901335    0.1369844  67.99 0.0006816586    1.726    0.421
       170 -11.1254     62.0948    106.9267   1.2582171165e+02   4.7652826475e+01    0.3336362     0.184917 -54.28 0.0005567217    1.611    0.379
       171 -11.1320     23.3621    107.2588   1.3771677978e+02   5.1539330509e+01    0.2491018    0.1811713 -88.91 0.0002778088    1.316    0.240
       172  -9.6146    133.4593    107.4755   1.0518560718e+02   3.4870832933e+01     0.155475    0.1498353  12.15 0.0001323532    1.064    0.061
       173  -9.7147    126.9570    106.7181   1.0671632146e+02   3.6445049488e+01    0.2113801     0.189753  45.39  0.000194984    1.103    0.094
       174 -10.4827      6.0134    106.2540   1.4268490553e+02   5.2945636563e+01    0.2317992    0.1792133 -73.22 0.0007433482    1.021    0.020
       175 -10.8748      2.7555    105.0290   1.4348449223e+02   5.3404055004e+01     0.234988     0.140393 -80.25 0.0004641949    1.366    0.268
       176  -9.9105    223.3412    104.0238   8.4903082513e+01   1.4247845988e+01    0.2116073    0.1775762 -33.64 0.0006068511    1.149    0.130
       177 -10.2942     92.7510    103.4203   1.1563561605e+02   4.3835535952e+01    0.4050312    0.2608287 -73.70  0.001505038    2.142    0.533
       178 -11.1373     70.3481    102.4825   1.2229267490e+02   4.7568033525e+01    0.4045812    0.2614828   9.94  0.001235512    2.296    0.565
       179  -9.4529     59.3086    103.3053   1.2593304497e+02   4.8843934288e+01    0.1356336   0.09674159 -32.46  0.000679329    1.609    0.379
       180 -10.7525    247.5167    102.0464   8.0607139963e+01   9.2418020847e+00    0.2184186    0.1274136 -32.49 0.0007144496    1.575    0.365
       181  -9.9903    120.0628    101.4280   1.0718392890e+02   3.9038412441e+01    0.2832654    0.2139047  -0.92  0.001261695    1.824    0.452
       182  -9.9802     36.5530    101.4805   1.3274293523e+02   5.1740546997e+01     0.231252    0.1261235  27.03  0.000872703    2.137    0.532
       183 -10.3204     27.9289    100.9611   1.3535614397e+02   5.2615355057e+01    0.1765797    0.1488352 -66.32  0.001175288    1.021    0.020
       184 -10.5621      3.6432    100.8799   1.4274621045e+02   5.4280549140e+01    0.2519988    0.1767436  44.41  0.001144871    1.665    0.399
       185 -11.5749     20.7501     95.3762   1.3671956744e+02   5.4440915722e+01    0.6558079    0.1403631 -66.48  0.002069906    3.527    0.716
       186  -9.6792     50.4135     99.2411   1.2791100270e+02   5.0834769003e+01    0.1759411    0.1163112 -72.24 0.0004182568    1.514    0.340
       187 -11.0888     62.0124     98.4861   1.2402930587e+02   4.9610111215e+01    0.5181012    0.2146712  47.13  0.002027492    3.027    0.670
       188 -11.2171      8.3416     94.8725   1.4055450347e+02   5.5359293502e+01    0.2453798      0.17568 -67.15 0.0003378246    1.096    0.088
       189 -10.6880     10.3288     91.2965   1.3942346975e+02   5.6042997598e+01    0.2337009    0.1649717  -3.77    0.0015096    1.858    0.462
       190 -10.6873      7.0996     88.8446   1.4010507898e+02   5.6773529124e+01    0.1956414    0.1498758 -89.81 0.0003529946    1.276    0.216
       191 -10.2312      1.5203     93.9195   1.4253996789e+02   5.5939199494e+01    0.2248522   0.08110783 -67.34  0.001117609    2.001    0.500
       192  -9.4374    226.9719     93.4979   8.1679766658e+01   1.5106869901e+01    0.2086717    0.1450985  57.40 0.0004910657    1.512    0.339
       193 -10.0809     92.5557     95.9568   1.1377101780e+02   4.5536913339e+01    0.2302075    0.1372297 -48.28  0.001029229    1.606    0.377
       194  -9.4316    171.2117     91.5666   9.1627392734e+01   2.9059470167e+01    0.2311513    0.1434044  41.78 0.0009481368    1.649    0.394
       195  -9.4010    115.6096     91.1921   1.0557570575e+02   4.2137739385e+01    0.2048649    0.1427485 -33.87 0.0003263473    1.513    0.339
       196 -10.5912     96.2576     90.3096   1.1109031090e+02   4.6111633708e+01    0.3549075    0.2126175  -8.81  0.001150345    3.990    0.749
       197  -9.5174     37.8884     90.3831   1.3021178835e+02   5.4152631783e+01    0.1482129     0.117116 -10.80   0.00011311    1.527    0.345
       198  -9.2705     77.6542     89.7099   1.1682398524e+02   4.9378243879e+01    0.1431446    0.1068679 -16.38  0.000702596    1.658    0.397
       199  -9.2839     73.2680     88.6944   1.1799062868e+02   5.0266554051e+01    0.1324459    0.1080139  89.31 0.0002324238    1.533    0.348
       200 -11.0247     46.3054     83.4040   1.2582051965e+02   5.4879946960e+01    0.4608979    0.2413982 -60.19  0.002082271    1.709    0.415
       201 -10.7020    113.1675     86.8068   1.0500039014e+02   4.3557261832e+01    0.3149423    0.2102229  55.63 0.0008611634    1.692    0.409
       202 -10.8624    109.1862     93.1413   1.0799673083e+02   4.3034587746e+01    0.3469074    0.1942396 -40.12 0.0008854811    1.818    0.450
       203 -10.8578     67.3457     85.0586   1.1901024092e+02   5.1922973560e+01    0.2298876     0.153372 -38.80 0.0007569063    1.470    0.320
       204 -11.1144    118.3139     83.1640   1.0242309379e+02   4.3214111082e+01    0.3669349    0.2884703  -7.97  0.001090463    1.536    0.349
       205 -10.9523     85.2655     81.4867   1.1205686492e+02   4.9937455187e+01    0.3674717    0.2411412 -50.95  0.001345135    1.489    0.328
       206 -11.3566     23.7920     78.7575   1.3273060487e+02   5.7948264208e+01    0.3870318    0.2062549 -64.32  0.001296126    1.565    0.361
       207 -11.6345     19.9160     82.0341   1.3471378953e+02   5.7498361192e+01    0.3226086    0.2171389 -83.07 0.0003294498    1.543    0.352
       208 -11.3366     15.9754     81.6419   1.3600119165e+02   5.7848359126e+01    0.2923319    0.1902864 -42.36  0.001181226    1.453    0.312
       209 -10.6227      7.3363     77.2792   1.3824436100e+02   5.9315677996e+01    0.4039533    0.1752629 -73.03  0.001847386    2.009    0.502
       210 -11.2034      3.4691     77.5228   1.3962087595e+02   5.9457523206e+01    0.5153127    0.2693326  85.34  0.002679928    2.413    0.586
       211 -11.3066      6.7954     73.7955   1.3784820346e+02   6.0105429968e+01    0.3716624    0.2069465   2.68  0.002168535    2.368    0.578
       212 -12.4676     72.2661     78.7897   1.1562337984e+02   5.2581070956e+01    0.4303942    0.3551164 -11.02 0.0004639951    1.328    0.247
       213 -11.0575     77.8737     71.9466   1.1167124205e+02   5.3157051786e+01    0.2759023    0.2242033  41.15 0.0003759765    1.337    0.252
       214 -11.5053    151.0158     78.6093   9.2442506065e+01   3.6468111784e+01    0.2880608    0.2708574  77.77 0.0003638151    1.129    0.114
       215 -10.0502    101.0476     78.4746   1.0612371682e+02   4.7701401588e+01    0.2269976    0.1449685  40.52  0.001032693    1.596    0.373
       216  -9.9154     93.1774     77.6589   1.0835233145e+02   4.9350521888e+01    0.3325093     0.162282 -27.16  0.001102433    3.411    0.707
       217 -10.4880     54.7072     72.3220   1.1999769800e+02   5.6350043481e+01    0.3198969    0.2034213  55.80  0.001563373    2.277    0.561
       218 -11.1030     59.3267     76.7004   1.1954437562e+02   5.4827492892e+01    0.3343341    0.2361995  68.64  0.000931047    2.158    0.537
       219 -11.8730     62.6556     72.8338   1.1727517030e+02   5.5219303730e+01    0.4471165    0.4212651 -11.74   0.00228733    1.091    0.083
       220 -10.1506      2.3990     71.8390   1.3908501031e+02   6.0744721398e+01    0.2774917    0.1268152 -49.70  0.001557135    1.747    0.428
       221 -11.4088    108.1238     75.8974   1.0315813663e+02   4.6808120961e+01    0.3739434    0.2882277  -8.76 0.0004334861    1.552    0.356
       222 -10.1310    121.5998     76.2015   9.9333457594e+01   4.3867637258e+01    0.2156527    0.1452233 -27.99 0.0009465026    1.626    0.385
       223 -11.4127     40.1296     72.8476   1.2548422947e+02   5.7842663345e+01     0.259165    0.2213728 -69.61 0.0003053667    1.225    0.183
       224 -11.1154     31.2012     66.2748   1.2720279540e+02   6.0083475585e+01    0.2738674    0.2104611 -63.22 0.0005943116    1.235    0.190
       225 -11.2863     25.7349     68.6124   1.2984520918e+02   6.0024207102e+01    0.5723347    0.2493371 -63.72  0.002762087    2.029    0.507
       226 -11.2083     20.9998     66.0547   1.3106351978e+02   6.0924348472e+01    0.2628462    0.1829941  17.19   0.00166299    1.710    0.415
       227 -10.1156    145.4598     71.9715   9.1730072847e+01   3.9036550572e+01    0.2368177    0.1542517 -36.67 0.0007303081    1.573    0.364
       228  -9.9975    115.6136     70.7480   9.9291114078e+01   4.6224356644e+01    0.2916901    0.1442813 -36.00   0.00113187    2.085    0.520
       229 -11.4863     68.8597     67.5400   1.1346632467e+02   5.5451476274e+01    0.3826688    0.2582759 -38.87 0.0007765709    1.369    0.269
       230 -11.5742     49.2962     69.9532   1.2133107968e+02   5.7494974710e+01    0.4399138    0.2895329 -26.66   0.00111216    1.663    0.399
       231  -9.3875    175.4219     70.5402   8.4649905489e+01   3.1659776152e+01    0.1538204    0.1492626  39.12 1.268201e-05    1.032    0.031
       232 -11.2635    130.4109     65.3903   9.3426938689e+01   4.3842074810e+01    0.5622839    0.2481669 -45.95   0.00200002    2.566    0.610
       233 -10.7486     94.7967     68.4992   1.0492701534e+02   5.0893229602e+01    0.2784262    0.1842173  -7.35 0.0009939737    2.214    0.548
       234 -10.8496     43.0982     66.0345   1.2258353533e+02   5.9005323591e+01    0.3262849    0.2557159 -66.14  0.001241788    1.359    0.264
       235 -10.1445      6.7738     67.9696   1.3682017426e+02   6.1369502712e+01    0.1755152    0.1506499 -35.46 0.0009656321    1.220    0.181
       236 -10.4551    156.2627     66.4254   8.7459348088e+01   3.7280502402e+01    0.2178263    0.1502644  67.24 0.0009423355    1.602    0.376
       237 -10.6010    119.0080     65.9172   9.6723518485e+01   4.6372381598e+01    0.3262376     0.241586  21.54 0.0003708601    1.544    0.352
       238 -10.4529    122.5115     61.5164   9.4261072961e+01   4.6362668356e+01    0.3198351    0.2064449  29.56  0.000971177    1.775    0.437
       239 -10.2312    151.3387     72.2946   9.0423312857e+01   3.7518238373e+01    0.1633073     0.119822  22.21 0.0003302148    1.652    0.395
       240 -10.7741     36.8132     67.1284   1.2527318963e+02   5.9396516026e+01    0.3660583    0.2322142 -48.75  0.001753022    1.309    0.236
       241 -10.5350     87.1150     52.7746   1.0203594959e+02   5.5273818621e+01    0.2875868    0.1953953 -46.15  0.001188066    1.565    0.361
       242 -11.2346     84.0007     62.9651   1.0667090364e+02   5.3932162743e+01    0.4433351    0.3402238 -65.52  0.001922345    1.723    0.420
       243 -10.6162     86.1156     58.1205   1.0428540326e+02   5.4479372818e+01    0.3709969    0.2043122 -40.37 0.0009403955    1.747    0.428
       244 -10.6544     76.9157     65.2204   1.0987102188e+02   5.4677988107e+01    0.3422154    0.1791714  48.04  0.001475373    2.328    0.570
       245 -10.4945    173.9462     63.7026   8.2901590194e+01   3.3150407614e+01    0.2814261    0.2262954 -46.53 0.0006338284    1.296    0.228
       246  -9.8646      3.3956     63.8187   1.3731628215e+02   6.2423569336e+01    0.1634534    0.0789891 -58.21 0.0004911491    1.512    0.339
       247  -9.6695    141.8132     63.5996   8.9939115098e+01   4.1391653385e+01    0.2065812    0.1473624  65.32 0.0001675611    1.554    0.356
       248 -10.3024     51.8346     62.4449   1.1820613572e+02   5.8775733849e+01    0.2660645    0.1705673 -30.60  0.001407976    1.569    0.363
       249 -11.2981     10.8744     62.4618   1.3418314716e+02   6.2331775948e+01     0.223201    0.1760989 -50.31 0.0004293197    1.046    0.044
       250 -10.2108     93.0969     61.2486   1.0304166987e+02   5.2604551975e+01    0.2453838    0.1847538 -26.50 0.0005602185    1.326    0.246
       251  -9.6575     71.8165     61.7744   1.1055203312e+02   5.6168520843e+01    0.1981987    0.1686733 -20.13  0.000245375    1.106    0.096
       252 -10.6840     70.5742     58.2512   1.0982107135e+02   5.7050342371e+01    0.3748252    0.1991677 -32.69  0.001270943    1.970    0.492
       253  -9.5932     56.3250     62.2831   1.1644814949e+02   5.8252450066e+01    0.1958139    0.1157107 -36.54 0.0002120943    1.601    0.375
       254 -11.1460     57.4418     59.0884   1.1501325812e+02   5.8755265580e+01    0.3225041    0.2803826 -32.90  0.001984646    1.027    0.026
       255 -11.0182     27.4053     61.2533   1.2741359836e+02   6.1466372330e+01    0.3516355    0.1966625  17.09  0.001700667    2.127    0.530
       256 -10.2853     32.9618     60.4958   1.2501189995e+02   6.1154672296e+01    0.3059023      0.18537 -15.55   0.00162913    2.048    0.512
       257  -9.3265    184.3640     61.2627   8.0206218812e+01   3.0807778299e+01    0.1596094    0.1124955  33.49 0.0006982608    1.641    0.391
       258  -9.4295    134.4758     60.4437   9.0727127741e+01   4.3721163382e+01    0.1511921    0.1469489  51.03 6.190391e-05    1.063    0.059
       259 -11.5817    114.0693     57.9725   9.5425569805e+01   4.8881264501e+01    0.5022396    0.3698936  57.44  0.001827323    1.495    0.331
       260 -10.8969     64.3444     59.9750   1.1269736539e+02   5.7634706870e+01    0.3069198    0.1916009  42.50  0.001073892    1.840    0.457
       261 -10.0716     18.2727     59.5971   1.3063332874e+02   6.2486784736e+01    0.2137624    0.1292653 -72.00 0.0006407787    1.712    0.416
       262  -9.6048     38.7224     58.4392   1.2214068519e+02   6.1039791898e+01    0.1601102    0.1148854  -2.33 0.0009359266    1.586    0.370
       263  -9.3868    170.4738     57.5245   8.1704829816e+01   3.5022933987e+01    0.1533371    0.1473529  67.14 8.823324e-05    1.019    0.018
       264 -10.8164    137.8048     54.7760   8.7987536040e+01   4.3835215164e+01    0.2832347     0.247303  12.01   0.00052671    1.206    0.171
       265 -12.0026    135.6451     50.5073   8.7057616053e+01   4.5038701659e+01    0.6317621    0.3437489 -48.03  0.002520771    2.210    0.547
       266  -9.6548     80.9583     57.0466   1.0568821895e+02   5.5587835063e+01    0.1652183    0.1514111   1.22 0.0004332106    1.049    0.046
       267  -9.8025    122.1588     56.1379   9.2508372243e+01   4.7363500799e+01    0.1970667    0.1798782 -72.58 0.0004476539    1.301    0.231
       268 -10.8092     99.3969     55.8757   9.9126581334e+01   5.2351791408e+01    0.4611928    0.1971502  38.32  0.001738218    2.485    0.598
       269 -12.4673    127.9431     51.7644   8.9437855712e+01   4.6714926362e+01     0.399751    0.3218744 -19.99 0.0006468374    1.302    0.232
       270 -11.6710     38.3775     51.6837   1.2023868508e+02   6.2446963090e+01    0.5559974    0.3226485 -35.28  0.002894389    1.573    0.364
       271  -9.9950     44.7465     51.4406   1.1754218305e+02   6.1818002925e+01    0.2695445    0.1886248 -18.58 0.0009349077    1.479    0.324
       272 -10.9354     46.0741     47.0541   1.1551781218e+02   6.2519275327e+01    0.2244614    0.1698999 -43.17  0.001367291    1.193    0.162
       273 -11.8621      4.4126     52.8514   1.3470488627e+02   6.4686525505e+01    0.6198239    0.2724099 -33.68  0.003307802    2.262    0.558
       274 -10.9806     12.9154     49.9744   1.3047217270e+02   6.4827196693e+01    0.3743859    0.1352542 -55.99  0.001851543    2.015    0.504
       275 -12.0696      8.7507     45.7652   1.3118930544e+02   6.5921557832e+01    0.4356669    0.3047214 -26.49  0.002023004    1.377    0.274
       276 -10.8636      6.9663     40.8937   1.3070329168e+02   6.6994290371e+01    0.2435921    0.1665132 -45.44 0.0006086968    1.111    0.100
       277 -10.2881     73.4935     52.4889   1.0673710584e+02   5.7682601279e+01    0.2895942    0.2308401 -81.50 0.0009782317    2.043    0.510
       278 -10.2977     76.7130     49.8414   1.0460323564e+02   5.7634078490e+01    0.2306301    0.1774477  15.26 0.0007551202    1.344    0.256
       279 -10.3989    157.9248     52.0542   8.2526070463e+01   3.9134772501e+01    0.2307556    0.2127407  40.96  0.001219887    1.057    0.054
       280 -11.6658     51.5998     47.4103   1.1337309879e+02   6.1782918065e+01    0.7368782    0.1940312 -46.04   0.00266631    3.263    0.694
       281 -10.5903    114.7376     49.4363   9.2194412432e+01   5.0158077757e+01    0.3155118    0.2363405   3.90  0.001529951    1.552    0.356
       282 -11.2379    142.7604     46.6040   8.4033908656e+01   4.3844772816e+01     0.389884    0.2817495 -13.00  0.001309627    1.597    0.374
       283 -11.5175    138.2531     43.8505   8.4125591192e+01   4.5382047304e+01    0.4663408    0.3108808  88.74  0.001098107    2.314    0.568
       284 -11.1641    100.3606     48.1746   9.6012405899e+01   5.3473361957e+01    0.3105129    0.2478123 -48.48  0.000891279    1.442    0.306
       285 -10.0579     98.6782     44.6430   9.5208990355e+01   5.4395429516e+01    0.3119072    0.2153643  10.95 0.0008330831    1.746    0.427
       286 -10.1354    155.2877     48.6558   8.1975589362e+01   4.0324193929e+01     0.155565    0.1166877 -66.64 0.0007022108    1.649    0.394
       287  -9.9822    162.9624     47.5157   8.0045965774e+01   3.8480964274e+01    0.2281273    0.1442219  59.74 0.0004594492    1.499    0.333
       288  -9.3009    104.3192     46.3015   9.4093719612e+01   5.2947047882e+01    0.1499504    0.1068918  14.20   0.00049497    1.624    0.384
       289  -9.5830     91.5998     45.8499   9.7950969812e+01   5.5617262371e+01    0.1972235    0.1276669 -45.15 0.0009426963    1.705    0.413
       290  -9.6023     22.8213     46.1657   1.2515910884e+02   6.4926027382e+01    0.1657304    0.1063076 -39.30 0.0004804331    1.279    0.218
       291 -10.0204     17.6362     45.1732   1.2713810058e+02   6.5498762989e+01    0.2899109    0.1793539 -89.64 0.0008583865    3.082    0.675
       292  -9.6292    233.1887     45.1471   6.8639892066e+01   2.0714768180e+01    0.1907575    0.1831227  -7.19 0.0004894355    1.196    0.164
       293  -9.7849     86.2913     45.0195   9.9417248931e+01   5.6768591499e+01    0.2401278    0.1395822  41.68 0.0009033844    1.723    0.420
       294 -10.9039     64.0717     41.3994   1.0615053554e+02   6.1148970812e+01    0.2680533    0.1952927 -29.45 0.0009629795    1.243    0.195
       295 -10.1622    162.9929     42.0397   7.8285302822e+01   3.9237561318e+01    0.1833142    0.1729061  58.37 0.0006272948    1.005    0.005
       296 -11.0304     69.6127     37.0215   1.0227292229e+02   6.1017005957e+01    0.5683413    0.2638013 -21.96  0.002142078    3.198    0.687
       297 -10.1794     23.9381     41.5201   1.2323586735e+02   6.5754838858e+01    0.2187287    0.1629446 -39.02  0.001450947    1.065    0.061
       298 -10.3121    226.2461     40.4101   6.8264211388e+01   2.3015058376e+01    0.2618523     0.206031 -57.92 0.0006702255    1.216    0.178
       299 -10.3740     95.4489     40.2867   9.4550669110e+01   5.5743341876e+01    0.3195009    0.2445594  68.98  0.001617585    1.822    0.451
       300 -10.6899     89.0847     38.9737   9.6110560994e+01   5.7213737661e+01    0.3794802    0.2612738 -62.82  0.001387047    2.481    0.597
       301 -11.5952     82.3955     36.7844   9.7514518632e+01   5.8824984458e+01    0.3492869    0.2882113  41.09 0.0008702905    1.285    0.222
       302  -9.4226     29.3013     40.3711   1.2045687939e+02   6.5522778997e+01    0.2799127    0.1042625 -41.78   0.00102507    2.227    0.551
       303 -10.7543    122.5573     44.0352   8.8088978428e+01   4.9187514357e+01    0.3869629    0.2885109 -28.11  0.001366271    1.387    0.279
       304 -10.5014    119.4522     39.3567   8.7186649643e+01   5.0603165951e+01    0.2577111     0.197741   8.14 0.0005739738    1.442    0.306
       305 -10.2611     44.0920     39.5889   1.1367410405e+02   6.4147604777e+01    0.2663222    0.1610188 -44.16 0.0009742635    1.470    0.320
       306  -9.9946     14.4024     38.7198   1.2669404677e+02   6.6989086367e+01    0.1762185   0.07763609 -47.45  0.000945184    1.695    0.410
       307 -10.7895     19.1036     37.9548   1.2429242627e+02   6.6814390877e+01    0.1950157    0.1487965 -31.33 0.0003153799    1.095    0.087
       308 -11.2197     24.6909     35.5796   1.2091540362e+02   6.6829981388e+01    0.2755674    0.2154724  30.23 0.0007380455    1.576    0.365
       309 -10.7281      2.4548     37.5229   1.3185990608e+02   6.7883541582e+01    0.3969999    0.1439353 -37.48  0.001270426    2.367    0.577
       310 -12.2800    232.4621    247.0005   1.1214277188e+02  -7.8684381456e+00     0.636935    0.2792506  29.60  0.003407421    1.906    0.475
       311 -10.2432      1.4157     31.6961   1.3074033000e+02   6.9067563094e+01    0.1727386    0.1511238 -38.71 0.0006051785    1.186    0.157
       312 -10.8095      9.1944     33.5800   1.2756594885e+02   6.8303061291e+01    0.3021074    0.1967396 -52.62  0.001740337    1.250    0.200
       313 -11.2103      6.1324     30.0857   1.2796337494e+02   6.9141138137e+01    0.3423514    0.1771966 -36.96  0.001211897    1.557    0.358
       314 -10.6345    111.2153     34.2740   8.7489664841e+01   5.3220637182e+01    0.4303347    0.2695121 -24.74 0.0006133631    1.668    0.400
       315 -10.1824    103.6148     36.8324   9.0675580828e+01   5.4546190641e+01    0.3428559     0.193255  46.94  0.001314094    1.683    0.406
       316 -10.3197    106.2018     34.1707   8.8870528988e+01   5.4359172811e+01    0.2949025    0.2274105  39.95  0.001054493    1.206    0.171
       317 -10.7507     76.3478     33.7112   9.8406958734e+01   6.0396865204e+01     0.264964    0.1659068  30.70  0.001198808    1.593    0.372
       318  -9.6877     61.0347     33.7765   1.0429746309e+02   6.2896410151e+01    0.1768093    0.1481773   1.74 0.0003579125    1.079    0.074
       319 -10.6228     14.0975     33.6914   1.2526357100e+02   6.7978626971e+01    0.1559934    0.1422587  34.47  0.001169449    1.478    0.323
       320  -9.6221     32.6339     33.7393   1.1658005593e+02   6.6446172464e+01    0.2373304    0.1018859  17.27  0.001073416    3.010    0.668
       321 -11.3431    145.2455     31.6833   7.8349213561e+01   4.5232320186e+01    0.2548653     0.241791  58.73 0.0002536738    1.050    0.048
       322 -10.1632     97.8248     31.9261   9.0470733241e+01   5.6482539368e+01    0.2197627    0.1719632  13.23 0.0005171435    1.270    0.213
       323  -9.4748    178.1487     31.1734   7.2246547410e+01   3.6607827339e+01    0.2061264    0.1652955 -67.69 0.0005005176    1.338    0.252
       324  -9.2716     90.3860     31.5239   9.2659864052e+01   5.8069547797e+01    0.1381341    0.1204867   6.10 0.0001038057    1.034    0.033
       325 -10.5900     56.5549     30.7598   1.0486584109e+02   6.4048964080e+01    0.2517319    0.1092606 -34.39  0.001133303    2.168    0.539
       326 -10.5326     50.0069     28.7228   1.0677597313e+02   6.5291770642e+01    0.4832205    0.1405592 -35.51  0.001754325    3.534    0.717
       327  -9.5002     48.8263     23.5722   1.0504561898e+02   6.6271354350e+01    0.1590082    0.1141803  41.42 0.0009413841    1.718    0.418
       328 -10.4716     82.4003     29.7022   9.4577520553e+01   5.9886143043e+01    0.2431031    0.2157936 -76.39  0.001411728    1.674    0.403
       329  -9.9527     78.4605     29.9744   9.6075807255e+01   6.0579217768e+01    0.1936058    0.1239606 -29.44 0.0003100253    1.512    0.339
       330  -9.2734    191.7376     28.9743   6.9587487497e+01   3.3267395478e+01    0.1673153    0.1269507 -28.35 0.0002801011    1.418    0.295
       331  -9.8589    124.7746     27.8583   8.1520970125e+01   5.0855874478e+01    0.2162364    0.1735208  27.37 0.0003002149    1.225    0.184
       332 -10.8132     70.7505     26.1422   9.7243527825e+01   6.2505965242e+01    0.4144225    0.1980268  29.34  0.001813942    2.377    0.579
       333  -9.4427     90.5156     26.5612   9.0542539531e+01   5.8729002533e+01    0.1366923    0.1215727  15.54 6.477029e-05    1.033    0.032
       334 -11.3778     60.8551     24.0766   1.0018975372e+02   6.4436548872e+01    0.4513227    0.2157288 -46.21  0.002010291    2.690    0.628
       335  -9.8041    113.0553     25.0165   8.3358954730e+01   5.3996912625e+01    0.2508083    0.1749429 -49.96 0.0007661236    1.828    0.453
       336 -10.3949     54.0736     23.3618   1.0268201377e+02   6.5567265846e+01    0.2222199    0.1744175 -10.89 0.0003818792    1.084    0.077
       337  -9.3628     17.4203     23.8104   1.2013584471e+02   6.9562674972e+01    0.1614348   0.08193702 -40.35 0.0005678466    1.533    0.348
       338 -10.4199    100.1238     22.3485   8.5834871672e+01   5.7239591890e+01    0.2642581    0.2149059 -44.01 0.0008510862    1.484    0.326
       339 -12.2079    226.1285    246.0124   1.1308317633e+02  -6.8181050629e+00    0.6702173    0.3462647  15.13   0.00349205    2.341    0.573
       340 -10.7886     24.0000     20.9997   1.1567758880e+02   6.9500237776e+01    0.3747388    0.1108338 -44.29  0.001663338    2.660    0.624
       341 -10.8242     27.1394     19.1334   1.1329734231e+02   6.9515666565e+01    0.2605001    0.1815972   4.79  0.001022822    1.407    0.289
       342 -10.1134    124.2465     21.9089   7.9387486127e+01   5.1686439335e+01    0.1929748    0.1768697  26.63 0.0003851212    1.052    0.049
       343 -11.1959     66.1945     21.4910   9.6903506308e+01   6.3940646054e+01     0.325007    0.2266918  26.30   0.00148643    1.351    0.260
       344 -10.5472     34.9711     21.1241   1.1032832273e+02   6.8370573759e+01    0.3092327    0.1747352 -40.58  0.001283551    1.574    0.365
       345 -10.2437    137.1434    247.3544   1.2936092613e+02   7.2217745635e+00    0.1679849    0.1611277  17.35 0.0006642747    1.338    0.253
       346  -9.9417    104.4661     18.4889   8.3003199173e+01   5.6728706637e+01    0.2271842    0.1296956  -7.21 0.0008989085    2.120    0.528
       347  -9.3550     45.4974     20.5148   1.0514733974e+02   6.7186903806e+01    0.1250559    0.1003075 -10.44 0.0003609013    1.007    0.007
       348 -10.7606      6.3106    245.0774   1.5179278970e+02   2.4812605490e+01    0.2293866    0.1194654  78.88  0.000932877    1.479    0.324
       349  -9.7020     81.7052     18.2220   8.9798834262e+01   6.1552773128e+01    0.2921119    0.1158959 -25.35  0.001110452    2.650    0.623
       350 -11.5541      8.5277    241.7517   1.5132085259e+02   2.5155224485e+01    0.3966717     0.160521  71.59   0.00248122    2.003    0.501
       351  -8.9742    151.6364     18.7250   7.2666429480e+01   4.5055433419e+01    0.1559687   0.09564562  39.92 0.0006029825    1.666    0.400
       352 -11.1346    146.9919    244.2448   1.2717641376e+02   6.0914151730e+00    0.2687191    0.1145389  41.80   0.00118385    1.793    0.442
       353  -9.9344     18.8642     18.6977   1.1734161520e+02   7.0336149322e+01    0.2021124     0.104906  15.64  0.001160658    2.109    0.526
       354  -9.8229     19.9907     15.4622   1.1536086269e+02   7.0781366120e+01    0.1792419    0.1171999 -12.34 0.0005973125    1.414    0.293
       355  -9.5825    188.3940     16.8107   6.6524350498e+01   3.5517030620e+01    0.1772829    0.1390576  -3.20 0.0003415445    1.576    0.365
       356  -9.0962     95.4577     17.5192   8.5148924805e+01   5.8819876389e+01    0.1404874    0.1158294  22.65  0.000254647    1.078    0.073
       357  -9.9887     55.6819     15.9578   9.8561651632e+01   6.6392800620e+01    0.1860844    0.1439002  84.32 0.0009053087    3.368    0.703
       358  -9.9863      9.8893     16.1290   1.2104746693e+02   7.1449566461e+01    0.1777069     0.097688 -28.01 0.0007354221    1.549    0.355
       359  -9.9256    123.5812     14.8511   7.6828867139e+01   5.2607321070e+01    0.2492457    0.1620381  50.06 0.0008086142    1.344    0.256
       360  -9.6628    115.5227    244.5099   1.3303247038e+02   1.1050526758e+01    0.1203852   0.09088778  51.88 0.0001678167    1.005    0.005
       361 -10.3163    109.8999    243.2452   1.3393858106e+02   1.2112593480e+01    0.2541684    0.1500888  72.03  0.001348773    2.040    0.510
       362  -9.4847    166.1507     14.6290   6.8946740715e+01   4.1641754408e+01    0.2136224    0.1110748  56.39 0.0004094095    1.683    0.406
       363  -9.1533     90.0245     13.0093   8.4795361993e+01   6.0475251036e+01    0.1577239    0.1348647  19.06 0.0003729868    1.019    0.019
       364 -10.2368     72.0030    243.9667   1.4084072808e+02   1.7431476742e+01    0.1750408    0.1313334  59.38 0.0006882836    1.048    0.046
       365 -12.0305    155.9754    241.5265   1.2516513171e+02   5.0137218970e+00     0.343563    0.1971375  32.40  0.001211872    1.611    0.379
       366 -11.4007     34.9211    241.5793   1.4704559354e+02   2.2411975074e+01    0.3715313    0.1871024  43.56  0.002449876    1.664    0.399
       367 -11.7528     19.3489    238.0161   1.4943080004e+02   2.4706218654e+01    0.3718822    0.1892671  46.49  0.002046101    1.580    0.367
       368  -9.1303     51.3392     11.2908   9.8135485336e+01   6.7675780464e+01    0.1285987   0.08123929   6.19 0.0004771593    1.645    0.392
       369 -10.6318    174.1474    238.8392   1.2141311669e+02   2.3772175885e+00    0.3891264    0.2008807  26.25  0.001898001    2.244    0.554
       370 -11.0516    177.5936    234.8193   1.2020370089e+02   2.3537533274e+00    0.2729456    0.1948983  10.36  0.001290947    1.686    0.407
       371 -11.3453     73.9805    238.3738   1.4005048084e+02   1.8113175029e+01    0.4034265    0.2613331  59.62  0.002518824    1.193    0.162
       372 -10.6690     73.5368    232.9830   1.3969093473e+02   1.9108857963e+01    0.2860675    0.1268739  47.31  0.001396225    1.736    0.424
       373 -10.5755     31.5928    237.1836   1.4736311228e+02   2.3541475817e+01    0.2634007    0.1186185  69.61 0.0008961821    1.928    0.481
       374 -10.5402     29.1332    232.9037   1.4754663997e+02   2.4561055277e+01    0.2465072    0.1105707  48.98  0.001115913    1.683    0.406
       375 -10.2186     12.1793    238.2077   1.5059770391e+02   2.5399270851e+01    0.1462123   0.07915951  65.68 0.0005589276    1.319    0.242
       376  -9.7311    135.3690    237.2923   1.2852260666e+02   9.0314625796e+00    0.1194378   0.08694366  21.34 0.0006405342    1.718    0.418
       377 -10.8151    160.0560    235.7776   1.2364674383e+02   5.1673198327e+00    0.2319756    0.1441126  30.90 0.0008543433    1.511    0.338
       378  -9.3338     50.2860    240.3247   1.4436898244e+02   2.0826953056e+01   0.08705792   0.08342171 -77.45 0.0003320846    1.604    0.376
       379 -10.5149    167.0134    233.8239   1.2206127495e+02   4.2787534106e+00    0.1899724      0.17802  23.72 0.0007565246    1.211    0.174
       380 -11.1105    153.4147    233.7766   1.2464487838e+02   6.5793264014e+00     0.222031    0.1715383   9.91 0.0008231411    1.668    0.400
