#   1 NUMBER                 Running object number                                     
#   2 MAG_AUTO               Kron-like elliptical aperture magnitude                    [mag]
#   3 X_IMAGE                Object position along x                                    [pixel]
#   4 Y_IMAGE                Object position along y                                    [pixel]
#   5 X_WORLD                Barycenter position along world x axis                     [deg]
#   6 Y_WORLD                Barycenter position along world y axis                     [deg]
#   7 A_WORLD                Profile RMS along major axis (world units)                 [deg]
#   8 B_WORLD                Profile RMS along minor axis (world units)                 [deg]
#   9 THETA_WORLD            Position angle (CCW/world-x)                               [deg]
#  10 FWHM_WORLD             FWHM assuming a gaussian core                              [deg]
#  11 ELONGATION             A_IMAGE/B_IMAGE                                           
#  12 ELLIPTICITY            1 - B_IMAGE/A_IMAGE                                       
         1 -14.8056     68.5975    144.1309   1.0626564002e+02   3.7176383740e+01      5.49037     2.246581  59.08  0.003401724    4.727    0.788
         2 -14.4389    198.8818     37.6875   4.6915090911e+01   3.0835778369e+01      1.72433     1.362255  12.81  0.005419207    1.695    0.410
         3 -14.5288    210.0255     26.0289   4.2491330274e+01   2.9603032201e+01     1.406094     1.060316  -2.11  0.003249307    1.823    0.452
         4 -12.7393      2.3009     41.6674   1.0700246300e+02   6.7096789572e+01      1.12065    0.1537342 -60.84  0.003481103    5.466    0.817
         5 -13.0662      3.2518     30.3344   1.0303697038e+02   6.9249042988e+01    0.7516161    0.4869369   1.14   0.00502469    1.673    0.402
         6 -12.3281      2.4710     21.8017   1.0037411159e+02   7.0858397051e+01    0.6497024    0.3245733 -49.47  0.003903294    1.572    0.364
         7 -13.9433      2.5060      6.8478   9.3955419065e+01   7.3367020513e+01     1.470497     0.906862   7.41   0.01011425    1.621    0.383
         8 -12.7090    234.2807      2.8786   3.4762005969e+01   2.6597491649e+01    0.7639166    0.3159894  76.14  0.003633234    2.296    0.564
         9 -11.1492     62.5348      1.9825   6.2883880945e+01   6.6274380439e+01    0.2736744    0.1628759  48.93  0.001212707    1.681    0.405
        10 -10.9284    187.9068     31.3260   4.6632259078e+01   3.4364883938e+01    0.2571982    0.2132172 -14.99 0.0006951066    1.398    0.284
        11 -11.4933    139.6780    249.2907   1.0538829365e+02   4.3216795473e+00     0.284171    0.2418939  85.26  0.001769842    1.424    0.298
        12 -11.1167    117.2525    249.2971   1.0957278612e+02   7.7213356164e+00     0.331657    0.2125192  81.23  0.001887271    2.140    0.533
        13 -13.2677     47.5231    221.6800   1.2011432455e+02   2.2395168803e+01     1.184119    0.7219827  68.63  0.002779124    1.413    0.292
        14 -13.2616     15.0187    192.3269   1.2425068938e+02   3.2000979859e+01    0.6323844    0.2287368 -61.78  0.002183341    2.631    0.620
        15 -14.3576     85.6925    228.1005   1.1335287938e+02   1.6110587752e+01     1.461072     1.184431 -81.04   0.00708802    1.270    0.213
        16 -16.6840      7.0001    203.4548   1.2649045341e+02   3.0397114422e+01      8.73103     1.091607 -73.28  0.009400097    5.222    0.809
        17 -16.1994     57.1165    246.9523   1.2026985247e+02   1.6446958500e+01     9.438231     2.940743  29.31   0.01313573   11.315    0.912
        18 -14.4001     28.9087    248.0039   1.2513989716e+02   1.9572660810e+01    0.6724099    0.5705576  14.70  0.005125624    2.048    0.512
        19 -10.6540    113.4069    207.4943   1.0524519112e+02   1.5925713910e+01    0.2600455    0.2014011  69.50 0.0005043129    1.313    0.239
        20 -14.0272     54.8774    191.8189   1.1592937336e+02   2.7767446402e+01     1.311943    0.9157068  58.93  0.007905339    1.293    0.227
        21 -12.5263    199.6397    202.2793   8.6549306379e+01   2.0016999237e+00    0.6076123    0.3700662   2.58  0.002739481    2.415    0.586
        22 -11.9350    193.1570    194.9693   8.6469427304e+01   4.3472180165e+00     1.078994    0.5410973 -60.53  0.003344848    5.569    0.820
        23 -10.1612    108.2221    203.4169   1.0579315473e+02   1.7587855175e+01    0.1902609    0.1107271  49.56 0.0009421201    1.582    0.368
        24  -9.9693    152.5509    197.7765   9.5375756977e+01   1.1129139733e+01    0.3130443    0.1381933 -51.59   0.00128374    2.551    0.608
        25  -9.1782    159.8034    196.8208   9.3670493844e+01   1.0008892889e+01    0.1783226    0.1585883  70.22 0.0003891923    1.291    0.225
        26 -11.0647    208.0411    196.0323   8.3760271916e+01   1.5693824611e+00    0.2132417    0.1864123   7.97 0.0007102157    1.011    0.011
        27  -9.6519     81.7873    194.6839   1.1039627530e+02   2.3497363903e+01    0.2238968     0.179772 -87.16  0.001342127    1.173    0.147
        28 -16.6702      8.7695    242.9603   1.2817405859e+02   2.2580692689e+01     1.726897     1.479104 -87.84   0.01475037    1.445    0.308
        29  -9.8326     23.8229    193.4981   1.2257118875e+02   3.0892852994e+01    0.2626012    0.1246224  61.38  0.001399101    1.950    0.487
        30  -9.2219     97.4745    190.0485   1.0629061875e+02   2.2130861375e+01    0.2016573    0.1292324 -63.24  0.001029102    1.582    0.368
        31  -8.7208     76.2558    190.7037   1.1112280503e+02   2.5165586887e+01    0.1308055   0.08866911  73.88 0.0002216545    1.497    0.332
        32  -9.9177     71.6352    186.0739   1.1158275917e+02   2.6845568905e+01    0.2059204    0.1568755  63.74 0.0003688213    1.206    0.171
        33 -10.6985    146.1884    182.4552   9.4061566366e+01   1.5320916390e+01    0.2947498    0.2552501  43.31 0.0007269213    1.097    0.089
        34 -10.4375     99.1743    180.8820   1.0455250280e+02   2.3887897881e+01    0.3160375    0.2633642  -1.37  0.001720665    1.685    0.407
        35 -12.2256     69.3719    176.4662   1.1087884749e+02   2.9347552942e+01     0.446124    0.2840421 -38.79  0.002174894    2.238    0.553
        36 -12.3568     73.6442    171.3799   1.0918004600e+02   2.9936104244e+01    0.3402988    0.2582853 -47.26  0.001646721    1.510    0.338
        37 -10.0039     40.3245    177.8474   1.1768719508e+02   3.2630585823e+01    0.2575213    0.1381195  52.70 0.0005548712    1.786    0.440
        38  -9.9172    204.3829    176.5909   8.0633597752e+01   5.4902494001e+00    0.2593213    0.2154086 -35.22  0.001458059    1.227    0.185
        39 -11.2642    140.7762    173.5313   9.3625402076e+01   1.8195761197e+01    0.5687355    0.3960138 -88.60  0.002499284    2.202    0.546
        40  -9.8465     84.0563    174.3545   1.0712597724e+02   2.7728779809e+01     0.256232    0.1769938 -48.42 0.0006351038    1.607    0.378
        41 -12.8565     55.0136    146.8612   1.1029274009e+02   3.8267252009e+01     2.061215    0.7778629 -47.96  0.007820282    3.001    0.667
        42 -13.8101     70.6048    157.2279   1.0785062633e+02   3.3720442186e+01    0.6140158    0.5072912 -40.23  0.002645125    1.435    0.303
        43  -9.0710    101.2914    249.3361   1.1252683433e+02   1.0058640470e+01    0.1027739     0.090693   3.94 0.0002986457    1.639    0.390
        44  -9.1607     48.5099    160.5029   1.1381033727e+02   3.5751775866e+01    0.1329636    0.1111814 -88.45 0.0008105738    1.013    0.013
        45 -12.1669     89.1286    155.1006   1.0278879087e+02   3.1485449681e+01     0.608567    0.4418617 -25.31  0.002757636    1.984    0.496
        46 -13.3431     48.9145    108.0229   1.0529165930e+02   4.8487154012e+01     1.872858     1.083232 -84.46  0.008210405    2.347    0.574
        47 -10.9259    174.3934    149.0202   8.0886649894e+01   1.6638609629e+01    0.3279868    0.3068176 -35.38 0.0008931517    1.063    0.059
        48 -11.0947    133.6427    144.3410   8.9340907894e+01   2.6028898991e+01     1.121872    0.2967326 -54.85  0.002648861    5.654    0.823
        49  -8.8677    112.5063    150.5543   9.5967617372e+01   2.8606603016e+01     0.149016     0.140013  87.28 8.193176e-05    1.042    0.041
        50 -11.9673     39.8903    146.2430   1.1413873344e+02   4.0136518189e+01    0.4043604    0.3322424 -38.63  0.002123808    1.485    0.327
        51 -10.8072     83.9455    143.4536   1.0204392488e+02   3.5107024858e+01    0.3144833    0.2380206  64.67   0.00137223    1.433    0.302
        52 -10.8518    102.9231    139.9684   9.6293315501e+01   3.2823706976e+01    0.5596285    0.3523557 -24.07   0.00219054    2.640    0.621
        53 -12.4201     90.2269    140.1013   9.9717310977e+01   3.4929921621e+01    0.2941254    0.2648597 -52.88 0.0004672432    1.111    0.100
        54 -12.9733     44.6580    130.3852   1.1056425866e+02   4.3493068411e+01    0.7049616    0.3617586 -80.64  0.002503395    2.167    0.539
        55 -11.4179    135.9060    129.3126   8.5284975786e+01   2.8979805477e+01    0.8203754    0.1952269 -49.70  0.002076528    4.526    0.779
        56 -11.8966     32.6233    130.5199   1.1393098091e+02   4.4682437834e+01    0.3391934    0.2356451 -50.87  0.000945028    1.415    0.293
        57 -10.2765    111.7762    130.4872   9.1853103098e+01   3.3480358056e+01    0.3375644    0.2619812   6.81 0.0009303211    1.739    0.425
        58 -10.4793    160.5393    127.5359   7.8885513088e+01   2.4094710147e+01    0.3533408    0.2596795 -66.47   0.00155808    1.698    0.411
        59 -11.1014     99.0226    126.6128   9.4455236502e+01   3.6712368342e+01    0.2977935    0.2545205  -4.65 0.0006466886    1.439    0.305
        60 -11.1249    119.0462    123.3034   8.8200584522e+01   3.3770666305e+01    0.6949849    0.4231904 -12.31  0.002181771    3.941    0.746
        61 -10.6303    134.6438    105.2313   7.9360871235e+01   3.4605871291e+01    0.7672329    0.1746522 -41.28  0.001901074    4.576    0.781
        62 -10.4905    105.8912    130.6806   9.3485403770e+01   3.4517001750e+01    0.3426535    0.3005212 -82.30  0.001014712    1.197    0.164
        63  -9.9607    108.1124    119.1987   9.0178181969e+01   3.6830686539e+01    0.2119113    0.1981896 -19.04 0.0002904698    1.145    0.126
        64  -9.2051     47.3953    172.2708   1.1548092382e+02   3.3110468400e+01    0.1206092   0.09591859 -35.67 0.0006985134    1.731    0.422
        65 -12.1585     40.2879    114.4935   1.0917277117e+02   4.7837978502e+01    0.2997307    0.2621633 -26.78  0.001864285    1.328    0.247
        66 -10.5755    159.2318    162.4809   8.7207928225e+01   1.6950610729e+01    0.2874157    0.2415889 -73.56 0.0007003526    1.423    0.297
        67  -9.9003    168.1019    113.0589   7.3447716215e+01   2.5425110955e+01    0.3793934    0.2599644 -79.79  0.001335358    2.418    0.586
        68 -10.2638    205.3083    110.1884   6.5165502299e+01   1.7520148110e+01    0.3427659    0.2388668  38.94  0.001066848    1.587    0.370
        69 -11.1134    117.8495    109.5875   8.5025500209e+01   3.7163192966e+01    0.4797713    0.3102453  61.55   0.00198479    2.013    0.503
        70 -10.9966    119.0874    104.5117   8.3313342436e+01   3.8055235795e+01    0.4430382    0.3002479   3.40   0.00171521    2.488    0.598
        71 -13.1314     82.3351    162.0329   1.0565950904e+02   3.0876301455e+01      1.47975    0.5196288  53.63 0.0004078974    4.238    0.764
        72 -11.6354    241.8947    100.4425   5.6795889281e+01   1.1381725281e+01    0.3762464    0.1790506 -42.15  0.001625325    1.850    0.459
        73 -11.5667     32.1526    107.8155   1.1048399014e+02   5.0237001097e+01    0.4273704    0.1528714 -61.40  0.001802236    2.161    0.537
        74 -10.7632     31.9233     97.0253   1.0855223554e+02   5.2840279368e+01    0.3982396    0.3083194 -65.28  0.001383799    1.103    0.093
        75 -10.4446     52.7797     91.2453   1.0029799555e+02   5.2035624618e+01    0.3553194    0.1445433 -43.90  0.001421301    2.329    0.571
        76  -9.8783     41.8696     91.9327   1.0415534146e+02   5.3087469874e+01    0.2015527    0.1712688 -53.00 0.0004902207    1.014    0.014
        77  -9.8990     75.2309     84.9559   9.1069138645e+01   5.0399649022e+01    0.2123859    0.2022164  15.82 0.0003623597    1.139    0.122
        78 -10.3322    158.0388     81.4903   6.6843211056e+01   3.4016030111e+01    0.2489496    0.2045546 -38.58 0.0004921838    1.193    0.162
        79  -9.0440    184.3602     77.2990   6.0269782527e+01   2.8364227178e+01    0.1570185    0.1185008  21.23 0.0007035139    1.713    0.416
        80  -9.1328     56.9852     66.6539   9.1946458696e+01   5.6976093272e+01     0.210168   0.09819899  52.62 0.0007049877    4.473    0.776
        81 -10.9031     13.4379     59.7886   1.0704282173e+02   6.2696649032e+01    0.2348182    0.1843191 -61.12 0.0003983929    1.190    0.160
        82 -13.6878    189.3127     44.7617   5.0221864855e+01   3.2241767330e+01     1.173992    0.7952112  38.62 0.0008684179    1.768    0.434
        83  -9.5077    172.4936    238.5345   9.7756328945e+01   8.2550796940e-01    0.2182137    0.1240646 -47.64  0.001188937    2.154    0.536
        84  -9.2489     43.4838    236.4183   1.2193312266e+02   2.0031519988e+01    0.1100156   0.08714716  68.89 0.0001281969    1.091    0.084
        85 -11.8317    145.9583     50.3979   5.9766501281e+01   4.2252972268e+01    0.5732701    0.3671012 -80.71  0.002258545    2.616    0.618
        86  -8.5775     72.2919    231.2822   1.1623409967e+02   1.7363142004e+01   0.09784732   0.09430088  -9.65 0.0003319451    1.532    0.347
        87 -14.4894     45.9341    203.6367   1.1892790519e+02   2.6293577518e+01     2.695761     1.015453  55.32   0.01222216    2.579    0.612
        88  -9.8922     34.2189    227.8859   1.2301602971e+02   2.2722746504e+01    0.1769208    0.1393427  49.79 0.0006541521    1.318    0.241
        89  -9.6915     61.1749    220.1380   1.1736669501e+02   2.1000874831e+01     0.164665    0.1466637 -89.68 0.0005346082    1.230    0.187
        90 -11.3125     11.5194     52.6241   1.0597183548e+02   6.4332570809e+01    0.2056769    0.1938011  74.66  0.001131236    1.423    0.297
        91  -9.5081    189.5150     15.0415   4.1899108339e+01   3.5846624217e+01    0.1903984     0.131325 -29.41  0.000607109    1.542    0.352
        92  -8.6670    123.3791     10.7015   5.0568746639e+01   5.2610791974e+01    0.1359738     0.100629 -71.60 0.0007023758    1.761    0.432
        93  -9.4071    130.9192    214.1337   1.0249937510e+02   1.1758315623e+01    0.1910899    0.1593966  64.25 0.0003101381    1.204    0.170
        94 -10.1332    105.4190    211.4487   1.0745421434e+02   1.6408142313e+01    0.4161704    0.2911859   3.53  0.001994277    2.692    0.629
        95 -10.8774    147.7155     43.9909   5.7289792202e+01   4.2761172850e+01    0.2739895    0.2482395 -61.03 0.0004006077    1.179    0.152
