#   1 NUMBER                 Running object number                                     
#   2 MAG_AUTO               Kron-like elliptical aperture magnitude                    [mag]
#   3 X_IMAGE                Object position along x                                    [pixel]
#   4 Y_IMAGE                Object position along y                                    [pixel]
#   5 X_WORLD                Barycenter position along world x axis                     [deg]
#   6 Y_WORLD                Barycenter position along world y axis                     [deg]
#   7 A_WORLD                Profile RMS along major axis (world units)                 [deg]
#   8 B_WORLD                Profile RMS along minor axis (world units)                 [deg]
#   9 THETA_WORLD            Position angle (CCW/world-x)                               [deg]
#  10 FWHM_WORLD             FWHM assuming a gaussian core                              [deg]
#  11 ELONGATION             A_IMAGE/B_IMAGE                                           
#  12 ELLIPTICITY            1 - B_IMAGE/A_IMAGE                                       
         1 -13.0735     42.8242     20.8735   1.0005438416e+02   6.5104457871e+01    0.6134826    0.2998118  19.38  0.003188689    2.277    0.561
         2 -11.2519    239.5598     20.6396   5.9586948136e+01   2.3390814211e+01    0.2639759     0.186651  75.95 0.0006584991    1.285    0.222
         3 -12.0419    216.1095     13.8959   6.0434429309e+01   2.9393959882e+01    0.4202366    0.2933838 -89.47  0.001214271    1.253    0.202
         4 -13.1585    185.3954      6.0517   6.1986806254e+01   3.7360486759e+01    0.7020911    0.5365613 -73.25  0.004370421    1.293    0.227
         5 -10.0635    109.6117      8.7906   7.5107590262e+01   5.4614919272e+01    0.1526209      0.11484 -32.66 0.0005615253    1.578    0.366
         6 -11.7763     57.8053      6.8604   8.8781473050e+01   6.4508685629e+01    0.4152165    0.3850158 -21.34  0.003129987    1.511    0.338
         7 -11.9924     43.5933      8.6190   9.4688417355e+01   6.6428664732e+01    0.3090878    0.2248206  34.21   0.00116148    1.436    0.304
         8 -11.0136     12.7147    227.4337   1.4736691502e+02   2.5948106180e+01    0.2069721    0.1473902  82.00 0.0005624857    1.049    0.047
         9 -12.1049    220.7011    247.6688   1.0970111977e+02  -9.4153886975e+00    0.4252244    0.3893968  -9.91  0.003007176    1.278    0.218
        10 -10.0847    104.4647    224.9754   1.2950805700e+02   1.4186866198e+01    0.1873969    0.1271623 -63.61   0.00102709    1.581    0.367
        11 -11.3066    149.5414    221.1383   1.1950895377e+02   7.0942078214e+00    0.4901663    0.2360191 -42.79  0.002127323    2.463    0.594
        12 -11.2572     95.6107    223.2366   1.3111267496e+02   1.5966859424e+01    0.3436114    0.2121748 -39.66  0.001672365    2.449    0.592
        13  -9.3451    248.3407    223.6885   1.0046350969e+02  -1.0297054803e+01    0.1069904    0.1016634  74.71 0.0006716973    1.696    0.410
        14 -10.6282    239.4542    221.9653   1.0175329303e+02  -8.6995755294e+00    0.1610935    0.1092513 -57.09 0.0006880816    2.595    0.615
        15 -10.2094    173.8392    221.3058   1.1447000750e+02   2.6387495517e+00    0.2536896    0.1590034 -34.31  0.001253716    1.873    0.466
        16 -11.7773    226.7843    219.7391   1.0369603047e+02  -6.3486416846e+00    0.4158635    0.1883741 -25.75   0.00173892    2.831    0.647
        17 -10.6047      2.8964    213.7250   1.4818695284e+02   2.9647645454e+01    0.3466475    0.1245388 -85.32  0.001691554    2.587    0.613
        18 -10.6177    218.1448    211.6636   1.0385019842e+02  -3.6318893794e+00    0.2580589    0.1892851 -23.78   0.00144886    1.377    0.274
        19 -10.5371    211.1952    217.4548   1.0626858362e+02  -3.3685205959e+00    0.3113907    0.1862445 -45.43  0.001419659    1.930    0.482
        20 -10.8553    116.0527    208.3399   1.2470800256e+02   1.5642427487e+01    0.4101967    0.2062532 -41.64  0.001696783    2.695    0.629
        21 -10.2244    205.8486    206.9694   1.0537884658e+02  -6.8525389442e-01     0.317272   0.09558694 -41.50  0.001098761    3.487    0.713
        22 -10.0721    185.5619    203.2831   1.0881786040e+02   3.7177494978e+00    0.2598366    0.1388945 -47.91  0.001142043    2.092    0.522
        23 -11.3640      4.8502    199.5485   1.4685109097e+02   3.2390841942e+01    0.3301801     0.152669  51.98  0.001015762    2.015    0.504
        24 -10.4850    112.3890    197.5809   1.2385746405e+02   1.8578038598e+01    0.2723155    0.1295324 -71.80 0.0009567085    3.364    0.703
        25 -10.2947    133.0661    195.3991   1.1882425211e+02   1.5302755515e+01    0.3171546    0.2021781 -65.41  0.001459709    1.853    0.460
        26 -10.1731    215.1287    193.2631   1.0089702286e+02  -9.9898174777e-03    0.3567419    0.1441044 -48.18   0.00132384    3.047    0.672
        27 -10.3675    185.4235    192.8905   1.0686130305e+02   5.6828359873e+00    0.3429024    0.1304445 -35.36  0.001144718    3.395    0.705
        28 -12.0307    158.5120    190.5283   1.1223236109e+02   1.1427228531e+01    0.6939678    0.4417238 -71.02  0.002163995    2.407    0.585
        29 -10.3751    183.1245    182.9630   1.0537807261e+02   8.0488524621e+00    0.3372327    0.1922159 -28.75  0.001380341    2.227    0.551
        30  -9.9737    210.4828    182.5173   9.9651272586e+01   2.7671689443e+00    0.2639804    0.1298504 -29.77  0.001040768    2.418    0.586
        31 -10.1918    193.0525    188.5451   1.0440883329e+02   5.0190971417e+00    0.2037169    0.1238919  63.19 0.0008088609    2.580    0.612
        32 -10.2068    191.7123    177.1099   1.0236278163e+02   7.4662033454e+00    0.3508774    0.1297717 -40.42  0.001221606    2.814    0.645
        33  -9.7142     28.4781    177.0110   1.4002215022e+02   3.5035075224e+01    0.1618974   0.08052171 -50.77  0.000502564    2.213    0.548
        34 -10.8014    223.7393    183.1521   9.7206625021e+01   1.7089047831e-01    0.2135935    0.1690446 -49.12  0.000729388    1.434    0.303
        35 -10.2720    159.3781    175.1929   1.0902923454e+02   1.4439176029e+01    0.2151019     0.142731 -58.79 0.0007735636    1.743    0.426
        36 -10.0690     38.3488    175.3075   1.3762871206e+02   3.4370410302e+01    0.1220231   0.08995766 -41.71  0.000704335    1.706    0.414
        37 -11.0926     34.3276    172.3923   1.3819817812e+02   3.5469824301e+01    0.3654551   0.09201133 -65.95  0.001365641    3.211    0.689
        38 -10.4266    120.6355    168.8085   1.1688379113e+02   2.3504152960e+01    0.2160423    0.1389261 -65.12 0.0009515171    1.745    0.427
        39 -11.3111     51.2576    159.5392   1.3250216329e+02   3.6517936446e+01    0.4577415     0.230606  69.25  0.001813211    3.176    0.685
        40 -10.3483     44.5082    168.4699   1.3535994467e+02   3.5241202692e+01    0.1281538    0.1100344 -76.85 0.0008091831    1.058    0.055
        41 -11.3878     55.5152    167.3426   1.3258565251e+02   3.4174342333e+01    0.3997044    0.2643916 -82.23  0.001629134    1.501    0.334
        42 -10.0295    138.0000    163.0162   1.1152092033e+02   2.1427177530e+01    0.2547087   0.08683543 -49.33 0.0008102143    2.997    0.666
        43 -12.1888    105.6352    156.2327   1.1816326680e+02   2.9153166860e+01    0.6759866    0.3486983 -59.13  0.002764705    2.015    0.504
        44 -10.5312    218.2180    155.8744   9.2515791779e+01   6.1553818101e+00    0.3307532    0.1628849 -43.08  0.001367144    1.983    0.496
        45 -10.7621    166.8988    156.3274   1.0331598658e+02   1.6857991531e+01    0.3774727    0.2052372 -53.39  0.001482491    2.069    0.517
        46 -11.0901      4.9108    154.8979   1.4298458298e+02   4.2071857762e+01    0.2791911    0.1609126  55.23  0.001122236    1.885    0.469
        47 -11.6897     23.3454    153.7126   1.3853266972e+02   4.0812976721e+01    0.2121874    0.1625356  81.63 0.0006663901    1.256    0.204
        48 -11.9427    233.9887    147.3097   8.7777657820e+01   4.5918333448e+00    0.3713306    0.2019286 -35.78  0.001362408    1.752    0.429
        49 -10.7099    189.6895    149.7246   9.6852509729e+01   1.3309354521e+01    0.4475894    0.2324462 -49.21  0.001765359    2.057    0.514
        50 -10.1498    162.3116    149.8552   1.0291629994e+02   1.9220161562e+01    0.3154458    0.1380248 -51.83   0.00108418    2.580    0.612
        51 -10.7642     11.9658    148.7852   1.4067731100e+02   4.2895436253e+01    0.2289222    0.1278881 -53.82  0.001313603    1.644    0.392
        52  -9.9751    223.4975    146.0023   8.9370962178e+01   6.9155359449e+00    0.2296641    0.1357538 -38.92  0.001039262    1.609    0.378
        53 -10.5240    118.3198    156.5210   1.1501642891e+02   2.6753078401e+01    0.2714647    0.1365089 -51.73  0.001077584    1.984    0.496
        54 -11.1603     24.6146    159.2537   1.3889806975e+02   3.9433641603e+01    0.1912649    0.1467786 -27.19 0.0007612458    1.788    0.441
        55 -10.3006    124.3676    142.5637   1.1049437256e+02   2.8773907648e+01    0.3040895    0.1382288 -62.32 0.0009501854    3.356    0.702
        56 -11.0944    249.0011    140.3737   8.3766322404e+01   2.9400586372e+00    0.2816253    0.1329716 -50.89  0.001146146    2.426    0.588
        57 -10.0663    181.4100    141.1991   9.6662138752e+01   1.6846433120e+01    0.2270764    0.1429021 -53.97 0.0009506264    1.768    0.434
        58  -9.8625    226.7820    132.0440   8.5687068920e+01   8.8015406117e+00    0.1989574     0.110876 -40.27 0.0008714931    1.685    0.407
        59 -10.1580     83.0254    132.0259   1.1922683981e+02   3.8599633177e+01    0.2595076    0.1564956 -80.92  0.001023615    2.634    0.620
        60 -11.5266     98.6260    128.3760   1.1411319047e+02   3.6851049842e+01    0.5089477     0.313463 -79.84  0.001930417    2.810    0.644
        61 -11.4416    141.4991    112.5056   9.8855528798e+01   3.1757996421e+01    0.3937104    0.2481994 -24.21  0.001570557    2.137    0.532
        62 -10.9761     14.5387    120.2172   1.3628181360e+02   4.9110762937e+01    0.2855344    0.1280608 -34.12  0.001172737    3.009    0.668
        63 -10.8233      2.1571    115.3278   1.3898688888e+02   5.1011954130e+01    0.2221595    0.1372596 -72.66 0.0005562019    1.342    0.255
        64 -10.5676    108.0987    112.0673   1.0755072976e+02   3.8760770508e+01    0.5407546     0.189004 -55.46  0.001574405    3.975    0.748
        65 -11.7727    192.7248    117.8059   8.8738349261e+01   1.8952824013e+01    0.6352707    0.4683737 -67.20   0.00270894    1.643    0.391
        66 -10.6491     78.0186    111.8620   1.1615202646e+02   4.3962535478e+01    0.3398387    0.1971922 -69.65  0.001408069    2.418    0.586
        67 -10.4197    174.1723    111.2692   9.0963142651e+01   2.4528965633e+01    0.3173773    0.2088298 -52.68 0.0008800062    1.633    0.388
        68 -11.5059    159.5944    110.1197   9.3910843659e+01   2.8147238208e+01    0.5391787    0.2262845 -44.41  0.001897786    2.418    0.586
        69 -11.3698    121.6740    111.1694   1.0361907507e+02   3.6271016998e+01    0.3679067    0.1435553 -45.82  0.001271653    2.556    0.609
        70 -11.1446     13.5234    108.2237   1.3469655681e+02   5.1829305104e+01    0.4385305    0.1296876 -57.01   0.00194783    2.367    0.577
        71  -9.9437    133.2955    106.3402   9.9308090709e+01   3.4830029787e+01    0.1561164    0.1218487  -1.03  0.000270556    1.657    0.397
        72 -10.5689     81.9280    105.9970   1.1356591661e+02   4.4647086049e+01    0.2066834    0.1916107 -37.59            0    1.010    0.010
        73 -12.7591    141.3138    101.7261   9.6056459340e+01   3.3996408560e+01    0.7083415    0.4877838 -28.84  0.003172281    1.645    0.392
        74 -10.0404    222.6592    104.3156   8.0093751286e+01   1.4677992739e+01     0.150456    0.1083499 -73.98 0.0007048113    1.706    0.414
        75 -12.0878    149.9165    101.5993   9.3937300510e+01   3.2070042388e+01    0.5161744    0.2051479 -45.08  0.001774267    2.597    0.615
        76 -11.5299    127.3206    100.2880   9.9230605973e+01   3.7348865540e+01    0.4670109    0.1988842 -45.18  0.001695793    2.387    0.581
        77 -11.6801     43.5374    100.0863   1.2398633155e+02   5.0995149551e+01    0.5789462    0.2686592 -68.15  0.002397648    2.787    0.641
        78 -11.7231    106.9329     98.0535   1.0418162892e+02   4.1944995641e+01     0.486391    0.2995354 -54.97  0.001789491    1.835    0.455
        79 -10.7500     81.7404    100.0325   1.1210810373e+02   4.5959699580e+01    0.2704366    0.2066563 -73.11  0.001373566    1.685    0.406
        80 -10.2667     19.6625     96.6788   1.3078871479e+02   5.3882972297e+01    0.1295487   0.07333799 -37.07 0.0006915001    1.712    0.416
        81 -13.1596    170.0972     90.5593   8.6476303213e+01   2.9418237867e+01    0.4667456    0.4088616  83.82  0.001062494    1.219    0.180
        82 -12.1735    123.7608     90.6655   9.7503801379e+01   4.0009202560e+01    0.5156038    0.2245867 -45.61  0.001918187    2.391    0.582
        83 -11.6143    151.2366     87.6681   8.9847994910e+01   3.4414797394e+01    0.4134499    0.2102467 -30.57  0.001566241    2.355    0.575
        84 -10.8384     45.1197     81.6679   1.1907782320e+02   5.4687822374e+01    0.2421386    0.1571053 -49.21 0.0005872341    1.359    0.264
        85 -10.7361     85.9035     86.5902   1.0719682981e+02   4.8046861629e+01     0.279698    0.1875145 -61.97 0.0009378187    1.948    0.487
        86 -10.7727     34.9344     84.7113   1.2326113994e+02   5.5106953537e+01    0.4123716    0.1201157 -45.91  0.001645299    2.795    0.642
        87 -11.5812    140.7151     82.4420   9.0869676036e+01   3.7798109889e+01    0.4939006    0.1931299 -40.03  0.001754703    2.623    0.619
        88  -9.6056    158.6099     82.8462   8.6863715659e+01   3.3543582410e+01    0.2049788    0.1386114 -50.34 0.0003935101    1.600    0.375
        89 -12.0261    249.6000     80.0238   7.0784923617e+01   1.2946507479e+01    0.4494112    0.1170125 -37.94  0.001522016    3.528    0.717
        90 -11.6087    118.9139     80.5518   9.5888478342e+01   4.2936383616e+01    0.3945464    0.1835761 -46.27    0.0015344    2.329    0.571
        91  -9.9271      2.4393     77.5100   1.3264230134e+02   5.8971169121e+01    0.1160568    0.0863309 -48.28 0.0001104488    1.029    0.028
        92 -12.9887    223.3071     72.0375   7.2564322535e+01   1.9937613041e+01    0.3956741     0.298795 -71.12 0.0005592487    1.349    0.259
        93 -11.3756    103.9325     82.3686   1.0060111702e+02   4.5616825908e+01    0.5127183    0.1939344 -49.73  0.001745476    3.212    0.689
        94 -11.5813     42.4449     87.6143   1.2145825176e+02   5.3757204689e+01    0.4208186     0.247187 -15.36  0.002050792    2.302    0.566
        95 -10.5484     81.5805     72.4511   1.0439581948e+02   5.1463763724e+01    0.3613013    0.1757143 -56.88  0.001343394    3.353    0.702
        96 -10.0457    153.3466     77.3054   8.6490883836e+01   3.5758640020e+01    0.1551761    0.1147974  21.92 0.0007041939    1.695    0.410
        97  -9.6393     94.3403     70.6650   9.9904921289e+01   4.9560967876e+01    0.1354399    0.1138522 -88.71 0.0007051157    1.755    0.430
        98 -10.0931     62.3084     70.3424   1.1008125359e+02   5.4770406790e+01    0.1381201   0.09161578 -15.80 0.0004978151    1.692    0.409
        99 -10.4592     51.7801     69.9533   1.1358123115e+02   5.6207635910e+01    0.2222566    0.1737482 -57.66 0.0008789524    1.498    0.333
       100 -10.2029     28.6434     70.6783   1.2195381189e+02   5.8488735478e+01    0.1312964    0.0751356 -27.36 0.0007045494    1.763    0.433
       101 -10.8852    194.3517     65.0858   7.5332258107e+01   2.7836039043e+01    0.5124614    0.1490026 -38.98  0.001710629    3.302    0.697
       102 -13.4297    232.7851     62.1543   6.9069084069e+01   1.9317235984e+01    0.9268227    0.5797792  83.69  0.004640505    1.779    0.438
       103 -12.6942    228.7810     51.7078   6.7271123548e+01   2.1735387516e+01     0.476346    0.3782924 -44.20  0.002779415    1.273    0.215
       104 -11.9184     20.3398     50.7017   1.1952304071e+02   6.2888338570e+01     0.534846    0.1731793 -45.88  0.002539495    2.368    0.578
       105 -11.6212     19.6435     59.0954   1.2217424864e+02   6.1427769852e+01    0.3266266    0.1611235 -43.08  0.001287794    1.595    0.373
       106 -13.4535     29.4351     59.7283   1.1868069392e+02   6.0485560128e+01     1.008607     0.458351  19.44  0.004124017    2.514    0.602
       107 -12.4463     40.0168     51.3062   1.1214026578e+02   6.0911236761e+01    0.5489342    0.2133997 -42.21  0.002605932    2.225    0.551
       108 -10.9224     42.0374     62.4805   1.1484685045e+02   5.8718980507e+01    0.1875394    0.1446977 -34.89 0.0004691554    1.115    0.103
       109 -10.9946      7.5269     53.5633   1.2531142125e+02   6.3287078265e+01    0.2139389    0.1362807 -42.02  0.001433805    1.191    0.160
       110 -10.5036    149.2602     52.4146   8.0262554151e+01   4.0646579289e+01    0.2000385    0.1316741  67.02 0.0007667213    1.592    0.372
       111 -11.4688    144.8119     49.0252   8.0203628089e+01   4.2175598119e+01    0.4116654    0.1278182 -32.44    0.0014013    3.503    0.715
       112 -10.6449    156.8458     44.9940   7.6617043007e+01   3.9850876240e+01     0.246602    0.1835964  58.17 0.0004446611    1.214    0.176
       113 -11.3886      7.9802     43.8764   1.2243865911e+02   6.4978135907e+01    0.4537339    0.1869143  35.82    0.0023173    3.438    0.709
       114  -9.7934    114.2023     42.5656   8.5306365358e+01   4.9956794648e+01    0.1963424    0.1127134  40.46 0.0009058128    1.619    0.382
       115 -10.9801     69.9003     41.8251   9.8136243126e+01   5.8382259923e+01    0.2243409    0.1703777 -58.75  0.001250563    2.123    0.529
       116 -12.2712     42.4776     37.6043   1.0653844041e+02   6.2828927966e+01    0.4245201    0.2932415  13.65   0.00165758    1.365    0.267
       117 -11.7677     46.8493     35.5687   1.0412881798e+02   6.2591092306e+01    0.2916303    0.2015039   4.13 0.0007061947    1.361    0.265
       118  -9.9305    153.2876     36.3570   7.4824593215e+01   4.1807815107e+01    0.1409055   0.09904113  29.23 0.0005207562    1.678    0.404
       119 -10.7192    119.4941     33.9379   8.1194582204e+01   4.9899077166e+01    0.2858852    0.2234718 -63.85  0.001575831    1.741    0.426
       120 -11.4966    104.2877     30.0879   8.3684069468e+01   5.3587765822e+01    0.5438358    0.3361349  62.13  0.002130825    1.881    0.468
       121 -10.1197    182.0494     27.8442   6.7811420653e+01   3.5868375908e+01    0.2021501    0.1606048 -84.80 0.0003045184    1.239    0.193
       122  -9.7089    119.5248    247.5042   1.2933562191e+02   7.4359319241e+00    0.1283343    0.1059678  54.05 0.0008101559    1.003    0.003
       123 -12.2830     22.7275    240.2228   1.4650104147e+02   2.2389571729e+01    0.3777531    0.2036476  78.64  0.002350368    1.605    0.377
       124  -9.9911    134.2536     17.9782   7.2982941139e+01   4.8305279313e+01    0.1776693     0.156809  51.19 0.0004996114    1.034    0.033
       125 -10.0333     32.7778    242.3612   1.4493156960e+02   2.0831846817e+01     0.137906   0.09766532  40.49 0.0007222964    1.594    0.373
       126 -11.0186      8.0557    240.6989   1.4896748469e+02   2.3858654568e+01    0.1634029    0.1441216  51.92  0.001270002    1.517    0.341
       127 -10.0072      2.6362    240.2861   1.4982007127e+02   2.4479163004e+01    0.1144789    0.0547819  65.78 0.0006567635    1.691    0.409
       128 -10.8801      6.0619    235.7427   1.4900552475e+02   2.5002626400e+01    0.1801017    0.1171482  87.74 0.0004638909    1.182    0.154
