#   1 NUMBER                 Running object number                                     
#   2 MAG_AUTO               Kron-like elliptical aperture magnitude                    [mag]
#   3 X_IMAGE                Object position along x                                    [pixel]
#   4 Y_IMAGE                Object position along y                                    [pixel]
#   5 X_WORLD                Barycenter position along world x axis                     [deg]
#   6 Y_WORLD                Barycenter position along world y axis                     [deg]
#   7 A_WORLD                Profile RMS along major axis (world units)                 [deg]
#   8 B_WORLD                Profile RMS along minor axis (world units)                 [deg]
#   9 THETA_WORLD            Position angle (CCW/world-x)                               [deg]
#  10 FWHM_WORLD             FWHM assuming a gaussian core                              [deg]
#  11 ELONGATION             A_IMAGE/B_IMAGE                                           
#  12 ELLIPTICITY            1 - B_IMAGE/A_IMAGE                                       
         1 -14.5345     68.3902    144.2558   1.0189798164e+02   3.7861170524e+01     5.170516     2.662137  71.88  0.006025918    3.830    0.739
         2 -13.6285    198.5901     42.8583   4.4172107504e+01   3.0589610258e+01     1.322062    0.9852391  22.44   0.00356868    1.989    0.497
         3 -14.1789    207.4670     37.0055   4.1617624139e+01   2.9268673444e+01     1.571966     1.411386  -6.12  0.007048039    1.439    0.305
         4 -13.9747    222.9397     21.6198   3.6400009768e+01   2.7629349318e+01     1.053312    0.9548123  49.80  0.003865645    1.418    0.295
         5 -12.3412    245.7511      2.6422   3.0661475047e+01   2.4856178660e+01     0.631843    0.2656267  80.65  0.003262673    2.264    0.558
         6 -10.2858      1.9949      3.2362   8.7182461951e+01   7.4675921401e+01     0.212211    0.1024118 -30.66  0.001287832    1.677    0.404
         7 -11.0725     49.2883      2.9824   6.2798770892e+01   6.8682274221e+01    0.3745858    0.1786764  56.70  0.001776249    2.929    0.659
         8 -10.8558     59.4909    220.4851   1.1397827678e+02   2.1121979168e+01     0.305446    0.2200509  31.75   0.00131116    1.580    0.367
         9 -12.9263     64.9971    174.2502   1.0748397573e+02   3.0903930728e+01     1.190109    0.5885726 -33.42   0.00314996    5.094    0.804
        10 -15.5313      4.0069    182.2682   1.2268293358e+02   3.5602773839e+01     8.364229    0.4246673 -74.91   0.01976598    9.101    0.890
        11 -13.5652     19.4156    219.5373   1.2195876054e+02   2.5993766149e+01     0.573851    0.4242009  61.41  0.002393855    1.138    0.121
        12 -16.1481     50.2300    246.7007   1.1795300306e+02   1.7051850654e+01     9.408972     3.143748  26.88   0.01760822    7.636    0.869
        13 -14.9705      9.5549    207.3607   1.2313941189e+02   2.9547432628e+01     1.512064     1.088739 -45.92  0.007376907    2.019    0.505
        14 -11.5299    194.3043    196.7539   8.1464947022e+01   3.9431147819e+00     1.047049    0.5871026 -65.40  0.003409126    5.157    0.806
        15  -9.5032     79.4524    182.7412   1.0509887815e+02   2.6813795359e+01    0.2582631    0.1324169 -70.16  0.001119383    2.033    0.508
        16  -9.4815     99.3281    180.8736   9.9959932613e+01   2.4141078805e+01    0.1967573    0.1792515 -71.03 0.0006573655    1.100    0.091
        17  -8.8800    151.3861    180.6959   8.7558211881e+01   1.4868295834e+01    0.1525589    0.1141291  72.96 0.0007018112    1.795    0.443
        18 -10.1321    144.1368    178.6815   8.8836227956e+01   1.6660570392e+01    0.2609358     0.231444  26.45  0.001351509    1.148    0.129
        19  -9.7196    218.8110    177.3852   7.2921358476e+01   3.0828241741e+00     0.184617    0.1216706  26.57 0.0002700536    1.616    0.381
        20  -9.2898    203.7689    175.9817   7.5492014952e+01   5.9912193949e+00    0.1884606    0.1109257 -38.44 0.0005431828    1.634    0.388
        21  -9.7190    196.8997    175.8406   7.6820645813e+01   7.2714075897e+00    0.2635395    0.2185408 -50.09  0.001440353    1.340    0.254
        22 -13.5479     64.4574    158.1385   1.0528068307e+02   3.4934011654e+01    0.5749899    0.4551865 -47.64  0.002135934    1.365    0.267
        23 -12.7307     84.3951    155.4739   9.9486191938e+01   3.2674772996e+01     1.287374    0.6944383 -54.48  0.002260473    1.761    0.432
        24 -12.0806     77.2220    162.2064   1.0254354066e+02   3.2109423375e+01    0.4378739    0.4060276  62.21  0.000466855    1.099    0.090
        25 -13.2632     34.7627    204.0842   1.1772202780e+02   2.7677683045e+01    0.4488471     0.428306 -49.10 0.0008939899    1.442    0.306
        26 -10.2642    134.0000    146.0007   8.4506202676e+01   2.5976354832e+01    0.7298476     0.179093 -52.29  0.001833537    4.710    0.788
        27 -10.1466    133.0000    140.5068   8.3506030019e+01   2.7447851102e+01    0.5621933    0.2016094 -53.22  0.001742917    3.064    0.674
        28 -11.7516     55.8737    146.3641   1.0577438484e+02   3.9001408925e+01    0.5084704    0.4357536 -32.03  0.002913313    1.393    0.282
        29 -10.8360     99.7268    140.5891   9.2379005663e+01   3.3789801312e+01    0.6108592    0.3864253 -23.36  0.002358754    2.604    0.616
        30 -12.4171     86.5978    140.3878   9.6009811371e+01   3.6066414629e+01    0.3116461    0.2635424 -46.15 0.0004590015    1.201    0.168
        31  -9.9890     27.2071    135.2044   1.1224726759e+02   4.4906677688e+01    0.1868144    0.1566591 -64.31 0.0004358395    1.107    0.096
        32 -10.9561    107.4811    130.7456   8.8026981909e+01   3.4769409936e+01    0.5798028    0.3786906  39.31  0.002581833    1.596    0.373
        33 -11.3049     17.1071    131.4437   1.1465107753e+02   4.6692636454e+01    0.3308274    0.1637902 -71.92  0.001638045    1.651    0.394
        34 -10.5219    135.6336    128.2149   7.9890867236e+01   2.9723764454e+01     0.475467    0.1430831 -52.77  0.001250223    4.149    0.759
        35  -9.0212     72.9911    172.6885   1.0525360600e+02   3.0164759569e+01    0.1835153    0.1647447  69.75 0.0001996539    1.065    0.061
        36 -11.3273     96.8162    126.8903   9.0153604092e+01   3.7651846980e+01    0.3243622    0.2778409 -16.10 0.0008414114    1.377    0.274
        37  -9.6704    116.1704    124.8525   8.4208298501e+01   3.4494779782e+01    0.2171846    0.1869363 -12.20 0.0008230434    1.365    0.267
        38 -10.6782     32.3093    143.8746   1.1197736986e+02   4.2269085233e+01     0.395372    0.2471145  68.83  0.002028601    1.763    0.433
        39  -9.6661    135.0000    119.9701   7.7967683564e+01   3.1721675381e+01    0.2644424   0.08831527 -45.76 0.0007992292    2.920    0.658
        40  -9.7832    106.7747    119.2563   8.5445157739e+01   3.7645738360e+01    0.2089257    0.2003146 -71.73 0.0003779087    1.044    0.042
        41  -9.2686    136.5056    166.8739   8.8326224298e+01   2.0713491169e+01    0.3704071    0.1639744  53.62   0.00124455    2.952    0.661
        42  -8.8730     82.3175    116.6817   9.2068883953e+01   4.2605840319e+01    0.1511479    0.1158748  81.03 0.0006058563    1.657    0.397
        43  -9.3726    168.0542    113.0072   6.8301240050e+01   2.5846618542e+01    0.2584379    0.1934603 -79.04  0.001133677    1.781    0.439
        44 -10.0084    205.3795    110.2427   6.0279424948e+01   1.8005231372e+01    0.2968862    0.2094166  47.19 0.0009395782    1.542    0.351
        45  -9.8311    134.4611    105.2862   7.4178939418e+01   3.5070502119e+01    0.3929622    0.1502816 -46.17  0.001292601    2.585    0.613
        46  -9.7454    174.8808    149.1201   7.5630062051e+01   1.6859351833e+01    0.2323365    0.2114024 -86.54 0.0007155914    1.275    0.216
        47 -11.4769    241.4182    100.1736   5.2301892662e+01   1.2259577170e+01     0.363601    0.1103312 -39.40  0.001237101    2.728    0.633
        48 -11.3918    245.7197     96.5718   5.0919784051e+01   1.2006609505e+01    0.2583167    0.1409775 -52.34  0.001216611    1.805    0.446
        49 -10.7792     53.1217     91.0206   9.5347815034e+01   5.2941780350e+01    0.3365837    0.1853083 -54.77  0.001227107    1.614    0.381
        50 -10.5548     41.6012     91.2870   9.9543223396e+01   5.4224153521e+01    0.3153663    0.2107176 -62.32  0.001183238    1.386    0.278
        51  -9.3370     72.7629     83.5849   8.6357557356e+01   5.1821373943e+01    0.1906119    0.1342739  48.45 0.0006687262    1.657    0.396
        52  -9.5921    160.0361     82.0441   6.1535241079e+01   3.3761509478e+01    0.1856183    0.1770634 -50.89  0.000518326    1.031    0.030
        53 -10.9740    243.8267     77.1772   4.6824066335e+01   1.5464056392e+01    0.1722314    0.1565567 -15.67 0.0003872063    1.326    0.246
        54  -9.5465     90.3962     65.4464   7.4554683435e+01   5.2399591106e+01    0.3110852    0.2274929  89.98  0.001363353    2.482    0.597
        55  -9.8187     47.5406     62.0643   8.8988416862e+01   5.9933297787e+01    0.2044771    0.1783592  40.05 0.0003543545    1.386    0.278
        56 -10.5691     13.4697     59.9687   1.0273295709e+02   6.3670490445e+01    0.2188754     0.180108 -41.89 0.0004038625    1.042    0.040
        57 -15.2762     44.5452    194.0853   1.1467190835e+02   2.8810329962e+01     2.818347     1.462235  70.63    0.0115694    2.091    0.522
        58 -10.5689    171.7638    240.3521   9.3321215655e+01   3.4953229364e-01    0.3558315    0.2077616 -59.60   0.00158514    2.675    0.626
        59 -12.6011    215.7310     28.9819   3.8788329627e+01   2.8372414249e+01    0.5667953    0.3635612  66.80  0.001138836    1.542    0.352
        60 -16.1470      8.5840    240.1766   1.2508051544e+02   2.2945419130e+01     6.819307     2.782862 -72.49   0.03900932    2.275    0.560
        61  -9.3833    136.7799     42.8520   5.4356971606e+01   4.5742558976e+01    0.1927535    0.1629657 -74.58  0.000425338    1.330    0.248
        62  -9.8670    138.9224     36.9588   5.1975032733e+01   4.6002989706e+01    0.2114101    0.1905451 -85.94 0.0005264555    1.163    0.140
        63 -10.2067    189.8216     15.1494   3.8031469365e+01   3.6032703615e+01    0.2041112    0.1577048 -70.83 0.0007107682    1.192    0.161
        64 -10.1405    109.8239    201.0642   1.0059280658e+02   1.7866602862e+01     0.209542    0.1727817  78.89 0.0005150872    1.262    0.208
        65 -10.3067     59.7475    197.4243   1.1158362378e+02   2.6148474311e+01    0.2220237    0.1742604  86.43 0.0002555437    1.139    0.122
