#   1 NUMBER                 Running object number                                     
#   2 MAG_AUTO               Kron-like elliptical aperture magnitude                    [mag]
#   3 X_IMAGE                Object position along x                                    [pixel]
#   4 Y_IMAGE                Object position along y                                    [pixel]
#   5 X_WORLD                Barycenter position along world x axis                     [deg]
#   6 Y_WORLD                Barycenter position along world y axis                     [deg]
#   7 A_WORLD                Profile RMS along major axis (world units)                 [deg]
#   8 B_WORLD                Profile RMS along minor axis (world units)                 [deg]
#   9 THETA_WORLD            Position angle (CCW/world-x)                               [deg]
#  10 FWHM_WORLD             FWHM assuming a gaussian core                              [deg]
#  11 ELONGATION             A_IMAGE/B_IMAGE                                           
#  12 ELLIPTICITY            1 - B_IMAGE/A_IMAGE                                       
         1 -13.2005    220.1899     53.5751   2.4245410557e+01   2.2794886651e+01     1.314134     1.130925 -66.09  0.006294585    1.070    0.065
         2 -13.2007    240.1712     40.2165   1.8522344819e+01   1.9881419725e+01    0.9936169    0.8605828  71.34  0.005951616    1.219    0.180
         3 -10.2890      3.8531      2.5201   6.9066554161e+01   7.3182357732e+01     0.283556    0.1194885  10.53  0.001592909    2.861    0.650
         4 -10.7509    133.8464    247.0512   7.9970233394e+01   6.3218547221e+00    0.3931207    0.1795521 -65.16  0.001927001    3.167    0.684
         5 -10.7552     81.0055    249.6688   8.9581448926e+01   1.4139114808e+01    0.2664098     0.154838  57.50   0.00108548    1.266    0.210
         6 -12.7857     37.0429    172.6097   9.1379404366e+01   3.5143317494e+01     1.314657    0.6809511  28.45 0.0005476182    2.578    0.612
         7 -15.7641      7.6868    238.6792   1.0101847329e+02   2.5209732974e+01     10.02646     4.183868 -80.58   0.06339354    2.071    0.517
         8 -14.5908      8.2408    208.3857   9.9509808630e+01   3.0771878411e+01     3.022381      1.51235 -53.38    0.0168087    3.255    0.693
         9 -10.7644    105.2297    229.2927   8.3330978180e+01   1.3980479316e+01     0.208005    0.1656746  83.51  0.001382639    1.227    0.185
        10  -8.5778    198.8098    222.8668   6.4727577218e+01  -1.2302001714e+00    0.1634075    0.1335971  53.01  0.000365412    1.295    0.228
        11  -9.8029     70.3968    212.7904   8.8339430019e+01   2.2420585008e+01    0.1780236    0.1255826  64.95  0.001129545    1.106    0.096
        12 -12.3783      1.8042    196.3414   1.0002686028e+02   3.3744169410e+01    0.2940928    0.1579777 -84.84 0.0007563573    1.457    0.314
        13 -10.6253     78.8400    206.7008   8.6084675907e+01   2.2398570594e+01    0.2820347    0.1813521 -85.04 0.0004863062    1.517    0.341
        14  -8.7185    196.3220    199.7023   6.1384415992e+01   2.7233259545e+00    0.1284969    0.1019285  70.78 0.0003237725    1.622    0.383
        15 -11.7160     45.5555    166.7771   8.8931029262e+01   3.5442632879e+01    0.2670702    0.2352426 -81.58  0.000500023    1.233    0.189
        16  -8.2014    110.7243    167.3675   7.4023824677e+01   2.5481709977e+01    0.1489317    0.1010197  80.04 0.0007006516    1.676    0.403
        17 -10.7406     59.3433    157.8209   8.4712456203e+01   3.5731101767e+01    0.2469874    0.2214713 -87.02 0.0004247054    1.162    0.139
        18 -12.9560     43.8470    153.6783   8.7873929758e+01   3.8589525548e+01    0.4555415    0.3433711 -34.22   0.00150096    2.006    0.501
        19 -11.5126     73.7598    137.4703   7.8158098793e+01   3.8437165725e+01    0.3916698    0.2703179 -73.51 0.0003671319    1.356    0.263
        20 -12.0932     68.3477    152.1400   8.1780722515e+01   3.5805950207e+01     0.596443    0.4186433  54.90  0.001288822    1.363    0.267
        21 -12.8898     68.1714    143.6183   8.0568157114e+01   3.7804750041e+01    0.9806453    0.5496415  67.34  0.002555685    2.109    0.526
        22 -10.2942    237.6001    150.2147   4.4143707998e+01   2.7732087047e+00    0.1958919    0.1254251 -24.86  0.000475141    1.666    0.400
        23  -9.6259    246.3233    150.6617   4.2766214026e+01   1.0205662630e+00    0.1313908    0.1059227 -70.15 0.0004986005    1.719    0.418
        24 -10.4088     40.7376    143.5362   8.7416844385e+01   4.1253285852e+01    0.2513871    0.1715024  85.59  0.000907245    1.330    0.248
        25 -10.3397     86.6432    140.5007   7.5352609129e+01   3.5743913064e+01      0.29386    0.2763976  79.55 0.0008649927    1.118    0.105
        26  -8.9735     90.5193    137.1217   7.3750769204e+01   3.5895918644e+01    0.2220044    0.1924221  37.76 0.0004662047    1.307    0.235
        27  -9.7116    250.4924    137.4970   3.9309104044e+01   2.3014797165e+00    0.1338132    0.1238938 -19.60 0.0008106352    1.006    0.006
        28 -10.3223    104.5031    130.1506   6.8762732677e+01   3.5070630508e+01    0.5918205    0.3367692  48.63  0.002622718    1.745    0.427
        29  -9.7362    243.3328    127.3202   3.8250040721e+01   5.3706276260e+00    0.1417495    0.1064311   9.04  0.000426664    1.698    0.411
        30 -10.1527     88.3122    125.3837   7.2101637813e+01   3.8999676069e+01    0.2529501    0.2415142 -77.53 0.0004308651    1.107    0.097
        31  -9.3593    111.5192    124.1691   6.5662647426e+01   3.5128107848e+01    0.2778529    0.2055186  -1.90  0.001192538    2.371    0.578
        32 -11.1172     54.0686    122.2551   8.0904644760e+01   4.4639968176e+01    0.3570605    0.1987922 -83.50  0.001670751    2.048    0.512
        33 -11.2504    244.3210    115.0253   3.5357804336e+01   7.1940800074e+00    0.4555584    0.1038599 -40.14  0.001374013    3.881    0.742
        34  -9.3426    101.8522    118.1494   6.6918647909e+01   3.8324124244e+01    0.2101064    0.1980715 -83.66 0.0003639038    1.029    0.029
        35  -9.1969    204.6045    110.9413   4.1194191348e+01   1.6823185640e+01     0.346967    0.1744577  38.80  0.001277233    2.476    0.596
        36 -11.4025    242.7220    102.1262   3.2674061170e+01   9.6685153975e+00    0.4312072    0.2054102  51.61  0.001829117    2.208    0.547
        37  -8.8289     34.2106     97.1605   8.2397282904e+01   5.2538680759e+01    0.1670934    0.1293638  87.53  0.000405109    1.331    0.249
        38 -10.5069     53.2005     91.6686   7.5387615872e+01   5.1764634771e+01    0.4057342    0.2150146 -62.66   0.00198319    1.726    0.421
        39  -8.1290     83.6876     92.3300   6.6057474331e+01   4.7324362725e+01    0.1429912    0.1083318  85.00 0.0007043478    1.672    0.402
        40  -9.2398     41.6368     92.0622   7.9130142957e+01   5.2955824944e+01    0.1817201    0.1404232 -61.00  0.000531182    1.104    0.094
        41  -9.3172     46.9971     88.4838   7.6684510570e+01   5.3184489051e+01    0.1719599    0.1285252  28.40   0.00064912    1.552    0.356
        42  -9.6828    167.8143     87.1625   4.2476267230e+01   3.0356478157e+01    0.2159269    0.1927319  18.25 0.0008181257    1.328    0.247
        43  -9.4306    184.5083     76.9973   3.6288472943e+01   2.8011850604e+01    0.2325232    0.1533446 -37.72 0.0007002562    1.561    0.359
        44 -11.2651      2.5930     63.4868   8.6829500171e+01   6.2069148874e+01    0.3681931    0.2128751 -85.18  0.002192347    1.920    0.479
        45  -9.7242    249.6023    248.7918   5.9907917786e+01  -1.2420339367e+01    0.1339033   0.09974723 -33.02 0.0009634626    1.720    0.418
        46 -10.3316     13.3283     60.0166   8.2221615193e+01   6.2176430448e+01    0.1735615    0.1664776  29.84  0.000425884    1.296    0.229
        47  -9.2377     11.6913     53.3486   8.1364198843e+01   6.3628580464e+01    0.1067778   0.08164913  81.21  0.000566753    1.709    0.415
        48 -10.4480    140.2477    249.8653   7.9130814441e+01   4.8353203777e+00    0.4065718   0.05664862  44.21  0.001212014    5.118    0.805
        49  -8.6107     94.5339     46.4919   4.8836672686e+01   5.4491979980e+01    0.1351741    0.1286395   0.54 6.167736e-05    1.016    0.016
        50 -14.5298      8.5972    191.3580   9.8504982411e+01   3.4116596943e+01     1.826296    0.7784056 -76.47  0.004146943    1.924    0.480
