#   1 NUMBER                 Running object number                                     
#   2 MAG_AUTO               Kron-like elliptical aperture magnitude                    [mag]
#   3 X_IMAGE                Object position along x                                    [pixel]
#   4 Y_IMAGE                Object position along y                                    [pixel]
#   5 X_WORLD                Barycenter position along world x axis                     [deg]
#   6 Y_WORLD                Barycenter position along world y axis                     [deg]
#   7 A_WORLD                Profile RMS along major axis (world units)                 [deg]
#   8 B_WORLD                Profile RMS along minor axis (world units)                 [deg]
#   9 THETA_WORLD            Position angle (CCW/world-x)                               [deg]
#  10 FWHM_WORLD             FWHM assuming a gaussian core                              [deg]
#  11 ELONGATION             A_IMAGE/B_IMAGE                                           
#  12 ELLIPTICITY            1 - B_IMAGE/A_IMAGE                                       
         1 -11.7788    249.0664      2.3757   3.6424234385e+01   2.2981527325e+01     1.310451    0.6908443 -12.82  0.005996367    3.132    0.681
         2  -6.3893    222.8232     17.9266   4.2217314352e+01   2.7303486820e+01     1.427466     1.121811 -47.40  0.008418427    1.197    0.165
         3 -15.4776    217.7219     70.6224   5.6424009605e+01   2.1298134016e+01     9.999166      4.44079 -44.57   0.03166468    2.166    0.538
         4 -13.4097    242.5897     45.2710   4.6844066234e+01   1.9228039270e+01     2.122396     1.341993 -44.28  0.004961087    1.396    0.284
         5 -14.2592    190.0043     45.3272   5.3739212693e+01   3.2001032537e+01     4.367675     3.479586 -30.24   0.02274141    1.300    0.231
         6 -13.3438    221.1661     36.7531   4.7155991137e+01   2.5383659391e+01     2.046094    0.5815788 -48.46  0.006423782    3.896    0.743
         7 -14.6947    240.8655     27.7644   4.2858948022e+01   2.1899445379e+01     11.65745          nan  59.88   0.02431992   10.857    0.908
         8  -9.8608    160.1843     30.4803   5.4171572567e+01   4.1664472932e+01    0.3071571    0.1711481 -46.21  0.001075809    1.965    0.491
         9 -10.2191    179.3852     24.1023   4.9096412768e+01   3.7481902083e+01    0.5703492    0.3988547  79.96  0.002867789    1.432    0.302
        10 -10.9110    135.0678     13.1327   5.2874683218e+01   4.9970025991e+01    0.5231177    0.3255561 -21.34 0.0009624709    1.745    0.427
        11 -10.8483    131.3138     20.4779   5.6313329195e+01   5.0113128490e+01     0.519262    0.3578775 -35.09  0.002144129    1.552    0.356
        12 -13.1538    184.2586     79.0934   6.4471064822e+01   2.8088707611e+01     2.289757     1.317062 -36.48  0.004218056    1.702    0.412
        13 -12.4585    233.7372      5.6691   3.8300323747e+01   2.6087531552e+01    0.7308629    0.3541623 -32.57  0.002646061    1.986    0.497
        14  -9.2297    115.9525     12.5096   5.6657994733e+01   5.4633740570e+01    0.2924241    0.2179749  51.70 0.0009914605    1.217    0.178
        15 -10.8929    120.3464      8.9501   5.4289771204e+01   5.3947075390e+01    0.4664709    0.4051033 -37.01  0.001345316    1.301    0.231
        16  -8.8664    194.4058      9.8076   4.3064397500e+01   3.5209890269e+01    0.3198788    0.1739362 -60.12   0.00110587    2.022    0.505
        17 -11.3764    216.0650      8.9749   4.0626979326e+01   2.9925533959e+01     0.315012    0.2183146 -39.25   0.00069804    1.411    0.291
        18  -9.8322    215.9901      4.0189   3.9393690451e+01   3.0458509024e+01    0.1988167    0.1717839 -49.49 0.0004372215    1.164    0.141
        19  -9.8692    183.0771      3.3709   4.2534507337e+01   3.8713465555e+01    0.4429366    0.2713337 -89.44  0.002188749    1.667    0.400
        20  -8.9416      2.5001      3.0044   9.7443004532e+01   7.3923553368e+01    0.1340048   0.09247842 -67.33 0.0008106743    2.633    0.620
        21 -10.6407    209.5081      1.6821   3.9386933374e+01   3.2268114106e+01    0.3066814    0.1628903  76.39  0.001504386    1.724    0.420
        22  -9.0634    138.8705      1.8605   4.8155452873e+01   5.0060570734e+01    0.2029848    0.1663953  39.71 0.0005444681    1.174    0.148
        23  -9.4541    171.8140      2.5021   4.3620914724e+01   4.1662768671e+01    0.3305849     0.201601 -45.50  0.001662694    1.727    0.421
        24  -8.2563    128.8889      2.1830   5.0020144406e+01   5.2491500584e+01    0.1889089    0.1369727  40.31 0.0004157401    1.284    0.221
        25 -10.0166    100.9901    176.0014   1.0660166041e+02   2.5137889143e+01     0.191958    0.1714065  72.71  0.001141664    1.005    0.005
        26 -10.2751    236.1631    174.6411   7.7817789421e+01   2.3311837606e-01    0.3790662    0.2428361  51.63  0.001687635    1.945    0.486
        27  -9.7108    228.0515    172.4989   7.8837068491e+01   2.0056065704e+00    0.2043526     0.126825  39.55  0.001031398    1.585    0.369
        28 -10.5394    230.7204    167.6876   7.7357395473e+01   2.2775315780e+00    0.3308121    0.2531042 -35.06  0.001821002    1.326    0.246
        29  -8.7638    206.1690    167.8769   8.2012676181e+01   6.8693943375e+00    0.1918841    0.1902289 -58.81 0.0003108055    1.219    0.180
        30  -8.6873    209.1814    165.2430   8.0872897125e+01   6.7368640683e+00    0.3330401    0.1910727  64.43  0.001230395    3.392    0.705
        31  -8.4072     71.1624    165.1286   1.1203721745e+02   3.2100862006e+01    0.1729604    0.1324023  69.99            0    1.234    0.189
        32 -10.0781    118.0062    244.6180   1.1178278965e+02   9.2886893946e+00    0.1895078    0.1648836 -82.23  0.000477761    1.330    0.248
        33 -12.0491    199.0327     71.6123   5.9689050151e+01   2.5688269031e+01     1.151912    0.5767835  37.26   0.00413019    2.816    0.645
        34  -9.8228    135.2711    241.8676   1.0827710332e+02   7.0513696682e+00    0.3195473    0.1651616  55.08  0.001473644    1.933    0.483
        35 -12.7564    177.6488     69.7695   6.3062611687e+01   3.1351502712e+01     1.032644    0.6576177 -59.19   0.00258747    1.924    0.480
        36  -8.1277     56.3620    236.3059   1.2220317396e+02   1.9358503943e+01   0.09306201   0.08926627 -12.06 0.0007038822    1.735    0.424
        37  -9.8048    133.6374    144.4595   9.2986826180e+01   2.6258995295e+01     1.034973    0.2497688 -55.21   0.00222556    7.155    0.860
        38 -11.0031     67.9137    144.3061   1.0979281288e+02   3.7424775241e+01    0.6665139     0.367015  59.75   0.00280126    2.131    0.531
        39  -7.9674    120.6743    230.2882   1.0968369418e+02   1.1264425114e+01    0.1267247    0.0807953  62.90 0.0002144879    1.610    0.379
        40 -11.0495    179.5696    142.8354   8.1991095362e+01   1.6963993052e+01    0.4870251    0.3879516 -74.62  0.002086291    1.659    0.397
        41  -9.0807    159.0183    142.7263   8.6553937052e+01   2.1391687102e+01    0.2206097    0.2027445  44.42  0.001161525    1.071    0.066
        42  -9.7562     12.6942    222.1685   1.2892519160e+02   2.6857628981e+01    0.2947755    0.2327407 -32.48  0.002096147    2.514    0.602
        43  -9.7133    211.8905    136.5374   7.3967149862e+01   1.1231282660e+01    0.2863429    0.2039074 -17.17  0.001112963    1.550    0.355
        44  -9.4813    192.2040    144.2013   7.9640701908e+01   1.3995041253e+01    0.2503027    0.2091406  43.89 0.0003995112    1.203    0.169
        45  -8.0144     87.6185    135.4848   1.0303028534e+02   3.6648277289e+01    0.1432307    0.1283309 -76.43 0.0001071857    1.035    0.033
        46 -10.2750    153.7267    130.7970   8.5009762129e+01   2.5055194126e+01    0.5384266    0.3170353 -73.35  0.001540556    3.631    0.725
        47 -10.3778    160.0506    129.1125   8.3116562728e+01   2.4027506724e+01    0.4406094    0.3501347 -28.65  0.002113476    1.353    0.261
        48 -10.8407    129.0528    115.1770   8.7306021413e+01   3.3757673115e+01    0.9794432    0.5716448 -76.96  0.002990938    4.010    0.751
        49  -9.7284    137.5362    128.0372   8.8299928321e+01   2.9116988889e+01    0.3538229    0.2803873 -75.30   0.00121347    1.500    0.333
        50 -10.2548    135.2309    124.2429   8.7967037378e+01   3.0443205420e+01    0.6766152    0.2445368 -53.48  0.002061572    3.295    0.697
        51 -10.6997    226.8036    122.1634   6.7868565127e+01   1.0605850767e+01    0.3403344    0.2352159 -30.92  0.001118341    1.360    0.264
        52 -12.9551    231.8190     53.1661   5.0024521220e+01   2.0596171801e+01    0.8146854    0.7438369  84.19  0.001744607    1.123    0.109
        53  -9.8075    205.6512    122.1008   7.1702755518e+01   1.5194258609e+01    0.3228621    0.2380833 -61.41 0.0009878309    1.691    0.409
        54  -8.8684    141.0135    122.0098   8.5961192807e+01   2.9709132038e+01    0.1869784    0.1846587  59.44 0.0007437451    1.017    0.017
        55 -10.3803    160.5017    117.3188   8.0060659241e+01   2.6394306233e+01    0.5412056    0.3651879 -79.47 0.0008561333    2.516    0.603
        56 -10.1821    167.4803    114.5181   7.7733855912e+01   2.5372343829e+01    0.5940593    0.4293765 -10.30  0.001457445    1.875    0.467
        57 -10.5522    215.2933    116.8400   6.8617766064e+01   1.4011293039e+01    0.5247945    0.3078314 -23.72  0.002201166    1.939    0.484
        58  -8.8136    229.5602    220.3359   8.7568603392e+01  -5.0878128595e+00    0.2074959     0.158692  26.78 0.0001894265    1.139    0.122
        59  -8.7259    151.8451    116.7890   8.1977343971e+01   2.8459241176e+01    0.2244828    0.2096612   8.62 0.0003538239    1.140    0.123
        60  -9.2537    173.3518    113.4076   7.6135057745e+01   2.4237108270e+01    0.3632053     0.240464 -57.30   0.00152398    1.789    0.441
        61  -9.9537    134.9275    106.2656   8.3436512394e+01   3.4465961397e+01    0.9926193    0.1436256 -45.10  0.002032459    6.833    0.854
        62 -11.8517    202.5027    102.5875   6.7374389730e+01   1.9471204961e+01    0.7068064    0.5393381  45.40  0.001993522    1.362    0.266
        63  -9.0252     33.6521    218.6778   1.2505016695e+02   2.5338101717e+01   0.09677449   0.08370093 -52.56 0.0002367935    1.741    0.426
        64  -9.4059    142.5874    104.6141   8.1031347201e+01   3.3125493643e+01    0.3197584    0.1345789  34.78 0.0009513725    3.436    0.709
        65 -10.2271    124.9402    103.2218   8.5256380485e+01   3.7268026808e+01    0.5450941    0.3111283  49.03   0.00223438    1.836    0.455
        66  -9.6487    149.8539    100.6517   7.8140369763e+01   3.2299302687e+01    0.3388391    0.3048008  25.27 0.0006581752    1.177    0.151
        67  -9.0998    203.9285    152.6726   7.9183604052e+01   9.9888055341e+00    0.2072766    0.1819056  34.65 0.0005107518    1.129    0.114
        68  -9.6954    192.5137    153.4770   8.1662600004e+01   1.2187762870e+01    0.2645298    0.2419079 -88.27  0.001437396    1.346    0.257
        69  -9.5452    135.4505     96.9590   8.0726958643e+01   3.6340892989e+01    0.2903781     0.253005  69.62 0.0008921679    1.272    0.214
        70 -11.0260    162.1452     93.9283   7.3354270099e+01   3.0755601021e+01     0.992244    0.3674009  40.84  0.002995218    3.296    0.697
        71 -11.3037      4.0852     92.8403   1.2027657117e+02   5.5652669887e+01    0.5141377    0.2563525 -83.76  0.002714363    1.911    0.477
        72  -7.9216     96.9707     93.0061   9.0453559520e+01   4.5019238560e+01    0.1647921    0.1599532  26.28 0.0009185349    1.088    0.081
        73  -9.8395    143.7772     90.1937   7.6656350960e+01   3.5842420015e+01    0.3119248    0.2886117 -64.48 0.0009173992    1.140    0.123
        74  -9.1383    194.4222     89.1296   6.5318343231e+01   2.3815574269e+01    0.3534721    0.2564038 -13.52   0.00158314    1.691    0.409
        75  -9.7297    208.5313     85.3489   6.1776264111e+01   2.1076003070e+01    0.6199207     0.298048 -57.48  0.002053776    3.224    0.690
        76 -11.1432    159.5065     84.2347   7.1157302631e+01   3.3263265053e+01    0.3861576     0.330484 -33.94  0.000815392    1.169    0.145
        77 -11.5335      4.7085     81.2806   1.1837153415e+02   5.8239725174e+01    0.5703828    0.2599088 -84.58  0.002716427    2.475    0.596
        78  -9.4100    126.2799     77.1631   7.7253309189e+01   4.2427586530e+01    0.4232908    0.2204629  61.21  0.001506523    2.694    0.629
        79  -9.3287    151.5476     72.3128   6.9384979515e+01   3.7415967854e+01    0.3313208    0.2302485 -63.87 0.0009743914    1.862    0.463
        80 -10.2268    112.1678     72.2221   7.9639267454e+01   4.6445351282e+01    0.2518488    0.2312656 -31.30 0.0002636755    1.054    0.051
        81  -9.8389    185.8325     69.0014   6.1291992669e+01   2.9417771074e+01    0.5794168    0.2699629 -53.03  0.001758999    2.779    0.640
        82  -9.6346    201.5222     79.9283   6.1534116083e+01   2.3688067785e+01      0.58122    0.2941504 -42.24  0.002257427    1.897    0.473
        83  -9.6604    144.0716     68.3734   6.9912129832e+01   3.9941116739e+01    0.3749342    0.2015341 -48.80  0.001257661    2.086    0.521
        84 -10.2557    119.4845     67.4505   7.5989874538e+01   4.5795635095e+01     0.458846    0.1914202 -45.22  0.001632702    2.509    0.601
        85 -10.1606    117.7940     63.0785   7.4999324009e+01   4.6974900182e+01    0.2761086    0.1780394 -39.86 0.0007040726    1.536    0.349
        86  -9.5668    195.2956     62.1684   5.7687923093e+01   2.8139836968e+01    0.2610053    0.2203148  86.82 0.0002170759    1.249    0.200
        87  -9.4747    158.7871    157.2441   8.9773332120e+01   1.8425224839e+01    0.5807729     0.367114 -85.33  0.001994433    3.624    0.724
        88  -8.9501    189.4138    150.7954   8.1708927586e+01   1.3335938077e+01     0.331221    0.1974517  45.47 0.0009722378    1.662    0.398
        89  -8.2510     72.8065     58.2115   8.7661250927e+01   5.6433650985e+01    0.1884307    0.1452041 -21.45 0.0005495534    1.275    0.215
        90 -10.2793    125.9470     55.6853   7.0256885588e+01   4.6437472963e+01    0.2186993    0.1994499  46.33  0.001175298    1.101    0.092
        91  -8.0498     83.2541     51.6173   8.1655508148e+01   5.5932720367e+01    0.1347499    0.1084906 -63.85 0.0006962724    1.665    0.399
        92  -8.0200     99.0068     47.5197   7.4998482413e+01   5.3658781584e+01     0.181319     0.130302  76.38 0.0008060282    2.316    0.568
        93 -10.9311    121.6775     38.2894   6.5148642470e+01   5.0144404463e+01    0.3696335    0.3059724  43.43  0.001994142    1.151    0.131
        94  -9.3307    106.5998     36.2723   6.8447978302e+01   5.3824293975e+01    0.1925282    0.1318343 -16.37 0.0005880604    1.559    0.358
        95  -8.8568     70.8569    180.5583   1.1408620181e+02   2.8664819342e+01    0.1911575    0.1548875 -71.63 0.0003618709    1.219    0.180
        96 -10.6679    148.4617     27.7583   5.5433256771e+01   4.4991743287e+01    0.2792566    0.2517853 -54.42  0.001524262    1.195    0.163
        97  -9.7129     38.0373    214.5063   1.2396659338e+02   2.5658291816e+01    0.1672853   0.09657753  42.95  0.001042783    1.619    0.382
        98  -9.1147    197.6465     26.9641   4.7432177847e+01   3.2463663366e+01    0.3144888     0.204007 -33.12   0.00155863    1.562    0.360
        99  -9.5131     11.7523    205.9881   1.2824799637e+02   3.0071175312e+01    0.2667679   0.08255776  44.84  0.001399083    2.520    0.603
       100  -9.0892    186.4736     23.5060   4.7926445598e+01   3.5727932305e+01    0.2702312     0.239788  21.73 0.0008677439    1.319    0.242
       101  -8.8325    186.2407     20.5996   4.7114547683e+01   3.6122551622e+01    0.2600568    0.1713275 -38.50 0.0009499198    1.532    0.347
       102  -8.6741    189.9548     28.2370   4.8816426299e+01   3.4269018571e+01     0.229324    0.1723971 -43.73 0.0004408596    1.327    0.247
       103  -9.1645    228.0980    202.4539   8.4658059587e+01  -2.4557463278e+00    0.2382282    0.2112836  66.94  0.001209557    1.741    0.426
       104 -10.4564    136.6639     22.4636   5.5921588154e+01   4.8572587554e+01    0.4115472    0.2453911 -47.58  0.001875193    1.982    0.496
       105  -9.1147    195.1426    198.9680   9.0228423667e+01   3.7457986163e+00    0.2865314    0.1814453 -64.69   0.00124354    3.091    0.676
       106  -9.6237    150.8694    148.0899   8.9639810476e+01   2.1966773704e+01    0.5972343    0.3452038 -80.40  0.001590832    5.718    0.825
       107  -8.8059    216.2460    197.5221   8.5924251699e+01   2.5514309603e-01    0.1976641     0.190302  15.42  0.001295074    1.265    0.210
       108 -10.3988    247.4562    195.1551   7.9881717477e+01  -4.5749753244e+00    0.2202982    0.1860576  21.11 0.0002764144    1.194    0.162
       109 -12.1728      3.3758    187.8304   1.2879725545e+02   3.4496530099e+01    0.7524469    0.3037696 -79.73  0.004189849    1.981    0.495
       110  -8.8367    191.5877    192.4734   8.9746253838e+01   5.4505905680e+00    0.4062068    0.2420245 -69.81  0.001344351    5.207    0.808
       111  -9.4452    217.1253    192.3980   8.4797232904e+01   8.7436452517e-01    0.2684816    0.1851811 -40.75  0.000410322    1.628    0.386
       112 -10.1096    217.3998    188.0793   8.3918285396e+01   1.4876000821e+00    0.3088492    0.1818669  38.40  0.000815213    1.588    0.370
       113  -8.9372    209.5123    187.4823   8.5298744008e+01   2.9939753251e+00    0.2353808    0.1224626  51.42  0.001022091    2.314    0.568
       114  -9.9796    185.5863    183.8460   8.9336769997e+01   8.0452889480e+00    0.2460387    0.2271795  19.96 0.0003919392    1.027    0.026
       115  -8.1048    137.9978    184.0861   9.9532415184e+01   1.6973966875e+01    0.1579253    0.1479832  58.09 0.0002840091    1.029    0.028
       116 -13.3966     35.1093    167.7498   1.2070881203e+02   3.5863080384e+01     1.300709    0.9904438   1.59  0.001459785    2.156    0.536
       117 -12.8191     45.9376    161.3100   1.1754123116e+02   3.6151241716e+01      1.02674    0.7808605 -82.60   0.00405835    1.116    0.104
       118  -9.7786    228.0865    176.0444   7.9554522262e+01   1.4467526963e+00    0.3282728    0.1827658  54.36   0.00146281    2.470    0.595
