#   1 NUMBER                 Running object number                                     
#   2 MAG_AUTO               Kron-like elliptical aperture magnitude                    [mag]
#   3 X_IMAGE                Object position along x                                    [pixel]
#   4 Y_IMAGE                Object position along y                                    [pixel]
#   5 X_WORLD                Barycenter position along world x axis                     [deg]
#   6 Y_WORLD                Barycenter position along world y axis                     [deg]
#   7 A_WORLD                Profile RMS along major axis (world units)                 [deg]
#   8 B_WORLD                Profile RMS along minor axis (world units)                 [deg]
#   9 THETA_WORLD            Position angle (CCW/world-x)                               [deg]
#  10 FWHM_WORLD             FWHM assuming a gaussian core                              [deg]
#  11 ELONGATION             A_IMAGE/B_IMAGE                                           
#  12 ELLIPTICITY            1 - B_IMAGE/A_IMAGE                                       
         1 -11.1342     23.8444     31.8724   8.6257496588e+01   6.7921110309e+01      1.40684    0.4890598 -34.94  0.004118307    2.817    0.645
         2 -10.7255     37.1728      9.0943   6.9226946801e+01   6.9610148182e+01    0.8083255    0.3086185 -38.10  0.002985568    2.947    0.661
         3 -10.4020     24.2702     10.6533   7.6565008286e+01   7.1108147179e+01     1.020336    0.3537765  36.28  0.004796073    2.929    0.659
         4  -9.8630     17.7770      3.6060   7.6561623417e+01   7.2775075397e+01    0.4401757    0.2976719  43.07  0.002233944    2.269    0.559
         5  -9.3500      2.7009     14.7500   9.0970609288e+01   7.2535508444e+01    0.3609273    0.2177506 -60.33  0.001781474    2.464    0.594
         6 -10.4152      5.8167      5.0532   8.4520254724e+01   7.3765931089e+01     0.519425    0.3643059  -4.77  0.002106325    1.115    0.103
         7 -10.7008     32.3486     64.0977   9.3247240939e+01   6.0955057343e+01      1.65519    0.4787157 -36.24  0.005078609    4.725    0.788
         8  -8.9151     46.8308     20.0575   7.0037389418e+01   6.6810654517e+01    0.4791838    0.2331094 -14.53  0.002100426    2.924    0.658
         9  -9.9620     52.6388     13.5811   6.4555533656e+01   6.6686474904e+01    0.5374318    0.2960057  25.59  0.002142094    1.764    0.433
        10  -9.9578     46.2932     29.3937   7.4409457882e+01   6.5579605350e+01    0.5625811    0.4333047  -4.73  0.002532091    1.133    0.117
        11 -10.4710     73.6368     17.3562   5.8462298097e+01   6.2482905377e+01     1.280136    0.4451281 -20.86  0.004243855    4.032    0.752
        12  -8.3294     72.0279      8.4491   5.5124672206e+01   6.3706982982e+01    0.2189867    0.1644381  -3.75  0.000478973    1.367    0.268
        13  -9.3155     77.8705      3.9748   5.1387541953e+01   6.2944161204e+01    0.4260803     0.264955  -1.09  0.002406709    1.838    0.456
        14 -10.1462     69.7225     40.4490   6.9362504507e+01   6.0163881425e+01     1.007973    0.3952504 -31.57  0.003401337    2.812    0.644
        15 -10.0350     62.8199      3.2873   5.5859967465e+01   6.5940493801e+01    0.4873617     0.377868  13.76   0.00209927    1.166    0.142
        16  -9.7107     63.1873     21.0283   6.3773576373e+01   6.3993231752e+01    0.4531603    0.2793123 -44.83  0.001551405    2.206    0.547
        17  -9.8993     64.6358     12.9290   5.9639803497e+01   6.4658160368e+01    0.3383958    0.2559651  -9.12  0.001525032    1.319    0.242
        18  -9.6020     96.2424     14.8693   5.0797918491e+01   5.8084160679e+01    0.7576367     0.264658 -18.98  0.002831327    3.927    0.745
        19  -8.8573     97.7547      5.9727   4.6999402670e+01   5.8563237198e+01    0.2038106    0.1786001  -9.93 0.0004097778    1.285    0.222
        20  -8.5580     95.9870      2.7615   4.6174123280e+01   5.9212543725e+01    0.1934176    0.1436116  39.82 0.0003584384    1.176    0.149
        21  -9.5642    133.8651     12.4519   4.2025125858e+01   4.9699494724e+01    0.3467746    0.1905877 -33.11  0.001753564    2.008    0.502
        22  -8.7118    120.9942     15.2806   4.5329518639e+01   5.2455312944e+01    0.3754835    0.1984754  30.15  0.001687207    2.460    0.593
        23  -8.5592    125.0783     12.9954   4.3773280345e+01   5.1718985396e+01    0.2379161    0.2003503  29.88 0.0009899704    1.262    0.207
        24  -8.2546    120.8564      5.6327   4.2091822675e+01   5.3354980310e+01    0.2581917    0.1609619  76.77 0.0007466581    1.623    0.384
        25  -8.8147    126.9978      8.9381   4.2087408680e+01   5.1637857622e+01    0.2339802    0.1771734  14.02 0.0007004622    1.601    0.375
        26  -8.7726    125.6516      5.1744   4.1089592239e+01   5.2275569589e+01    0.2986129    0.2146849  45.87  0.001304092    1.300    0.231
        27  -9.5942    114.4104      9.6608   4.4716164042e+01   5.4498512788e+01    0.4770221    0.2030421  55.75  0.002209678    1.892    0.471
        28  -9.3748    112.4491     15.2753   4.7108303986e+01   5.4427289461e+01    0.5149602    0.2661044 -53.11  0.002184027    2.913    0.657
        29  -9.8252     10.3490     18.7320   8.8156569264e+01   7.1315190053e+01    0.6886586    0.2823747 -12.96  0.002640132    4.388    0.772
        30  -8.5804    104.5149     14.8822   4.8763796460e+01   5.6259128318e+01    0.3546296    0.1855139  16.89  0.001487116    3.036    0.671
        31  -9.6108     85.3097     12.9963   5.3022321607e+01   6.0592176601e+01     0.481355    0.2543785 -45.12  0.002290845    2.662    0.624
        32  -7.9374     80.4981     12.4980   5.4227706349e+01   6.1629341105e+01    0.2297886    0.1638165 -44.54  0.001323641    1.838    0.456
        33  -8.4450    141.2676     12.2647   4.0748864417e+01   4.7959444831e+01    0.2350948    0.1701583 -42.53 0.0007736902    1.527    0.345
        34  -8.3421    137.6225      8.8040   4.0265365786e+01   4.9143082948e+01     0.213009    0.1283679 -57.57 0.0008597731    2.011    0.503
        35  -7.8353    146.4903      8.4881   3.8824217621e+01   4.7065778544e+01     0.128979     0.110055  81.34 0.0008096934    1.063    0.059
        36  -8.7380    101.9007      7.7479   4.6713218777e+01   5.7495524469e+01    0.2160017    0.1803161 -37.27 0.0005904827    1.419    0.295
        37  -8.1504    104.5208      2.0014   4.4002577573e+01   5.7380006310e+01    0.2817639    0.1365315  54.33  0.000596744    1.645    0.392
        38  -8.2590    110.4699      7.5300   4.4769846364e+01   5.5584952714e+01    0.1840486    0.1493874 -66.72  5.52962e-05    1.514    0.340
        39  -9.0819    110.2827      3.5301   4.3378676239e+01   5.5957908101e+01    0.3803261    0.2629569 -68.57  0.001886159    1.945    0.486
        40  -9.3628    132.1959      5.4747   4.0093340573e+01   5.0714490274e+01    0.4513312    0.1518256  58.76  0.001635195    2.292    0.564
        41  -7.9912    143.3602      5.1529   3.8288203910e+01   4.8102953944e+01    0.1676132    0.1083314 -42.35 0.0005685833    1.709    0.415
        42  -8.9926    115.5650      4.2873   4.2616229372e+01   5.4688567592e+01    0.2491276    0.1926919 -50.98 0.0007782343    1.544    0.352
        43  -8.7171     89.4456      3.0535   4.7871910754e+01   6.0604777228e+01    0.2899194    0.2277114 -50.92  0.001176438    1.674    0.402
        44  -8.0905    151.1701      1.3971   3.6130882139e+01   4.6572243389e+01     0.178133    0.1043528  84.17 0.0004393433    1.642    0.391
        45  -8.1658    135.8243      1.5273   3.8295010832e+01   5.0184224706e+01    0.2527243   0.09711657  63.09  0.001133506    2.055    0.513
        46 -10.2991    117.3772    125.3819   8.0066153823e+01   3.3973693049e+01    0.8549008    0.5465978  75.42  0.001815396    2.927    0.658
        47 -10.8715    195.3000    249.8233   8.5734536919e+01  -4.9824703655e+00    0.6804902    0.2520314  39.66  0.003024858    2.645    0.622
        48 -10.3958    170.7551    249.4934   9.0578306116e+01  -1.4764054843e+00    0.4782803    0.1819223  37.91  0.002134359    2.277    0.561
        49 -11.3968    120.9523    109.7621   7.5060398425e+01   3.6850732317e+01     1.963825    0.7355095 -47.24  0.006289564    2.653    0.623
        50 -10.6840    122.9092     91.2403   6.9362554220e+01   4.0417322372e+01     0.954051    0.6990916 -12.53  0.001311623    1.782    0.439
        51 -10.1748    108.6856    114.3272   7.9802371957e+01   3.8260554058e+01    0.7647035    0.5029367 -82.00  0.001468549    2.707    0.631
        52  -9.8136    109.6940     90.0167   7.2798781103e+01   4.3453633270e+01     1.742791    0.6693156  29.11  0.003877721    7.029    0.858
        53  -9.7808     98.5531    128.5166   8.6297477995e+01   3.6740051364e+01    0.6557437    0.4127331  71.29  0.002278995    2.723    0.633
        54 -10.8976    108.5088    100.7784   7.6227657096e+01   4.1375519067e+01     1.081155    0.7553182 -67.36  0.004054248    1.875    0.467
        55 -10.0736     41.6830    122.1056   1.0301297343e+02   4.6417960129e+01    0.7498111    0.3741342 -87.98  0.002668213    3.395    0.705
        56  -7.1170    171.3173    125.6545   6.6548011314e+01   2.2620943353e+01    0.1576943    0.1221656 -79.67 -5.172682e-06    1.722    0.419
        57  -9.9592     27.4282    122.7484   1.0776169455e+02   4.7597522057e+01    0.5970894    0.3122274  64.90  0.002231957    2.817    0.645
        58  -7.7121    158.3471    122.1006   6.8623916819e+01   2.6159335348e+01    0.2307581    0.1393037 -53.55 0.0009364217    1.790    0.441
        59  -9.9117    140.8503    118.4100   7.1980355939e+01   3.0731799163e+01    0.5174109    0.3721029 -78.73  0.001289739    2.035    0.509
        60  -7.3891    152.6795    120.6968   6.9621341042e+01   2.7685850041e+01    0.1579299    0.1245147   0.52 0.0005672468    1.630    0.387
        61  -8.4059     98.4295    119.9173   8.4289392245e+01   3.8851215558e+01    0.2987886    0.1990232 -12.01  0.001172239    2.340    0.573
        62  -8.5718      1.5272    116.6192   1.1521604614e+02   5.0878124259e+01    0.3467959    0.1306975 -81.27  0.001423757    2.641    0.621
        63 -10.2665     91.9429    112.8826   8.4552891557e+01   4.1688140794e+01    0.6610494    0.5884326 -89.52  0.001689373    1.298    0.230
        64  -9.1737     93.8674    103.1367   8.1401921463e+01   4.3627866826e+01    0.8120437    0.4393286  16.49  0.002709565    3.343    0.701
        65  -8.6905    152.7458    115.1536   6.8197466625e+01   2.8858742926e+01    0.2483677    0.1898351 -60.39 0.0005883881    1.449    0.310
        66 -10.3127     78.2998    112.8953   8.8944081563e+01   4.3949874068e+01    0.5754176     0.391691 -85.46  0.001834045    2.217    0.549
        67  -8.0939     77.9850    105.2069   8.7141483802e+01   4.5845252922e+01    0.3315602    0.2069046 -12.59  0.001291001    2.559    0.609
        68  -9.5936     81.5619    100.0392   8.4591920236e+01   4.6475916898e+01    0.5048242    0.3025978 -64.45  0.001079922    2.092    0.522
        69  -7.7198     82.4890     93.5072   8.2487999611e+01   4.7809208496e+01     0.255478    0.1862875   2.18  0.001163684    1.710    0.415
        70  -9.0707     20.0789    115.7370   1.0908655438e+02   4.9932068569e+01    0.3801384    0.1280418  11.16  0.001330461    4.481    0.777
        71  -7.6781    167.4165    114.1595   6.4565729889e+01   2.5840757758e+01    0.2171165    0.1405937 -53.26 0.0004175623    1.635    0.388
        72  -9.9425     14.3570    111.4864   1.1035238953e+02   5.1382607142e+01    0.5132015     0.279594  88.92  0.001705149    2.209    0.547
        73  -8.9732     14.3112    105.3143   1.0942136193e+02   5.2895875678e+01    0.3804519     0.157742 -38.52  0.001632328    2.548    0.608
        74 -10.6968     62.9588     95.5244   8.9856970611e+01   5.0362748241e+01     1.099754    0.6085425 -76.43  0.003392346    3.545    0.718
        75  -9.2934     64.1920     84.9323   8.6531118978e+01   5.2598747979e+01    0.7253677    0.4076678 -46.22  0.003175349    1.643    0.391
        76 -10.2805     65.9378    110.7940   9.2564776452e+01   4.6296119748e+01    0.8241327    0.5491357 -86.64   0.00107856    2.230    0.552
        77  -9.2499     59.6071    109.3089   9.4382699475e+01   4.7515147495e+01     0.519215    0.3332967 -83.40  0.001532012    2.239    0.553
        78 -11.0481     45.7225    103.0001   9.7842545933e+01   5.0727713884e+01     1.186364    0.6097464  64.50  0.003791448    4.801    0.792
        79  -9.7071     40.0409    106.6130   1.0062381071e+02   5.0447158602e+01    0.4986082    0.2149505 -66.69  0.001995387    2.332    0.571
        80  -8.4783    158.8977    111.4792   6.5805631308e+01   2.8274171051e+01     0.237054    0.2012588 -42.25 0.0003974264    1.152    0.132
        81 -10.9690     21.2316    101.1774   1.0628159133e+02   5.3421630492e+01     1.695194    0.8738817  89.15  0.005827624    3.005    0.667
        82 -10.8047     25.6417     78.0456   9.9786047735e+01   5.8513650977e+01    0.7024251    0.5897138 -70.41  0.002364971    1.306    0.234
        83 -10.2015     34.3750     89.8447   9.9095319902e+01   5.5029242685e+01    0.7106906    0.3473659 -76.29  0.002256129    3.126    0.680
        84  -9.4642      6.2625    103.6482   1.1195161488e+02   5.3778664078e+01     0.368385    0.2743238  79.17  0.001278706    1.501    0.334
        85  -8.2872    243.3107    104.6637   4.9026689447e+01   1.1957873843e+01    0.1363094   0.09125046 -63.06 0.0006177874    1.683    0.406
        86  -8.2526    166.0233    103.8064   6.2222823633e+01   2.8237711696e+01    0.2620657    0.2109318 -49.03  0.000543091    1.224    0.183
        87 -10.0035    149.3889    102.9779   6.5810714582e+01   3.2148090110e+01    0.5152403    0.2827089 -48.21  0.001041259    1.861    0.463
        88  -8.2811     73.9814    102.8556   8.7893120709e+01   4.7027287241e+01    0.2577703    0.2026705 -53.65 0.0006112527    1.231    0.188
        89  -8.6596    246.2320    101.4499   4.7960372941e+01   1.1954512897e+01    0.3001597   0.06559901 -46.51 0.0008889171    4.484    0.777
        90  -9.0557    187.0270     98.7389   5.6673449756e+01   2.4502056213e+01    0.3610885    0.2753929 -31.96  0.001161284    1.350    0.259
        91  -9.9277     37.4325     80.3676   9.5600494416e+01   5.6911345815e+01    0.6251967    0.3246034  -8.89  0.002322136    2.982    0.665
        92  -9.0996     96.5427     90.4333   7.6979164436e+01   4.5960428366e+01    0.7063953      0.41673  -0.43  0.002199539    4.123    0.757
        93  -9.5871     94.1690     96.9639   7.9608562171e+01   4.4971210842e+01    0.3665507    0.3022622  80.52 0.0007425274    1.605    0.377
        94  -9.7527     90.9309     93.3760   7.9642198802e+01   4.6358849901e+01     0.276146    0.2267338 -44.27 0.0003176147    1.189    0.159
        95 -10.1676      4.6666     89.8953   1.1039636108e+02   5.7138680393e+01    0.7099216    0.3382613  87.75  0.002329003    3.207    0.688
        96  -8.4992    159.1866    101.0515   6.3015718184e+01   3.0328839166e+01    0.3041121    0.2299853 -59.40 0.0005500652    1.447    0.309
        97  -8.3336    164.5037     94.1762   6.0020078047e+01   3.0458563654e+01    0.2763454    0.2262145 -76.96 0.0007452308    1.411    0.292
        98  -9.6081    138.6334     92.4893   6.5571317672e+01   3.6691138253e+01    0.3983553    0.3258927 -54.58  0.001150512    1.283    0.221
        99  -9.5611    140.5394     82.1551   6.2145443103e+01   3.8259079688e+01    0.6382526    0.2925445 -38.91  0.001545787    2.221    0.550
       100  -9.0796    139.9762     75.4576   6.0323542922e+01   3.9617900522e+01     0.464008     0.220046 -46.48   0.00127964    2.250    0.556
       101  -8.1752    157.5038     91.1002   6.0719119356e+01   3.2654890522e+01    0.2300929    0.1468764 -43.22 0.0007715836    1.549    0.355
       102  -8.8620    150.5107     88.6921   6.1640540813e+01   3.4726056073e+01    0.3063149    0.1483416 -41.01  0.000884917    2.056    0.514
       103 -10.1916     85.4799     86.5285   7.9463399370e+01   4.8826240536e+01    0.5005495    0.3807664 -77.84 0.0009515918    1.905    0.475
       104  -9.7381     87.8653     78.6939   7.6279789642e+01   5.0040328359e+01     0.693093    0.3855773  22.09  0.002724862    2.450    0.592
       105  -8.7343    163.3840     86.7297   5.8259153675e+01   3.2115080797e+01    0.3120295    0.2508476 -39.93 0.0005141954    1.240    0.193
       106 -10.6612     55.0736     70.7698   8.5818084635e+01   5.6918453501e+01    0.6593217    0.4497117  42.39  0.002919227    1.715    0.417
       107 -10.1436     47.8331     84.1233   9.2495037304e+01   5.4925402457e+01    0.5503231    0.3809668  86.52  0.001787001    2.472    0.596
       108  -9.0309     48.9796     76.8564   9.0046050206e+01   5.6403220460e+01    0.4919417    0.2953487  -9.91  0.002215832    2.234    0.552
       109 -10.2784    103.8997     82.4462   7.2284842139e+01   4.6188030230e+01    0.5263808     0.346374 -56.43 0.0008927523    1.809    0.447
       110  -9.5219    104.9555     71.7068   6.8600746437e+01   4.8062684647e+01    0.8172048    0.4448291 -27.49  0.002911953    2.278    0.561
       111  -8.4113    156.9231     76.1570   5.6709709950e+01   3.5528398007e+01    0.3109061    0.2065993 -45.49  0.000533828    1.518    0.341
       112  -8.5540    157.7438     83.4044   5.8553851833e+01   3.4037949407e+01    0.3358932    0.2071279 -48.78 0.0007522399    1.674    0.402
       113  -7.5700    158.6665     79.6780   5.7323175162e+01   3.4495967793e+01    0.2369564    0.1909536 -14.77 0.0009473644    1.495    0.331
       114  -7.5333    170.5160     83.4881   5.5929516568e+01   3.1047438716e+01    0.1486861    0.1400672 -74.41 0.0001782638    1.041    0.039
       115  -8.7248    149.9306     80.1700   5.9375324065e+01   3.6450439055e+01    0.3697139    0.1959428 -43.93  0.001384268    1.905    0.475
       116  -8.7864    119.0286     80.4197   6.7233612197e+01   4.3413963101e+01    0.3188554    0.2510722 -67.10 0.0005231679    1.580    0.367
       117  -8.6895    119.9140     75.6873   6.5540638740e+01   4.4119613963e+01    0.3039463    0.2220364 -28.27 0.0006484967    1.474    0.322
       118  -8.9845     74.1896     79.9610   8.1425525982e+01   5.2142210667e+01    0.4250071    0.2462159 -60.60  0.001168504    2.261    0.558
       119  -7.9089     75.3365     74.3228   7.9265254251e+01   5.3125017756e+01    0.3032411    0.1950367  -2.09  0.001106958    2.242    0.554
       120  -9.5938      6.4810     78.1464   1.0759270154e+02   5.9765419087e+01    0.9029669    0.3330767 -20.72  0.003444096    3.979    0.749
       121  -9.8674     16.0173     70.4684   1.0198908201e+02   6.0922956172e+01    0.4685425    0.2093624 -58.21  0.001422316    1.847    0.459
       122  -9.2548    151.7058    249.4346   9.4480253414e+01   1.3136036665e+00    0.2552835    0.1014883  38.44  0.001138813    2.126    0.530
       123  -9.1463     40.6983     20.0351   7.2813368479e+01   6.7711605093e+01    0.2780148    0.1861877 -38.16   0.00111547    1.673    0.402
       124  -7.9350    234.5296    246.4112   7.7835480156e+01  -9.5748311459e+00    0.1166045   0.08955789   2.48 4.558553e-05    1.046    0.044
       125  -9.7213     17.1703     60.6295   9.8993999538e+01   6.2966728980e+01    0.6760211    0.2810451 -54.06  0.003242125    1.944    0.486
       126 -10.8716     21.8530     53.2518   9.4719641954e+01   6.4124527981e+01    0.7906853    0.5255982  85.93  0.002896112    3.449    0.710
       127  -9.5634    178.3775    243.6267   8.8160696578e+01  -1.6485319914e+00    0.2122264    0.1665743 -35.11  0.001332891    1.409    0.290
       128  -8.5092    153.2418    243.0175   9.3266374545e+01   2.1695012944e+00    0.1544956    0.1095805 -45.59 0.0007032818    1.621    0.383
       129 -10.1451     12.4454     45.3653   9.6809430780e+01   6.6400728177e+01     0.836888    0.3622401  -5.78  0.002786534    3.161    0.684
       130 -10.2536      4.7642     41.4299   9.9466671681e+01   6.7649745974e+01    0.6490963    0.2964454 -58.92  0.002097679    2.033    0.508
       131  -7.5908      3.6991    243.3200   1.2387771961e+02   2.1580373632e+01    0.1191865   0.05848152  62.80 0.0007024822    1.624    0.384
       132  -9.5458    194.7241    233.6161   8.3289078501e+01  -2.4250649873e+00    0.3096193    0.2603628  67.82  0.001434324    1.983    0.496
       133  -9.5254      6.8856     32.3141   9.5384709432e+01   6.9238552320e+01    0.2988418    0.1918204 -23.00   0.00084861    1.302    0.232
       134 -10.0001      7.3656     27.9257   9.3537446605e+01   6.9992492959e+01    0.3134413    0.2426883  41.78  0.001180831    1.941    0.485
       135  -8.4171    166.4393     79.0702   5.5552930780e+01   3.2781925300e+01    0.2691602    0.1453158 -35.02   0.00111508    1.930    0.482
       136  -8.6047     69.0129     79.2529   8.3091133937e+01   5.3113061067e+01    0.2833406    0.1607661 -37.69  0.001268891    1.734    0.423
       137  -8.0055    184.1816     78.0498   5.1948998533e+01   2.8831721129e+01    0.2091089    0.1962732  -2.93  0.000580365    1.240    0.194
       138  -9.3828    127.4418     75.2089   6.3378078815e+01   4.2531597953e+01    0.3895286    0.2707601 -61.39 0.0007924368    1.827    0.453
       139  -9.0244    129.2172     69.1706   6.1072956775e+01   4.3209281490e+01    0.5742014    0.3041143  25.89  0.001892917    3.550    0.718
       140  -8.7617    130.4201     63.6580   5.9065432263e+01   4.3873468245e+01    0.4911274     0.207268 -43.28  0.001406762    2.504    0.601
       141 -10.6191     60.4499     61.2859   8.0607702982e+01   5.8056774222e+01     1.235287    0.4160471  27.67  0.003585674    3.986    0.749
       142  -9.0526     35.5288    111.1229   1.0307622453e+02   4.9776963384e+01    0.2290024    0.1756994 -33.32  0.001273953    1.328    0.247
       143  -9.9403     81.6884     72.2348   7.6346063972e+01   5.2451902539e+01    0.4535277    0.3296208 -66.12 0.0009274973    1.944    0.485
       144  -9.0622     83.5769     64.5676   7.3155927140e+01   5.3582505951e+01    0.5081515    0.3662851   2.02  0.002385451    1.665    0.399
       145  -9.3333    115.0399     72.7794   6.5994019735e+01   4.5723528118e+01    0.4239234    0.3580715  15.82  0.001871184    1.274    0.215
       146  -8.1113    162.8713     72.9619   5.4592516687e+01   3.4677408318e+01    0.2373536    0.1695182 -69.78 0.0007617199    1.709    0.415
       147  -7.2415    175.6287     72.2537   5.1964432501e+01   3.1792880141e+01    0.1479883    0.1083835 -82.79 0.0006962948    1.639    0.390
       148  -8.5842    169.4930     70.2094   5.2550910500e+01   3.3575200540e+01    0.4682826    0.1429825 -36.10  0.001196807    3.345    0.701
       149  -8.1687    170.5223     64.9874   5.0941357356e+01   3.4180356107e+01    0.2758136    0.1315317 -41.14 0.0004306529    2.060    0.515
       150  -9.3354    147.0493     69.2126   5.6859051472e+01   3.9053298063e+01    0.4222781    0.2639772 -61.08  0.000929311    2.089    0.521
       151  -8.6351    156.7411     69.6246   5.4904036552e+01   3.6691625241e+01    0.3217715    0.1798743 -33.46   0.00120246    1.908    0.476
       152  -9.6803     94.8171     68.2851   7.0649763160e+01   5.0751477775e+01    0.3950688    0.2678059 -50.09 0.0008205332    1.655    0.396
       153  -9.5042     97.4548     57.9905   6.6346126912e+01   5.2052517510e+01    0.8146204    0.4618464  -7.09  0.002820099    3.672    0.728
       154  -8.9190     44.1491     53.8854   8.4831867843e+01   6.1695625962e+01    0.2867309    0.2441275 -29.65 0.0002731715    1.112    0.101
       155  -9.2717    188.1611    233.5020   8.4589691884e+01  -1.4506214320e+00    0.2606103    0.2189293 -82.51  0.001521088    2.073    0.518
       156  -9.4550     39.8519     58.2038   8.8152977230e+01   6.1366336209e+01    0.5256143    0.2966381 -12.98  0.002426165    2.286    0.562
       157  -7.8339     23.3196     69.0476   9.8515721165e+01   6.0697074814e+01    0.1784394    0.1402274 -49.21 0.0003975033    1.127    0.113
       158  -8.9999    138.0988     66.1702   5.7993023329e+01   4.1668957094e+01    0.3768712    0.2283344 -42.22  0.001167785    1.702    0.413
       159  -8.1375    138.8199     61.4034   5.6379279695e+01   4.2284805964e+01    0.2982782    0.2214317  79.80   0.00143921    1.631    0.387
       160  -8.8694    121.2285     66.0227   6.2160765226e+01   4.5565089625e+01    0.3062755    0.2419695 -54.60 0.0005895213    1.431    0.301
       161  -8.2966    122.0348     61.0789   6.0371347413e+01   4.6219067551e+01    0.3162605    0.2149204  29.41 0.0008321225    1.692    0.409
       162  -9.4737    109.7381     63.8356   6.4634019700e+01   4.8470782876e+01    0.3849697    0.2840679 -52.99 0.0007964884    1.578    0.366
       163  -8.9486    110.5403     58.4314   6.2617623643e+01   4.9211774079e+01    0.4335073    0.2980103   8.64  0.001574894    2.013    0.503
       164  -8.2977    157.8082     62.8880   5.2773054568e+01   3.7539702535e+01    0.2501943    0.1882799 -48.30 0.0007063302    1.359    0.264
       165  -9.7742     73.1625     59.0061   7.4958594444e+01   5.6451222658e+01    0.4805918    0.2633614 -49.90 0.0008353875    2.116    0.527
       166  -9.2340     75.6386     49.8742   7.0770319598e+01   5.7609214701e+01    0.6305963    0.3742911  10.14  0.002678411    2.516    0.602
       167  -8.0509     10.2416     60.3264   1.0204405918e+02   6.3486150163e+01    0.2507097      0.17015  74.31  0.001182473    2.509    0.601
       168  -7.6290    164.6041     60.2390   5.0722894426e+01   3.6334782204e+01    0.1904458    0.1399511 -24.61 0.0009447615    1.575    0.365
       169  -7.3648    152.4817     60.4537   5.3144480210e+01   3.9195806790e+01    0.1436883    0.1361921  76.89 0.0001896444    1.015    0.015
       170  -8.9685    146.5682     58.7506   5.3874241197e+01   4.0872039244e+01    0.2780726    0.1897675 -43.91 0.0007775549    1.520    0.342
       171  -8.2898    147.8281     53.5748   5.2070591985e+01   4.1361724612e+01    0.3977707    0.1775933 -31.43  0.001565977    2.482    0.597
       172  -8.3428     96.6558     33.1891   5.7659286346e+01   5.5918318370e+01     0.180825    0.1235805 -13.35 0.0003751918    1.674    0.403
       173  -9.2723     88.2125     56.4084   6.8768042874e+01   5.4162462735e+01    0.8162857    0.3640495 -30.15  0.002650172    2.674    0.626
       174 -10.1979     85.1362     47.9073   6.6737891317e+01   5.6156377185e+01    0.4001933    0.3038912 -61.42  0.001035708    1.904    0.475
       175 -10.2362     90.1383     38.1251   6.1469115335e+01   5.6616391739e+01     1.041538    0.3071065  41.08  0.003127832    3.472    0.712
       176  -8.6147    130.0586     57.6836   5.7281210169e+01   4.4927522155e+01    0.2617385    0.2057257 -47.97 0.0004746153    1.370    0.270
       177  -7.9932    130.6473     53.6748   5.5872935610e+01   4.5412864636e+01    0.2281115    0.1673182  18.28  0.001100251    1.728    0.421
       178  -8.1571    142.4739     44.4800   5.0414115968e+01   4.3945910659e+01    0.2230745    0.1672037  31.09  0.001148634    1.535    0.348
       179  -8.7846    138.9216     56.7017   5.4919624737e+01   4.3004294769e+01    0.3284936    0.2170885 -47.85 0.0005085857    1.638    0.389
       180  -8.0021    139.4066     51.7760   5.3299027484e+01   4.3635397802e+01    0.2459569    0.1721158  26.55 0.0008054269    1.794    0.443
       181  -8.5558    142.0075     48.4843   5.1735467917e+01   4.3495606354e+01    0.2907688    0.2152638 -27.04  0.001004112    1.498    0.332
       182  -8.3549    122.8314     40.3784   5.3391205147e+01   4.9135974674e+01    0.3886476    0.2151292  24.70  0.001524837    2.870    0.652
       183  -9.0633    121.3480     47.1812   5.6009174078e+01   4.8530417665e+01    0.3822613    0.2365983 -46.21  0.001004832    1.829    0.453
       184  -9.1014    118.2221     55.4729   5.9545958317e+01   4.7986534580e+01    0.3156139    0.2562349 -69.06 0.0007501501    1.551    0.355
       185  -8.1321    119.0021     50.9912   5.7862665308e+01   4.8502765553e+01    0.3290503    0.1656457  34.37  0.001186606    2.494    0.599
       186  -8.1747     53.5960     38.8550   7.5147949274e+01   6.3043034785e+01    0.2202463    0.1804329 -50.64 0.0009868542    1.610    0.379
       187  -9.9434     49.9498     54.2534   8.2473188380e+01   6.0877757998e+01    0.4695848    0.3416022 -68.25   0.00137936    2.189    0.543
       188  -9.8007     55.9963     43.3774   7.5920386757e+01   6.1941991226e+01     0.935362    0.4898461   2.68  0.003312514    4.078    0.755
       189  -8.8819    162.4534     53.6969   4.9286343812e+01   3.7839088542e+01    0.3021085    0.2210066 -63.88 0.0007663505    1.510    0.338
       190  -9.0051    105.6910     51.9596   6.1802748559e+01   5.1303507839e+01    0.5542675    0.2731629 -32.21  0.001745037    2.186    0.543
       191  -7.7787    152.6101     53.2838   5.1026910111e+01   4.0260256734e+01    0.1879083    0.1397398 -22.25 0.0009454614    1.569    0.363
       192  -8.3916    157.4983     49.0618   4.8873486522e+01   3.9699924907e+01    0.2052405    0.1384844 -35.81 0.0005298467    1.555    0.357
       193  -9.4781    149.9005     46.5999   4.9584927316e+01   4.1872421662e+01    0.5213498    0.1950961 -33.20  0.001964501    2.823    0.646
       194  -9.7301    130.7540     45.5338   5.3251622408e+01   4.6579459733e+01    0.8046421    0.3675057 -19.81  0.002129138    3.493    0.714
       195  -8.6609    111.9378     46.7472   5.8278761395e+01   5.0722777523e+01    0.2840275    0.1994154 -44.84 0.0005776244    1.596    0.373
       196  -8.7634    112.9852     42.5002   5.6542604594e+01   5.1094864902e+01    0.4188675    0.2162738  18.45  0.001271291    4.917    0.797
       197  -7.9268    161.8046     45.7507   4.7160082169e+01   3.9128894261e+01    0.1905589    0.1515072 -80.85 0.0004595793    1.333    0.250
       198  -8.2908     45.2990     15.3149   6.8511482139e+01   6.7649947276e+01     0.209657    0.1674123  12.70 0.0006067818    1.036    0.034
       199  -9.3383    183.3343    228.0039   8.4679365680e+01   1.7711957721e-01    0.3372579    0.2217368  40.26 0.0008405699    1.539    0.350
       200  -9.0904    184.2343    223.2841   8.3709945171e+01   8.4209234791e-01    0.2309172    0.1970952  12.70 0.0002742885    1.022    0.022
       201 -10.3851    215.0273    227.7839   7.8349307201e+01  -4.3913559906e+00    0.2281459    0.1861714 -10.10 0.0004515643    1.088    0.081
       202  -8.5333     42.1707     27.8625   7.5621719291e+01   6.6387936005e+01    0.2306232    0.1481583  -9.41  0.001294131    1.592    0.372
       203  -9.9598     38.1001     42.2366   8.3335351281e+01   6.4566545714e+01     0.380119    0.3354262  40.49  0.001376781    1.517    0.341
       204 -10.3055     35.9074     37.9273   8.2704867220e+01   6.5575611665e+01    0.4637134    0.2563715 -20.03 0.0003924427    1.990    0.497
       205  -7.5411    105.4631    221.5068   1.0079446806e+02   1.3578752455e+01    0.1331106    0.1225616  38.47 -8.589924e-06    1.069    0.065
       206  -8.3797    185.0322    218.8512   8.2792944204e+01   1.4847741413e+00    0.1958741    0.1707946   6.98 0.0004708274    1.018    0.018
       207  -7.5903    212.0309    215.9830   7.6873213655e+01  -2.1072782714e+00    0.1523724    0.1259255  -9.67 0.0009483256    1.056    0.053
       208 -10.2322    151.8626    212.6186   8.8908669303e+01   7.9763899435e+00    0.2503532    0.2351275 -24.10    0.0003781    1.125    0.111
       209  -9.8729     76.1945     32.1347   6.3723212048e+01   6.0182020841e+01     0.440115    0.3358513  55.63  0.001135349    1.541    0.351
       210  -9.6925     79.4543     23.8090   5.9245653243e+01   6.0609106766e+01    0.5311121    0.2510915  30.82  0.001800899    2.424    0.587
       211  -8.9050     84.7669     21.5795   5.6668690080e+01   5.9800140879e+01    0.2601945    0.2186534 -28.77 0.0007122655    1.342    0.255
       212  -9.5961    153.7552     41.8166   4.7455909960e+01   4.1598355281e+01    0.4307486    0.1995391 -39.95  0.001534727    2.212    0.548
       213  -8.1964    153.8986     35.1345   4.5479023140e+01   4.2425450824e+01    0.3057953    0.1456898 -49.80  0.001285169    2.433    0.589
       214  -8.4091    111.0413     26.3119   5.1353924818e+01   5.3584280769e+01    0.3597637     0.206573  19.08  0.001569792    2.562    0.610
       215  -9.1031    110.2490     32.9802   5.3916235165e+01   5.2966927136e+01    0.3522354    0.2419221 -39.33  0.001089462    1.622    0.384
       216  -8.8339    104.9920     40.8813   5.8115691524e+01   5.3091640794e+01    0.3362001    0.2107858 -45.62  0.001049914    1.876    0.467
       217  -8.3212    106.3799     36.3719   5.6128848229e+01   5.3395366812e+01    0.2849804    0.1733259  38.02 0.0009672834    1.607    0.378
       218  -8.8629    139.6203     39.9894   4.9606797895e+01   4.5231564931e+01    0.3399849     0.224443 -44.00  0.001714237    1.632    0.387
       219  -8.5805    144.1072     36.2999   4.7594219339e+01   4.4633113127e+01    0.2384362    0.1866764 -52.21 0.0006849645    1.381    0.276
       220  -8.0697    136.4362     26.9290   4.6140261713e+01   4.7590624148e+01    0.2348151    0.1819498 -53.93 0.0008253647    1.442    0.307
       221  -8.4688    132.8648     35.8091   4.9674735527e+01   4.7376744920e+01    0.2478461    0.1944722 -40.48 0.0004208244    1.383    0.277
       222 -10.6270    134.0457     30.9190   4.7870422066e+01   4.7695751277e+01    0.2489597    0.2315885  43.39  0.001533979    1.086    0.079
       223  -8.8524    118.9542     34.5569   5.2342233735e+01   5.0787829235e+01    0.2841514     0.194696 -29.58 0.0006003322    1.593    0.372
       224  -9.3535    100.9551     32.1882   5.6079003931e+01   5.5120981082e+01    0.4672841    0.2407718 -33.35  0.001358589    2.083    0.520
       225  -8.3368    103.9735    208.2840   9.9347088913e+01   1.6644724452e+01    0.2034034    0.1904751 -76.15 0.0002348482    1.124    0.110
       226  -9.5557     60.2580     33.3586   7.0171468001e+01   6.2836912275e+01     0.429224    0.3192005 -45.12  0.001407974    1.674    0.403
       227  -8.6952     62.7277     26.6559   6.6383450768e+01   6.3355861220e+01    0.3979694    0.1973957  31.22  0.001706398    2.003    0.501
       228 -10.1292     10.9150    207.3290   1.2057143344e+02   2.8454301164e+01    0.4423097    0.2870671  18.91  0.002640743    2.037    0.509
       229  -9.0975    192.5844    195.3462   7.6980418160e+01   4.4986296253e+00    0.5893103    0.3068841 -60.14  0.002097313    3.885    0.743
       230  -8.4268    152.3928     29.7850   4.4170278237e+01   4.3436233988e+01    0.1701231    0.1324835  -9.34 0.0004640587    1.620    0.383
       231  -9.6929    154.9641     26.6725   4.2844618951e+01   4.3178864441e+01    0.3834816    0.1881552  70.00  0.001721512    1.961    0.490
       232  -8.1443    239.9980     27.9449   3.3371297549e+01   2.3868451051e+01    0.1775895    0.1442249 -69.63 0.0003340509    1.038    0.037
       233  -7.4588    119.3171     27.3367   4.9794366947e+01   5.1571597454e+01    0.1424081    0.0938455  30.40 0.0007048446    1.700    0.412
       234  -8.6088    174.7437    198.2006   8.1308276199e+01   6.9548187411e+00    0.2145388    0.1988084   7.11   0.00046678    1.045    0.043
       235  -9.0184     91.4729     26.0813   5.6452787677e+01   5.7891173735e+01    0.3316539     0.219425 -46.11  0.001020406    1.917    0.478
       236  -8.3665     92.2541     20.8318   5.4185752583e+01   5.8322998688e+01    0.3107349    0.1852513  34.02  0.001244384    1.634    0.388
       237  -9.3684     36.0780    196.1009   1.1410390014e+02   2.8539528721e+01    0.2137361    0.1909454 -74.00 0.0003389297    1.188    0.159
       238  -7.8057    160.3506    195.4504   8.4002732324e+01   9.9740976013e+00    0.2324806    0.1347202 -47.08 0.0005146156    1.797    0.443
       239  -8.7896    144.2000     25.3025   4.4229334080e+01   4.5917608035e+01    0.2499024    0.1728725 -43.29 0.0008454625    1.565    0.361
       240  -8.5394    128.3623     25.6572   4.7309875375e+01   4.9647666762e+01    0.2620035    0.2058172 -66.56 0.0006229275    1.506    0.336
       241  -8.7870    129.9865     21.0782   4.5495780284e+01   4.9760610560e+01    0.3177557    0.2012387   4.82  0.001163197    2.295    0.564
       242  -9.0869    132.8544     17.1311   4.3690754643e+01   4.9486363709e+01     0.223185      0.16789  78.83 0.0005042956    1.317    0.241
       243  -6.9802    203.5286    189.4647   7.3624884917e+01   3.7699926235e+00    0.1381721    0.1220725  -7.89 0.0001426676    1.014    0.014
       244  -8.8422      1.5557     28.7270   9.7059449996e+01   7.0215676802e+01    0.2747706    0.1091111 -52.19  0.001010784    2.070    0.517
       245  -9.1237    102.9753     20.9713   5.1394736842e+01   5.5981236324e+01    0.2908832     0.281879 -62.77 0.0009934324    1.222    0.182
       246  -8.3958    139.2264     22.4175   4.4216473642e+01   4.7423043338e+01    0.3990911    0.1216551  64.97  0.001415557    3.069    0.674
       247  -9.5418    118.4411     21.2975   4.7914920899e+01   5.2439394044e+01    0.3305875    0.2421426  54.02 0.0008717604    1.189    0.159
       248  -7.2734    102.0297    184.9493   9.6301935189e+01   2.2293881090e+01    0.1674288    0.1601787  89.95  0.000296655    1.042    0.040
       249  -6.9355    107.4767    181.4932   9.4335689221e+01   2.2220631844e+01    0.1458492    0.1407135  61.46 0.0001520646    1.004    0.004
       250  -8.7092     38.2208    180.5604   1.1205826267e+02   3.2033023164e+01     0.220481    0.1814186 -68.30 0.0004113807    1.179    0.152
       251 -10.4757    101.0034    176.0006   9.5079762222e+01   2.4602756778e+01    0.2065595    0.1993331  71.60            0    1.003    0.003
       252  -7.1373    195.3418    175.6980   7.2549245842e+01   7.7384233646e+00    0.1350913    0.1165419  86.67 0.0007038434    1.676    0.403
       253  -7.3751    230.2998    166.6802   6.4047140194e+01   3.4631442704e+00    0.1256143    0.1044982 -63.61 0.0003792612    1.622    0.383
       254  -8.2200    111.6278     21.0329   4.9337991011e+01   5.4031252884e+01    0.3011016    0.1674331 -35.92  0.001495851    2.003    0.501
       255  -8.4783    133.5480    145.5482   8.0406610454e+01   2.6034858372e+01    0.5927087     0.158562 -53.68  0.001481946    4.718    0.788
       256  -9.6457     67.1047    144.3357   9.9029340816e+01   3.7687463132e+01    0.5441529    0.3582861  62.89  0.002479444    1.852    0.460
       257  -7.5686    189.3497     16.5362   3.5618850090e+01   3.6168116579e+01    0.1991418    0.1159802 -32.51  0.001065603    1.857    0.461
       258  -7.9322    155.3026     17.6524   4.0199778570e+01   4.4076387035e+01    0.1361657   0.09053218 -68.19 0.0007039757    1.691    0.409
       259  -9.8223    181.0776    145.1057   6.8982677757e+01   1.6557032562e+01    0.2452045    0.2302088 -46.13  0.001337676    1.086    0.079
       260  -7.6862    229.3158    145.0237   5.9739656854e+01   7.4664193258e+00    0.2305232    0.1008497 -24.22 0.0007048111    4.297    0.767
       261  -8.0636    186.3723    142.0258   6.7163648119e+01   1.6128254885e+01    0.2145829    0.1789754 -39.57 0.0005842543    1.136    0.120
       262  -7.9232     95.6790    136.1661   8.8870178304e+01   3.5352301506e+01    0.2417965    0.1936542 -78.39 0.0006213767    1.416    0.294
       263 -10.3645     58.3640    124.3589   9.7992635588e+01   4.3926165678e+01      1.24677     0.667298  76.41  0.002390888    4.547    0.780
       264  -8.5796    227.7902     32.6669   3.5421267728e+01   2.5784167897e+01    0.1897145    0.1794061  62.38 0.0006493903    1.363    0.266
       265 -10.2021     71.4244    125.8325   9.4095483251e+01   4.1783139217e+01    0.6884021     0.434816 -85.73  0.001409096    2.323    0.569
       266  -9.7505     66.9254    128.1151   9.5998968868e+01   4.1842822625e+01    0.4955932    0.4083804  74.40  0.002586906    1.393    0.282
       267  -8.7155    112.5156    133.8656   8.3466515251e+01   3.2883289921e+01    0.3924465    0.2712958  72.82  0.001597579    2.135    0.532
       268  -9.1782     83.7059    131.8471   9.1540382569e+01   3.8408750123e+01    0.6959739    0.4123521  70.75  0.002479786    3.064    0.674
       269  -8.0114     55.5014    132.9993   1.0054123610e+02   4.2087993795e+01     0.229996    0.1307311 -61.66  0.001034271    1.595    0.373
       270  -9.9233    134.1282    130.9350   7.6845684538e+01   2.9313767742e+01    0.6169623    0.5268825  13.68  0.002089446    1.310    0.236
       271 -10.4399    131.6903    119.4951   7.4652638401e+01   3.2428400492e+01    0.8246435    0.5517785  80.80  0.002471369    2.685    0.628
       272 -10.0434    128.5195    100.5473   7.0465805466e+01   3.7262929256e+01    0.9546371    0.4767848 -29.99  0.002603509    2.770    0.639
       273 -10.9902    133.6625    109.5860   7.1546980856e+01   3.4209599016e+01    0.9129199    0.6035768 -52.35  0.002409997    1.580    0.367
       274 -10.6216    139.4195    103.4742   6.8410776042e+01   3.4263528108e+01     1.068483    0.4563627 -49.18  0.001269394    2.499    0.600
