#   1 NUMBER                 Running object number                                     
#   2 MAG_AUTO               Kron-like elliptical aperture magnitude                    [mag]
#   3 X_IMAGE                Object position along x                                    [pixel]
#   4 Y_IMAGE                Object position along y                                    [pixel]
#   5 X_WORLD                Barycenter position along world x axis                     [deg]
#   6 Y_WORLD                Barycenter position along world y axis                     [deg]
#   7 A_WORLD                Profile RMS along major axis (world units)                 [deg]
#   8 B_WORLD                Profile RMS along minor axis (world units)                 [deg]
#   9 THETA_WORLD            Position angle (CCW/world-x)                               [deg]
#  10 FWHM_WORLD             FWHM assuming a gaussian core                              [deg]
#  11 ELONGATION             A_IMAGE/B_IMAGE                                           
#  12 ELLIPTICITY            1 - B_IMAGE/A_IMAGE                                       
         1 -11.8359    204.4413     37.8129   4.1838312239e+01   2.9633923030e+01    0.9960837    0.8637615  -1.96  0.006010329    1.481    0.325
         2 -11.3713    219.1185     22.2878   3.6575001232e+01   2.8207793064e+01    0.6841456    0.5904177 -68.75  0.003130435    1.038    0.036
         3  -7.9483     67.1216      4.4829   5.7893522557e+01   6.4592010819e+01    0.1724451    0.1412452  11.04 0.0003576451    1.095    0.087
         4  -9.7724    242.1089      2.2681   3.0492861119e+01   2.5517328010e+01    0.5399129    0.2115141  80.19  0.002678197    2.493    0.599
         5  -9.9731    112.6973    238.5661   1.0488787819e+02   9.5918224809e+00    0.4853944    0.1639455  32.41  0.001867787    3.065    0.674
         6 -14.7727     35.6483    236.8663   1.2003054317e+02   2.0069211650e+01     1.148546    0.8337438  76.10  0.002990159    1.147    0.128
         7 -14.1975     40.9001    247.4937   1.1977558366e+02   1.7445969788e+01     1.251455    0.3953066  37.87  0.002616949    2.599    0.615
         8 -14.4295      2.2229    204.3106   1.2439098389e+02   3.0039894281e+01     3.389322          nan -72.00  0.009017543    8.371    0.881
         9 -14.6355     24.6107    239.0772   1.2220754872e+02   2.0830863751e+01    0.5565017    0.2733156  46.65  0.002434696    1.665    0.399
        10 -14.7081     20.6319    248.5775   1.2345052494e+02   1.9448210547e+01    0.3796153    0.3775278 -69.24  0.003213797    1.549    0.355
        11 -17.3433      8.4422    239.0838   1.2508530085e+02   2.2447725097e+01      2.19972     1.668476 -71.63   0.01673392    1.486    0.327
        12  -8.5670    100.1757    235.1432   1.0706738880e+02   1.2071281858e+01    0.1790264    0.1333036  63.27  0.001076631    1.332    0.249
        13  -9.3906    132.2995    234.2308   1.0027195046e+02   7.3981251639e+00    0.2962921    0.1465273  29.15  0.001362367    2.072    0.517
        14  -8.3423    113.3308    231.6603   1.0390809086e+02   1.0779389189e+01    0.1347349    0.0895649  64.00 -2.098434e-05    1.742    0.426
        15  -8.2589    205.4465    225.2608   8.3977903050e+01  -2.5137424204e+00    0.2042217    0.1937893  88.44 0.0007714519    1.676    0.404
        16  -9.4108    112.5210    223.9450   1.0309011924e+02   1.2384020061e+01    0.3770995    0.2319477  31.64 0.0009625353    1.581    0.367
        17  -7.4390    134.3666    222.2216   9.8144249039e+01   9.2820404904e+00    0.1698528    0.1272821 -70.11 0.0009320687    1.685    0.406
        18  -8.0134     66.6340    222.2280   1.1266784337e+02   1.9283646298e+01    0.1526709    0.1094703 -64.57 0.0003422473    1.470    0.320
        19  -7.9867     77.9246    221.3293   1.1019392309e+02   1.7959700123e+01    0.1766166    0.1452106  50.69  0.000363104    1.094    0.086
        20  -9.3947    225.1939    218.3836   7.9025842108e+01  -4.3948184692e+00    0.2163944    0.1859307  -8.31 0.0001531541    1.173    0.148
        21  -8.2006    193.1612    219.1686   8.5344500600e+01   3.3153404182e-01    0.1656038    0.1524239  37.59 0.0003396324    1.325    0.245
        22  -7.6239    194.6708    214.3087   8.4189504974e+01   8.8706343472e-01    0.1211192    0.1063472  64.12 0.0003165268    1.662    0.398
        23  -7.9610    153.4830    214.0130   9.2744558853e+01   7.6969689290e+00    0.1995094    0.1349006 -46.14  0.001042121    1.619    0.382
        24  -8.0892     98.9908    214.0354   1.0474989829e+02   1.6440489535e+01    0.1870954    0.1757218  55.42 0.0003203953    1.063    0.060
        25  -8.3215    101.4016    210.8117   1.0378765852e+02   1.6748141255e+01    0.2197497    0.1914499  22.76 0.0004289354    1.263    0.208
        26  -8.7279     75.2931    212.3391   1.0976893671e+02   2.0206390776e+01    0.3564408    0.2214183 -69.79  0.001342559    1.646    0.393
        27  -8.5843    189.0151    210.3386   8.4626416626e+01   2.4649397379e+00    0.2169767    0.1874424 -34.77 0.0002028188    1.277    0.217
        28  -7.7544     95.4626    211.5752   1.0521509457e+02   1.7483372335e+01     0.131168    0.1184804  55.76 0.0001376185    1.020    0.020
        29 -14.9564     10.2070    223.9262   1.2397680126e+02   2.5256936713e+01    0.5119697    0.3715092 -19.06  0.003194789    2.688    0.628
        30  -7.3748     69.6521    209.2993   1.1066841853e+02   2.1621739069e+01    0.1385268   0.08482286  63.82 0.0002209345    1.684    0.406
        31  -7.6500    128.2180    206.6845   9.7150299238e+01   1.3330116565e+01    0.1859238    0.1722727  66.23  0.001112031    1.132    0.117
        32  -7.9821    161.9779    204.6717   8.9321361948e+01   8.0169671644e+00    0.1929968    0.1653095  27.48 0.0005585018    1.070    0.066
        33  -8.5954    120.9381    204.4534   9.8453795305e+01   1.4986964081e+01    0.4221717    0.2305929  21.12  0.001159378    2.563    0.610
        34  -8.6143    115.2639    202.3019   9.9423029716e+01   1.6362850643e+01    0.3524457    0.2319167 -82.28  0.001442547    2.129    0.530
        35  -7.2803     91.6237    205.2829   1.0525879886e+02   1.9397927860e+01    0.1438795    0.0919086  62.38 0.0002500537    1.714    0.416
        36  -8.4123     62.8955    202.6848   1.1143972074e+02   2.3957843611e+01    0.2288099    0.1708199  89.00 0.0005040194    1.288    0.224
        37  -7.7036    195.3273    199.6851   8.1380648003e+01   3.2570657982e+00    0.1257447    0.1119128  75.57 0.0007044011    1.672    0.402
        38  -8.4411     78.8369    198.2167   1.0727719845e+02   2.2805786096e+01    0.2123305    0.1839311  31.83            0    1.257    0.204
        39  -8.3113    152.0665    195.0354   8.9802278112e+01   1.1612722627e+01    0.2088145     0.191186  18.94 0.0002933464    1.026    0.026
        40  -8.0355     90.1396    196.7666   1.0445262406e+02   2.1490654845e+01    0.2087305    0.1716807  66.15 0.0006551808    1.188    0.158
        41  -9.0290     74.8172    190.2154   1.0718595767e+02   2.5184463248e+01     0.289888     0.196126 -67.07 0.0007830224    1.446    0.309
        42  -8.3783     63.9910    191.0415   1.0984816793e+02   2.6448734895e+01     0.191321    0.1727387  77.00 -0.002661949    1.031    0.030
        43  -8.5726     61.5264    187.5220   1.1000406011e+02   2.7580331526e+01    0.2131375    0.1649716 -64.56 0.0008423753    1.264    0.209
        44  -9.6034     90.8918    189.4996   1.0324251987e+02   2.3017076726e+01    0.2351191    0.2109475 -76.08 -0.0004857692    1.105    0.095
        45  -9.9307     17.8006    187.5818   1.2002739048e+02   3.2350289821e+01      0.46858    0.2338595 -72.10  0.002529517    1.708    0.414
        46  -8.1125    184.8378    189.3668   8.1571685487e+01   6.9127365624e+00    0.1946564       0.1593  24.05 0.0004388238    1.155    0.134
        47  -8.5995     81.1641    186.7661   1.0519588360e+02   2.5082510957e+01    0.3533322    0.2382927  16.79  0.001171486    1.980    0.495
        48  -7.7681    188.5529    185.7539   8.0080599301e+01   6.9276303020e+00    0.1882064    0.1343987 -50.68 0.0009376559    1.632    0.387
        49  -7.4356    118.8725    183.6315   9.5539973916e+01   1.9829299581e+01    0.2790116    0.1368906  28.93  0.001080402    2.368    0.578
        50  -9.3306     50.8186    180.1707   1.1168776300e+02   3.0623032924e+01    0.2488071    0.1635299 -72.11 0.0003870812    1.394    0.283
        51  -7.6932    150.4558    182.5630   8.7854776309e+01   1.4456230143e+01    0.1448779    0.1369796  16.69 7.136422e-05    1.004    0.004
        52  -8.6125     60.0957    177.1745   1.0905216522e+02   3.0199050058e+01    0.4541389    0.1831298 -51.52  0.001844604    2.567    0.610
        53 -10.1624     64.2267    179.5201   1.0834077685e+02   2.9110606659e+01    0.4821095    0.3317272 -29.29  0.001636141    2.107    0.525
        54  -9.7098     69.5564    173.6593   1.0620930054e+02   2.9801050207e+01    0.3179573    0.2686964 -21.29 0.0009604265    1.510    0.338
        55  -8.9492     39.9830    180.8736   1.1435426839e+02   3.1686383706e+01    0.2544094    0.1646049 -66.46   0.00106685    1.410    0.291
        56  -7.9106     36.7634    179.4595   1.1496695151e+02   3.2363424813e+01    0.2839912    0.1240575 -47.65   0.00120971    2.841    0.648
        57  -8.1097     54.7786    179.9938   1.1070848203e+02   3.0189539169e+01    0.1842445    0.1507255 -77.25 0.0003235416    1.117    0.105
        58  -7.3862     14.3378    185.6625   1.2063504940e+02   3.3096267775e+01    0.1262426   0.09861922  82.13 0.0008332384    1.044    0.042
        59  -7.6852    144.8487    178.2036   8.8324121125e+01   1.6403718270e+01    0.2015578    0.1689814  -8.85 0.0004296721    1.331    0.249
        60  -8.2144    110.2493    178.4475   9.6752136392e+01   2.2462394047e+01    0.3600997    0.1795392  28.30   0.00140932    2.373    0.579
        61  -7.3959     76.5172    176.4993   1.0486856439e+02   2.8157865903e+01    0.1366879    0.1293859 -78.50 -0.0001185986    1.069    0.064
        62  -7.9688    245.4482    236.9678   7.8627540267e+01  -9.6743394307e+00    0.1318237    0.1001469 -49.41 0.0005142067    2.325    0.570
        63  -7.9453     28.0000    176.0675   1.1669443741e+02   3.4049498980e+01    0.2593798    0.1056696 -68.34 0.0008360442    2.075    0.518
        64  -8.9100     29.3991    172.2917   1.1598498636e+02   3.4805095118e+01    0.2485287    0.2017228 -34.90  0.001184145    1.581    0.367
        65  -7.9458     52.8540    175.1460   1.1058360738e+02   3.1575626497e+01    0.1779936    0.1474779 -50.68 0.0004622216    1.319    0.242
        66  -7.8879    117.3421    173.9174   9.4185656187e+01   2.2290206451e+01    0.2079389    0.1855626 -52.19  0.001093846    1.136    0.120
        67  -7.2380     90.4662    173.4647   1.0087714115e+02   2.6816695048e+01    0.1398954    0.1352873 -83.58 9.135976e-05    1.042    0.041
        68  -9.3958    175.4572    172.4586   8.0183364217e+01   1.1881631726e+01    0.3176481    0.2620501  27.48 0.0007079925    1.187    0.158
        69  -8.3898     37.6797    169.7259   1.1369034034e+02   3.4579743339e+01    0.4148572    0.1278221 -61.71   0.00164487    2.664    0.625
        70  -8.1155     75.1744    170.1534   1.0426149453e+02   2.9868560329e+01    0.1989465    0.1820976 -49.70 0.0003354776    1.170    0.145
        71  -9.2426     24.3510    169.2950   1.1689933147e+02   3.5995859832e+01    0.3419414    0.1977047   5.18  0.001658258    2.884    0.653
        72  -9.0264     16.7767    170.0930   1.1878151115e+02   3.6482000945e+01    0.2145417    0.1929776  27.11  0.001322735    1.393    0.282
        73  -8.2804     78.2491    182.4874   1.0530238807e+02   2.6497145163e+01    0.2338046    0.1789581 -68.11  0.000621251    1.269    0.212
        74  -7.3252     99.3159    166.6992   9.7455223968e+01   2.7022062615e+01    0.1495707    0.1108632  71.93 0.0004218071    1.615    0.381
        75  -7.5832     88.9874    165.2251   9.9883515379e+01   2.9017447884e+01    0.3126779    0.1665518  60.11 0.0002230447    2.623    0.619
        76  -7.9015     92.3833    164.1352   9.8806154716e+01   2.8749723102e+01    0.3677012    0.1733693 -56.22  0.001488018    2.041    0.510
        77  -9.1214     24.5584    166.0021   1.1651842459e+02   3.6760951689e+01    0.3112741    0.1667694 -69.43 0.0009574626    1.575    0.365
        78  -7.8494     85.1949    165.3539   1.0089675467e+02   2.9565832446e+01    0.1947536    0.1268158  45.27 0.0003175887    1.553    0.356
        79  -7.8800     43.0323    164.4584   1.1172131492e+02   3.5279477192e+01    0.3512414     0.199774 -23.61   0.00143797    3.397    0.706
        80  -7.9836    106.9036    164.0765   9.5012204202e+01   2.6380462263e+01    0.2187801    0.1890766  75.14            0    1.256    0.204
        81  -8.5837     78.8690    164.0959   1.0234741047e+02   3.0808165732e+01    0.2257817    0.2031516  48.78  0.000495266    1.136    0.119
        82  -8.1223     57.8012    163.4273   1.0777054049e+02   3.3809298254e+01    0.2401201    0.1992854 -47.32 0.0006152841    1.293    0.226
        83  -8.0818     53.2295    162.9624   1.0889704494e+02   3.4479363285e+01    0.3688006    0.1867633  56.91  0.001589257    2.354    0.575
        84  -8.5070     96.5331    163.2785   9.7566820519e+01   2.8292565565e+01      0.38998    0.1837197  42.29   0.00132656    2.122    0.529
        85  -7.4764     28.5329    162.5423   1.1516799819e+02   3.7220910740e+01    0.1297022    0.1081482 -88.00 5.388144e-05    1.028    0.027
        86  -7.8826    244.6691    161.6655   6.4505201651e+01   1.5372412824e+00    0.1396961   0.09319663  -5.02            0    1.729    0.422
        87  -9.6333     66.3141    159.8153   1.0498907489e+02   3.3602238137e+01    0.3954534     0.272238 -32.55   0.00193163    1.863    0.463
        88  -9.5675     84.8727    158.3757   9.9784471655e+01   3.1311534190e+01    0.3850843    0.3168134 -52.95  0.001122598    1.191    0.160
        89  -8.9634     88.3230    155.4864   9.8337432114e+01   3.1486417381e+01    0.3798528    0.2757221 -59.19  0.001891324    1.323    0.244
        90  -7.5182    171.9879    158.8251   7.8036159690e+01   1.5315317216e+01    0.2023915    0.1890747  -0.92 0.0004294324    1.023    0.022
        91  -7.2042    126.7417    158.3097   8.8773138259e+01   2.4193399203e+01     0.146492    0.1197955  86.38 0.0002103682    1.525    0.344
        92  -7.5237     23.5758    157.8170   1.1590518358e+02   3.8815987311e+01    0.1775676    0.1047218 -88.34 0.0004148776    1.611    0.379
        93  -8.6860     52.3497    156.6878   1.0824902369e+02   3.6124954258e+01      0.38844    0.2539727 -11.98   0.00178598    2.514    0.602
        94 -11.1673     68.4976    144.7450   1.0188725022e+02   3.7040961596e+01    0.8774951    0.5958772  89.01  0.003784196    1.816    0.449
        95  -8.3869     33.3893    155.2932   1.1308422500e+02   3.8513953758e+01    0.3316065    0.2143559  17.04  0.001765951    1.996    0.499
        96  -7.3709     30.4521    151.4338   1.1338564108e+02   3.9740528676e+01    0.1308056    0.1109942 -80.32 8.646518e-05    1.008    0.008
        97  -9.1124    111.5283    149.8811   9.0984622249e+01   2.8951595383e+01    0.2620289    0.2305775  48.28 0.0003737654    1.165    0.142
        98  -7.0259    148.2990    149.6866   8.1526161278e+01   2.1978033957e+01    0.1517131    0.1248038  87.85 0.0003556891    1.606    0.377
        99  -7.8637    126.7962    147.1922   8.6380344441e+01   2.6757553830e+01    0.2051528      0.17763 -11.74 0.0003208081    1.286    0.222
       100  -8.6732     60.0015    146.1579   1.0452670439e+02   3.7802995333e+01    0.2248721     0.182656 -69.86 0.0002840573    1.127    0.112
       101 -10.5925     84.8813    232.0321   1.0988240126e+02   1.4847924864e+01    0.5103126    0.3769458 -89.29  0.001611099    1.449    0.310
       102  -9.6985     15.4494    145.1135   1.1662926978e+02   4.2567556356e+01    0.3219959    0.1861673 -69.95  0.001136079    1.405    0.288
       103  -9.1084    244.1597    145.3624   6.1160718945e+01   4.3208525084e+00    0.1686145    0.1301152  55.58 0.0009462763    1.690    0.408
       104  -7.3446    133.5586    145.4987   8.4258728416e+01   2.5839644950e+01    0.1538258    0.1490461 -23.46 0.0001302002    1.014    0.014
       105  -8.5816     62.0551    136.3400   1.0223205922e+02   3.9989245904e+01    0.2417908    0.2171911  84.59 0.0004298733    1.150    0.130
       106  -8.7970     98.4204    143.1835   9.3158257052e+01   3.2849249488e+01    0.3027135    0.2646904  37.04 0.0002485829    1.187    0.157
       107  -8.4106     75.2507    236.6469   1.1230753650e+02   1.5261870951e+01    0.2465532    0.1676088 -30.86  0.001324407    2.529    0.605
       108  -8.1594     82.2469    142.1870   9.7506488996e+01   3.5694641496e+01    0.1990334    0.1671445  73.21 0.0006623955    1.319    0.242
       109  -8.6241     86.5931    144.4043   9.6713119635e+01   3.4476947579e+01    0.3205981    0.2327601 -40.07  0.001556543    1.449    0.310
       110  -9.1217    109.9688    137.6508   8.8757970727e+01   3.2154436455e+01    0.2692595    0.2150648 -51.99 0.0002476753    1.219    0.180
       111  -8.4647     82.3705    137.3657   9.6510534480e+01   3.6866992443e+01    0.4179657    0.2587579  84.75 0.0007685812    2.786    0.641
       112  -8.2008     80.6427    151.7544   9.9753116969e+01   3.3573004165e+01    0.2602465    0.2157289 -19.90 0.0008812478    1.460    0.315
       113  -8.1144    105.3965    133.8698   8.9176546626e+01   3.3885789316e+01    0.2397569    0.2030272  52.25  0.000334954    1.262    0.207
       114  -8.3210     29.0247    134.0721   1.1149658826e+02   4.4146212286e+01    0.1926479    0.1672076 -73.88  0.000462515    1.031    0.030
       115  -9.1815      9.7030    132.3513   1.1675700470e+02   4.6078932988e+01    0.2526127    0.1926189 -32.52  0.001047339    1.544    0.352
       116  -8.0959    110.2164    131.9537   8.7385375434e+01   3.3466601989e+01    0.2940245    0.2071413   1.20  0.001226164    2.085    0.520
       117  -7.9689     72.2406    132.0633   9.8407693233e+01   3.9674971493e+01    0.2425056    0.1661572  87.59  0.001083687    1.972    0.493
       118  -7.7725    245.3439    129.6884   5.7601914078e+01   6.7376982567e+00    0.1329822    0.1005625 -63.36 0.0007046053    1.704    0.413
       119  -9.3061     15.3038    128.9922   1.1476442069e+02   4.6502236712e+01    0.2590849    0.1282476 -68.06  0.001293926    1.615    0.381
       120  -8.9297     13.5055    121.9352   1.1437185871e+02   4.8347485764e+01    0.1979737    0.1055298 -70.84 0.0006272976    1.536    0.349
       121  -7.5876     89.1174    124.1178   9.1658856088e+01   3.9042068670e+01    0.2001813    0.1748794  86.33   0.00043622    1.315    0.239
       122  -8.5781    126.8079    128.3476   8.1985453529e+01   3.1114825576e+01    0.4085249    0.1895602  52.62  0.001381114    2.768    0.639
       123  -7.9227     31.1608    123.4383   1.0927129163e+02   4.6580793647e+01    0.2392109    0.1718463  46.26  0.001341606    1.588    0.370
       124  -7.5113     64.6608    120.9540   9.8431134887e+01   4.3466489107e+01    0.1963983    0.1733423 -58.15 0.0004744265    1.041    0.039
       125  -7.5238    104.3904    120.5310   8.6301966489e+01   3.7243992665e+01    0.1527068    0.1441189 -53.03 0.0002323963    1.055    0.052
       126 -14.3058     30.9369    248.4187   1.2162933495e+02   1.8384736979e+01    0.5986058    0.3352242  57.71  0.003872906    1.422    0.297
       127  -8.9117    247.7341    115.9015   5.4246226928e+01   8.5985117605e+00    0.3406618   0.09711784 -39.14  0.001213472    2.897    0.655
       128  -7.5529     66.1689    116.4012   9.6977526824e+01   4.4379865576e+01    0.1900659     0.132161  45.60 0.0004161117    1.622    0.384
       129  -7.6935    109.0714    111.3083   8.2586301721e+01   3.8508490061e+01    0.2081332    0.1921162  36.31 0.0003759649    1.123    0.110
       130  -7.7004     50.2717    110.3847   1.0080539006e+02   4.7843447121e+01    0.1734616    0.1300698  39.97 0.0003793095    1.509    0.337
       131  -8.7186    249.3359    107.6779   5.2227005795e+01   9.6507949352e+00    0.2757692    0.1549462 -18.61  0.001189515    2.516    0.603
       132 -15.4719     15.4302    215.7731   1.2250541160e+02   2.6433132156e+01     1.589324    0.6332433  66.54  0.007647804    2.569    0.611
       133  -7.4884     69.2948    104.3309   9.3148800814e+01   4.6850640343e+01    0.1518008    0.1042537 -27.27            0    1.635    0.388
       134  -7.0926     52.6916    102.6832   9.8306932179e+01   4.9419183224e+01    0.1470919    0.0965251 -31.35 0.0002933368    1.633    0.388
       135  -8.5811     99.1925     96.4416   8.1460627218e+01   4.3717879068e+01    0.2517075    0.2036348 -41.63 0.0003630495    1.183    0.154
       136  -8.3267     42.9993     92.9475   9.9409913690e+01   5.2811820716e+01    0.2021476    0.1786101 -47.40 0.0003230701    1.044    0.042
       137  -6.9602     93.6374     89.3174   8.1126863544e+01   4.6292968913e+01    0.1498185    0.1215844  83.46 0.0007041543    1.768    0.434
       138  -7.3745     75.5526     88.4782   8.6822882147e+01   4.9551100108e+01    0.1472976    0.1314612 -27.02 3.715056e-05    1.027    0.027
       139  -7.5594     38.8696     82.8857   9.8464253861e+01   5.5556478906e+01    0.1640185    0.1535979 -78.74  0.001027516    1.266    0.210
       140  -7.6747     80.4805     78.5277   8.2171051682e+01   5.0884958206e+01     0.148707    0.1301905 -15.61 3.827249e-05    1.076    0.071
       141  -7.5657     11.4125     75.2393   1.0717745313e+02   5.9495224920e+01    0.1623592    0.1055837 -69.68 0.0004921175    1.484    0.326
       142  -7.4795     74.5345     71.4273   8.1974175109e+01   5.3321415783e+01    0.1415615    0.1288486 -15.86 0.0001131051    1.032    0.031
       143  -8.2687     23.4122     69.8044   1.0113628507e+02   5.9861897965e+01      0.19523    0.1658372  -6.37 0.0001830469    1.244    0.196
       144  -7.5497     49.5886     60.8756   8.7885659714e+01   5.9045584504e+01    0.1741338    0.1213147 -55.62  0.000457136    1.621    0.383
       145  -7.6063     31.5348     61.2932   9.5421331226e+01   6.0964589949e+01    0.1883368   0.09857435 -42.79 0.0009470066    1.577    0.366
       146  -7.1402     45.3583     58.2496   8.8723521237e+01   6.0088021368e+01    0.1348753   0.08969133 -13.15 0.0002442147    1.605    0.377
       147  -9.4423    188.9970     49.6652   4.6955956738e+01   3.1662937158e+01    0.2039945    0.1791675  71.91  0.001178577    1.112    0.101
       148  -7.2587    122.8132     48.6144   5.9456091715e+01   4.7646489933e+01    0.1795644    0.1344939  63.62 0.0001275829    1.455    0.313
       149 -11.1155    195.1214     43.1910   4.4392038510e+01   3.1100132509e+01    0.6426316    0.3846495 -38.35  0.002524711    1.622    0.384
       150  -8.2967    206.3943    242.2063   8.6609780518e+01  -5.1249127396e+00    0.1967437    0.1393155  25.69  0.000326806    1.201    0.167
       151 -10.2682    213.0667     28.3382   3.8578458963e+01   2.8844370126e+01    0.3991967    0.3228119  30.50  0.001082861    1.680    0.405
       152  -8.8547     99.9813    241.4703   1.0781590493e+02   1.0917202145e+01    0.1883503    0.1050081  38.97  0.000477266    1.533    0.348
       153  -7.6266     30.7573     41.9612   8.9324580025e+01   6.4812945496e+01    0.1710781    0.1339028 -23.27            0    1.022    0.021
       154  -8.0119     60.3712     40.0063   7.5937299552e+01   6.1281603796e+01    0.1831677    0.1451884 -18.07 0.0004213082    1.128    0.113
       155  -7.8394     22.4808     38.0258   9.1736910724e+01   6.6333060270e+01    0.1765086    0.1026613 -45.20 0.0004266728    1.499    0.333
       156  -8.0754    158.9059     35.0653   4.7635856601e+01   4.0855878286e+01    0.2016774    0.1842038  58.63 0.0003869505    1.049    0.047
       157  -7.6475    232.4536     21.5414   3.5208400383e+01   2.5413021282e+01    0.1194181    0.1041287 -72.42 9.759128e-05    1.078    0.072
       158  -7.3450    244.1766     16.5833   3.3229445425e+01   2.3551251772e+01    0.1407191    0.1013368  68.23 0.0002027153    1.479    0.324
       159  -9.3394     97.3962    238.7197   1.0803856568e+02   1.1798516461e+01    0.2223818    0.1551481 -71.09  0.001035648    1.625    0.385
