#   1 NUMBER                 Running object number                                     
#   2 MAG_AUTO               Kron-like elliptical aperture magnitude                    [mag]
#   3 X_IMAGE                Object position along x                                    [pixel]
#   4 Y_IMAGE                Object position along y                                    [pixel]
#   5 X_WORLD                Barycenter position along world x axis                     [deg]
#   6 Y_WORLD                Barycenter position along world y axis                     [deg]
#   7 A_WORLD                Profile RMS along major axis (world units)                 [deg]
#   8 B_WORLD                Profile RMS along minor axis (world units)                 [deg]
#   9 THETA_WORLD            Position angle (CCW/world-x)                               [deg]
#  10 FWHM_WORLD             FWHM assuming a gaussian core                              [deg]
#  11 ELONGATION             A_IMAGE/B_IMAGE                                           
#  12 ELLIPTICITY            1 - B_IMAGE/A_IMAGE                                       
         1 -12.9346    119.8751     10.3337   7.6458802039e+01   5.4885309588e+01     3.511645     1.586053  74.58   0.01253409    2.612    0.617
         2 -14.4793    153.9104     49.9917   8.4662132352e+01   4.0440359448e+01     6.989102     4.083072 -87.52  0.009660001    3.257    0.693
         3 -14.0150    241.9276    116.1103   8.7348086746e+01   1.0595037102e+01      5.66654     1.369517 -26.67   0.01600068    4.468    0.776
         4 -14.2333    232.9673     60.5235   7.5229091349e+01   1.9469926705e+01     2.689138     1.899586  -0.36   0.01416844    1.631    0.387
         5 -13.8983    207.8946     60.1760   7.8407703790e+01   2.5202332605e+01     7.210754      2.37987 -47.44   0.02159838    4.164    0.760
         6 -13.4725    222.4857     40.4380   7.1186207463e+01   2.4224886929e+01     2.234324     1.510496 -30.00   0.01082944    1.356    0.263
         7 -12.6826    210.2700      6.3333   6.2991211584e+01   3.0732699460e+01     1.167873    0.5110325 -25.10  0.003271137    2.166    0.538
         8 -15.3914    243.2943      6.5061   6.0767495902e+01   2.3037572869e+01     3.284064    0.5776396  65.74   0.01134382    4.676    0.786
         9  -9.7645     54.7507     19.8870   1.0525916485e+02   6.8656313256e+01     0.531755    0.2044326 -48.70  0.001931914    3.117    0.679
        10 -14.6753    247.5397     22.1563   6.4274576819e+01   2.0624969961e+01     1.373455    0.7722901 -24.80  0.003015988    1.616    0.381
        11  -9.0743    178.6030     15.2289   6.8780625481e+01   3.8113453734e+01    0.5290535    0.1465125 -37.30   0.00174531    3.159    0.683
        12  -8.2908    188.5009     12.6558   6.6843902900e+01   3.5719792800e+01    0.4765382    0.2140017 -30.36  0.001981868    2.089    0.521
        13 -11.2474    184.0795      6.4502   6.5355273767e+01   3.7481286640e+01    0.6178461    0.2124393 -30.09  0.001961845    2.613    0.617
        14 -14.0209    182.7618     89.4332   9.0843749612e+01   2.6842281662e+01     8.364449     2.027222 -41.85    0.0224942    4.554    0.780
        15  -9.5465      8.4177      8.8012   1.3238946617e+02   7.6016319267e+01     0.183992   0.08627763 -52.30 0.0008709595    1.640    0.390
        16  -8.5866    171.8669      2.7208   6.5406492030e+01   4.1120255101e+01     0.278127    0.1423966 -49.12 0.0006987622    2.019    0.505
        17  -9.1428     52.0631      1.9321   9.5715494303e+01   7.2028553186e+01    0.2360045    0.1734762 -32.18 0.0008465015    1.394    0.283
        18  -9.5257     94.7459      1.6864   7.8408043878e+01   6.2420257563e+01    0.3841022    0.1825057  76.15 0.0009124422    2.898    0.655
        19  -8.8640      2.9801      2.0000   1.3450390090e+02   7.7704939659e+01    0.1776372   0.06528191   8.18 0.0008074487    2.977    0.664
        20 -10.2527    221.6576    177.2031   1.0322247507e+02   6.2377926382e+00    0.3246689    0.2733317 -73.45   0.00186649    2.672    0.626
        21 -12.8965     45.5316    177.0102   1.4287886582e+02   3.3362772882e+01    0.7865848    0.7149252   4.25  0.001861783    1.432    0.301
        22  -9.6768    220.9958    170.4961   1.0209350808e+02   7.1818764375e+00     0.268309    0.1790439  54.21  0.001419493    2.330    0.571
        23  -9.9183    230.3129    167.3007   9.9869375195e+01   6.0935352659e+00    0.2800515    0.1609789 -38.27   0.00150693    2.096    0.523
        24  -8.5189    203.6656    160.9267   1.0343444740e+02   1.1371309647e+01    0.1799637    0.1536407  -6.84 0.0006110739    1.151    0.132
        25 -10.1165     61.6502    247.5494   1.4374161078e+02   1.9034182001e+01    0.1804956    0.1468458  35.23 0.0005053235    1.286    0.222
        26 -11.3591    205.2737    122.9772   9.4995829350e+01   1.6640628412e+01    0.5321095    0.2824818  42.38  0.002425361    1.824    0.452
        27  -7.8874     42.2494    246.6824   1.4730918287e+02   2.1218601188e+01    0.1040892   0.05165733  55.31 0.0001750431    1.526    0.345
        28  -9.7352    134.8566    120.7436   1.1025260979e+02   3.1765827101e+01    0.3709651    0.1075401 -48.00  0.001093639    3.837    0.739
        29 -11.5746    199.5151    106.3051   9.2049205736e+01   2.0383229227e+01    0.5692973    0.3809246 -24.30  0.002776469    1.480    0.324
        30 -12.3118    215.3959    117.1795   9.1834274987e+01   1.5476028660e+01     1.046221    0.5027625  54.57  0.004405218    2.509    0.601
        31 -12.1156    205.9506    110.6468   9.1942829295e+01   1.8358011745e+01    0.7331576    0.5103153  31.52  0.003279842    1.438    0.304
        32  -9.7079    135.2641    107.8135   1.0697504714e+02   3.4339262254e+01    0.4334548    0.2675785 -30.64   0.00180441    1.917    0.478
        33 -10.5023     70.2469    239.1319   1.4162127305e+02   1.9345676502e+01    0.2387289   0.08358745  48.81  0.001261869    2.168    0.539
        34  -9.0167    141.0666    103.0208   1.0417674907e+02   3.4039988751e+01    0.2610151    0.1911097   9.51   0.00113722    1.777    0.437
        35 -10.3676     71.2962    232.9675   1.4102597935e+02   2.0190154733e+01    0.1565272    0.1179312  49.77 0.0008211603    1.071    0.066
        36  -9.5589    147.2868     98.5900   1.0137466915e+02   3.3509393817e+01    0.3387568     0.277182   9.69  0.000795983    1.375    0.273
        37  -9.4848    133.9464     95.8819   1.0414358298e+02   3.7073546942e+01    0.4054695    0.3091332 -56.36   0.00071218    1.503    0.335
        38  -9.8036    227.2081     96.7883   8.5051622875e+01   1.5959957216e+01    0.3593262     0.349103 -16.53  0.002270756    1.170    0.145
        39 -10.2012    157.1512     90.8447   9.6791801366e+01   3.2670336599e+01    0.5476181    0.3718484  21.18  0.002269792    1.855    0.461
        40  -8.2840    120.6519     98.3511   1.0860617176e+02   3.9459982218e+01    0.1629481     0.124785  82.86 0.0007038217    1.823    0.452
        41 -10.6800    164.9539     85.8741   9.3577869841e+01   3.1691614132e+01    0.9016243    0.5258877 -69.17  0.002749949    4.179    0.761
        42 -11.3257    154.9328     80.2617   9.4216546319e+01   3.5124693691e+01    0.3899933    0.3141215 -30.40 0.0004123505    1.271    0.213
        43  -9.8272    140.7681     87.5570   9.9925162844e+01   3.7166822198e+01    0.3246394    0.3028371  59.61 0.0007170555    1.122    0.109
        44 -10.4247      2.0721     76.8715   1.4873949930e+02   6.0009577155e+01     0.331221     0.172812 -84.03  0.001741639    1.624    0.384
        45 -10.9675     78.6006    227.5755   1.3918333882e+02   2.0182720606e+01    0.2861507    0.1165471 -54.70  0.001498971    3.296    0.697
        46 -10.3685    187.9666     67.0744   8.3526669846e+01   2.9073342007e+01    0.3789979    0.2573114  30.03  0.001711981    1.707    0.414
        47 -10.6586    193.1232     63.3832   8.1581758131e+01   2.8336937541e+01    0.3964975    0.2915798  22.77  0.001896943    1.590    0.371
        48  -9.7026    142.8431     67.1318   9.3018139320e+01   4.0481746648e+01    0.3881141    0.2295035 -54.39  0.001212779    2.173    0.540
        49 -12.1184    160.3711    129.3852   1.0588685019e+02   2.4806148935e+01    0.8253335    0.5611047  13.91  0.003714252    1.841    0.457
        50  -8.7587      2.3036     64.6767   1.4758771548e+02   6.2994576775e+01    0.1263087   0.08109748  63.10  0.000501621    1.637    0.389
        51  -9.0347     72.8848     58.9649   1.1339619702e+02   5.7572085867e+01    0.3835096    0.2032079 -62.93  0.001451615    2.548    0.608
        52  -9.3304     71.6121     53.8039   1.1210506046e+02   5.8936540349e+01    0.3125205    0.2238744 -67.28  0.001456267    1.765    0.433
        53  -8.5159    192.0655    144.0283   1.0224645883e+02   1.5998331095e+01    0.1900974    0.1746477 -89.19 0.0004741415    1.598    0.374
        54 -11.0361    134.3302     51.2625   8.9673817419e+01   4.5393803724e+01    0.5522121    0.3264075  53.52  0.002281258    1.624    0.384
        55  -9.5068    156.5583    143.6941   1.0990024703e+02   2.2948137504e+01    0.2421691    0.1704424  56.80 0.0005891682    1.695    0.410
        56  -9.0350    128.0972    142.0527   1.1660941224e+02   2.8714961409e+01    0.2122634    0.1901004  34.94 0.0003092654    1.011    0.011
        57  -9.9618    183.0033    195.6352   1.1368013608e+02   9.9578574554e+00    0.1960003    0.1661985  -0.85 0.0003810414    1.202    0.168
        58  -8.0915    121.4393    135.2740   1.1702735917e+02   3.1360327683e+01    0.1870199    0.1445689 -71.03 0.0006584084    1.595    0.373
        59 -10.3198     71.0186    225.9933   1.4061931747e+02   2.1351124061e+01    0.1573966    0.1320536  -0.40   0.00113673    1.701    0.412
        60  -8.5911     39.4923    226.0320   1.4697213858e+02   2.4808998118e+01    0.1553501    0.1097665  47.66 0.0004558919    1.043    0.041
        61 -12.2481    167.6906    115.1814   1.0081632403e+02   2.5836179313e+01    0.9823623    0.6886138 -22.45  0.002832008    1.571    0.363
        62  -9.1353     83.4977    214.4988   1.3713666694e+02   2.1747757991e+01    0.1193035   0.09207615  43.40 -0.0002289296    1.028    0.027
        63  -8.9707     57.9359     33.7928   1.1044946253e+02   6.5455163831e+01    0.2932489    0.1887271 -49.56  0.000758108    1.580    0.367
        64 -10.8722     68.0979    144.4907   1.3367248444e+02   3.7829147218e+01    0.7061274    0.3428221  57.02  0.002946572    2.308    0.567
        65 -10.5552    192.6606    132.3450   9.9567421847e+01   1.7715562322e+01    0.2900534    0.2155532  12.59  0.001509134    1.375    0.272
        66  -8.2805     69.3829     33.2323   1.0459114201e+02   6.3578419636e+01    0.2052046    0.1336641 -49.55 0.0007895888    1.688    0.407
        67  -8.9616    208.6570    130.3188   9.6048571257e+01   1.4883587758e+01    0.1282159    0.1130103 -74.37 0.0007049418    1.720    0.419
        68 -12.1314     13.2431    203.7770   1.5146348034e+02   3.1175531192e+01     0.625839    0.3109924  44.59  0.002780889    1.460    0.315
        69 -12.4228     17.4540    198.7060   1.5042017799e+02   3.1758867879e+01    0.6061019    0.3407618  69.72  0.003027614    1.497    0.332
        70 -12.2139     11.5246    197.7793   1.5164762617e+02   3.2431391985e+01    0.4785549    0.3786391  86.86  0.002758429    1.299    0.230
        71  99.0000     69.8408    160.8881   1.3517733388e+02   3.3939537177e+01     1.703358     1.269704 -14.20   0.00921098    2.006    0.502
        72 -13.1066     28.4660    185.7063   1.4744854357e+02   3.3289562611e+01     1.610937    0.9848997  61.22   0.01032069    1.340    0.254
        73  -9.1440    191.5592    192.8006   1.1154246042e+02   8.9872618572e+00    0.3789687    0.2372454 -63.75  0.001440774    5.680    0.824
        74  -8.1659    125.5217    127.0003   1.1418117747e+02   3.2329729375e+01    0.2025568    0.1502582 -46.69 0.0003315914    1.450    0.310
        75  -9.5896    213.7726    131.4154   9.5367469830e+01   1.3745139084e+01    0.2581825    0.1294644  49.19  0.001149066    2.159    0.537
        76  -9.6671    221.6364    191.2898   1.0572651063e+02   4.5437509434e+00     0.213845    0.1772985  31.41 0.0008112217    1.423    0.297
        77 -10.8104    216.5444    189.1045   1.0625284051e+02   5.5710111555e+00    0.5206467    0.2760794  51.17  0.001811401    3.102    0.678
        78  -9.1529    134.4462    148.4106   1.1621765507e+02   2.6265505441e+01    0.4338714    0.2040053 -64.34  0.001376503    4.518    0.779
        79  -8.3565    189.9544    180.7377   1.0979813071e+02   1.0905560062e+01    0.1921139    0.1396558  30.01 0.0005951133    1.153    0.132
        80 -12.4433     55.8727    167.7753   1.3953796528e+02   3.4161414924e+01    0.7311515    0.5956663  76.02  0.002828067    1.152    0.132
        81 -10.3459    144.3828    146.5129   1.1338708088e+02   2.4768289836e+01    0.4202245    0.2915243 -71.71  0.001899664    2.307    0.567
