#   1 NUMBER                 Running object number                                     
#   2 MAG_AUTO               Kron-like elliptical aperture magnitude                    [mag]
#   3 X_IMAGE                Object position along x                                    [pixel]
#   4 Y_IMAGE                Object position along y                                    [pixel]
#   5 X_WORLD                Barycenter position along world x axis                     [deg]
#   6 Y_WORLD                Barycenter position along world y axis                     [deg]
#   7 A_WORLD                Profile RMS along major axis (world units)                 [deg]
#   8 B_WORLD                Profile RMS along minor axis (world units)                 [deg]
#   9 THETA_WORLD            Position angle (CCW/world-x)                               [deg]
#  10 FWHM_WORLD             FWHM assuming a gaussian core                              [deg]
#  11 ELONGATION             A_IMAGE/B_IMAGE                                           
#  12 ELLIPTICITY            1 - B_IMAGE/A_IMAGE                                       
         1 -13.4538    220.4378     56.2472   2.7269313603e+01   2.5664507785e+01     1.030522    0.8125789 -74.19  0.006831269    1.097    0.088
         2 -13.3759    240.0044     42.8035   2.3258013025e+01   2.4074698818e+01    0.8849586    0.6747321  62.11  0.006828983    1.731    0.422
         3  -9.7230     19.5131      7.4891   5.7792571904e+01   7.2713760441e+01    0.1198334   0.09297598  20.37 5.886034e-05    1.020    0.020
         4  -9.5403      2.9749      2.3228   6.5749588429e+01   7.5594610826e+01    0.1758873   0.07475095  45.48  0.000704937    4.393    0.772
         5  -9.9424    116.4049    246.1823   8.2830286546e+01   6.4137850918e+00     0.167349    0.1327215 -72.75 0.0009500026    1.708    0.414
         6 -12.8945     36.5949    170.5587   9.4883667113e+01   3.4441256207e+01     1.547392     0.796317   0.15 0.0005628766    2.790    0.642
         7 -15.8458      8.7172    232.5358   1.0804399789e+02   2.1337824037e+01     13.11264     5.928459 -76.77   0.06261037    2.207    0.547
         8 -11.1131     80.6937    246.8058   9.1527110218e+01   1.0617049995e+01    0.3037824    0.2242679  62.90  0.001423606    1.615    0.381
         9 -15.0242      8.5203    207.9777   1.0660044259e+02   2.7224621032e+01     5.511448     1.474885 -57.89   0.01958827    3.511    0.715
        10  -9.6569    119.6837    236.5004   8.0750574161e+01   7.9405583468e+00    0.2114125       0.1239 -52.62  0.000682733    1.853    0.460
        11  -9.9478     65.0475    235.5296   9.4235379735e+01   1.4905935875e+01    0.2105017    0.1207277  27.77 0.0007562578    1.551    0.355
        12 -11.2044     96.1492    227.2758   8.5326140941e+01   1.2920516045e+01    0.4826001    0.1224955  28.92  0.001547406    3.385    0.705
        13 -10.5388    239.1700    248.1596   5.8349828674e+01  -6.9892558733e+00     0.139471    0.1144691 -20.34 0.0009475061    1.362    0.266
        14 -10.3901     97.3788    220.6365   8.4115630049e+01   1.4244309689e+01    0.2215238    0.1652129  58.13   0.00111925    1.625    0.385
        15 -12.0127      1.6301    193.1403   1.0747822463e+02   3.1497208347e+01    0.3687849    0.1814647 -74.91 0.0007031929    1.876    0.467
        16 -10.8489     77.5445    203.6000   8.7084658749e+01   2.0896180984e+01    0.3575102    0.2646691 -81.67 0.0005534305    1.606    0.377
        17 -14.5522      8.0490    188.4339   1.0534007428e+02   3.2235331703e+01     2.189691     1.101619 -71.40  0.004841243    1.836    0.455
        18  -9.0793    192.5063    194.0004   5.7777102837e+01   6.7353161288e+00    0.1756514    0.1125603 -64.47 0.0008106346    2.622    0.619
        19 -11.0919     54.2547    246.2567   9.7946348847e+01   1.3761612325e+01    0.3647596    0.1845295  42.82  0.001756909    1.768    0.434
        20 -10.7309    230.4945    167.0032   4.6527393242e+01   6.6312415011e+00    0.2393542    0.1525458 -50.54  0.001426485    1.521    0.343
        21 -10.7556    244.9947    167.8793   4.4603865590e+01   4.7368808004e+00    0.2511414    0.1459208   6.59  0.001267714    3.229    0.690
        22  -8.8618    110.5344    167.0556   7.1711015822e+01   2.5067606077e+01    0.2187577    0.1498103 -52.95 0.0003527269    1.464    0.317
        23 -11.8456     44.9706    164.9240   9.1424711457e+01   3.5054763102e+01    0.3593755    0.3093555  -8.21 0.0004520108    1.251    0.200
        24 -10.7886     78.3968    160.3212   7.9929933298e+01   3.1860812535e+01    0.5785146    0.2924787  61.53  0.001734008    3.930    0.746
        25 -12.1177    235.8862    157.0063   4.3993689765e+01   7.6204221538e+00    0.3313462    0.2439511 -35.79  0.002225109    1.082    0.076
        26 -10.8205     58.8586    156.3054   8.5510086777e+01   3.5678669654e+01    0.2949172    0.2702058   2.74 0.0003531699    1.117    0.105
        27 -11.9771     67.9342    150.7971   8.1526909832e+01   3.5900512063e+01    0.5825505    0.4798216  44.56  0.001211606    1.261    0.207
        28 -13.1834     68.3639    143.7138   8.0025410937e+01   3.7707236181e+01     1.223499    0.8246297  65.85  0.002796921    2.021    0.505
        29 -13.1703     43.3126    151.9571   9.0031234426e+01   3.8765655681e+01    0.6398959    0.4008424 -19.78   0.00181777    2.022    0.505
        30 -10.6611     86.2269    139.3958   7.3273051293e+01   3.6017300798e+01    0.3899249     0.325079  20.22 0.0008198061    1.228    0.185
        31  -9.5527     90.2324    136.3516   7.1338917097e+01   3.6103435944e+01    0.2920468    0.2211877   5.70  0.001085944    1.564    0.360
        32 -12.3903    242.7278    134.0865   3.9063057478e+01   1.0465816381e+01    0.5108004    0.2067506 -34.14  0.002357852    2.630    0.620
        33 -11.6804     73.3952    136.4786   7.6854429059e+01   3.8831004152e+01    0.3479866     0.310579 -31.08 0.0003043885    1.120    0.107
        34 -10.5170    104.3242    129.8134   6.5550548433e+01   3.5177792814e+01    0.6013241    0.3728973  49.48  0.002541902    1.772    0.436
        35 -10.5889     67.6492    125.6202   7.6475182712e+01   4.2500948472e+01    0.3295042    0.2392901 -40.95  0.001531309    1.382    0.277
        36 -10.3495     88.0871    124.5116   6.9308225455e+01   3.9388313521e+01    0.3060529    0.2668356  13.25 0.0005561802    1.190    0.160
        37 -11.3318     52.8792    117.2128   8.0010715924e+01   4.6794841185e+01     0.471495    0.2626711 -75.32  0.001767741    2.565    0.610
        38  -9.2571    101.5552    117.9134   6.3511697670e+01   3.8473331373e+01    0.2154878    0.2013707  34.22 0.0003215253    1.064    0.060
        39 -12.4514    244.2610    112.4930   3.5085639647e+01   1.3652274225e+01    0.4206923    0.2599805 -39.04  0.002686047    1.377    0.274
        40  -9.6224    204.5706    110.6755   3.9777197460e+01   2.0151466685e+01    0.3036867    0.2090919  25.22  0.001603787    2.377    0.579
        41 -10.4603     51.2346     99.5324   7.6434247574e+01   5.1389784871e+01    0.2844054    0.2051996 -52.86 0.0008466709    1.392    0.282
        42 -11.8765    244.5988     93.8169   3.1766210700e+01   1.6422226099e+01    0.3057888    0.1498578 -36.79  0.001710242    1.939    0.484
        43 -10.4075     52.9990     90.9165   7.3431561966e+01   5.3140052497e+01    0.3541112    0.1964161 -43.06  0.001358329    1.803    0.446
        44  -9.4398     41.7044     91.9955   7.8454027823e+01   5.4472293603e+01    0.2022844    0.1815236 -29.33 0.0005577567    1.059    0.056
        45  -9.8214    168.2308     88.0134   4.0588071433e+01   3.0829031694e+01    0.1775886    0.1043652 -43.12 0.0004837211    1.614    0.381
        46 -10.7046      6.4237     84.7416   9.2942206372e+01   5.9639855682e+01    0.2665338    0.1960231  76.71   0.00139959    1.827    0.453
        47  -9.7373    184.4323     77.7053   3.5766543843e+01   2.9273176585e+01    0.1723388    0.1169186 -34.13   0.00094997    1.622    0.384
        48 -10.9192      2.4026     61.8343   8.9793923672e+01   6.5156068820e+01    0.2963519    0.1929668  23.33  0.001642719    1.597    0.374
        49  -9.2779    249.6836    249.6693   5.6904932959e+01  -8.0409979541e+00     0.113854   0.05814375 -17.62 0.0006667133    1.683    0.406
        50  -9.1448    193.3309    249.6834   6.6699100727e+01  -2.9972400060e+00    0.1024983   0.09362709  34.62   0.00070467    1.684    0.406
        51 -11.3918     12.5967     59.4912   8.3510726065e+01   6.4888586999e+01    0.4503803    0.2407917  40.76  0.001527036    2.346    0.574
        52  -9.9752      2.0000     51.9731   8.7333096182e+01   6.7276754781e+01    0.2009866   0.06714149 -60.22 0.0008038332    2.952    0.661
        53 -10.4501      2.9255     39.0131   8.2616274398e+01   6.9770250861e+01    0.2341893    0.1513883  10.27  0.001373204    1.394    0.282
        54 -10.2180    140.0085    249.5076   7.7829811226e+01   2.9331408648e+00    0.2031128    0.1119911  24.46  0.001034583    1.597    0.374
