#   1 NUMBER                 Running object number                                     
#   2 MAG_AUTO               Kron-like elliptical aperture magnitude                    [mag]
#   3 X_IMAGE                Object position along x                                    [pixel]
#   4 Y_IMAGE                Object position along y                                    [pixel]
#   5 X_WORLD                Barycenter position along world x axis                     [deg]
#   6 Y_WORLD                Barycenter position along world y axis                     [deg]
#   7 A_WORLD                Profile RMS along major axis (world units)                 [deg]
#   8 B_WORLD                Profile RMS along minor axis (world units)                 [deg]
#   9 THETA_WORLD            Position angle (CCW/world-x)                               [deg]
#  10 FWHM_WORLD             FWHM assuming a gaussian core                              [deg]
#  11 ELONGATION             A_IMAGE/B_IMAGE                                           
#  12 ELLIPTICITY            1 - B_IMAGE/A_IMAGE                                       
         1 -18.5511    237.0370     96.6971   1.1642835358e+01   1.5946845453e+01     7.839471     3.482003 -33.29   0.03047921    1.827    0.453
         2  -9.8906    171.6593      1.7896   3.5422915031e+02   4.1619033254e+01    0.1809892    0.1629508   2.73 0.0006632252    1.394    0.282
         3  -9.7061    234.6826    216.3391   3.4534861706e+01  -2.5649531860e-01    0.1695955    0.1378657  -3.87 0.0006320885    1.244    0.196
         4 -12.3010    225.9442    248.4042   4.0597795407e+01  -3.0415444742e+00    0.3746215    0.2803815  -2.12  0.003084845    1.147    0.128
         5 -13.4589    242.4073    246.2533   3.7762303366e+01  -4.3769697752e+00     1.104197    0.5753646  22.68  0.007895509    1.651    0.394
         6 -12.8135    246.6781    235.0879   3.5534220453e+01  -3.5969112661e+00    0.5581082    0.3861486   5.05   0.00449869    1.128    0.113
         7 -10.0661    239.6901    206.5555   3.2217891679e+01   3.9062729337e-01    0.2160445    0.1789178  22.92  0.001184295    1.529    0.346
         8 -11.3489    249.7882    203.7235   3.0261274741e+01  -3.5132043472e-01    0.3517497    0.1312859 -29.01  0.001626674    2.282    0.562
         9 -11.8198    192.4986    194.5209   3.8107425731e+01   7.7871522543e+00    0.7625748    0.4169677 -58.66   0.00306214    4.507    0.778
        10  -9.5678    226.8143    230.1655   3.7867265910e+01  -1.0686786337e+00     0.149297   0.09523261  -3.19 0.0003780996    1.284    0.221
        11 -12.5766    190.8865    153.2614   3.0766680312e+01   1.4699653960e+01     1.882898     0.696877 -47.06  0.007190569    3.056    0.673
        12 -13.4660    192.7437    164.1125   3.2568169585e+01   1.2588418759e+01    0.7967896    0.6154686 -16.30  0.001281261    1.189    0.159
        13 -12.3169    199.6983    164.3538   3.1360496952e+01   1.1493619935e+01    0.4387119    0.4017519   4.13 0.0008822947    1.169    0.144
        14 -11.0756    177.6438    169.6318   3.6493033245e+01   1.3988183709e+01    0.4719023    0.3578765   3.47  0.001917625    1.355    0.262
        15  -9.3730    179.4158    164.2064   3.5109933793e+01   1.4652555129e+01    0.2451827    0.1850788 -64.32  0.001301932    1.965    0.491
        16  -9.8607    175.4875    164.4907   3.5939496944e+01   1.5227826642e+01    0.2606757    0.1591835 -37.31 0.0009470924    1.559    0.358
        17  -9.6681    110.8454    167.8981   5.1306167865e+01   2.5037737639e+01     0.206321     0.200576  33.42 0.0005226641    1.021    0.021
        18  -9.7570    215.5055    164.4881   2.8689224654e+01   9.1612340055e+00    0.2245812     0.165692 -32.02 0.0007561881    1.222    0.182
        19  -9.9966    213.0102    161.5024   2.8530603857e+01   9.9740665924e+00    0.2251566    0.2027935  22.76 0.0009609634    1.288    0.224
        20  -9.4351    141.8944    164.1222   4.3079964564e+01   2.0792608766e+01    0.1919822    0.1867998  86.33 0.0003176495    1.191    0.161
        21 -12.3545    155.2103    135.8610   3.4254213392e+01   2.4131518533e+01      0.97626    0.4456022 -46.48  0.002912118    2.155    0.536
        22 -13.3287    151.2845    125.4150   3.2736551763e+01   2.6976608268e+01     1.402273    0.8309111 -42.28  0.006317788    1.614    0.380
        23 -12.4755    134.0339    106.9775   3.2221590264e+01   3.4283194333e+01     1.391378    0.3944536 -47.23  0.004016888    3.543    0.718
        24 -13.3901    136.7615    122.7739   3.5513185483e+01   3.0369259256e+01     2.237744      1.06597 -40.66  0.008700439    2.117    0.528
        25 -11.8798    151.7907    146.5776   3.7333871485e+01   2.2613862810e+01     0.616509    0.4415443  39.57  0.001586945    1.425    0.298
        26 -12.4285    139.2566    142.2195   3.9310286293e+01   2.5765698271e+01    0.6772279    0.5649499 -17.18  0.002232705    1.291    0.226
        27 -12.1335    145.0919    140.4186   3.7547709583e+01   2.5075855709e+01    0.5969254    0.3968171 -54.32  0.001215844    1.627    0.385
        28 -12.6100    164.5579    143.7848   3.3971014501e+01   2.0885055741e+01    0.4894409    0.3821135 -44.15  0.001503006    1.266    0.210
        29 -11.7880    159.2665    144.4490   3.5239198437e+01   2.1700215889e+01    0.3593165    0.2939571 -22.60 0.0009275947    1.217    0.178
        30 -11.9721    246.6587    185.8472   2.7738503562e+01   2.1978778941e+00    0.5419732    0.4698261  78.96  0.003638478    2.725    0.633
        31 -11.1080    172.6987    149.9785   3.3597952491e+01   1.8305404811e+01    0.3345694    0.2432784  24.31  0.001608559    1.459    0.315
        32 -10.7962    243.4877    180.5452   2.7281826527e+01   3.2528578809e+00    0.1863108    0.1682285  -8.22 0.0008671506    1.390    0.280
        33 -13.0660     68.0992    143.7824   5.9304647969e+01   3.7240798205e+01     1.173096    0.7003463 -69.31  0.003600939    1.708    0.414
        34 -12.6665     41.3357    117.2908   6.3979707876e+01   4.7596122522e+01     0.588499    0.5135868 -54.31   0.00169845    1.154    0.133
        35 -14.0400     57.5599    118.9984   5.8470240263e+01   4.5131324040e+01     1.787207      1.61772 -48.11   0.00386751    1.143    0.125
        36 -13.4882     48.9806    116.6862   6.1102318105e+01   4.6855994760e+01     1.179376    0.7149003 -56.55     0.003363    1.555    0.357
        37 -13.7008     10.4113    119.4532   7.5522947446e+01   4.9775068393e+01     1.063965     0.996443  36.93  0.004610659    1.190    0.160
        38 -11.4947    145.6869    147.8157   3.8980141280e+01   2.3449472004e+01    0.6579649    0.4478891  56.42  0.002636107    1.835    0.455
        39 -11.8589    114.0818    107.2218   3.7557954762e+01   3.8331220383e+01     1.308778    0.4524642 -51.63  0.004114762    3.046    0.672
        40 -12.5916    126.0822    106.7419   3.4180078896e+01   3.5985888141e+01    0.8720117    0.5256558 -59.42  0.003579498    1.953    0.488
        41 -12.3493    119.8652    102.2763   3.4638395824e+01   3.8252408509e+01     0.534152    0.4804057  27.92  0.002783895    1.194    0.162
        42 -11.9760    133.3595    143.8354   4.1080446305e+01   2.6488916277e+01     1.415494    0.3728242 -54.30  0.003542321    5.693    0.824
        43 -11.0469    118.9949     91.8397   3.1943583587e+01   4.0702260123e+01    0.4297476    0.3236144 -78.10  0.001942392    1.719    0.418
        44  -9.8275    157.4734     89.7474   2.2281178715e+01   3.2659237177e+01    0.3586199    0.1418519 -35.96   0.00127001    2.519    0.603
        45 -10.7549    238.1616    187.6841   2.9310476895e+01   2.9527555541e+00    0.2549411    0.2166652 -47.11  0.001203207    1.819    0.450
        46  -9.8341    160.0261     82.9956   1.9904235949e+01   3.3321425179e+01    0.2290719    0.1804611   4.75 0.0006481052    1.691    0.409
        47 -10.3584    138.0308     74.9318   2.2129041337e+01   3.9803864621e+01    0.5201011    0.2054756  62.12  0.001632067    3.523    0.716
        48 -10.8760    235.0054    183.3462   2.9037699035e+01   3.9055187358e+00     0.410504    0.1781241 -27.43  0.001979707    2.088    0.521
        49 -10.7282    172.9742     63.1470   1.2035838401e+01   3.3710822730e+01    0.2560711    0.1949413 -39.03 0.0006196618    1.207    0.172
        50  -9.0304    151.2935    181.0219   4.4022389930e+01   1.6027255187e+01    0.1737093    0.1601287 -24.62 0.0003752967    1.119    0.106
        51 -11.5458    181.8044     51.3681   7.4530407084e+00   3.3449766233e+01    0.3036129    0.2201602  66.92  0.001084195    1.469    0.319
        52 -12.6602    186.0766     48.2506   6.0439452140e+00   3.2919824736e+01    0.8186516    0.5027591   6.36  0.003214005    3.348    0.701
        53  -8.8482    174.3150     46.2966   7.0149566358e+00   3.5881188325e+01    0.1323362    0.1074752  25.85 0.0002702595    1.605    0.377
        54 -10.2525    190.1198     36.6310   2.4015257421e+00   3.3539841305e+01     0.241897    0.1536887 -43.65 0.0006966572    1.357    0.263
        55 -11.6107    157.9255     33.5064   5.3995919488e+00   4.1505551512e+01    0.6589817    0.3896842  16.32  0.002533383    3.374    0.704
        56  -9.7627    161.8927     26.6736   2.7371932687e+00   4.1380887012e+01    0.2063168    0.1861682 -18.36 0.0004025041    1.259    0.206
        57 -10.8764    182.2247    151.2273   3.1980592723e+01   1.6472708758e+01    0.3910948    0.2465869 -43.12 0.0007916445    1.542    0.352
