#   1 NUMBER                 Running object number                                     
#   2 MAG_AUTO               Kron-like elliptical aperture magnitude                    [mag]
#   3 X_IMAGE                Object position along x                                    [pixel]
#   4 Y_IMAGE                Object position along y                                    [pixel]
#   5 X_WORLD                Barycenter position along world x axis                     [deg]
#   6 Y_WORLD                Barycenter position along world y axis                     [deg]
#   7 A_WORLD                Profile RMS along major axis (world units)                 [deg]
#   8 B_WORLD                Profile RMS along minor axis (world units)                 [deg]
#   9 THETA_WORLD            Position angle (CCW/world-x)                               [deg]
#  10 FWHM_WORLD             FWHM assuming a gaussian core                              [deg]
#  11 ELONGATION             A_IMAGE/B_IMAGE                                           
#  12 ELLIPTICITY            1 - B_IMAGE/A_IMAGE                                       
         1 -11.0095     35.5745     60.9774   9.0922391989e+01   6.1106625429e+01     3.053607    0.9892128 -32.36  0.008174463    6.618    0.849
         2 -11.0615     23.8450     31.9834   8.6418458343e+01   6.7693980844e+01     1.422815    0.4694993 -36.09  0.002976749    3.005    0.667
         3 -10.9431     37.5966     10.5757   7.0290047780e+01   6.9138421383e+01     1.059343    0.3688041 -42.85  0.004356707    4.124    0.758
         4 -10.8655      4.4925      6.9711   8.6426298681e+01   7.3379494322e+01     1.040902    0.3887005 -34.75  0.003439882    2.309    0.567
         5 -10.2243     27.7979     11.3037   7.5420793939e+01   7.0359905734e+01    0.7219455    0.3559836  33.21  0.003048389    1.921    0.479
         6 -10.2756     18.5833      5.5141   7.7467333068e+01   7.2206545713e+01    0.5917457    0.4382297 -48.19  0.003139921    2.080    0.519
         7 -10.2939      5.0082     41.5659   9.9234470887e+01   6.7463828772e+01    0.6298656    0.3345775 -58.87  0.002782506    1.793    0.442
         8 -10.6424      7.1209     29.8652   9.4324115920e+01   6.9484416092e+01    0.5869688    0.4089697 -38.97  0.003124404    1.192    0.161
         9  -9.0075     71.9714      8.5320   5.5978672027e+01   6.3510188031e+01    0.2131834    0.1635501   0.38  0.000496537    1.332    0.249
        10  -9.4718     78.0387      4.0301   5.2225872135e+01   6.2722130316e+01    0.4595803    0.2858308  -7.11  0.002273184    1.849    0.459
        11 -10.4744     73.6516     17.4145   5.9202159402e+01   6.2262250724e+01     1.233624    0.4320832 -21.31  0.004551076    4.124    0.758
        12 -10.1816     69.4263     40.7548   7.0058991115e+01   5.9941488642e+01    0.9390192    0.3817498 -35.79  0.003989036    2.534    0.605
        13  -9.7730     78.9015     24.1282   6.0239352235e+01   6.0465857739e+01    0.6100431    0.2823265  29.64  0.001358425    2.755    0.637
        14 -10.7503    134.0609     30.9192   4.8667351259e+01   4.7527509801e+01    0.3556531    0.2747612   2.18   0.00195365    1.655    0.396
        15 -10.1725     63.1383      3.0517   5.6455701636e+01   6.5700218917e+01    0.5827967    0.4166043  -4.22  0.003741433    1.440    0.305
        16  -9.4779     63.3462     21.4908   6.4531699032e+01   6.3683469693e+01    0.3684624    0.2749838 -51.36  0.001092353    1.949    0.487
        17 -10.0782     64.5442     13.4644   6.0623855310e+01   6.4401685018e+01    0.3896468    0.2657104   7.77 4.757014e-06    1.537    0.349
        18 -10.2886     51.4885     14.8219   6.6214979982e+01   6.6502603148e+01    0.8945413    0.4578649  12.25  0.003906586    3.071    0.674
        19 -10.2136     46.2623     29.3979   7.4810674019e+01   6.5353023397e+01    0.5648572    0.3207484 -50.53  0.002315876    2.510    0.602
        20 -10.1263    155.6875     26.7722   4.3598585083e+01   4.2854258538e+01    0.4826059    0.3649609  86.02  0.002743503    1.292    0.226
        21  -8.4105    136.5013      1.4494   3.9103214017e+01   4.9927340163e+01    0.4502485   0.07507495  57.78  0.001541445    3.654    0.726
        22  -9.3019    129.5874     19.7261   4.5984143041e+01   4.9846420321e+01    0.4980635    0.1936094 -26.60   0.00207186    2.964    0.663
        23 -10.3278    133.5653     12.0201   4.2830120151e+01   4.9681075070e+01    0.7933155    0.2366696 -30.07  0.003124109    3.481    0.713
        24  -8.6491    112.2857     15.4002   4.8042420279e+01   5.4292008592e+01    0.2730929    0.1943822 -49.16 0.0005408734    1.690    0.408
        25  -9.2309    114.1940      9.8629   4.5719600590e+01   5.4383669487e+01    0.4255614    0.1925535  41.00  0.000623716    2.278    0.561
        26  -8.7247    104.6004     14.9085   4.9597518417e+01   5.6068356142e+01     0.330509     0.192487  18.88  0.001576369    2.348    0.574
        27  -9.8219     10.3738     18.7863   8.8242193885e+01   7.1094767784e+01    0.6683398    0.2833985 -10.75  0.002634582    4.299    0.767
        28  -9.0879     96.2197     14.9195   5.1648687826e+01   5.7904272408e+01    0.4903641    0.2280195 -16.40  0.002131936    2.812    0.644
        29  -9.7064     85.3157     12.4645   5.3616797476e+01   6.0453166768e+01    0.5759605    0.2898894 -34.46   0.00181154    2.247    0.555
        30  -7.6334     85.5024      2.4927   4.9551340183e+01   6.1317649130e+01    0.1623466    0.1139329 -32.60 0.0009420412    1.678    0.404
        31  -8.8364    125.1096     13.0158   4.4655451963e+01   5.1569120305e+01    0.2739975    0.2271427   1.04 0.0004591696    1.441    0.306
        32  -8.2702    120.9610      5.9795   4.3102926923e+01   5.3171823958e+01    0.2385675     0.152596  69.08 0.0009554701    1.401    0.286
        33  -8.7662    126.7148      8.6717   4.2953221216e+01   5.1598157870e+01    0.2092932    0.1325076  52.18 0.0005043095    1.382    0.277
        34  -9.5688    125.7811      5.0713   4.1952452331e+01   5.2131346459e+01    0.3147388    0.2432254  27.65  0.001313157    1.465    0.317
        35  -8.1643     80.4965     12.3848   5.4978213287e+01   6.1445187106e+01    0.2297424    0.1602962 -43.01  0.001328207    1.817    0.450
        36  -8.5443    154.9809      7.3018   3.8213907882e+01   4.5053294914e+01    0.5352527    0.1539443 -47.32  0.001897885    4.222    0.763
        37  -9.1842    102.0468      7.8358   4.7599120392e+01   5.7297654389e+01    0.2915897    0.2230059 -76.86 0.0004875264    1.721    0.419
        38  -8.3431    104.4650      2.1729   4.5001379119e+01   5.7237536313e+01    0.3693143    0.1706429  35.49  0.001703715    2.419    0.587
        39  -7.7039    147.2860      8.6516   3.9662648173e+01   4.6751105098e+01     0.130365   0.08775198 -67.85  0.000394886    1.655    0.396
        40  -9.3284    110.3526      4.2754   4.4547106328e+01   5.5743322434e+01    0.3613228    0.2903803 -23.63  0.002312997    1.447    0.309
        41  -8.6483    115.4351      4.0406   4.3475898159e+01   5.4606364851e+01    0.2345015     0.191979 -53.85 0.0008296727    1.437    0.304
        42  -8.4373     97.9616      5.9631   4.7839665821e+01   5.8359360604e+01    0.1946198     0.145367  40.23 0.0003370564    1.190    0.159
        43  -8.4564     95.8375      2.7972   4.7133512842e+01   5.9087427240e+01    0.2468892    0.2067391  17.66 0.0007012233    1.247    0.198
        44  -8.0211    143.3733      5.0999   3.9188893226e+01   4.7998357330e+01    0.1707423    0.1065994 -43.90 0.0009383601    1.762    0.432
        45  -8.4463     88.9603      2.6905   4.8748362370e+01   6.0573011668e+01     0.174958    0.1351001  50.70 0.0003601532    1.096    0.087
        46  -9.5090    110.9080     89.7969   7.2728919572e+01   4.3058618467e+01    0.7808668    0.3745695  29.66  0.002630845    3.085    0.676
        47 -10.9799    194.9590    249.0891   8.5789718679e+01  -4.8334140463e+00    0.7088354     0.330263  44.16  0.002410118    2.486    0.598
        48 -10.1874    108.8110    114.4817   8.0016471973e+01   3.8053795014e+01    0.6655384    0.4442249 -83.04  0.001490488    2.501    0.600
        49  -9.8694     41.9047    122.4286   1.0286441442e+02   4.6311999442e+01    0.6697518    0.3512532 -88.93   0.00256995    2.965    0.663
        50  -9.8876     27.3152    122.6591   1.0760241811e+02   4.7668647408e+01    0.5462482    0.2965579  72.46   0.00233267    2.674    0.626
        51  -7.8318    158.1991    121.9160   6.9004129650e+01   2.6075277077e+01    0.3063614    0.1942091  72.63  0.001158087    2.514    0.602
        52  -9.8882    140.7461    118.4393   7.2354067870e+01   3.0590789433e+01    0.4857857     0.355938 -85.91   0.00133579    1.964    0.491
        53 -10.8951    108.7058    100.8094   7.6457956131e+01   4.1155828388e+01     1.050615    0.7819926 -74.51  0.004773937    1.777    0.437
        54  -8.4745      1.6139    116.7210   1.1495908979e+02   5.0943926454e+01    0.3627226    0.1437631 -84.01  0.001508929    2.690    0.628
        55 -10.3026     92.1963    112.9619   8.4625693883e+01   4.1492814286e+01    0.7061294    0.5159641  64.35  0.002399701    1.730    0.422
        56  -9.1191     92.7545    103.6565   8.2076209074e+01   4.3553934015e+01    0.6999169    0.4075135  14.75  0.002540355    2.919    0.657
        57  -8.4096    152.6383    114.8662   6.8553623805e+01   2.8779100073e+01    0.2249644    0.1400668 -54.39 0.0008649411    1.729    0.421
        58 -10.2240     78.2487    112.8240   8.9003019568e+01   4.3863834019e+01    0.5674687    0.3765577 -83.22  0.001711298    2.242    0.554
        59 -10.3867     63.0281     95.5404   8.9880376279e+01   5.0217916320e+01    0.8282652    0.4607288 -67.02   0.00166488    2.281    0.562
        60  -9.2320     64.3679     86.3916   8.6974470194e+01   5.2091094484e+01    0.7706639    0.4675073 -35.57  0.003603275    1.697    0.411
        61 -10.4075     66.0303    109.5323   9.2246089921e+01   4.6493311630e+01     1.334947    0.5966744 -57.62  0.003759684    2.145    0.534
        62  -9.1393     59.4208    109.2976   9.4417372608e+01   4.7457606272e+01     0.458171    0.3299545 -80.15  0.001270428    1.672    0.402
        63  -8.7026    217.1230    248.8970   8.1575994457e+01  -7.7674934302e+00    0.2447287    0.1450216 -17.30  0.001416103    1.760    0.432
        64  -9.6880     14.1633    110.4835   1.1005314941e+02   5.1681009293e+01     0.750145    0.2718227 -73.34  0.002567565    2.636    0.621
        65 -10.8096     21.8333    102.7119   1.0615507800e+02   5.2996656543e+01     1.423701    0.6545867 -86.27   0.00368152    3.561    0.719
        66 -10.4300     25.6817     77.9286   9.9620241960e+01   5.8439894056e+01    0.6384109    0.4110757  80.44  0.002045549    2.671    0.626
        67 -11.4449    121.1936    107.8556   7.4787614747e+01   3.7058594244e+01     1.597261    0.6862228 -46.91   0.00574065    2.317    0.568
        68  -9.2360    171.1487    248.7160   9.0428337344e+01  -1.3941949051e+00     0.287604    0.1655067  -4.61  0.001277361    2.978    0.664
        69  -9.5393     16.1040     70.1371   1.0171367909e+02   6.0896156942e+01    0.3951847    0.2100523 -59.54  0.001338608    1.639    0.390
        70  -9.7978     16.7834     60.5892   9.9031456067e+01   6.2878477523e+01    0.7357272      0.33921 -49.39  0.003758448    1.735    0.424
        71 -10.8180     21.8086     53.2248   9.4678640386e+01   6.3976224530e+01    0.7553273    0.4877186 -89.83  0.002821646    3.524    0.716
        72  -9.5258    152.3879    248.3871   9.4194787838e+01   1.4240378702e+00    0.2551313    0.1783011 -59.55  0.001151792    1.876    0.467
        73 -10.5088    128.4973    101.0979   7.0999510822e+01   3.6970873380e+01    0.9723688    0.4678988 -33.73  0.002537593    2.599    0.615
        74  -8.7149    235.1824    245.1599   7.7726426080e+01  -9.5262904330e+00    0.1848469    0.1273334  -0.45 0.0009493395    1.237    0.192
        75 -10.0301     13.0677     45.3344   9.6400205420e+01   6.6206729957e+01    0.7579446    0.3570993  -9.10  0.002475735    2.755    0.637
        76 -10.2203     34.4222     89.8422   9.8973131416e+01   5.4941776838e+01    0.8220683    0.3512864 -74.20  0.002807079    3.948    0.747
        77  -9.9125     37.5147     80.2774   9.5490126786e+01   5.6803237291e+01    0.6190085    0.3254287 -11.60  0.002524722    3.020    0.669
        78  -7.8765    159.0122    111.8335   6.6312332165e+01   2.8007261669e+01     0.230461    0.2010821 -79.29 0.0004201943    1.266    0.210
        79  -9.3878    142.4790    111.3880   7.0128174937e+01   3.1741811051e+01    0.5155812    0.3079059  18.10  0.001719045    3.327    0.699
        80  -8.9322     35.5523    111.1684   1.0293483409e+02   4.9743888059e+01    0.2329782    0.1992634  16.69  0.001087612    1.319    0.242
        81 -10.8433     45.1432    102.5207   9.7864410747e+01   5.0835968713e+01    0.8990473    0.4971166  69.88  0.003220065    3.885    0.743
        82  -9.3673     31.1393    108.3583   1.0392844960e+02   5.0846014622e+01    0.2880056    0.2614524  50.59  0.001798551    1.249    0.200
        83  -9.1079     39.9580    106.7131   1.0055824585e+02   5.0385590116e+01    0.2629948    0.1882534 -69.69 0.0007126509    1.368    0.269
        84  -8.8385    150.4696     96.3543   6.4251267962e+01   3.3058336399e+01    0.4609709    0.2906691 -42.52  0.002033132    1.581    0.367
        85  -8.0869     82.2140     93.9194   8.2865313829e+01   4.7598388337e+01    0.2825034      0.19222  -0.42 0.0008355999    2.125    0.529
        86  -7.7411     78.3225    105.3253   8.7149438987e+01   4.5631943025e+01    0.3110523    0.1835684 -13.26  0.001079802    3.339    0.701
        87  -9.5372     81.4462    100.0715   8.4772149887e+01   4.6338185768e+01    0.4629527    0.3025768 -67.21 0.0008969232    1.903    0.475
        88  -9.2976      6.4859    103.4423   1.1160959041e+02   5.3856526989e+01    0.3542697    0.2232425  73.70  0.001197564    1.953    0.488
        89  -8.2930    166.0212    103.8309   6.2733290044e+01   2.8058300249e+01    0.2628295    0.2068647 -47.66  0.000542092    1.244    0.196
        90  -9.7476    149.5560    103.2246   6.6287127251e+01   3.1882369831e+01    0.4755531    0.3197392 -60.57 0.0009792441    1.741    0.426
        91  -8.1917     74.0343    102.4715   8.7855439339e+01   4.6977694685e+01    0.3060187    0.1892121 -57.30  0.001121729    1.621    0.383
        92  -8.7559    159.0308    101.2757   6.3603793001e+01   3.0141330463e+01    0.2843707     0.213707 -53.27 0.0005989067    1.356    0.263
        93  -9.7873    244.6436     99.1301   4.8354807988e+01   1.2447621761e+01     0.462672    0.1777699 -54.72  0.001681479    3.425    0.708
        94  -9.1016    239.7878     96.7032   4.8483877974e+01   1.3751908950e+01    0.2445557    0.1639892  42.41 0.0004729038    1.900    0.474
        95  -9.9254     81.5995     72.2144   7.6667738284e+01   5.2267491859e+01      0.47269    0.3401474 -73.51  0.001095555    2.194    0.544
        96  -9.1240     83.3340     64.4752   7.3572777692e+01   5.3430102444e+01    0.5158401    0.3921822  14.31  0.002699384    1.437    0.304
        97 -10.3648     85.3411     86.3441   7.9686157124e+01   4.8706797060e+01      1.41235    0.4908003  47.24 0.0009775982    3.526    0.716
        98 -10.4068     91.4749     93.0529   7.9600799780e+01   4.6155401385e+01    0.3986924    0.2652586  26.77 0.0003195744    1.678    0.404
        99  -8.6068    164.4572     93.9949   6.0528045089e+01   3.0322492454e+01    0.3554475    0.2427096 -42.93  0.001084388    1.443    0.307
       100  -9.6999    138.6119     92.9361   6.6165584810e+01   3.6418306027e+01    0.4631331    0.4230351 -81.75  0.001173229    1.172    0.147
       101  -9.3093    140.3740     83.1690   6.3002864173e+01   3.7912635533e+01    0.7575856     0.304787 -35.19  0.002037216    2.849    0.649
       102  -9.0299    139.9682     74.6116   6.0646480857e+01   3.9575370780e+01    0.5650668     0.227752 -42.23  0.001561299    2.515    0.602
       103  -9.0662    157.8067     90.8688   6.1130509450e+01   3.2444576154e+01    0.4462949    0.2358864 -39.85  0.001821779    1.902    0.474
       104  -9.9820      4.3361     89.2371   1.1017073143e+02   5.7311456035e+01    0.5519738    0.2936102  88.91  0.002091445    2.466    0.594
       105  -8.7796    150.3946     89.4008   6.2389711343e+01   3.4429439669e+01    0.3080472    0.2446212 -68.64 0.0007557871    1.430    0.301
       106  -8.0459     47.3233     90.4228   9.4279644036e+01   5.3425780969e+01    0.2487248    0.1746124  38.74  0.001311513    1.590    0.371
       107  -9.0737    187.4448     97.9454   5.6985080042e+01   2.4381674421e+01    0.3494693    0.2623507 -29.06   0.00109089    1.459    0.315
       108  -8.5977    163.2225     86.5970   5.8836045100e+01   3.1992883985e+01       0.2741     0.205283 -44.07 0.0006914238    1.323    0.244
       109 -10.6139     55.1323     70.8591   8.5940021793e+01   5.6712539827e+01    0.5937933    0.4726464  53.10  0.002502077    1.608    0.378
       110 -10.5901     60.6371     61.3248   8.0771155105e+01   5.7816790495e+01     1.274992    0.4223775  29.60  0.003053652    3.760    0.734
       111 -10.0905     47.9722     84.3542   9.2500115363e+01   5.4724543905e+01    0.5334314    0.3675292  85.57  0.001809978    2.455    0.593
       112  -8.8416     48.9915     77.0092   9.0123380225e+01   5.6214441972e+01    0.4250342    0.2717689 -19.87  0.001547966    1.840    0.456
       113  -8.5079    159.3199    245.6751   9.2395855029e+01   8.4151668751e-01    0.1231234   0.09333473  58.35 0.0004739673    1.678    0.404
       114 -10.3141    103.9303     82.5230   7.2661638897e+01   4.5967093638e+01    0.5258289    0.3202694 -53.50  0.000943091    1.851    0.460
       115  -9.7246    105.1151     71.4237   6.8903802822e+01   4.7872936664e+01    0.8359017    0.3882653 -33.02  0.003169582    2.527    0.604
       116  -9.5383     88.3380     78.3224   7.6304512456e+01   4.9830127835e+01    0.7229741    0.3608049  27.56   0.00273602    2.626    0.619
       117  -8.7244    157.7063     83.3983   5.9139383628e+01   3.3860997654e+01    0.3048347    0.1923607 -51.56 0.0008517567    1.665    0.399
       118  -9.0412    157.2958     76.7048   5.7396246672e+01   3.5157459308e+01    0.5744399    0.2357204 -44.67  0.002020765    2.469    0.595
       119  -7.3909    170.4884     83.5113   5.6553481482e+01   3.0867876640e+01    0.1484011    0.1383392 -77.92 0.0008101196    1.042    0.040
       120  -8.8582    149.9605     80.2760   5.9970740073e+01   3.6233631615e+01    0.3661791     0.195823 -45.07  0.001383558    1.897    0.473
       121  -9.2583    115.2356     71.8501   6.6135347206e+01   4.5644884414e+01    0.5703995    0.2881214 -37.03  0.001573454    2.083    0.520
       122  -8.8146    119.0318     80.4557   6.7695590463e+01   4.3205018316e+01    0.3444093    0.2324041 -51.92 0.0006040396    1.615    0.381
       123  -8.6342    119.8921     75.7826   6.6061125840e+01   4.3902782579e+01    0.2962712    0.2443637  33.12 0.0005742704    1.242    0.195
       124  -9.0915     74.2738     79.1002   8.1336286966e+01   5.2123482466e+01    0.6396937    0.2593532 -47.33  0.002215073    2.384    0.580
       125  -9.2541      6.8195     78.1605   1.0723553825e+02   5.9703484485e+01    0.6513752    0.2000181 -34.00  0.002382382    3.952    0.747
       126  -8.6929    166.3796     78.5391   5.6046329214e+01   3.2705897265e+01    0.2649533    0.2140176 -51.43 0.0006366692    1.229    0.186
       127  -9.6072     94.1781     96.9697   7.9829659700e+01   4.4797672611e+01    0.3976302    0.3290683  89.25 0.0007088019    1.553    0.356
       128  -8.2684    184.0292     77.9988   5.2627492762e+01   2.8698961726e+01    0.2148622    0.2124736 -25.16 0.0007848606    1.144    0.126
       129  -9.6592    127.6291     74.0743   6.3512197958e+01   4.2494777629e+01     0.687414    0.3342241 -36.98  0.001689239    2.171    0.539
       130  -8.3026    162.7577     72.8608   5.5231736926e+01   3.4537770042e+01    0.3159779    0.1776074 -46.99 0.0007830969    1.808    0.447
       131  -8.9206    169.4427     70.7475   5.3375313525e+01   3.3318189133e+01    0.4476752    0.1480274 -34.84  0.001471959    3.315    0.698
       132  -7.5752    175.4316     72.4723   5.2731050858e+01   3.1624926243e+01     0.143123    0.1341384 -78.24 0.0002006087    1.008    0.008
       133  -9.4679    147.0899     68.7357   5.7335819337e+01   3.8933464183e+01    0.5867971     0.270495 -44.76  0.001054794    2.249    0.555
       134  -8.2790    156.3996     70.0825   5.5747554264e+01   3.6509502093e+01    0.2460115    0.1943211  47.06 0.0004525412    1.288    0.223
       135  -8.0225     95.2291     54.0022   6.6171365043e+01   5.2952440560e+01    0.3679067    0.1839217 -47.67   0.00117979    2.381    0.580
       136  -9.8063     94.7902     68.0547   7.0991104489e+01   5.0587155994e+01    0.6513979    0.2635025 -45.02  0.001233253    2.584    0.613
       137  -8.9729     97.9741     57.5298   6.6529984254e+01   5.1807049942e+01    0.6190186     0.374986  -2.12  0.002362834    3.104    0.678
       138  -7.7703     23.1650     68.9017   9.8434659213e+01   6.0623990390e+01    0.1750501    0.1601067 -62.98 0.0003479867    1.233    0.189
       139  -9.2178    138.1852     64.8160   5.8183580742e+01   4.1679718325e+01    0.6099663    0.2544382 -36.68  0.001681455    2.514    0.602
       140  -8.9717    121.2430     65.8954   6.2670469192e+01   4.5378211470e+01    0.3500811    0.2472444 -54.33 0.0009448804    1.628    0.386
       141  -8.1628    122.1777     61.1205   6.0935861417e+01   4.5975397233e+01    0.2832766    0.1881991  36.00 0.0006820082    1.610    0.379
       142  -8.6585    157.4930     63.3224   5.3638482321e+01   3.7363253308e+01    0.4172723    0.1973256 -36.49  0.001412914    2.191    0.544
       143  -8.5423    130.7046     63.7196   5.9617674431e+01   4.3597811304e+01    0.4632734    0.2005575 -37.71  0.001161328    2.401    0.584
       144  -9.2805    109.7512     63.7464   6.5118823322e+01   4.8272166638e+01    0.3303809     0.270826 -70.42 0.0007966266    1.538    0.350
       145  -8.5744    110.5177     58.3469   6.3154621163e+01   4.9019740053e+01    0.4006794    0.2855603  -0.62  0.001137943    1.913    0.477
       146  -9.9217     73.1712     59.3406   7.5406137348e+01   5.6172743943e+01    0.5431404    0.2713872 -51.34 0.0008560453    2.422    0.587
       147  -9.3235     74.8040     51.0799   7.1929312198e+01   5.7333161413e+01    0.7092075    0.3698869  19.13  0.002685402    3.181    0.686
       148  -7.7589    164.5469     60.0724   5.1395236623e+01   3.6198357868e+01    0.2104866    0.1386457 -38.42  0.001017608    1.559    0.358
       149  -7.6828    152.5114     60.0850   5.3715402220e+01   3.9063383645e+01    0.2074602    0.1412415 -38.84  0.000572453    1.520    0.342
       150  -8.7894    146.5754     58.1184   5.4365245466e+01   4.0782878257e+01     0.418011    0.2039554 -34.64   0.00110998    2.186    0.543
       151  -8.3920    148.0000     52.9772   5.2568283300e+01   4.1228860516e+01    0.2976207    0.1827435 -38.02  0.001402742    1.698    0.411
       152  -8.4117     87.6198     58.3264   7.0075207234e+01   5.3727143668e+01    0.2759361    0.2233125 -68.20 0.0007236928    1.688    0.407
       153  -8.3888     96.6623     33.1993   5.8347374072e+01   5.5709134001e+01    0.1852802    0.1467251  19.74 0.0003732022    1.300    0.230
       154  -8.3856     89.8326     52.4790   6.7339582448e+01   5.4282024272e+01    0.4627957    0.2459019  22.68  0.001748602    3.009    0.668
       155 -10.3113     85.1966     48.1915   6.7326932702e+01   5.5877327105e+01    0.4972984    0.3058907 -49.84  0.001097627    2.018    0.505
       156 -10.2392     89.8428     38.2229   6.2212538319e+01   5.6446266312e+01     1.024097    0.2734427  40.85  0.003166196    4.170    0.760
       157  -7.7785    163.9465    240.0000   9.0626462273e+01   1.0935669053e+00    0.2209911   0.06401921  35.78 0.0008101955    2.996    0.666
       158  -8.3144    129.9049     57.8626   5.8010585996e+01   4.4736982493e+01    0.2650107     0.199405 -48.45 0.0005454802    1.429    0.300
       159  -7.7000    130.6924     53.6600   5.6521272654e+01   4.5209975008e+01    0.2268152    0.1632392  22.05  0.001027858    1.784    0.439
       160  -8.5028    141.9083     48.3351   5.2432672064e+01   4.3359780287e+01    0.2706301    0.2045263 -37.77 0.0004474542    1.404    0.288
       161  -8.3817    142.4796     44.4973   5.1161747693e+01   4.3766120254e+01    0.2536979    0.1920142  38.36 0.0008834729    1.425    0.298
       162  -8.9032    138.9961     56.6234   5.5548784179e+01   4.2808471866e+01    0.3484406    0.2592188 -65.00 0.0008773535    1.594    0.373
       163  -8.0442    138.6298     52.2092   5.4295409383e+01   4.3568145856e+01    0.2509435    0.2289596  56.38  0.001034437    1.037    0.036
       164  -8.6969    122.9136     40.6015   5.4167534386e+01   4.8897950200e+01    0.4242769    0.2593462   2.53  0.001578025    2.860    0.650
       165  -9.2955    118.1049     55.2355   6.0109804248e+01   4.7845308939e+01    0.3558289    0.2698989 -61.82  0.001070059    1.628    0.386
       166  -9.0307    121.1287     47.4988   5.6841150026e+01   4.8337016647e+01    0.4602544    0.3141952 -25.21  0.001038984    1.659    0.397
       167  -9.9616     49.8823     54.0988   8.2637672392e+01   6.0710663745e+01    0.4992025    0.3117878 -57.81  0.001755604    2.068    0.516
       168  -9.6596     56.2449     43.1481   7.6067507949e+01   6.1718103003e+01    0.8097855    0.4295886   3.57  0.002915714    4.057    0.753
       169  -8.6627    162.9544     52.7970   4.9680860434e+01   3.7680868499e+01    0.4840277    0.2015308 -31.65  0.001866704    2.714    0.632
       170  -8.1004    152.5977     53.7178   5.1872479462e+01   4.0020757018e+01    0.1871193    0.1296865 -48.27 0.0003100262    1.504    0.335
       171  -8.8202    105.7091     52.0404   6.2407543736e+01   5.1074639760e+01    0.5405335    0.2710665 -29.52  0.001882414    2.292    0.564
       172  -8.5803    157.4892     48.5099   4.9465800971e+01   3.9611049967e+01    0.2401795    0.1186814 -46.14 0.0006536241    2.130    0.530
       173  -9.2358    130.0570     47.3831   5.4702504880e+01   4.6290880602e+01    0.3962114    0.2321443 -36.97  0.001277742    1.808    0.447
       174  -8.0254    132.3018     41.3493   5.2308246102e+01   4.6608098751e+01    0.2809502    0.2047321   8.96  0.001164382    1.873    0.466
       175  -9.3500    149.9218     47.1526   5.0488308214e+01   4.1616670366e+01     0.404274    0.2028416 -34.25  0.001239314    2.122    0.529
       176  -8.9796    112.1310     45.8237   5.8563171270e+01   5.0610095206e+01    0.4919065    0.2429457 -26.45 0.0009299374    2.454    0.593
       177  -7.9828    162.2716     45.6270   4.7812836065e+01   3.8870840114e+01     0.220148    0.1491604 -74.27 0.0006908017    1.756    0.430
       178  -8.6889     39.9788     34.7565   7.9797387354e+01   6.5379907254e+01     0.350004    0.2726319 -37.13  0.001586223    1.329    0.247
       179  -9.9661     37.9708     42.0004   8.3484617084e+01   6.4412818296e+01     0.383155    0.3240472  35.25  0.001463077    1.433    0.302
       180 -10.0477     35.9215     37.9173   8.2888780730e+01   6.5361013370e+01    0.3097039    0.1997501 -36.66 0.0003851691    1.418    0.295
       181  -9.2583    195.4530    232.9442   8.3170792715e+01  -2.4424247093e+00    0.3151423     0.260259  73.04  0.001321581    2.098    0.523
       182  -9.3659    188.0602    233.2534   8.4686343213e+01  -1.4076135770e+00    0.2542627    0.1961086 -54.12  0.001516096    1.726    0.421
       183 -10.3539    215.6673    227.2057   7.8334200339e+01  -4.4314467666e+00    0.2201192    0.1851904   8.99 0.0003679021    1.088    0.080
       184  -9.2640    183.8943    227.3635   8.4577067863e+01   1.8642379392e-01     0.296212    0.2039569  39.73  0.001462952    1.441    0.306
       185  -9.8344     76.0862     32.0552   6.4321255415e+01   5.9990395783e+01    0.4631347    0.3026549  49.37  0.001113009    1.542    0.351
       186  -8.9483    185.0445    222.7142   8.3579122276e+01   7.9585195598e-01    0.2467899    0.1841917 -21.17 0.0003034059    1.377    0.274
       187  -8.9037     84.7643     21.7319   5.7462711526e+01   5.9578487891e+01    0.2420965    0.2239255  31.54 0.0006750687    1.104    0.094
       188  -9.3409    154.1360     42.1489   4.8257707975e+01   4.1298401810e+01    0.3317229     0.205379 -52.35  0.001074604    1.767    0.434
       189  -9.1310    110.3128     33.0722   5.4667692506e+01   5.2748724656e+01    0.3126048    0.2842204 -31.78 0.0008960789    1.211    0.174
       190  -8.9252    104.9908     40.8540   5.8767444160e+01   5.2889570779e+01    0.3466312    0.2341906 -56.07 0.0008111619    1.971    0.493
       191  -8.1973    106.2259     36.5342   5.6925307727e+01   5.3207337508e+01    0.2684127    0.1965493  22.89 0.0006917968    1.519    0.342
       192  -8.7127    139.4919     39.8790   5.0360488719e+01   4.5103973370e+01    0.3169013    0.2145769 -38.09  0.001635473    1.577    0.366
       193  -8.5641     53.6221     38.6231   7.5403150536e+01   6.2849376677e+01    0.2381299    0.1490927 -38.71 0.0009401931    1.604    0.377
       194  -8.9550    144.3260     36.5204   4.8406596249e+01   4.4388891621e+01     0.290291    0.2042904 -60.62 0.0006533429    1.628    0.386
       195  -9.1282    153.3349     34.8450   4.6296671307e+01   4.2442934587e+01    0.2982043    0.1893278 -57.21  0.001476257    1.781    0.438
       196  -8.8907    132.8419     35.7974   5.0447564086e+01   4.7210423716e+01    0.2262883    0.1973389 -59.00 0.0005613817    1.251    0.200
       197  -8.3616    185.9653    218.1139   8.2619260658e+01   1.4426785653e+00    0.1921574    0.1681114  15.26 0.0003087229    1.042    0.040
       198  -8.8661    118.9774     34.7864   5.3162433601e+01   5.0567966090e+01    0.2800843    0.1946024 -34.77 0.0007181374    1.567    0.362
       199  -9.1272    101.0312     31.7594   5.6614083062e+01   5.4957743826e+01    0.4101182    0.2065632 -32.59  0.001424924    2.141    0.533
       200  -7.7982    106.0201    220.9916   1.0053041719e+02   1.3680514966e+01    0.2019828    0.1460524  66.16 0.0004263853    1.512    0.338
       201  -9.3868     60.1750     33.6011   7.0769430566e+01   6.2585221162e+01    0.3874099    0.2755081 -46.39  0.001558116    1.739    0.425
       202  -8.3403     63.4227     26.5884   6.6649304922e+01   6.3016494812e+01    0.3987984    0.1748306  43.17  0.001860287    2.114    0.527
       203  -7.0901    212.5911    215.4480   7.6898653308e+01  -2.1518113877e+00    0.1274401    0.1074535  -2.71 9.288749e-05    1.012    0.012
       204 -10.1686    152.5255    212.1096   8.8739353999e+01   7.9678669460e+00    0.2449087     0.236779   1.82 0.0003983019    1.082    0.076
       205  -8.5068    104.5756    208.1000   9.9119173492e+01   1.6656518481e+01    0.2354177    0.1866592  31.89 0.0003736126    1.252    0.201
       206  -9.9538     11.2364    207.1576   1.2031651771e+02   2.8717047920e+01    0.5085617     0.301038  16.20  0.002813683    2.421    0.587
       207  -8.6054     42.4013     27.8203   7.5861851338e+01   6.6132335236e+01    0.2457225    0.1611782 -12.05 0.0005843317    1.548    0.354
       208  -8.6436    228.1993     32.0481   3.6082208422e+01   2.5639372199e+01     0.209733    0.1526707 -88.11 0.0002212452    1.245    0.197
       209  -8.9398    193.4718    196.7501   7.7290225195e+01   4.0356249539e+00    0.5450814    0.2732674 -60.35  0.001859789    4.327    0.769
       210  -8.3549     92.0869     20.7872   5.4983036131e+01   5.8168181406e+01    0.3332689    0.1743993  31.82 0.0009771822    2.145    0.534
       211  -7.9361    240.1688     27.1039   3.4023806968e+01   2.3800979877e+01    0.1624045     0.142369 -68.05 0.0002770255    1.183    0.155
       212  -8.7981    143.6288     26.1459   4.5420045317e+01   4.5812264001e+01    0.3781561    0.2492098  35.00  0.001645447    1.814    0.449
       213  -8.6120    175.1265    197.7379   8.1307726369e+01   6.9375242670e+00     0.227687    0.1881869 -32.24 0.0003384516    1.218    0.179
       214  -8.5144    128.3912     25.5250   4.8080875753e+01   4.9494361373e+01    0.2747675    0.2047351 -53.31 0.0008918717    1.536    0.349
       215  -9.3114     36.7417    195.9934   1.1376907162e+02   2.8679320318e+01    0.2073157    0.1911469  80.46 0.0002881994    1.141    0.124
       216  -7.5597    160.7399    194.5331   8.3877625346e+01   1.0059963755e+01    0.1960018    0.1291731  47.90 0.0009301872    1.604    0.376
       217  -8.9868    111.7183     21.2146   5.0198954768e+01   5.3819185978e+01    0.3785008    0.1773314 -23.08  0.001697529    2.550    0.608
       218  -7.6528     83.6205    185.2901   1.0098392734e+02   2.5128729536e+01    0.1856543    0.1274555 -54.30 0.0002927657    1.500    0.333
       219  -7.5137    102.5943    184.2926   9.6020792155e+01   2.2385686812e+01    0.1882695    0.1340751 -48.18 0.0002810159    1.492    0.330
       220  -9.0703    102.9597     21.0925   5.2241712800e+01   5.5789192710e+01    0.2827942    0.2280565 -39.39 0.0009370876    1.426    0.299
       221  -8.9470     38.9614    180.2459   1.1166948055e+02   3.2185448278e+01    0.2135793    0.1687117 -71.15   0.00020379    1.189    0.159
       222 -10.4548    100.9983    176.0011   9.5060851747e+01   2.4616544782e+01    0.2060077    0.1964713  70.94            0    1.002    0.002
       223  -9.0881     91.4328     26.1643   5.7218336239e+01   5.7686209864e+01    0.3418848    0.2091584 -45.14  0.001156798    2.032    0.508
       224  -9.5849    118.4635     21.3270   4.8748826098e+01   5.2266541941e+01    0.2962796    0.2659316  47.78 0.0007008919    1.046    0.044
       225  -7.3202    226.2892    148.3017   6.1430719239e+01   7.2672159780e+00    0.1340912    0.1005424  -8.90 0.0006982735    1.564    0.361
       226  -7.7326    189.5502     16.0898   3.6362699683e+01   3.6062130076e+01    0.1741167    0.1175558 -39.40  0.001008702    1.539    0.350
       227  -9.6242     66.9970    144.2742   9.8973591229e+01   3.7719657607e+01    0.5365882    0.3389156  63.88  0.002384466    1.974    0.494
       228  -9.5624    181.6596    144.5327   6.9102747135e+01   1.6430041379e+01    0.2622398    0.2490978 -46.51 0.0002497798    1.057    0.054
       229  -8.0564    141.8064     12.7431   4.1699006608e+01   4.7662296221e+01    0.1776645    0.1384551 -81.37  0.000685341    1.336    0.251
       230  -8.2424    133.5048    144.0149   8.0268793711e+01   2.6298271205e+01    0.3858318    0.1485807 -59.97  0.001038644    4.335    0.769
       231  -7.7772    186.9637    141.4997   6.7324354054e+01   1.5982013812e+01    0.2332481    0.1856473 -41.45 0.0005494959    1.197    0.165
       232  -7.5945     95.9478    135.9926   8.8815375429e+01   3.5271644651e+01    0.2429299    0.1821608  73.99 0.0006007486    1.673    0.402
       233  -8.5982    112.5013    133.8575   8.3613968473e+01   3.2782311741e+01     0.393792    0.2669462  73.13  0.001530155    2.176    0.540
       234  -9.1374     83.7412    132.0936   9.1602364041e+01   3.8273900433e+01    0.6881879    0.3842615  69.05  0.002295854    3.519    0.716
       235  -9.9538    134.1007    130.9419   7.7108140378e+01   2.9186674142e+01    0.8035754    0.6534678 -64.73  0.002576495    1.332    0.249
       236  -8.5228    120.9562     15.3625   4.6230315868e+01   5.2306119006e+01    0.3067508    0.1624535  29.31  0.001358546    2.593    0.614
       237 -10.8196    131.6359    119.3533   7.4926989481e+01   3.2319925417e+01    0.8050043     0.605681  88.08  0.002139923    1.847    0.459
       238 -10.8850    133.7689    109.3217   7.1803763175e+01   3.4075080198e+01     1.086493    0.4436851 -43.35  0.002648459    2.457    0.593
       239  -9.0194     45.5502     15.6636   6.9104526572e+01   6.7336415085e+01    0.2069386    0.1628923  -3.53 0.0006707203    1.123    0.110
       240 -10.2611    139.3401    104.5163   6.9116807049e+01   3.3885189291e+01    0.7651982     0.442595 -42.60  0.002086624    1.730    0.422
       241 -10.9533     70.0026    126.5798   9.4679132987e+01   4.1742833240e+01    0.8433607    0.6126675 -39.91  0.001824864    1.428    0.300
       242 -10.0223     58.4112    124.4482   9.7923640562e+01   4.3861058792e+01    0.6513197     0.385305  75.32  0.002128181    2.808    0.644
       243  -9.7817     98.7721    128.5973   8.6352359843e+01   3.6580240572e+01     0.706881    0.4138318  66.05  0.002503809    2.860    0.650
       244 -10.2754    117.2200    124.2568   8.0041392240e+01   3.4137074094e+01    0.8281958    0.4261137 -53.16  0.001946515    1.992    0.498
       245 -10.5410    123.7621     90.1306   6.9221577371e+01   4.0266634344e+01     1.003992    0.6316516 -25.08  0.001862376    2.076    0.518
