#   1 NUMBER                 Running object number                                     
#   2 MAG_AUTO               Kron-like elliptical aperture magnitude                    [mag]
#   3 X_IMAGE                Object position along x                                    [pixel]
#   4 Y_IMAGE                Object position along y                                    [pixel]
#   5 X_WORLD                Barycenter position along world x axis                     [deg]
#   6 Y_WORLD                Barycenter position along world y axis                     [deg]
#   7 A_WORLD                Profile RMS along major axis (world units)                 [deg]
#   8 B_WORLD                Profile RMS along minor axis (world units)                 [deg]
#   9 THETA_WORLD            Position angle (CCW/world-x)                               [deg]
#  10 FWHM_WORLD             FWHM assuming a gaussian core                              [deg]
#  11 ELONGATION             A_IMAGE/B_IMAGE                                           
#  12 ELLIPTICITY            1 - B_IMAGE/A_IMAGE                                       
         1 -12.7726     63.0181     71.6466   2.9149130148e+02   6.5084605686e+00   0.07421419   0.01597342 -59.21  0.004871376    3.943    0.746
         2 -14.0545     82.8294     70.6755   2.9125678448e+02   6.4127924979e+00    0.0749277     0.041193 -38.70  0.007106693    1.977    0.494
         3 -15.6186    105.6074     83.3932   2.9106790305e+02   6.1469783536e+00     0.101895   0.08058915  20.02   0.01192361    1.262    0.208
         4 -15.2780     85.3146     90.5026   2.9134363970e+02   6.1762611304e+00    0.2298101   0.07525139 -42.72   0.01599428    3.634    0.725
         5 -10.5058     45.3310     42.5506   2.9152613567e+02   6.9309305015e+00   0.02890742  0.007182028 -51.92  0.002009897    3.456    0.711
         6 -11.6626     12.6519     21.6173   2.9178203032e+02   7.3418036548e+00    0.0213966   0.01345078 -69.45  0.002089715    1.732    0.423
         7 -11.7598      3.3969     25.6041   2.9191232587e+02   7.3465752100e+00   0.02858776    0.0123839 -53.56  0.002523422    2.155    0.536
         8 -11.8348      2.1593     15.9701   2.9187051059e+02   7.4615537701e+00   0.03266646  0.006870518 -59.85  0.002102397    4.092    0.756
         9  -9.2426     44.0280     25.9275   2.9144426860e+02   7.1249086640e+00   0.01054916  0.007145227 -28.24 0.0005202946    1.648    0.393
        10 -13.1754    247.1670    187.1906   2.9004183613e+02   4.2143503819e+00   0.09908424   0.01441554 -51.42  0.005757904    4.985    0.799
        11 -14.1856    238.6138    217.4712   2.9031664932e+02   3.9199024016e+00     0.147633   0.07009003 -50.91   0.01355099    2.006    0.501
        12  -9.1165     75.6482    220.2994   2.9220955521e+02   4.7663037343e+00   0.00682713  0.004802351  56.89 0.0007036901    1.693    0.409
        13  -9.7317     99.2257    218.2593   2.9192601778e+02   4.6625448127e+00    0.0101165  0.005511716 -77.09 0.0008847577    2.408    0.585
        14  -8.8125    143.6806    216.6889   2.9140475175e+02   4.4409265067e+00  0.006905896  0.004715657 -26.94 0.0007035719    1.645    0.392
        15  -9.9687    131.1049    215.4371   2.9154233674e+02   4.5227637787e+00   0.01212173  0.009194704 -57.44 0.0007557913    1.303    0.233
        16  -9.9624    111.7855    213.8767   2.9175585750e+02   4.6443436775e+00   0.01137625   0.00881615  -4.37  0.001284345    1.400    0.286
        17  -8.7063    185.6559    212.6543   2.9089795017e+02   4.2600381081e+00   0.00719636  0.004636878 -27.62 0.0007045244    1.795    0.443
        18  -9.6844    100.8379    207.2025   2.9184326784e+02   4.7784289782e+00   0.01432335   0.00597201  44.29  0.001147476    2.749    0.636
        19  -9.7646     57.9287    206.4581   2.9233356219e+02   5.0174281468e+00  0.009998188  0.004456551  46.10 0.0008083665    2.662    0.624
        20  -9.7070     81.5104    202.5088   2.9203880089e+02   4.9352394299e+00   0.01230606  0.005068244  36.93  0.001032977    2.374    0.579
        21 -10.1782     89.4968    199.9719   2.9193201446e+02   4.9208825238e+00    0.0127711  0.008511366  41.80 0.0007886573    1.564    0.361
        22  -9.5919    114.3032    198.8731   2.9163971280e+02   4.7997961284e+00   0.01351776  0.006414087  38.41  0.001212069    2.118    0.528
        23  -9.6542    126.8900    197.5738   2.9148711145e+02   4.7466568676e+00    0.0119066  0.008309384 -49.93  0.001298176    1.394    0.283
        24 -10.1146    173.0580    195.7767   2.9094480202e+02   4.5180192826e+00   0.01128262   0.01080397 -87.55 0.0007589073    1.121    0.108
        25  -9.3723    173.9787    191.9635   2.9091200633e+02   4.5559832751e+00  0.008769955  0.007514902  60.30 0.0003724985    1.304    0.233
        26 -10.3912     67.5352    195.3998   2.9215867476e+02   5.0904318312e+00   0.01608183   0.00856079  46.69  0.001478338    2.146    0.534
        27 -10.0479     78.5751    193.7286   2.9202168818e+02   5.0499367644e+00   0.01180023  0.007204673  45.10   0.00102019    1.779    0.438
        28  -9.8220     44.4389    194.1461   2.9241773223e+02   5.2285649158e+00   0.01297916  0.007539173  56.25  0.001191114    2.272    0.560
        29 -13.3551    246.4327    247.0589   2.9039899877e+02   3.5447920677e+00     0.143424   0.02898078  31.49  0.009379564    3.981    0.749
        30 -10.5867     88.5087    190.0532   2.9188582299e+02   5.0379362855e+00   0.01534055  0.008970966  29.60  0.001541724    1.670    0.401
        31 -12.0808     96.8575    187.6785   2.9177577846e+02   5.0197817870e+00   0.03218963   0.01331529  40.22  0.002697592    2.498    0.600
        32 -10.7886     55.9364    187.6771   2.9224762570e+02   5.2397401053e+00   0.01861166  0.009046006  50.00  0.001566381    2.636    0.621
        33  -9.7517     35.2073    188.1765   2.9248959643e+02   5.3453584425e+00   0.00924372  0.007609189  57.69  0.001073707    1.364    0.267
        34  -9.4399    121.2901    187.6727   2.9149410104e+02   4.8883331030e+00  0.006597807  0.004935651  63.31  0.000496649    1.617    0.382
        35 -10.8895    111.0688    187.0045   2.9160803379e+02   4.9508946805e+00   0.02106609  0.008647874  37.38  0.001782388    2.395    0.583
        36 -13.2554    248.8105    202.6940   2.9011330114e+02   4.0310539754e+00   0.08409876   0.02491169 -57.57  0.006304913    3.007    0.667
        37 -10.6143     75.1452    184.6970   2.9200881324e+02   5.1701242893e+00   0.01321901  0.009452215  52.34  0.001427928    1.590    0.371
        38  -9.9298     66.8027    185.5877   2.9211018840e+02   5.2049189293e+00  0.009618793  0.005607044  37.13 0.0009489272    1.718    0.418
        39  -9.2966    212.1046    182.6806   2.9041897812e+02   4.4546185768e+00  0.009226513  0.008225314  12.59  0.001129465    1.115    0.103
        40  -9.9015     44.8253    182.6357   2.9234653548e+02   5.3561894878e+00  0.009807245  0.005483408  36.00 0.0009501967    1.773    0.436
        41  -9.8376    243.7134    179.6783   2.9003776007e+02   4.3175387844e+00   0.01266261  0.006975186 -50.49   0.00123064    1.747    0.428
        42 -10.7998     60.7135    177.5440   2.9213373437e+02   5.3282544429e+00   0.01678748  0.009339998  42.48   0.00161703    1.904    0.475
        43 -10.0573     89.9649    177.5215   2.9179625019e+02   5.1712771899e+00   0.01013473  0.006276241  25.31  0.001033577    1.598    0.374
        44  -9.4837    204.7122    175.8493   2.9046426941e+02   4.5714392941e+00   0.01114917  0.007652183 -42.05  0.001195348    1.462    0.316
        45 -11.1834    107.3020    176.1517   2.9158838335e+02   5.0934155113e+00   0.02019021  0.007612503  33.87  0.001662172    2.492    0.599
        46 -10.8911    101.0095    175.9807   2.9165994214e+02   5.1292108963e+00   0.00923784  0.008925203 -23.29            0    1.008    0.008
        47  -9.4758     35.6203    174.3029   2.9240439293e+02   5.4994709528e+00  0.006971648  0.004733384  56.30 0.0007024854    1.774    0.436
        48  -9.9597     45.0026    172.2115   2.9228402155e+02   5.4726923341e+00   0.01134646  0.006710452  51.64  0.001079399    2.039    0.509
        49 -11.1687    124.2746    170.7749   2.9136144343e+02   5.0625704652e+00   0.02491179   0.01030533  25.89  0.002113347    2.371    0.578
        50 -11.1893     55.7207    170.0380   2.9214775964e+02   5.4396373035e+00   0.01743906   0.01152035  55.84  0.001470897    1.839    0.456
        51 -11.8810     78.3624    176.5222   2.9192424599e+02   5.2449270336e+00   0.02760593   0.01039013  39.38  0.002217391    2.698    0.629
        52  -9.8577     89.9270    169.4923   2.9175003510e+02   5.2619275491e+00   0.01014966   0.00628451  25.21  0.001034942    1.599    0.375
        53 -10.5575     75.1267    168.6940   2.9191609994e+02   5.3505094647e+00   0.01080504  0.007723465  44.51  0.001128971    1.486    0.327
        54 -11.2670    101.1850    166.8867   2.9160505904e+02   5.2306999726e+00   0.02909358  0.008203195  33.18  0.002133531    3.147    0.682
        55  -9.6380    142.2007    166.4604   2.9112970246e+02   5.0145417685e+00   0.01647952  0.005893684  28.01  0.001310357    2.646    0.622
        56 -12.2710     80.6988    164.2476   2.9182599668e+02   5.3706409050e+00   0.03216999   0.01691544  57.87  0.002679823    2.865    0.651
        57 -10.0058     37.8761    164.7428   2.9232290940e+02   5.5950860075e+00   0.01237052   0.00836429  73.90  0.001105012    2.041    0.510
        58 -11.2797     70.4095    163.5977   2.9194091258e+02   5.4332780265e+00   0.01441453   0.01058222  52.26  0.001344727    1.536    0.349
        59  -9.9640     47.4547    164.3162   2.9220991323e+02   5.5484846625e+00   0.01181574  0.007365427  46.18  0.001189877    1.761    0.432
        60 -10.3967    113.5592    168.6537   2.9147264637e+02   5.1441775710e+00   0.01319202  0.007877391  29.07  0.001320682    1.638    0.390
        61 -12.1735     94.3867    160.8102   2.9164813685e+02   5.3357294923e+00   0.02860123   0.01269476  27.23  0.002526747    2.184    0.542
        62 -11.0660     62.5352    161.1708   2.9201765903e+02   5.5029317966e+00   0.01322577  0.009734198  52.59  0.001107558    1.535    0.348
        63  -9.4624     31.6159    160.8113   2.9237233672e+02   5.6729653864e+00   0.00915466  0.006276945 -78.87 0.0009452401    1.727    0.421
        64  -9.5406    130.1734    160.3627   2.9123285955e+02   5.1480425081e+00  0.009677449  0.005560889  35.33 0.0009503198    1.720    0.419
        65 -12.2068    108.1874    158.9947   2.9147841375e+02   5.2818912851e+00   0.03404933   0.01260203  30.39  0.002794006    2.521    0.603
        66  -9.1742     23.3136    159.6608   2.9246147247e+02   5.7304494324e+00  0.006778141  0.004890763  61.92 0.0005904298    1.697    0.411
        67 -11.7536    121.7080    156.5260   2.9130813727e+02   5.2368666435e+00   0.02287151   0.01234227  28.52  0.002219572    1.804    0.446
        68 -12.5583     82.9505    155.1535   2.9174716982e+02   5.4609706450e+00    0.0301039   0.01389575  44.21   0.00223318    2.423    0.587
        69 -11.6681     50.6546    155.6390   2.9212261662e+02   5.6290633746e+00   0.02494458   0.01244905  50.57   0.00206423    2.570    0.611
        70  -9.4021    146.9492    156.2002   2.9101523858e+02   5.1044627263e+00  0.009085218  0.005026668  25.36 0.0008698988    1.788    0.441
        71 -10.8457    135.7698    154.3808   2.9113351996e+02   5.1852349558e+00   0.02360698   0.01120306  37.23  0.002143877    2.088    0.521
        72 -12.4272     69.0300    154.1025   2.9190166448e+02   5.5476559812e+00   0.02575219   0.01350899  39.41  0.002000136    1.944    0.486
        73 -11.6458     91.9090    151.9280   2.9162507325e+02   5.4491067637e+00   0.01655595   0.01241037  58.04  0.001288422    1.559    0.359
        74 -11.8420     99.8947    151.4173   2.9152998502e+02   5.4118789808e+00   0.01909619   0.01233967  29.05  0.001534526    1.520    0.342
        75 -10.1405     28.9085    150.1982   2.9234199882e+02   5.8070607149e+00   0.01779877   0.01100106  77.62  0.001611078    2.522    0.603
        76 -13.3242    109.9183    146.3671   2.9138498728e+02   5.4147833668e+00   0.04563436   0.02038951  40.97  0.003918964    2.343    0.573
        77 -11.9117    100.2538    141.8648   2.9147027114e+02   5.5175283901e+00   0.01635671   0.01184028   1.35  0.001224517    1.532    0.347
        78 -11.3162     40.2105    148.1253   2.9219951853e+02   5.7697767275e+00   0.02310506   0.01312299  55.45  0.002084734    2.328    0.570
        79 -12.8253     56.9997    145.9798   2.9199329065e+02   5.7037990331e+00   0.03576287   0.02073576  60.71  0.002779214    2.477    0.596
        80 -10.8138    152.8175    146.4496   2.9089080409e+02   5.1825830417e+00   0.03733527   0.01248753  26.84  0.002884259    2.862    0.651
        81 -12.5806    127.7447    144.2771   2.9116722875e+02   5.3422646400e+00   0.03168741   0.01671344  33.82  0.002701105    1.848    0.459
        82 -13.0067    248.7823    238.0430   2.9031951421e+02   3.6335302886e+00   0.08615821   0.03221311 -63.21  0.006879456    2.734    0.634
        83 -13.2100     45.5721    100.1221   2.9185862126e+02   6.2816559071e+00   0.06061278   0.03432951 -79.43  0.005510576    2.369    0.578
        84 -13.1245     49.0453     82.4165   2.9171545801e+02   6.4623383678e+00    0.0545105     0.028831 -69.93  0.005029409    2.150    0.535
        85 -15.2144     65.3614    126.2500   2.9178209301e+02   5.8810947426e+00    0.1366563     0.082514  78.93   0.01209101    2.687    0.628
        86 -11.0847    166.3735    248.4831   2.9132817106e+02   3.9606325830e+00   0.01575775   0.01241138  17.68 0.0009429855    1.276    0.216
        87 -13.9419     68.8092    113.2452   2.9166663797e+02   6.0090117118e+00   0.07698054   0.03992698 -88.25    0.0057528    3.716    0.731
        88 -14.6659     64.4371     94.7153   2.9160926867e+02   6.2411573912e+00   0.09044148   0.04410473 -53.48  0.008168079    1.940    0.484
        89 -14.7333    109.4237    112.8456   2.9119551494e+02   5.7948942649e+00    0.1272756   0.05750593 -79.64  0.008900385    4.065    0.754
        90 -15.6467    111.5842     99.7016   2.9109398763e+02   5.9312134317e+00    0.1422212   0.07841781  34.98   0.01398943    1.784    0.439
        91  -9.1763    107.4964    248.5328   2.9200632852e+02   4.2770399208e+00  0.006514354  0.006141311 -20.92 0.0008095336    1.033    0.032
        92 -14.7996     93.9763    111.1084   2.9136367359e+02   5.8976557165e+00   0.08774076   0.05294982 -67.27  0.008846442    1.764    0.433
        93 -13.8200     79.5763    111.8173   2.9153402346e+02   5.9671787874e+00   0.07047248   0.04095203  83.52  0.005953126    2.949    0.661
        94  -9.9790    167.7640    242.5498   2.9127770280e+02   4.0199422726e+00  0.009134617  0.005787157  37.25 0.0005374416    1.587    0.370
        95 -11.5463     39.1606    135.6467   2.9213916744e+02   5.9159852708e+00   0.01946598   0.01213153 -75.94  0.001734067    1.912    0.477
        96 -12.5374    134.4901    132.4225   2.9102039802e+02   5.4393684966e+00   0.02602252   0.01788402  22.60   0.00246571    1.454    0.312
        97 -10.8127    145.2694    132.7007   2.9089771638e+02   5.3780904217e+00   0.02023129   0.01045602  31.23  0.001924799    1.871    0.466
        98 -10.6590    155.3369    130.7793   2.9077044297e+02   5.3453887540e+00   0.01677784  0.009917887  20.61  0.001674009    1.732    0.423
        99 -10.4946    249.1024    129.8519   2.8968499451e+02   4.8488246520e+00    0.0103907  0.009026348  56.90  0.001078456    1.266    0.210
       100 -13.4703    120.2746    126.2362   2.9114832438e+02   5.5856596334e+00   0.05299572   0.02412829  37.51   0.00401081    2.178    0.541
       101 -10.0128     12.6336    129.2385   2.9240823298e+02   6.1304378421e+00   0.01916438   0.01102854  72.03  0.001595903    2.993    0.666
       102 -13.0893     43.9517    121.3412   2.9200072721e+02   6.0513983732e+00   0.05730937   0.03123067  88.01  0.004488179    3.415    0.707
       103 -11.3426     27.9737    121.4800   2.9218603528e+02   6.1355845815e+00   0.03970188   0.02106564  74.89  0.002820814    4.214    0.763
       104  -9.8757    160.9794    122.7961   2.9065884708e+02   5.4047817812e+00   0.01406408  0.007700344  24.04  0.001354798    1.825    0.452
       105 -12.9107    132.9921    119.6098   2.9096301659e+02   5.5916889687e+00   0.03011234   0.01868809  37.82  0.002801676    1.626    0.385
       106 -12.2006    143.8786    120.2428   2.9084114593e+02   5.5258313697e+00   0.02939111   0.01545908  25.36  0.002076494    1.881    0.468
       107  -9.9149      2.5240    116.4105   2.9245051913e+02   6.3290980382e+00   0.02005504   0.01071829  85.60  0.001475942    3.845    0.740
       108 -10.6080     14.1367    109.5960   2.9227680532e+02   6.3436303574e+00   0.02153732   0.01428051 -74.89  0.001826398    1.732    0.422
       109 -11.7709    134.3399    110.3052   2.9089323238e+02   5.6891536871e+00   0.01818586  0.009961202  40.85  0.001312141    1.894    0.472
       110 -12.3517    248.5582    105.3933   2.8954836873e+02   5.1267915848e+00   0.02883187   0.01458244 -51.87  0.002351552    1.884    0.469
       111 -12.2572    141.8958    105.9740   2.9078081758e+02   5.6971313728e+00   0.02428205   0.01370433  37.68  0.002396866    1.779    0.438
       112 -11.7535     22.2224     99.8165   2.9212656735e+02   6.4104118646e+00    0.0563167   0.02783374 -79.17  0.004492589    3.095    0.677
       113 -11.7877    151.7645    104.4648   2.9065818900e+02   5.6608428632e+00   0.02172594    0.0115038  34.06  0.002089702    1.843    0.457
       114  -9.2055      6.3760    102.1915   2.9232344261e+02   6.4686081309e+00  0.009333331  0.006263189 -78.30 0.0009517455    1.772    0.436
       115 -12.1172    139.8777     93.0100   2.9072848012e+02   5.8539170288e+00   0.02303416   0.01230164  39.64  0.002085035    1.915    0.478
       116 -11.3868     35.2528     86.8159   2.9190041490e+02   6.4868795998e+00   0.04884704   0.01693001 -54.83   0.00392347    2.605    0.616
       117  -9.7186      5.0800     88.6829   2.9225991994e+02   6.6276686111e+00   0.02995277  0.009228582 -47.95   0.00219556    3.155    0.683
       118 -11.7714    141.7485     83.7663   2.9065295840e+02   5.9478284806e+00   0.01708348   0.01041961  43.08  0.001427495    1.739    0.425
       119 -10.6603     24.1088     80.0344   2.9198972723e+02   6.6230259462e+00   0.02542087   0.01280152 -70.62  0.002134274    2.325    0.570
       120 -10.9096     26.9059     72.3977   2.9191296426e+02   6.6939863530e+00   0.04398947   0.02029756 -21.05  0.002805942    4.854    0.794
       121 -10.3887    150.9082     81.3105   2.9053294637e+02   5.9259936827e+00   0.01083695  0.007723377  43.53  0.001083415    1.479    0.324
       122 -10.3761    152.4476     90.3243   2.9056780163e+02   5.8162678468e+00   0.01177463  0.005873186  25.45  0.001080388    1.982    0.495
       123 -13.0277    129.1884     75.7745   2.9075125846e+02   6.1055387914e+00    0.0305789   0.02115535  65.06  0.002623856    1.867    0.464
       124 -11.0457    141.3263     76.1003   2.9061308526e+02   6.0363548209e+00   0.01330258  0.009337442  34.08  0.001153384    1.419    0.295
       125  -9.3061     10.3077     75.3059   2.9212172376e+02   6.7502606155e+00  0.006822455  0.004710911 -27.39 0.0001716782    1.609    0.378
       126 -10.6974     42.8303     71.2311   2.9172214154e+02   6.6216314492e+00   0.02360164   0.01161043 -55.28  0.002202766    1.926    0.481
       127 -12.2481     51.3336     66.7996   2.9159806876e+02   6.6258228182e+00   0.04503665    0.0168531 -65.12  0.003524855    2.880    0.653
       128  -9.8100     16.3251     69.8268   2.9202029665e+02   6.7796793743e+00   0.01686021  0.008057687 -66.95  0.001482504    2.281    0.562
       129 -10.1545     17.6714     63.5235   2.9196805353e+02   6.8434067157e+00   0.02317753  0.008634137 -50.89  0.001895658    2.502    0.600
       130  -9.3823      5.6079     70.2022   2.9214636433e+02   6.8328996796e+00  0.009898043  0.005507525 -50.38 0.0009600844    1.730    0.422
       131 -11.1881    147.2823     69.1733   2.9050391634e+02   6.0821128029e+00   0.01414444  0.008422014  37.48  0.001425341    1.687    0.407
       132 -11.4579    139.3697     67.0081   2.9058258264e+02   6.1492005177e+00   0.01483804   0.01042435  62.27  0.001193535    1.780    0.438
       133 -12.4389    122.1505     66.2636   2.9077698817e+02   6.2505144909e+00   0.02270641   0.01636836  74.34  0.002401392    1.808    0.447
       134 -11.0067     37.7277     62.2544   2.9172883448e+02   6.7500643734e+00   0.03138388   0.01230968 -55.19  0.002652593    2.350    0.574
       135 -14.9849     84.9595    130.3258   2.9157960390e+02   5.7297946228e+00   0.09411562   0.05982509 -86.50  0.009132691    2.139    0.532
       136 -12.5048     73.7865     56.9253   2.9128107810e+02   6.6161899789e+00   0.04685101   0.01678077 -57.88  0.003795505    2.579    0.612
       137  -9.6835     25.6749     55.6793   2.9182986480e+02   6.8887544437e+00    0.0130341  0.009180511 -23.17  0.001246429    1.599    0.374
       138 -10.8706    131.0940     58.2504   2.9062696370e+02   6.2923879492e+00    0.0128858  0.008585426  43.56  0.001358723    1.590    0.371
       139 -10.5750      7.1850     56.0042   2.9204552564e+02   6.9842508196e+00   0.02128681   0.01089159 -74.90  0.001837413    2.534    0.605
       140 -10.4732      8.3915     50.4078   2.9199900168e+02   7.0407622189e+00   0.02233146  0.008834855 -49.65  0.001867243    2.402    0.584
       141 -14.3647    100.2988    128.0188   2.9138917084e+02   5.6732070426e+00   0.07200101   0.04044804  45.88  0.006921434    1.982    0.495
       142 -11.5433    119.8680     56.4662   2.9074614785e+02   6.3730404859e+00   0.01707006   0.01188901  59.03   0.00179364    1.756    0.430
       143 -10.9046     63.1811     51.7334   2.9137335237e+02   6.7316619301e+00   0.04133647   0.01006473 -58.93  0.002843916    3.576    0.720
       144 -10.9930     53.9887     51.8257   2.9148012699e+02   6.7800518455e+00   0.03996475   0.01294931 -67.69  0.002709407    3.914    0.745
       145 -10.9433     44.4488     53.1162   2.9159791325e+02   6.8167973540e+00   0.03158522   0.01068407 -52.86   0.00249999    2.674    0.626
       146 -10.4746    105.9215     53.0762   2.9088740742e+02   6.4863914668e+00   0.01882822   0.01088072  61.87  0.001667969    2.554    0.609
       147 -11.9403     92.4720     49.3074   2.9102076236e+02   6.6012737165e+00   0.03224101   0.01404616 -68.33  0.002658892    2.655    0.623
       148 -10.7371     31.0664     48.5568   2.9172604817e+02   6.9399647400e+00   0.03692151  0.009504484 -59.37  0.002584931    3.458    0.711
       149  -9.8464     20.7999     49.4925   2.9185019677e+02   6.9845269920e+00   0.02651795   0.01316154 -39.44  0.002360083    2.235    0.552
       150  -9.0443     13.4610    146.4975   2.9249883442e+02   5.9315686048e+00  0.006354255  0.006284505  27.17 0.0002300713    1.055    0.053
       151 -10.8056     81.9286     46.2506   2.9112473661e+02   6.6924498754e+00    0.0247063  0.009067823 -60.68  0.001988359    2.628    0.619
       152  -9.3099     83.8480     40.1900   2.9106719302e+02   6.7502821316e+00   0.01074274   0.00730046 -25.89 0.0004996418    1.668    0.401
       153  -9.9905     24.3449     58.6718   2.9186266445e+02   6.8622147240e+00   0.01010323  0.009116519  76.50  0.001240111    1.239    0.193
       154 -10.2121    140.0051    145.1427   2.9103089823e+02   5.2664135699e+00    0.0168803  0.007703251  14.58  0.001375381    2.696    0.629
       155 -10.4958     23.3047    138.0826   2.9233636282e+02   5.9736049458e+00    0.0251082   0.01350673  68.33  0.001926153    3.536    0.717
       156 -11.0917    163.9981    226.7545   2.9122927712e+02   4.2180867054e+00   0.02526285   0.01660823   8.27  0.002615187    1.699    0.411
       157 -10.5824     17.4977     39.9969   2.9183307458e+02   7.1090773925e+00   0.01784371  0.007903461 -42.84  0.001509338    2.408    0.585
       158 -10.2840     57.9589     41.4209   2.9137357382e+02   6.8757616625e+00   0.02538001   0.01023774 -73.03  0.001812908    3.667    0.727
       159 -11.6401      5.3104     38.3891   2.9196465646e+02   7.1925042986e+00   0.04358111   0.01159893 -59.05  0.003105224    3.342    0.701
       160 -10.2951     68.9710     40.0264   2.9123816039e+02   6.8322110072e+00    0.0225281  0.009939755 -64.07  0.001939701    2.347    0.574
       161  -9.9431     95.4268     37.7310   2.9091905499e+02   6.7155553712e+00    0.0124202  0.006561354 -69.60  0.001130969    2.144    0.534
       162 -11.0467     27.5316     29.6867   2.9165695692e+02   7.1712205198e+00   0.03231785  0.007673873 -49.83  0.002158931    3.772    0.735
       163 -12.0130     78.7246    147.2283   2.9174985419e+02   5.5729668591e+00   0.01634356   0.01320766  51.00  0.001197284    1.351    0.260
       164 -10.3028     36.9667     38.7522   2.9160069611e+02   7.0185920230e+00    0.0251496  0.009118337 -56.16  0.002050702    2.519    0.603
       165  -9.8166     16.3908     44.2340   2.9187055401e+02   7.0673430391e+00   0.01442069   0.01021916 -69.23   0.00155779    1.507    0.336
       166  -9.7245     60.4532     32.0136   2.9128986772e+02   6.9681591424e+00   0.01012287  0.006312624 -61.72   0.00103439    1.608    0.378
       167 -10.5407    126.3273    220.9062   2.9162913646e+02   4.4868910658e+00   0.01071368  0.008682841  40.90 0.0004776163    1.276    0.216
       168  -9.9844     97.4752    227.0240   2.9199703595e+02   4.5732217534e+00   0.00991013  0.006298117 -60.61 0.0006952693    1.564    0.361
       169  -8.9629     58.6192     22.4818   2.9125545257e+02   7.0852154420e+00  0.006544469  0.005922897 -32.23 9.839493e-05    1.084    0.078
       170  -9.7583     19.8454     19.2446   2.9168498579e+02   7.3299039534e+00   0.01773839  0.006417956 -47.22  0.001391447    2.733    0.634
       171  -9.0675    109.3176    222.3375   2.9183340359e+02   4.5623162766e+00  0.007042047  0.004664003 -28.64 0.0006023797    1.703    0.413
       172  -9.0227     40.5207     14.4633   2.9141795246e+02   7.2726662460e+00  0.006596382  0.006034417 -23.41 6.609865e-05    1.076    0.071
       173 -10.8193     12.4912     27.4945   2.9181813926e+02   7.2765645944e+00   0.01389785  0.006320322 -62.17  0.001220265    2.197    0.545
