#   1 NUMBER                 Running object number                                     
#   2 MAG_AUTO               Kron-like elliptical aperture magnitude                    [mag]
#   3 X_IMAGE                Object position along x                                    [pixel]
#   4 Y_IMAGE                Object position along y                                    [pixel]
#   5 X_WORLD                Barycenter position along world x axis                     [deg]
#   6 Y_WORLD                Barycenter position along world y axis                     [deg]
#   7 A_WORLD                Profile RMS along major axis (world units)                 [deg]
#   8 B_WORLD                Profile RMS along minor axis (world units)                 [deg]
#   9 THETA_WORLD            Position angle (CCW/world-x)                               [deg]
#  10 FWHM_WORLD             FWHM assuming a gaussian core                              [deg]
#  11 ELONGATION             A_IMAGE/B_IMAGE                                           
#  12 ELLIPTICITY            1 - B_IMAGE/A_IMAGE                                       
         1 -10.4653    138.9110     26.9672   7.8765823856e+01   4.7837222017e+01    0.5864335    0.1868167  59.69  0.001483302    2.882    0.653
         2 -12.0785     76.6986     24.3688   9.4207019530e+01   6.1797387233e+01    0.4616157    0.3471929 -36.88  0.001078745    1.383    0.277
         3 -11.5751     90.2901     15.8257   8.6106410792e+01   6.0269142619e+01    0.3631774    0.2325631 -18.97 0.0004443952    1.555    0.357
         4 -10.7834     87.9695      8.2350   8.3338633741e+01   6.1574300648e+01     0.432207    0.1978477  -6.68  0.001587258    3.114    0.679
         5 -10.1096     26.3269     16.0674   1.1112640887e+02   7.0220039436e+01    0.2505536    0.2214509  -8.36  0.001133449    1.230    0.187
         6 -11.4788     42.6168     17.8692   1.0441931397e+02   6.8047050100e+01    0.6942868    0.3706508  19.91  0.003608343    2.277    0.561
         7 -11.2994     39.2174      3.7987   9.8789081915e+01   7.0441873972e+01    0.6036029    0.4456303  43.57  0.004004039    1.745    0.427
         8 -11.6399     30.0768      7.1639   1.0489401956e+02   7.1146152747e+01    0.3387286    0.2873134 -12.11  0.001312268    1.177    0.151
         9 -11.5258     35.0490     13.3511   1.0565967476e+02   6.9665797601e+01    0.3997681    0.2411325 -43.28  0.001511589    1.697    0.411
        10 -11.5268     39.7168     10.6097   1.0214474560e+02   6.9473421012e+01    0.2523229    0.2010694 -21.34 0.0002416833    1.124    0.111
        11  -9.8022    109.5259     12.0937   7.9429356665e+01   5.6522396050e+01    0.2741453    0.1310846 -21.81  0.001213729    2.179    0.541
        12 -10.6856    212.4835     12.1409   6.3553497025e+01   3.0613581590e+01     0.310556    0.2084289 -62.21 0.0007693025    1.439    0.305
        13  -9.8439    210.4010      7.7924   6.2597167750e+01   3.1593801590e+01    0.2043312    0.1309067 -30.09  0.001051756    1.604    0.376
        14 -11.5215     70.9893      7.2025   8.8104157036e+01   6.4971271422e+01    0.6233301    0.3567823   0.75  0.001678096    2.074    0.518
        15 -11.1390     66.2952      6.4320   8.9332473695e+01   6.5897882069e+01    0.4621512    0.2680773  20.90  0.002432512    1.868    0.465
        16 -11.3284     22.0826      9.4601   1.1007180143e+02   7.1677139525e+01    0.2963118    0.1834644 -16.04  0.000950226    1.527    0.345
        17 -11.8630    150.9720      7.8513   6.9835792789e+01   4.6846660826e+01    0.4826837    0.3295542  32.75  0.002455224    1.610    0.379
        18 -11.3657     92.5321      7.3000   8.1645968052e+01   6.0723122350e+01    0.6508359    0.2571048 -33.00  0.002572422    2.571    0.611
        19 -11.1762      3.6214      8.3542   1.1949392020e+02   7.3397714816e+01    0.3486185    0.2878243  45.11  0.002637127    1.939    0.484
        20  -9.7509      7.7057      5.0274   1.1561818681e+02   7.3636942534e+01    0.2052006    0.1552015 -20.31 0.0009055721    1.081    0.075
        21 -10.3816     10.0271      1.4825   1.1249174893e+02   7.3989422910e+01    0.2036821    0.1369516   7.29 0.0009088838    1.492    0.330
        22  -9.9211     15.5450      8.4550   1.1299585601e+02   7.2449971787e+01    0.2069539    0.1419264 -23.35  0.000705214    1.160    0.138
        23 -10.5477     11.8854      7.3805   1.1444798886e+02   7.2932827315e+01    0.3434959    0.2250569 -40.65  0.002307967    1.294    0.227
        24 -10.3459     76.3357      8.5812   8.7020448655e+01   6.3827518909e+01     0.255756    0.1744593  10.84 0.0006371124    1.482    0.325
        25 -10.5524     53.1541      2.6785   9.2277650266e+01   6.8519673859e+01    0.3339529    0.2016865 -19.28  0.001966771    1.507    0.337
        26 -10.6625     55.0582      7.7394   9.4180091594e+01   6.7627326114e+01    0.2122217    0.1608239 -28.21  0.000363291    1.321    0.243
        27 -11.4689     58.3339      4.4862   9.1233004014e+01   6.7475796466e+01    0.5375299    0.2932203  41.28   0.00298427    1.778    0.438
        28 -10.4849    218.3273      7.1237   6.1694053245e+01   2.9694865793e+01    0.2854732    0.1425136  73.55  0.000853616    1.880    0.468
        29 -10.4925    190.9687      5.7260   6.3990231835e+01   3.6734728997e+01     0.260813    0.1581514 -44.99  0.001293272    1.630    0.386
        30 -11.0902    119.9503      4.5292   7.4063900582e+01   5.4819482437e+01    0.4258374     0.176266  51.67  0.001245659    2.059    0.514
        31  -9.5438    235.4732      4.5251   5.9636170108e+01   2.5834022807e+01    0.1289227    0.1123329 -72.35 1.704204e-05    1.048    0.046
        32  -9.3014    160.3371      4.3004   6.7274312928e+01   4.4771629833e+01    0.1463104   0.09290601  41.11  0.000475575    1.661    0.398
        33 -11.3663    130.2722      3.3624   7.1654296275e+01   5.2430918293e+01    0.3219195    0.2275247  75.92  0.001457923    1.463    0.316
        34 -11.8600     80.3113      1.8120   8.2524013133e+01   6.3744076372e+01    0.4285316    0.1765046  47.60  0.001994409    2.137    0.532
        35 -10.3795    199.1218      2.8838   6.2351325739e+01   3.4928063551e+01    0.2161346    0.1659734 -68.47 0.0005652816    1.232    0.188
        36 -10.8847     18.8869      2.6600   1.0822484744e+02   7.2997065064e+01    0.3265316     0.176398  13.09  0.001934004    2.110    0.526
        37 -10.5123      2.0537      2.8276   1.1779442772e+02   7.4395596201e+01    0.1735816    0.1226696 -26.71 0.0005249002    1.061    0.057
        38  -9.9464    146.9715      2.3006   6.8518791533e+01   4.8359072942e+01     0.198386    0.1614438  64.98 0.0005993344    1.115    0.103
        39  -9.0510     24.7044      2.2816   1.0496824471e+02   7.2433745127e+01   0.09387708   0.08495351 -33.69 0.0001852545    1.538    0.350
        40  -9.1836     67.3145      1.2818   8.6363711706e+01   6.6257044422e+01    0.1273376   0.07965245  20.31 0.0002754241    1.575    0.365
        41  -9.3619     28.6623      1.2822   1.0241529155e+02   7.2110155272e+01   0.09449041   0.08885136 -35.47 0.0007010167    1.623    0.384
        42 -10.9526     22.0000    118.0052   1.3892614384e+02   4.9225423145e+01    0.2968662     0.198241  79.87  0.001792228    1.475    0.322
        43 -13.2552      8.9293    246.4200   1.5092108054e+02   2.4106878991e+01     1.051312    0.3324457  38.15  0.005949271    2.975    0.664
        44 -12.6735      9.3012    232.3681   1.5028574436e+02   2.6491318085e+01    0.4433109    0.2892552 -61.76  0.003281606    2.116    0.527
        45 -12.2518      8.7013    227.9858   1.5019023361e+02   2.7330730692e+01     0.361126    0.2432224  56.45  0.001918815    1.271    0.213
        46  -9.2834     75.4094    119.8231   1.2440385806e+02   4.2715714394e+01    0.1876427    0.1180502 -51.83 0.0003008945    1.500    0.333
        47 -10.3627      3.3507    119.0143   1.4401293328e+02   5.0367318632e+01    0.1718632    0.1493455  85.12 0.0005036333    1.190    0.160
        48 -10.5317     34.3050    114.5754   1.3502750773e+02   4.8923730607e+01    0.2156462    0.1154898  36.52  0.001140368    2.108    0.526
        49  -9.4865     96.2628    113.6297   1.1728625035e+02   4.0819794794e+01     0.149135    0.1093537 -86.29 0.0006983072    1.655    0.396
        50 -10.1841    249.1706    111.7967   8.4235409345e+01   7.9082980670e+00    0.1937436    0.1581362  -0.76 0.0009572119    1.334    0.250
        51  -9.8242     66.0474    110.7101   1.2521080838e+02   4.6177593670e+01    0.1898728    0.1729308 -73.67 0.0009718013    1.046    0.044
        52 -11.7166      5.2364    108.7839   1.4239889873e+02   5.2557583970e+01    0.2787712    0.2203923  15.51  0.001980678    1.727    0.421
        53 -10.7309     58.1759    107.5791   1.2687745415e+02   4.7936601839e+01    0.2999341    0.2043943 -23.83  0.001288917    2.153    0.536
        54  -9.3464     79.6193    106.7156   1.2040029579e+02   4.5149085973e+01    0.1402958    0.1083574 -20.46 0.0001952248    1.728    0.421
        55 -10.0922     66.7482    101.9993   1.2313813019e+02   4.8116115486e+01    0.2007341    0.1617636 -62.78 0.0006618173    1.099    0.090
        56 -10.3592     62.6809     99.3650   1.2378238040e+02   4.9273081927e+01    0.2153717    0.1555613  80.70  0.001115996    1.725    0.420
        57 -11.5321     18.1556     94.8144   1.3670243273e+02   5.4857129195e+01    0.3990257    0.2459037  75.50  0.001868478    1.928    0.481
        58 -10.3572     20.4790     91.4617   1.3542340512e+02   5.5447604124e+01     0.218789    0.1717367 -62.27 0.0007364408    1.062    0.059
        59  -9.5863     90.6744     96.7010   1.1471150047e+02   4.5646050665e+01    0.1432167    0.1122729 -17.82 0.0007027063    1.632    0.387
        60 -10.7511     78.8336     94.7043   1.1773715657e+02   4.8028471211e+01     0.236944    0.1735564 -45.18 0.0003049632    1.290    0.225
        61  -9.6375      3.3997     95.2646   1.4126354770e+02   5.5718755562e+01    0.1648291   0.08929163 -82.33 0.0006287223    1.585    0.369
        62 -11.1075     84.3665     93.7246   1.1581062874e+02   4.7369620784e+01    0.3110603    0.2559283   7.86   0.00166521    1.534    0.348
        63 -11.2379     27.4021     90.8741   1.3311561943e+02   5.5028282931e+01    0.5509105    0.2936604  59.81  0.002680007    2.650    0.623
        64  -9.9724     25.4446     84.9081   1.3262608600e+02   5.6545378849e+01    0.1815438    0.1275332 -64.55 0.0009163825    1.143    0.125
        65  -9.2941     38.4120     92.3907   1.2988807602e+02   5.3675319499e+01    0.1265942    0.1045056 -60.03 9.979205e-05    1.038    0.037
        66 -11.5900     11.0959     87.9816   1.3783274335e+02   5.6890801167e+01    0.7071555    0.1772518 -62.06  0.003014375    2.604    0.616
        67  -9.8371     15.9951     89.4710   1.3651293872e+02   5.6226154084e+01     0.209073    0.1776567  -6.42   0.00124661    1.522    0.343
        68  -9.6449     19.2705     87.0220   1.3504141794e+02   5.6544986009e+01    0.1948361    0.1330342 -54.41  0.001218508    1.237    0.192
        69 -10.4848     76.4613     89.2473   1.1705601772e+02   4.9623968314e+01    0.2490016     0.229911 -54.48 0.0004539663    1.026    0.025
        70  -9.9336     44.1583     89.6247   1.2746188192e+02   5.3720094220e+01    0.2666888    0.1421634  44.08  0.001325989    2.215    0.549
        71 -10.2383      1.7177     89.6750   1.4102798346e+02   5.7064801463e+01     0.212892    0.1173251 -71.05  0.000234458    1.360    0.264
        72 -10.9401    103.9548     87.8838   1.0841793854e+02   4.5178510028e+01    0.2269199    0.2103076 -59.77 0.0006459333    1.062    0.059
        73  -9.7672    124.0660     86.8743   1.0256066774e+02   4.1285308492e+01    0.2332356    0.2070777 -81.90 0.0007630973    1.249    0.199
        74  -9.2505    114.2238     86.2961   1.0505516144e+02   4.3477673938e+01     0.141404    0.1139689 -18.00            0    1.455    0.313
        75 -10.9011     54.5799     84.2474   1.2280232538e+02   5.3752386630e+01     0.287882    0.2045947 -60.99 0.0006733147    1.256    0.204
        76  -9.0303    250.6742     87.7146   7.8316327341e+01   1.1301210211e+01    0.1348947    0.1059982  13.72 0.0002336062    1.605    0.377
        77  -9.3249     78.2415     83.3488   1.1489572441e+02   5.0655771380e+01    0.1782315    0.1298019  49.39 0.0002729004    1.560    0.359
        78 -10.7697      3.9841     82.5246   1.3927268485e+02   5.8534153143e+01    0.2349034    0.1169114 -58.09  0.001155906    1.523    0.343
        79 -11.7827     63.9166     80.8280   1.1883437928e+02   5.3311203841e+01     0.504208     0.358928 -59.50  0.002743973    1.311    0.237
        80  -9.8500    250.3811     80.7939   7.6691484511e+01   1.2408224493e+01    0.1968838    0.1245516 -23.91 0.0006534836    1.629    0.386
        81 -10.1483     89.4904     80.3465   1.1051757979e+02   4.9441071678e+01    0.2712963    0.2176548 -63.98 0.0006946748    1.329    0.248
        82  -9.7947     65.9423     75.2267   1.1660253066e+02   5.4253985476e+01    0.1920905    0.1744494 -67.94            0    1.161    0.138
        83  -8.7004    124.4947     79.4687   1.0020620774e+02   4.2691002686e+01    0.1527716    0.1442937 -69.11 0.0008078981    1.100    0.091
        84  -9.2212     24.3980     78.7865   1.3175833904e+02   5.8004686415e+01    0.1852072   0.08581167 -55.02 0.0009441475    1.671    0.401
        85  -9.4337     19.3423     79.6441   1.3365620762e+02   5.8198121048e+01    0.1228092   0.08342333  77.10 0.0007038385    1.820    0.451
        86  -9.8583    176.9073     77.1501   8.7457966038e+01   3.0567154465e+01    0.2478984    0.2139082 -80.49  0.001235248    1.264    0.209
        87  -9.7694     74.9651     75.6971   1.1374902211e+02   5.2822265445e+01    0.1760606    0.1718239  -8.44 0.0002015063    1.107    0.096
        88 -10.9646     55.5267     75.6315   1.2025195679e+02   5.5547004796e+01    0.2802788    0.2517987  -7.91 0.0004584295    1.245    0.197
        89 -10.6388     15.3848     76.0781   1.3432693487e+02   5.9269237815e+01    0.1923273    0.1749356  45.45 0.0009625344    1.368    0.269
        90  -9.3132     70.2976     75.3411   1.1518179454e+02   5.3602401562e+01    0.1416404   0.09936532 -25.40 0.0003570578    1.664    0.399
        91 -10.6540     32.2043     73.1350   1.2778123343e+02   5.8596702030e+01    0.5241046    0.2134651  45.32  0.002073879    3.422    0.708
        92 -10.8785     35.6616     72.6440   1.2643276302e+02   5.8383824514e+01    0.3945317    0.2741356 -45.39  0.001965959    1.256    0.204
        93  -9.8471    224.0506     74.2838   7.8664371632e+01   1.9387203671e+01      0.19304    0.1816264 -84.51  0.000321519    1.090    0.082
        94  -9.5666    136.5541     74.2916   9.5501192970e+01   4.0962600305e+01    0.2035388    0.1482961 -26.30 0.0009266431    1.490    0.329
        95 -11.0445      3.9546     73.7312   1.3785537090e+02   6.0476657727e+01    0.2998743    0.1935404  13.85  0.001433132    2.035    0.509
        96  -9.6965    216.8341     72.4495   7.9250383294e+01   2.1407865040e+01    0.2425315    0.1703857 -28.94 0.0006292774    1.426    0.299
        97 -10.2970    105.9184     71.3447   1.0278838062e+02   4.8210349346e+01    0.2545472    0.2020648 -35.44 0.0004623981    1.218    0.179
        98  -9.6292     92.4707     72.4510   1.0717649560e+02   5.0559321279e+01    0.4325279    0.1831608  48.73  0.001636005    2.739    0.635
        99  -9.3249     90.7114     69.3382   1.0672638752e+02   5.1508707237e+01     0.233033    0.1598374 -65.17 0.0003250957    1.887    0.470
       100 -10.0669     80.4513     71.4052   1.1065617372e+02   5.2852786988e+01    0.3698603    0.2412172 -84.99  0.001452276    3.218    0.689
       101 -10.4181     47.8265     69.0420   1.2113974419e+02   5.7894152044e+01      0.45439    0.2126628  16.17  0.001835983    3.624    0.724
       102 -10.6646     10.4665     68.6780   1.3461795447e+02   6.1209806278e+01      0.28973    0.1641899 -66.04  0.001719521    1.391    0.281
       103  -8.9477     57.3092     67.6266   1.1735670995e+02   5.7041814720e+01     0.131489    0.1017034 -87.05 0.0007032115    1.775    0.436
       104 -11.4527     16.9964     64.2341   1.3126631572e+02   6.1747706008e+01    0.3038455    0.2691041 -60.97   0.00221385    1.135    0.119
       105 -10.7496     41.0302     59.0246   1.2076578778e+02   6.0757246841e+01    0.2958276     0.222148 -11.73   0.00174768    1.529    0.346
       106 -11.0199     34.6083     64.9674   1.2485842005e+02   6.0148153340e+01    0.2609481    0.2148031 -38.05 0.0006506879    1.133    0.117
       107 -11.1735     39.0432     62.9518   1.2265241695e+02   6.0141054871e+01    0.3803211    0.2229401 -38.76  0.001332835    1.595    0.373
       108 -10.5414    130.4520     63.9579   9.3681531973e+01   4.4279976874e+01    0.5603124      0.35108 -86.37  0.001927761    3.443    0.710
       109  -9.2456    101.4834     65.4783   1.0216031054e+02   5.0236098089e+01    0.1447378    0.1362229 -24.57 0.0008100438    1.009    0.008
       110  -9.5397     75.9933     65.0000   1.1008576630e+02   5.4886089812e+01     0.171562     0.119749  36.89  -0.01509786    1.569    0.363
       111  -9.8401     72.7682     63.7484   1.1076784317e+02   5.5646164499e+01    0.3195488    0.1549304 -57.93  0.001278945    2.574    0.612
       112 -11.2879      7.6208     62.6361   1.3443650634e+02   6.2682293521e+01    0.4419323    0.1749102 -43.91   0.00224768    2.212    0.548
       113 -10.4295     62.8222     61.9194   1.1363533688e+02   5.7483689068e+01    0.2109061    0.1621822 -29.98 0.0006887469    1.252    0.202
       114  -9.9330     53.6804     62.0455   1.1696730178e+02   5.8669601829e+01     0.211325    0.1942949  35.33 0.0005188245    1.273    0.215
       115 -10.8527     54.8657     58.4041   1.1538124737e+02   5.9264125522e+01    0.4720124    0.3233194  64.05  0.002382076    2.396    0.583
       116 -10.5386     71.1119     58.0486   1.0943286405e+02   5.7035280626e+01    0.3770587      0.17346 -37.11 0.0007650237    2.168    0.539
       117 -11.5878      9.9021     48.4568   1.3023299100e+02   6.5524925692e+01     1.043442    0.4026486 -27.45  0.004419843    3.859    0.741
       118 -12.9073     20.7745     57.4858   1.2818128959e+02   6.2911252933e+01    0.3657478    0.3156371  30.95 0.0008089403    1.446    0.308
       119 -10.5968     20.1533     51.5017   1.2682812302e+02   6.4202467029e+01    0.3543814    0.1567264 -43.04  0.001101637    1.898    0.473
       120 -11.6211     17.7285     45.3146   1.2606774662e+02   6.5639112459e+01    0.4805118     0.353646 -40.51   0.00221177    1.116    0.104
       121 -10.4378      2.1423     59.5132   1.3586831755e+02   6.3640633310e+01    0.2386439    0.1637704 -86.09   0.00155778    1.561    0.359
       122  -9.7144    177.8780     59.0877   8.1900829370e+01   3.3334814875e+01    0.2232557    0.1941214 -68.29  0.000283361    1.192    0.161
       123 -10.3675     60.6246     57.9275   1.1311870811e+02   5.8593391591e+01    0.2123176    0.1958139  31.60 0.0004748288    1.242    0.195
       124  -8.9416    158.3086     57.3346   8.5138921535e+01   3.8616920607e+01     0.157596    0.1182634  20.18  0.000704225    1.674    0.403
       125  -9.9200     99.8275     56.1566   9.9432144487e+01   5.2302524309e+01    0.1944112    0.1594839 -10.24 0.0003905434    1.300    0.231
       126 -10.5812      7.5133     55.8757   1.3300640537e+02   6.4124189816e+01    0.1974883    0.1792441 -44.78 0.0008987866    1.195    0.163
       127 -10.8800    114.9403     53.9585   9.4312346670e+01   4.9529046458e+01    0.3409155     0.285606  36.68  0.001230297    1.208    0.172
       128 -10.4929    106.3208     53.2018   9.6459665845e+01   5.1502735883e+01    0.3542875    0.2509577 -64.60  0.001539025    1.973    0.493
       129 -11.6367     87.3648     53.9036   1.0250851437e+02   5.5083849554e+01    0.4108236    0.3005575  39.37  0.002183576    1.441    0.306
       130  -9.6010     76.9396     54.7693   1.0628059641e+02   5.6732932435e+01    0.1765118    0.1666039   3.06 0.0003341577    1.099    0.090
       131  -9.5092    162.4782     54.4678   8.3381598888e+01   3.8012347584e+01    0.1495989    0.1474112  60.07 0.0002623896    1.022    0.022
       132 -10.0757     34.5438     53.5384   1.2163242100e+02   6.2544337252e+01    0.2816934    0.1440258 -35.23  0.001166423    1.966    0.491
       133  -9.6261    169.7056     52.9341   8.1510376732e+01   3.6395712050e+01    0.2033051    0.1884924 -43.42 0.0002898725    1.080    0.074
       134 -11.7899     66.3794     52.4064   1.0913890217e+02   5.8843538330e+01    0.5821888    0.2486878  36.24  0.002310934    2.605    0.616
       135  -8.9571    176.3262     52.2787   8.0103966548e+01   3.4786601572e+01    0.1528449    0.1144163  30.53 0.0002059373    1.592    0.372
       136  -9.2388     91.2830     50.3056   9.9939261697e+01   5.5002080445e+01    0.1394891    0.1049676  -1.70 0.0002151505    1.559    0.359
       137 -10.2239     38.1837     48.9816   1.1873559357e+02   6.3092638650e+01    0.1947452    0.1345721 -32.18 0.0008847336    1.325    0.245
       138 -10.4572     77.8251     45.9917   1.0274266319e+02   5.8183677986e+01    0.3098273    0.2192491  30.48  0.001265897    1.504    0.335
       139 -10.6706     68.2686     46.7876   1.0640401470e+02   5.9600339369e+01    0.2761072     0.197992  34.02   0.00154503    1.503    0.335
       140  -9.4108     91.3737     44.7177   9.7801948911e+01   5.5942339314e+01    0.1898141    0.1240807 -26.12 0.0005924707    1.543    0.352
       141 -10.5284     25.6321     43.6408   1.2218862590e+02   6.5342682306e+01    0.2504623    0.2365339  79.34  0.001724987    1.411    0.291
       142 -10.2313     22.1604     38.5178   1.2200541610e+02   6.6631147169e+01    0.2678404    0.1792265 -57.78  0.001354426    1.419    0.295
       143 -11.1004     26.6782     35.0761   1.1879738081e+02   6.6890362655e+01    0.3489413    0.1828172 -36.38  0.001101592    1.651    0.394
       144 -10.2688      3.5548     41.5848   1.3113150422e+02   6.7277656774e+01    0.3587044    0.1418367 -32.18   0.00177433    2.749    0.636
       145  -9.3956    183.0655     41.5616   7.5700641848e+01   3.4584380164e+01    0.2090406    0.1231661 -82.31 0.0008055855    2.404    0.584
       146 -10.9382    139.7211     40.6129   8.3465123726e+01   4.5823197061e+01    0.2770415    0.2341223 -50.18 0.0003813356    1.260    0.206
       147 -10.3015     36.1787     40.3762   1.1659863613e+02   6.4965136586e+01    0.3566515    0.1688715 -42.24  0.001830804    1.744    0.427
       148  -9.2355     51.2567     40.0033   1.1026900237e+02   6.3259152903e+01    0.1648538   0.09565814 -42.56 0.0007767607    1.503    0.335
       149  -9.1792    134.4986     39.5846   8.4259608683e+01   4.7249345100e+01    0.1433885    0.1393497  49.16  7.23311e-05    1.033    0.032
       150  -9.4182    102.0188     39.1434   9.2423533354e+01   5.4698918796e+01    0.2102204    0.1508064  -6.76  0.001044457    1.592    0.372
       151 -10.5153     13.0695     37.8990   1.2585023368e+02   6.7434238131e+01    0.3049098    0.1158421 -50.48  0.001569562    1.899    0.473
       152 -10.0521    130.9602     37.6344   8.4362075043e+01   4.8381699656e+01    0.2777785     0.218437  23.25 0.0006796159    1.386    0.278
       153 -11.0390    134.4433     34.0247   8.2266460773e+01   4.8033260729e+01    0.2562841    0.1927044  38.62   0.00034822    1.338    0.253
       154 -11.8560    121.4964     35.9363   8.5984683538e+01   5.0860225544e+01    0.5077327      0.49738 -64.77  0.003003699    1.120    0.107
       155 -10.2725     70.2142     35.0081   1.0105039343e+02   6.1314069694e+01    0.3530729     0.153047 -29.87  0.001456268    2.472    0.595
       156 -10.6477      1.7773     35.7923   1.3033245878e+02   6.8518616161e+01    0.2624494    0.1177929 -58.61  0.001161247    1.679    0.404
       157  -9.5653     99.2333     35.2168   9.1681443271e+01   5.5868535787e+01    0.2425158    0.1417517  12.01 0.0007863924    2.786    0.641
       158 -11.7539     50.6025     33.8362   1.0808244918e+02   6.4430169936e+01     0.308725      0.21461  37.72 0.0006028401    1.656    0.396
       159 -11.1174    145.0582     33.0233   7.9682223366e+01   4.5532195303e+01    0.2205622    0.2122524  47.00  0.001259497    1.007    0.007
       160 -10.2330    141.0362     30.5219   7.9610512874e+01   4.6863265040e+01    0.2791308    0.2641748  16.40  0.001146382    1.073    0.068
       161 -10.0622    195.3153    249.6850   1.1990829956e+02  -2.3840296798e+00    0.1066041   0.08114324  58.84 0.0004271088    1.645    0.392
       162 -11.0946     20.3706     31.4035   1.2032071612e+02   6.8120314592e+01    0.5041867    0.2587255  -8.14   0.00221813    2.910    0.656
       163 -11.4494     43.4813     29.5247   1.0925492476e+02   6.6076288979e+01    0.4716778    0.2520815 -39.15  0.001920103    1.597    0.374
       164 -10.2409     46.6620     27.2788   1.0694798499e+02   6.6046222298e+01     0.206374    0.1497906 -41.27 0.0004974047    1.334    0.250
       165 -10.5159    150.2265     29.6687   7.7512881654e+01   4.4652934195e+01    0.4934822    0.2310522  70.73    0.0018702    2.460    0.593
       166  -9.7723    166.6019     31.9745   7.5378239268e+01   4.0142884638e+01    0.3233032    0.1406104 -28.18  0.001240822    2.370    0.578
       167  -9.5223    187.5027     29.5120   7.1410968027e+01   3.5005109048e+01    0.1430552    0.1358093  79.24 -0.0001810341    1.046    0.044
       168 -10.1000    104.6839     29.1743   8.7705537917e+01   5.5567554290e+01    0.2814771    0.1598752  29.96  0.001240301    2.070    0.517
       169 -10.0414     69.7713     28.4811   9.8439444369e+01   6.2408374611e+01    0.2343299    0.1653505 -30.48 0.0007380926    1.304    0.233
       170 -10.0510      2.2431     28.6400   1.2795775435e+02   6.9873175173e+01    0.1838195    0.1254363 -19.39 0.0006705169    1.480    0.324
       171 -10.1086      7.6809     28.3848   1.2524928190e+02   6.9603654603e+01    0.2129716    0.1288439  23.67  0.001346951    2.002    0.500
       172 -12.5718      6.2375    241.3135   1.5112896836e+02   2.5238633858e+01    0.3498281    0.2932104 -63.81  0.003010968    1.918    0.479
       173  -9.5423    229.5055     25.9992   6.5468676884e+01   2.4829248752e+01    0.1874414    0.1197295   6.76 0.0008104257    2.696    0.629
       174 -10.3615    200.8198     25.5145   6.8507497954e+01   3.2049863581e+01    0.3109324    0.1694828 -25.30  0.001257466    1.966    0.491
       175 -10.4715    113.9482     25.2135   8.3699307251e+01   5.4022109915e+01    0.2354668      0.19694 -21.04 0.0007092067    1.205    0.170
       176  -9.7798    153.3220     25.5576   7.5535067066e+01   4.4363864606e+01    0.2718116    0.1406692  70.77  0.001114795    2.049    0.512
       177 -10.2496     58.8949     24.5026   1.0075410300e+02   6.4750419039e+01    0.2465928    0.1719269 -10.34  0.001048618    1.439    0.305
       178 -10.1171     52.1106     23.2857   1.0291146892e+02   6.5935424921e+01    0.3287159    0.1575191 -30.76  0.001589638    1.951    0.488
       179 -11.0857     89.2154     22.2061   8.9235406827e+01   5.9704252503e+01    0.3979273    0.1874404 -35.09  0.001801117    2.103    0.525
       180  -9.7822     84.8027     21.3453   9.0219305177e+01   6.0683889715e+01    0.3309375    0.1406042  35.09  0.001327895    2.738    0.635
       181  -9.7195    217.4860    245.0000   1.1551087213e+02  -5.2308477184e+00    0.2551163   0.05215619  41.77  0.000934784    3.935    0.746
       182 -12.2933      4.2023    232.6089   1.5109839599e+02   2.6945694838e+01    0.3519802    0.1916853 -88.21 0.0009296514    1.486    0.327
       183 -10.3810     13.4195     16.0923   1.1763511218e+02   7.1390031350e+01    0.3048564    0.1714645  28.72  0.001761821    2.114    0.527
       184 -10.6028     30.9794     19.7372   1.1058050870e+02   6.9140967144e+01    0.2417845     0.185787 -49.68  0.001607805    1.523    0.343
       185  -9.6215    202.4950    240.0589   1.1733346446e+02  -2.3353965308e+00    0.1474663    0.1137526 -27.82 0.0008317442    1.536    0.349
       186  -9.5677    175.2957     20.6783   7.0435625690e+01   3.9231677117e+01    0.1491161    0.1014766 -62.91 0.0002463359    1.617    0.382
       187 -10.3947     70.6860     41.7535   1.0360166241e+02   6.0108674920e+01    0.3519226     0.237709 -37.73  0.001918895    1.355    0.262
       188 -10.3127    100.7114     19.5302   8.4791462681e+01   5.7649044579e+01    0.2606865    0.1920398 -51.13 0.0009238225    1.709    0.415
       189  -9.3544     60.4586    241.0000   1.4239291854e+02   1.9171093554e+01    0.2277884   0.05039281  39.73 0.0009245817    3.853    0.740
       190 -10.9609     14.9528    238.9928   1.4968632061e+02   2.4762782130e+01     0.177014   0.07704648  65.88 0.0007919197    1.720    0.419
       191 -12.2505     26.3094    236.0457   1.4773669667e+02   2.4076818243e+01    0.3285166    0.2221476  84.97  0.001620343    1.216    0.178
       192  -8.9866    210.6434    235.7084   1.1529251302e+02  -3.0862007407e+00     0.122085   0.07642751  18.27 0.0003873398    1.687    0.407
       193  -8.9540    155.5704    235.5108   1.2500068198e+02   5.8808097840e+00    0.1203848   0.09752336  45.29   6.2867e-05    1.010    0.010
       194  -9.8721    148.8202     18.7912   7.3990526492e+01   4.6286876494e+01    0.2068413    0.1795678  43.73 0.0003785679    1.126    0.112
       195  -9.8209    199.9893     17.3209   6.6292222022e+01   3.3209846518e+01    0.1959679     0.170928  89.98 0.0005311752    1.057    0.054
       196 -11.2417    108.1188     16.6999   8.1685681683e+01   5.6346450868e+01    0.2800888    0.2243849  63.42 0.0003906406    1.338    0.252
       197  -9.8167    249.1510    234.1439   1.0864475765e+02  -8.7106906927e+00    0.1718422    0.1184397  16.24 0.0005380746    1.183    0.155
       198 -11.1562     13.4075     20.5030   1.1948736696e+02   7.0633465326e+01    0.2705911    0.2438009  11.49  0.001297649    1.388    0.280
       199 -10.6761     20.0802     16.7971   1.1455135698e+02   7.0705582133e+01    0.1908134    0.1450401   9.89 0.0003916456    1.391    0.281
       200 -10.3751    156.6628     13.9346   7.1026057190e+01   4.4791914066e+01    0.1946888    0.1834137 -31.50  0.001149504    1.134    0.118
       201  -9.8336    144.0738     14.4976   7.3306300937e+01   4.7946288072e+01    0.2077019    0.1296218  63.54 0.0003490849    1.489    0.329
       202  -9.6398    140.0609    227.0419   1.2676097564e+02   9.7465156616e+00    0.1977003     0.128833  65.98 0.0007733061    1.719    0.418
       203  -9.3913    109.7045    226.6536   1.3236176327e+02   1.4686399080e+01    0.1057094   0.09494213   4.88 0.0005179712    1.672    0.402
       204 -10.1728     32.8335    225.2997   1.4605243587e+02   2.5286990814e+01    0.2576352   0.08085734  48.35  0.001357575    2.345    0.574
       205 -10.0976     25.3514    225.1235   1.4730952070e+02   2.6140408154e+01    0.1545882    0.1130023 -78.83  0.001029559    1.438    0.305
       206  -9.5418    118.8055     11.6518   7.7150385015e+01   5.4419964138e+01    0.1857294      0.12487  71.36 0.0003605935    1.629    0.386
       207 -11.1101      2.2729    220.0773   1.5088832965e+02   2.9379102416e+01    0.2689836   0.09983274  85.67  0.001515113    2.302    0.566
       208 -11.1778      7.6839    217.6976   1.4988984963e+02   2.9307065648e+01    0.2538162    0.1725997  84.52  0.001348069    1.145    0.127
       209  -9.6801    246.5008    216.5066   1.0614955073e+02  -6.3620980597e+00    0.1202617   0.09287303  13.16 0.0008102616    1.044    0.042
       210 -10.4906      3.7085    212.6308   1.5032154502e+02   3.0627947254e+01    0.2185778    0.0980629  46.24  0.001414234    1.873    0.466
       211  -9.6136    209.2938    212.0316   1.1176446615e+02   2.0496665385e-01    0.1702677    0.1482934   6.13  0.001135474    1.118    0.106
       212 -10.8569     15.8954    211.8889   1.4820039466e+02   2.9595447678e+01    0.1550775    0.1241501  85.23  0.001037067    1.253    0.202
       213  -9.7958    246.8463    206.9319   1.0441930126e+02  -5.2739717151e+00    0.1872947    0.1357691   4.14 0.0008117432    1.260    0.206
       214 -10.1065      2.1744    205.8086   1.5026628146e+02   3.2062914916e+01    0.1333591    0.1025641 -85.66 0.0006470746    1.317    0.241
       215  -9.4257    197.0474    204.0011   1.1262907198e+02   3.4836821160e+00     0.160158    0.1333077  32.22 0.0007852286    1.041    0.039
       216 -10.8842      9.4636    203.2901   1.4886677796e+02   3.1876728692e+01    0.2111219    0.1355361  72.62 0.0007492565    1.129    0.114
       217  -8.9684    181.5186    199.5124   1.1478795481e+02   6.9769572966e+00    0.1315774    0.1161733  41.00 1.666184e-05    1.052    0.050
       218  -9.4407     23.0530    197.4808   1.4605085766e+02   3.1687893972e+01    0.1514835   0.09678288  45.01 0.0004152337    1.557    0.358
       219  -9.8909      6.5906    191.6929   1.4875582012e+02   3.4433352084e+01    0.1524594   0.07640966  85.31 0.0009355533    1.576    0.365
       220 -10.1236     15.4152    185.5842   1.4671997802e+02   3.4860947397e+01    0.2087594   0.08624077 -85.17   0.00110769    2.059    0.514
       221  -9.2322      1.1920    183.0848   1.4928672989e+02   3.6643330786e+01    0.1410999   0.06440289 -80.75 0.0004872902    1.712    0.416
       222  -9.0305    250.3283    183.3317   9.9455861116e+01  -2.8256186211e+00    0.1333783   0.08569598   7.69 0.0007051622    1.715    0.417
       223 -10.6544      4.5437    167.3473   1.4768071020e+02   3.9639061334e+01    0.2481253    0.1398148  67.04  0.001533151    1.504    0.335
       224  -9.1514    247.4762    155.5408   9.4281892699e+01   1.5663110238e+00    0.1332534     0.116165  -4.62 8.243238e-05    1.008    0.008
       225  -9.5590    243.0000    154.9344   9.4886699269e+01   2.4775635324e+00    0.2154868   0.07094263 -34.31 0.0005539982    2.871    0.652
       226  -9.3104     41.5433    158.4777   1.3887914467e+02   3.8038593315e+01    0.1264018    0.0986078  85.46 0.0008082987    1.042    0.040
       227 -10.3221     22.0697    143.2322   1.4181496324e+02   4.3439646320e+01    0.2234486    0.1407917 -78.76  0.001288295    1.261    0.207
       228 -10.7044     12.8521    130.6994   1.4278191415e+02   4.7050047368e+01    0.3605596    0.1697276  64.62  0.001320199    2.362    0.577
       229  -9.8421     29.1487    128.8170   1.3841160267e+02   4.6096914445e+01    0.2390953    0.1437033  83.29   0.00105623    1.663    0.399
       230  -9.6436     21.1322    126.1538   1.4016952196e+02   4.7420565563e+01    0.1724811    0.1377258 -68.93  0.000465517    1.154    0.133
       231 -11.0033     24.0446    122.2227   1.3891827056e+02   4.8078801259e+01     0.357978    0.2077236  79.50 0.0004032892    1.819    0.450
