#   1 NUMBER                 Running object number                                     
#   2 MAG_AUTO               Kron-like elliptical aperture magnitude                    [mag]
#   3 X_IMAGE                Object position along x                                    [pixel]
#   4 Y_IMAGE                Object position along y                                    [pixel]
#   5 X_WORLD                Barycenter position along world x axis                     [deg]
#   6 Y_WORLD                Barycenter position along world y axis                     [deg]
#   7 A_WORLD                Profile RMS along major axis (world units)                 [deg]
#   8 B_WORLD                Profile RMS along minor axis (world units)                 [deg]
#   9 THETA_WORLD            Position angle (CCW/world-x)                               [deg]
#  10 FWHM_WORLD             FWHM assuming a gaussian core                              [deg]
#  11 ELONGATION             A_IMAGE/B_IMAGE                                           
#  12 ELLIPTICITY            1 - B_IMAGE/A_IMAGE                                       
         1 -12.4108    211.6574     20.5858   4.4712973239e+01   2.8622369552e+01     1.253959    0.8280149  19.23  0.005779394    1.792    0.442
         2 -12.2464    199.4588     34.1996   5.0440809791e+01   3.0300253982e+01     1.201968    0.9239153  35.28  0.004605275    1.384    0.277
         3  -9.9930     32.5817     18.2072   9.0643220521e+01   7.0220833556e+01    0.3615054    0.1024231 -52.37  0.001370568    2.851    0.649
         4  -8.7078     60.3944      7.7564   7.1558854096e+01   6.8042391505e+01    0.1886504    0.1162571 -26.34 0.0006850652    1.526    0.345
         5  -9.3487     58.9975      2.8870   6.9217493515e+01   6.9045306717e+01    0.3365968    0.1912623  15.71  0.001397387    2.861    0.650
         6  -8.5419     41.3313      3.6660   7.8122768376e+01   7.1845274205e+01    0.1233196   0.09881009 -66.29 0.0001254498    1.729    0.422
         7  -9.8197     17.8478      2.1443   9.1287768032e+01   7.4999549224e+01    0.3164122    0.1981972 -20.21  0.001798553    1.882    0.469
         8  -9.7155    149.4906    228.5172   1.0050238100e+02   1.2991447407e+01    0.1627141   0.07321361  47.47 -2.51164e-05    1.745    0.427
         9 -14.8393     75.6522    246.2318   1.1373006501e+02   2.0292525836e+01     9.360299          nan  41.07   0.03290796    6.318    0.842
        10 -13.2579     53.6797    197.4559   1.1450563720e+02   2.9919366767e+01     1.595425     0.944069  79.09  0.008734141    1.579    0.367
        11  -8.9793    193.2681    192.5078   8.8754116606e+01   1.0542716775e+01    0.2331968    0.1631197 -45.95  0.001541347    1.992    0.498
        12 -10.1919     68.5221    180.1436   1.1036944200e+02   3.1097810732e+01    0.3071297    0.2296543 -38.51  0.001881555    2.227    0.551
        13 -10.1625     73.1154    174.6348   1.0894904643e+02   3.1489310019e+01    0.2623236    0.2229351 -40.01  0.001035051    1.761    0.432
        14  -8.4895    114.5020    172.9957   1.0039638855e+02   2.5907703202e+01     0.149449    0.1006025 -29.28 0.0008104693    2.544    0.607
        15  -9.0705    102.1427    171.8714   1.0274453076e+02   2.7961095753e+01    0.2242658    0.1625537  12.25  0.001281635    2.310    0.567
        16 -12.6005      7.9871    250.1414   1.2408209410e+02   2.6644975412e+01     0.343002    0.2103928  36.84 0.0006580068    1.664    0.399
        17  -8.6338    194.4640    167.7458   8.4577549999e+01   1.3273992311e+01    0.2442438    0.1659368  29.53  0.001483178    1.302    0.232
        18  -9.1978     92.9996    167.9635   1.0415711009e+02   2.9975153452e+01    0.1471004    0.1186302  58.22 0.0009529209    1.025    0.024
        19 -10.6126     82.2341    164.4690   1.0601510500e+02   3.2117668042e+01    0.3745878    0.2840536  86.35 0.0004821151    1.280    0.219
        20 -11.8418     70.1663    160.4786   1.0816848636e+02   3.4470209628e+01    0.5082519    0.4290469 -26.07  0.001777961    1.893    0.472
        21 -11.7372     68.5177    144.2177   1.0673627100e+02   3.7859072522e+01    0.7723641    0.4255991  67.91  0.003669888    1.934    0.483
        22 -10.4452     88.3611    157.6553   1.0390460102e+02   3.2520270907e+01    0.4204263    0.3091112 -35.33  0.001559076    2.096    0.523
        23  -9.7767     32.8629    156.4221   1.1593076818e+02   3.9540965662e+01    0.2627197    0.1102414 -83.14  0.001416148    2.246    0.555
        24  -9.9362     28.0881    149.9229   1.1653678371e+02   4.1289504873e+01    0.2060941    0.1329325  46.58 0.0009156591    1.400    0.286
        25 -13.1773      2.6720    247.3410   1.2479681104e+02   2.7481633295e+01    0.6556849    0.2711881 -80.80   0.00511989    2.560    0.609
        26  -9.7463     28.9734    138.6505   1.1551197462e+02   4.3488529260e+01    0.3328645    0.1198145  36.15  0.001122885    2.540    0.606
        27  -9.0922    102.1752    142.1872   9.8694250040e+01   3.3368223239e+01    0.4486593    0.2744779 -30.55  0.002031675    3.109    0.678
        28 -10.5279     89.9381    142.0682   1.0148124203e+02   3.5282147544e+01    0.2280396    0.2209296 -87.72 0.0004368125    1.222    0.182
        29  -7.8274    133.3298    140.6740   9.1543810642e+01   2.8345152400e+01     0.134069   0.09816951  76.16 0.0007050683    1.705    0.413
        30 -10.6524     58.7826    132.6837   1.0768864947e+02   4.1471499735e+01    0.5682603     0.245616 -83.24  0.002457679    2.909    0.656
        31  -8.6953    111.4704    131.6449   9.4812779632e+01   3.3873618820e+01    0.2171107    0.1589182  23.96 0.0008591437    1.773    0.436
        32 -10.8507     96.0466    225.2086   1.0903323316e+02   2.0601100056e+01    0.4267158    0.2211869  48.19  0.001976736    1.385    0.278
        33  -8.5195    106.1077    130.9123   9.5938189482e+01   3.4924612956e+01    0.2136958    0.1703178  74.54  0.001252971    1.269    0.212
        34  -9.2835     32.7029    130.4868   1.1392619306e+02   4.4832988247e+01    0.2996859   0.06865381 -67.60  0.001210068    3.477    0.712
        35  -9.3305     98.7849    127.9713   9.7176087919e+01   3.6719971103e+01    0.2695004    0.2375677  17.24  0.001044272    1.454    0.312
        36  -8.1517    108.1085    119.9025   9.3438876286e+01   3.6781664742e+01    0.1672036    0.1577109  17.11 -0.0006383859    1.265    0.209
        37  -7.8234    167.6558    112.3489   7.8414349867e+01   2.6480141356e+01    0.1435069    0.1126751 -82.51 0.0007042947    1.805    0.446
        38  -9.8063     32.6165    108.4460   1.1171971764e+02   4.9649331974e+01    0.3298356   0.09880313 -72.76  0.001361183    2.876    0.652
        39  -9.1264     50.1619    107.9998   1.0671202455e+02   4.7880258210e+01    0.2195866    0.1223942  78.92  0.001077815    2.051    0.512
        40 -10.9463    119.9758    229.9951   1.0545752938e+02   1.6852867024e+01    0.3553011    0.1819402  53.99  0.002039917    1.687    0.407
        41 -10.5393    114.9414    229.1651   1.0621354631e+02   1.7625922846e+01    0.2882511    0.1872136 -68.74  0.001999723    2.065    0.516
        42  -8.7111    134.5822    102.2616   8.3196150767e+01   3.5224879463e+01    0.2729076    0.1367796 -48.11  0.001135169    2.072    0.517
        43  -7.6550     89.6083    101.2985   9.4459102630e+01   4.3829547485e+01    0.1460871   0.09897009  74.55 0.0007010195    1.795    0.443
        44  -8.8494    245.3283    100.6577   6.2490931586e+01   1.1819317020e+01     0.128828   0.09793371 -50.02 0.0007051213    1.742    0.426
        45 -11.1271    109.8556    228.9167   1.0703199940e+02   1.8326491485e+01    0.3564981    0.1630764  51.25   0.00227007    1.718    0.418
        46 -11.3400    127.3302    230.5713   1.0430538402e+02   1.5795458492e+01    0.3395949     0.267749  62.46  0.002841265    1.290    0.225
        47  -8.1932     61.5266     71.5277   9.6193483404e+01   5.4785243314e+01    0.1354102    0.1190375 -67.50 -5.281551e-07    1.020    0.020
        48 -10.5074    123.7328    226.8978   1.0456025631e+02   1.6736388111e+01    0.3282277    0.2368138  60.66  0.002582393    1.326    0.246
        49  -8.6327     71.9217    230.2031   1.1338427919e+02   2.2856925338e+01    0.1576644   0.09306401  56.84 0.0004388544    1.249    0.199
        50  -9.8497    149.3619     53.2236   6.5357651671e+01   4.0690637571e+01    0.4066953    0.2843506 -69.04  0.001578221    1.934    0.483
        51 -10.6967    166.0778    223.2272   9.7247204718e+01   1.1232754886e+01     0.322951    0.1941211  50.78  0.002216135    1.537    0.349
        52 -10.5850    186.2363     47.7964   5.6715999653e+01   3.2030799251e+01    0.4813061    0.3186186  76.72  0.002121113    1.822    0.451
        53  -9.2741    150.0675     45.9879   6.2681007871e+01   4.1653829712e+01    0.2407857    0.2253806 -50.23 0.0006339153    1.096    0.088
        54 -10.7952    142.1732    228.4851   1.0168594491e+02   1.4013968857e+01    0.2422931    0.1927369  82.23  0.001676905    1.686    0.407
        55 -13.0379     43.6659    207.9248   1.1691392648e+02   2.9329536410e+01     1.208136    0.8285152 -51.27  0.006997231    2.375    0.579
        56 -10.9985    190.4626     40.4619   5.3704127417e+01   3.1884689232e+01    0.4050696    0.3766676  23.74  0.001046927    1.091    0.083
        57 -10.8292    134.4155    231.4002   1.0322952427e+02   1.4735588504e+01     0.272639    0.2036392 -66.05  0.002207654    1.867    0.464
        58  -9.5147     60.5834    221.0456   1.1472643984e+02   2.5468109753e+01    0.2325449    0.1609273 -62.82  0.001858481    1.945    0.486
        59 -10.1186     32.6572     28.5540   9.4896989607e+01   6.8016981763e+01    0.4826621    0.0785627 -54.68  0.001495042    4.199    0.762
        60 -15.5259      6.6100    207.3974   1.2328195935e+02   3.2986845179e+01     13.36528     1.168564 -81.81   0.01356699   10.575    0.905
        61 -10.3947     32.5656    205.7075   1.1875284731e+02   3.0830377074e+01    0.2380879    0.1066979 -87.49  0.001558833    2.205    0.547
        62 -11.3282    140.2511    238.2355   1.0293560567e+02   1.3155916507e+01    0.2603466    0.1886699  27.11  0.002080658    1.451    0.311
        63 -10.5926     83.0765    231.3538   1.1162768066e+02   2.1375314070e+01    0.2762142    0.1557093  58.93  0.002043645    1.439    0.305
        64  -9.5954     89.7064    230.2721   1.1046318543e+02   2.0711470609e+01    0.1550649    0.1133706  52.52  0.001284525    1.048    0.046
        65  -9.4727     91.5000    233.4249   1.1039283985e+02   2.0070334602e+01     0.183258    0.1206385  55.30  0.000542212    1.138    0.121
