#   1 NUMBER                 Running object number                                     
#   2 MAG_AUTO               Kron-like elliptical aperture magnitude                    [mag]
#   3 X_IMAGE                Object position along x                                    [pixel]
#   4 Y_IMAGE                Object position along y                                    [pixel]
#   5 X_WORLD                Barycenter position along world x axis                     [deg]
#   6 Y_WORLD                Barycenter position along world y axis                     [deg]
#   7 A_WORLD                Profile RMS along major axis (world units)                 [deg]
#   8 B_WORLD                Profile RMS along minor axis (world units)                 [deg]
#   9 THETA_WORLD            Position angle (CCW/world-x)                               [deg]
#  10 FWHM_WORLD             FWHM assuming a gaussian core                              [deg]
#  11 ELONGATION             A_IMAGE/B_IMAGE                                           
#  12 ELLIPTICITY            1 - B_IMAGE/A_IMAGE                                       
         1 -11.2070     79.0930     31.3399   7.5925028874e+01   6.0073956529e+01    0.6790211    0.3817617  -9.78  0.002930743    2.472    0.595
         2 -11.1794    112.4288     24.3497   6.3127493657e+01   5.4127495986e+01    0.4519577    0.2798871   2.78  0.002049046    2.059    0.514
         3 -12.0145     60.3405     23.5756   7.9356390764e+01   6.4393070993e+01    0.8926835     0.415042 -37.50  0.004295732    2.033    0.508
         4 -12.3058     80.8091      7.2534   6.4519296638e+01   6.2780900189e+01    0.7328127    0.4204859  19.57   0.00366161    1.913    0.477
         5 -11.7319     74.0505      7.1682   6.6628114696e+01   6.4091588908e+01    0.2897566    0.2163515 -19.66 0.0003084569    1.308    0.235
         6 -11.2936     70.4102     14.8112   7.1534532748e+01   6.3885801661e+01     0.439974    0.2194234 -16.78  0.001751223    2.220    0.550
         7 -11.5489     75.3266     16.0717   7.0427554225e+01   6.2838902823e+01    0.7908275    0.2228014  43.47  0.002938912    3.316    0.698
         8 -10.7067     66.2856     13.4324   7.2353219749e+01   6.4779031080e+01    0.3420968     0.195443  37.38  0.001202445    1.674    0.402
         9 -11.4777    130.6199     20.5049   5.7437868104e+01   5.0254507334e+01    0.3923244    0.3771407 -81.57 0.0008541264    1.152    0.132
        10 -10.2825     24.6165     26.7688   9.6288307792e+01   6.8325908647e+01     0.967436    0.1676797 -50.92  0.002942283    5.738    0.826
        11 -11.0038     18.9955     16.2362   9.4557512337e+01   7.0622342979e+01    0.3204657    0.2277585  13.62 0.0006513108    1.490    0.329
        12 -12.2177     85.0398     20.5018   6.9259795637e+01   6.0438622749e+01    0.4536145     0.380311 -46.79 0.0005320559    1.499    0.333
        13 -11.4966      4.8362     18.6554   1.0287946217e+02   7.1276717010e+01    0.3849182    0.2789055  29.28  0.002354407    1.823    0.451
        14 -11.1365    169.0451     13.3132   4.8298790609e+01   4.1204866021e+01    0.3349624    0.2127556  42.98 0.0003733882    1.661    0.398
        15 -10.4901     30.8267     13.1211   8.7223594464e+01   6.9916376626e+01    0.2885938    0.1565703 -27.67  0.001008095    1.588    0.370
        16 -11.2408     26.6664     14.0015   8.9678719411e+01   7.0235475708e+01    0.1914653     0.139561 -10.79 0.0004236669    1.175    0.149
        17 -10.2949    158.3488     13.5093   4.9945662314e+01   4.3964751000e+01    0.2566265    0.1514906 -47.08  0.001182771    1.866    0.464
        18 -10.4521    100.1305     12.9698   6.1592530428e+01   5.8170113214e+01    0.3060135    0.1897633 -13.54  0.001016277    1.691    0.409
        19 -10.2649     55.0235     13.2648   7.6582440497e+01   6.6646949093e+01    0.2506974    0.1578379 -31.09 0.0003598582    1.498    0.333
        20 -10.2996     58.7556     10.6058   7.3792858210e+01   6.6389416982e+01    0.3024391    0.1890261  40.20 0.0005206995    1.611    0.379
        21 -10.3444    138.4234     12.1063   5.2813566483e+01   4.9195465164e+01    0.2505699    0.1924819  75.02 0.0004765368    1.327    0.247
        22 -11.7045    116.9005      8.4420   5.5696039186e+01   5.4798695839e+01    0.5668426    0.2996725 -35.09  0.002153818    2.054    0.513
        23  -9.8652     50.5248     11.4489   7.7519594354e+01   6.7566711421e+01    0.2673993     0.150176   4.86  0.001271497    2.292    0.564
        24 -11.8908     22.7291      7.1137   8.8253617978e+01   7.1677002767e+01    0.5272105    0.3523428 -45.98  0.001839251    1.774    0.436
        25 -11.0222     16.9723      3.5408   8.9437949099e+01   7.2767757735e+01    0.3122375    0.1672069 -41.76 0.0009011753    1.735    0.424
        26 -11.7680     11.4437      2.8605   9.2129883472e+01   7.3370120000e+01    0.3131518     0.184388 -13.55  0.001499428    1.581    0.367
        27 -13.0096     31.9785      2.1049   8.0940769085e+01   7.1305329065e+01    0.2856887    0.1933517  19.26 0.0006044155    1.394    0.282
        28 -10.7550     27.4828      3.4480   8.3895339692e+01   7.1669816939e+01    0.1846185    0.1670782   9.96 0.0008261693    1.459    0.314
        29 -10.0846      5.5001     11.4592   9.9551239153e+01   7.2469613277e+01    0.1836491    0.1099573 -30.77 0.0005283952    1.286    0.223
        30 -10.4448      6.3464      8.0088   9.7524157840e+01   7.2975806716e+01    0.1871509     0.146163 -41.05 0.0003718595    1.307    0.235
        31 -10.3104    184.0647     10.4782   4.5467188767e+01   3.7585285137e+01    0.3899754    0.2024783  87.80  0.001414324    2.186    0.543
        32  -9.8498    133.3330     10.5051   5.3171565859e+01   5.0620972831e+01    0.2308629    0.1304297 -19.11  0.001073323    1.933    0.483
        33 -10.2650     39.1191      9.9371   8.1731210775e+01   6.9361779708e+01    0.3005309    0.2272973 -63.85   0.00100899    2.904    0.656
        34  -9.6288    107.8064      9.3653   5.8139397945e+01   5.6820583533e+01    0.2073193    0.1528871  -5.77 0.0007776696    1.405    0.288
        35  -9.1767    166.3470      9.3172   4.7411627754e+01   4.2304085492e+01    0.1502489   0.09473626  39.84 0.0007048366    1.726    0.421
        36 -11.0321    235.6227     10.3597   4.0277801410e+01   2.4735134009e+01    0.2535043    0.1756402  34.66  0.001125416    2.078    0.519
        37 -11.1963    149.8633      6.4517   4.8890592502e+01   4.6825614199e+01    0.5170651    0.2136461  53.98  0.001341939    2.080    0.519
        38  -9.9174    145.5716      4.4615   4.8878195795e+01   4.8096040192e+01    0.2247155    0.2031898   8.53 0.0004956627    1.201    0.168
        39  -9.7252    127.4551      8.5068   5.3549547892e+01   5.2256101276e+01    0.1367417    0.1241705  45.57 5.949353e-05    1.014    0.013
        40 -10.9347     92.0840      6.3463   6.0835602899e+01   6.0565102109e+01     0.425463    0.2576492  12.83  0.001392152    1.830    0.454
        41  -9.3884     43.4437      7.9344   7.8757718878e+01   6.9043153546e+01    0.1511896   0.09519606 -48.30 0.0008066244    2.438    0.590
        42  -9.5110     60.3322      5.8843   7.0809870480e+01   6.6679931701e+01    0.1841264    0.1456306 -33.56  0.001172145    1.488    0.328
        43 -10.2581    228.5061      5.1083   3.9599107675e+01   2.6988041259e+01    0.2203017    0.1560757 -69.95  0.001084724    1.276    0.216
        44 -10.0020    132.0935      5.0461   5.1373055209e+01   5.1426386933e+01    0.2773311    0.1921718  76.69  0.001367874    1.514    0.339
        45  -9.7215    243.5202      3.7384   3.8124879110e+01   2.3621530584e+01    0.1769681   0.09827896 -45.82 0.0006589196    1.556    0.357
        46 -12.1909    167.9267      2.4057   4.5023650137e+01   4.2533205084e+01     0.272676    0.2400047  57.93 0.0001742043    1.098    0.089
        47  -9.6552    125.8313      1.9802   5.1365448163e+01   5.3222021033e+01    0.2947905    0.1687993 -78.44  0.001219611    2.867    0.651
        48  -9.7303     72.9500      2.2682   6.4585781134e+01   6.4793442179e+01    0.1773868    0.1374484  31.59 0.0005018345    1.139    0.122
        49  -9.5169    155.7287      1.3793   4.6319224919e+01   4.5765410163e+01    0.1956016    0.1085865  58.54 0.0004067534    1.567    0.362
        50  -9.2588    201.6705    215.6726   9.3391577022e+01   8.3907011409e-02    0.1321055   0.08848026  12.55 0.0007051012    1.707    0.414
        51 -10.7482    250.3332    245.8425   8.9845293484e+01  -1.1094077586e+01    0.3245995     0.145261 -26.19   0.00185019    2.402    0.584
        52  -9.8514     72.6252    250.0947   1.2130137924e+02   1.5295882253e+01    0.1628411    0.1440116  36.93  0.001257567    1.594    0.373
        53 -12.1873     29.0239    248.4927   1.2829701934e+02   2.0926425906e+01    0.7699369    0.2681316  67.52  0.004038541    2.707    0.631
        54  -9.9069      5.7710    235.3533   1.3132801943e+02   2.5638365395e+01    0.1927972    0.1727109  69.20   0.00129853    1.556    0.357
        55 -12.4281     20.2098    248.7156   1.2967634459e+02   2.1850125974e+01    0.6493748    0.1948826  44.85   0.00367563    2.389    0.581
        56 -13.1533      7.1759    244.4029   1.3148164290e+02   2.3927732044e+01     0.936659    0.7076127  26.64  0.007256747    2.240    0.554
        57 -10.9623     21.2182    212.2438   1.2760654413e+02   2.8358866903e+01     0.315617    0.1291828  58.49  0.001785593    1.985    0.496
        58 -10.2037    208.9745    212.0758   9.1434957196e+01  -6.5837210676e-01    0.1942708    0.1599863  21.31 0.0004684648    1.028    0.027
        59  -9.1963     76.3350    212.3135   1.1736277918e+02   2.1592219113e+01    0.1048223   0.09763411 -20.24 0.0007045994    1.687    0.407
        60  -9.5523      2.2900    212.3449   1.3088011504e+02   3.0188098208e+01     0.136134   0.09470668  44.72 0.0005526852    1.558    0.358
        61 -12.1886      4.8442    207.5419   1.3021236623e+02   3.0874490236e+01    0.6079624    0.2241596  85.68  0.003201151    2.438    0.590
        62  -9.2326    188.4615    209.5177   9.4842065382e+01   3.3005521343e+00    0.1309108    0.1120579  30.74 1.647213e-05    1.008    0.008
        63  -9.9223     10.6511    208.3736   1.2924507332e+02   3.0166039075e+01     0.176796    0.1270263 -53.41 0.0005984252    2.072    0.517
        64  -9.5428    124.1034    205.8802   1.0706030251e+02   1.5350291625e+01    0.1599164    0.1417726  35.64  0.001000393    1.239    0.193
        65 -11.2744     18.9693    202.8960   1.2744356220e+02   3.0424688975e+01    0.3305466    0.2249384 -89.18  0.001472959    1.186    0.157
        66 -10.3452    175.3898    202.6874   9.6228653763e+01   6.7496380715e+00    0.2336403    0.1846979  45.53 0.0005286247    1.158    0.137
        67  -9.2472     67.9590    203.7593   1.1815602237e+02   2.4452718042e+01    0.1472845    0.0913671  44.43 0.0003810785    1.508    0.337
        68  -9.5042    223.5911    201.8022   8.6946384826e+01  -1.7185545779e+00    0.1621674    0.1179641 -43.53 0.0005715209    1.712    0.416
        69  -9.3067     10.3110    202.3194   1.2897442208e+02   3.1385280791e+01   0.09626864   0.07426611 -64.13 0.0007035654    1.645    0.392
        70  -9.9887    174.2617    219.4810   9.9155984170e+01   4.2675471573e+00    0.2564919    0.1077943  38.92  0.001069164    2.063    0.515
        71  -9.6111     34.6855    201.2453   1.2440606296e+02   2.9088322531e+01     0.137567    0.1177401 -81.37 0.0007284183    1.337    0.252
        72  -9.3877     44.3217    199.3088   1.2239994135e+02   2.8373716729e+01    0.1030509    0.0882481 -53.15 0.0007035253    1.645    0.392
        73  -9.3054    227.1539    196.8824   8.5393712980e+01  -1.6394969304e+00    0.1846915    0.1334117   9.95  0.000813532    1.359    0.264
        74  -9.4917      7.0000    195.9634   1.2921778672e+02   3.2959941347e+01    0.1747057   0.04884007 -78.44 0.0005977881    2.926    0.658
        75 -10.3102    215.5205    194.7420   8.7108632607e+01   7.0400643859e-01    0.2195869    0.1248904 -29.61 0.0005715417    1.877    0.467
        76 -10.2845    186.9835    190.7933   9.1834427019e+01   6.5757728553e+00    0.1969007    0.1482943  -8.41 0.0008426449    1.600    0.375
        77 -10.2137    162.5390    190.4982   9.6725589016e+01   1.1258706235e+01    0.1380623    0.1245695  41.16  2.67549e-05    1.006    0.006
        78  -9.2795    145.4986    190.4833   1.0027722403e+02   1.4457956824e+01    0.1375971    0.1243943  44.55 -9.046261e-05    1.052    0.050
        79 -10.2522      2.1376    188.9611   1.2972292199e+02   3.4805974284e+01    0.3155391    0.1144553  75.95  0.001537092    2.686    0.628
        80  -9.5833    211.2992    188.5662   8.6722620867e+01   2.4012283736e+00    0.2331145    0.1550702 -10.16  0.001125027    1.812    0.448
        81 -11.5127     15.9118    182.7401   1.2670170721e+02   3.4853792983e+01    0.4118606    0.1879506  83.40  0.002219041    1.993    0.498
        82  -9.2376      8.6284    184.2808   1.2822174400e+02   3.5199716002e+01    0.1199256   0.05994241  65.34 0.0004685792    1.697    0.411
        83 -10.1401    167.1876    183.5954   9.4523748146e+01   1.1629104018e+01    0.2024184    0.1237926  34.28  0.000804104    1.640    0.390
        84  -9.5174     58.5137    182.4525   1.1789996818e+02   3.0176411281e+01    0.1261974    0.1025721  79.75 0.0002239155    1.009    0.009
        85  -9.6464      2.0113    180.3065   1.2925353267e+02   3.6596864991e+01    0.1521811    0.1115366  73.89 0.0005160275    1.103    0.093
        86 -10.2279    244.1492    178.5411   7.8837506242e+01  -1.9700712658e+00    0.2623805    0.1526801 -14.12 0.0009404916    1.928    0.481
        87 -11.0003    224.1343    178.5040   8.2364841673e+01   1.5937995303e+00    0.2458611    0.2317057  18.05 0.0004170302    1.174    0.148
        88  -9.5952     70.1875    177.7337   1.1482100663e+02   2.9643546651e+01    0.1550228    0.1494967 -55.80 0.0006223416    1.366    0.268
        89 -10.0503     46.5972    177.3289   1.1991748153e+02   3.2767917082e+01    0.2502683     0.164899  59.58  0.001511247    1.368    0.269
        90  -9.2692     36.4594    178.4578   1.2217715387e+02   3.3677299681e+01    0.1210688   0.09468779  83.65 0.0002452626    1.016    0.016
        91  -9.8612    200.5489    176.2691   8.6365381024e+01   6.4144244822e+00    0.1922242    0.1303655 -22.40 0.0009462882    1.653    0.395
        92 -11.1921     18.0333    173.2709   1.2558076987e+02   3.6673490811e+01    0.3911473    0.1931449  64.03  0.001897684    1.863    0.463
        93 -10.8399     12.6797    170.0265   1.2644309702e+02   3.7861154325e+01    0.3469886    0.1398762 -87.76  0.001723691    2.228    0.551
        94  -9.3126     75.2051    170.8225   1.1280943755e+02   3.0468037559e+01    0.1713372    0.1534024 -48.95   0.00106105    1.394    0.283
        95  -9.5918      4.6373    168.2037   1.2796941696e+02   3.8936845151e+01    0.1690097   0.07740249 -70.78 0.0009621335    1.780    0.438
        96  -9.5939    210.1453    165.8455   8.2363250522e+01   6.2857431987e+00    0.1992033    0.1555457  16.83 0.0006272474    1.312    0.238
        97 -11.8158     44.3065    162.6808   1.1887210568e+02   3.6301752011e+01     0.386472    0.3078653  48.95  0.002324786    1.336    0.252
        98 -11.1582     50.8639    164.9140   1.1762939400e+02   3.5025198212e+01    0.3726762    0.2271546 -49.18  0.001991952    1.993    0.498
        99  -9.5838     67.1757    165.1733   1.1390531797e+02   3.2868868990e+01    0.1903564    0.1344049  72.18 0.0009030102    1.358    0.263
       100  -9.4160    200.4527    162.5651   8.3546681233e+01   8.7875529042e+00    0.1415539    0.1335584  17.45 0.0001904288    1.040    0.038
       101 -12.1921     36.9957    158.9860   1.2014180109e+02   3.7947958870e+01    0.6109462    0.1836045 -69.34 0.0006025286    2.763    0.638
       102 -11.4923     22.4629    156.5427   1.2320439295e+02   3.9949188971e+01    0.4670874    0.3621162  72.50  0.003210669    1.157    0.136
       103 -10.1521    247.4714    158.4844   7.4112115430e+01   3.6806512833e-01    0.1336073    0.1179201 -10.09 3.347062e-05    1.061    0.057
       104  -9.0234    147.6583    156.3139   9.3466653626e+01   2.0898704584e+01     0.153773    0.1158826  80.31  0.000704728    1.704    0.413
       105  -9.1409    197.9958    154.3277   8.2246286801e+01   1.0757398391e+01     0.234335    0.1217065  65.78 0.0007051529    4.343    0.770
       106 -10.6858     11.7472    153.3152   1.2532413612e+02   4.1610825433e+01    0.2691481    0.1823967  11.61  0.001678203    2.337    0.572
       107 -10.3946    177.9418    151.3936   8.5725319482e+01   1.5546462744e+01    0.2941538    0.2590459  88.92 0.0009055304    1.364    0.267
       108  -8.9749     32.3089    149.6714   1.2022325425e+02   4.0561793409e+01    0.1305661    0.0780276  73.34 0.0007039814    1.661    0.398
       109 -10.1865    207.1265    146.2114   7.8635767922e+01   1.0293978753e+01    0.2210241     0.193839  12.64 0.0006642311    1.138    0.121
       110 -11.6505     10.8634    145.5293   1.2484954864e+02   4.3426761695e+01    0.3927178    0.2315524  40.99  0.002444057    1.844    0.458
       111  -9.7644     30.6373    144.7411   1.2007246193e+02   4.1863196255e+01    0.1758119   0.09715686 -82.98 0.0005084044    1.595    0.373
       112 -11.5072     19.8502    141.6448   1.2234893021e+02   4.3566144665e+01    0.3866126    0.1964637  77.40  0.001516451    2.086    0.521
       113 -10.9995     15.8195    139.8194   1.2313601880e+02   4.4322479531e+01    0.2993267    0.1776713   7.39  0.001628968    2.884    0.653
       114 -10.5308      2.8344    143.8891   1.2655925199e+02   4.4400827743e+01    0.1790704    0.1280225 -66.60  0.001232439    1.313    0.238
       115  -9.1365     50.6675    140.6911   1.1456142703e+02   4.0659069453e+01    0.1274733    0.0936911 -41.81   0.00070417    1.670    0.401
       116 -10.8793     55.3267    135.7106   1.1261626405e+02   4.1278363213e+01    0.2949939     0.194984  64.94  0.001215552    1.633    0.388
       117 -10.3854     54.2048    133.1999   1.1252080204e+02   4.2011301273e+01    0.3365421    0.2062694  33.89  0.001752226    1.868    0.465
       118 -11.7623      3.6335    136.2393   1.2572428495e+02   4.6058278655e+01    0.5676202    0.1775107 -59.60  0.002108667    2.627    0.619
       119 -11.2734      9.0874    136.7683   1.2446380838e+02   4.5544484360e+01    0.2134413    0.1479523 -77.91  0.000254299    1.115    0.103
       120  -8.8213    143.6854    137.3087   9.0269336302e+01   2.5784070523e+01     0.155549    0.1207925  86.48 0.0007028966    1.629    0.386
       121 -10.3813     21.4560    135.9265   1.2134102362e+02   4.4743262793e+01    0.2340736    0.1716975  73.59  0.001093504    1.285    0.222
       122  -9.3605    137.8159    135.4021   9.1245945346e+01   2.7433864968e+01    0.2184734     0.144755  34.23 0.0009486246    1.682    0.405
       123  -9.3466    250.0106    134.2356   6.8364889900e+01   3.6009986046e+00    0.1699293    0.1151269  45.91  0.000876307    1.609    0.379
       124 -10.1842    106.9773    133.1678   9.8520863754e+01   3.3997825985e+01    0.2553536    0.2138294 -56.72  0.001026057    1.157    0.136
       125  -9.7312     79.5853    133.1827   1.0575442545e+02   3.8565997465e+01    0.1929354    0.1207446 -51.84 0.0004662423    1.545    0.353
       126  -9.3272    227.0391    131.9691   7.1668857085e+01   8.5728067777e+00    0.1715914    0.1615257   7.65 0.0004592476    1.059    0.056
       127 -11.7528     37.5467    130.5524   1.1653800875e+02   4.4491180984e+01    0.4272319    0.3121773 -58.83  0.001744044    1.283    0.221
       128 -11.1695     33.3286    126.0293   1.1703176488e+02   4.5974088699e+01    0.3350843    0.1960171  73.72  0.001168883    1.965    0.491
       129 -10.3456     74.0414    129.4471   1.0654761865e+02   4.0274940585e+01    0.2596844    0.1892148 -70.61 0.0007122083    1.273    0.215
       130 -11.4844      2.2707    124.3448   1.2495743534e+02   4.8838525499e+01    0.4645072     0.136234 -68.03  0.001361953    2.377    0.579
       131 -10.1485     82.0410    125.2422   1.0354521984e+02   4.0078758965e+01    0.2330724    0.1852261 -61.35  0.000762093    1.153    0.133
       132 -10.6639     14.2255    125.5887   1.2202208839e+02   4.7716214384e+01    0.2114277    0.1639291 -83.04  0.001432961    1.028    0.028
       133 -11.4614     10.6606    122.4704   1.2260172431e+02   4.8697010429e+01    0.2991909    0.1991993  60.83  0.001270237    1.581    0.367
       134 -10.0728    219.9399    124.3154   7.1101740326e+01   1.1395656069e+01    0.2012332    0.1915421  18.57 0.0005643758    1.072    0.067
       135 -10.8673     21.2921    121.3231   1.1964080625e+02   4.8147730366e+01     0.217049    0.1847011 -21.59 0.0008190282    1.577    0.366
       136  -9.7665     32.8674    118.7010   1.1610412762e+02   4.7745260712e+01    0.2313766    0.1345173 -61.15 0.0009646805    1.423    0.297
       137 -12.0288     17.1704    115.9304   1.2007126343e+02   4.9727867896e+01    0.4696536    0.3150321 -48.10  0.002901191    1.550    0.355
       138 -12.7000     15.6856    109.3945   1.1962441541e+02   5.1354067211e+01    0.5247384    0.4081883  66.19 0.0007290811    1.388    0.279
       139 -11.6520     23.1182    106.8836   1.1711650826e+02   5.1368610190e+01    0.2961503    0.2419567  52.06  0.001265183    1.410    0.291
       140 -10.4260     86.0211    116.7285   1.0063169740e+02   4.1468554596e+01    0.2457213    0.1898272 -57.14 0.0004810744    1.192    0.161
       141 -10.7780     51.0893    116.5698   1.1059593296e+02   4.6342121891e+01    0.2981933    0.1566817 -59.65            0    1.604    0.377
       142  -9.4689    166.1698    115.6385   7.9708906847e+01   2.5347280936e+01    0.2176932    0.1943151 -58.39 0.0005406344    1.163    0.140
       143  -9.1228    201.4206    117.4787   7.2842732737e+01   1.6767409951e+01     0.151663    0.1448846 -29.75 0.0001220268    1.021    0.021
       144  -9.7520     35.2854    114.3510   1.1475222754e+02   4.8541926018e+01      0.20509    0.1407517 -70.40  0.000614872    1.203    0.169
       145 -11.9996     35.5276    108.4513   1.1371424366e+02   4.9910333108e+01    0.4231398    0.2571745  86.85  0.001472157    1.932    0.482
       146 -10.6609    249.0435    112.0303   6.3392815518e+01   7.2849462042e+00    0.2219817    0.1913907 -32.51 0.0007068024    1.047    0.045
       147 -11.8689     54.8761    109.9819   1.0825908597e+02   4.7461741770e+01     0.295387    0.2459067 -61.33 0.0004913196    1.054    0.051
       148  -9.4348     29.4816    109.4669   1.1565541698e+02   5.0227197643e+01     0.127737    0.1028315 -68.67 0.0001668161    1.026    0.026
       149 -12.6283      2.6880     99.5030   1.2208157315e+02   5.4462463444e+01    0.7559108    0.2741302 -81.95  0.001738897    2.765    0.638
       150 -11.8241      2.4973    105.9928   1.2293101104e+02   5.2998167046e+01    0.3044287    0.1650668 -68.24 0.0003880047    1.373    0.272
       151 -10.5478      6.2808    105.6550   1.2181800224e+02   5.2847917886e+01    0.1838007    0.1199405 -70.21 0.0005536913    1.162    0.139
       152 -11.2420     63.0836    106.8235   1.0516299617e+02   4.7176316999e+01    0.3106979    0.2741713  70.27 0.0009832879    1.228    0.186
       153 -10.7068    243.4834    104.5085   6.2438870523e+01   9.6378044376e+00    0.2445055    0.1845611   7.74 0.0006848143    1.649    0.394
       154  -9.8653    223.2950    104.0160   6.5514572186e+01   1.4144111723e+01    0.2143256    0.1780119 -35.93 0.0004774686    1.125    0.111
       155  -9.9627     93.2860    104.0206   9.5531029086e+01   4.3221338864e+01      0.20814    0.1759438 -50.07  0.000540278    1.107    0.097
       156  -9.5873    220.4412    116.9419   6.9216815044e+01   1.2563509297e+01    0.2258876     0.137602 -36.66 0.0004740172    1.543    0.352
       157 -10.4169     89.2945    103.3102   9.6521065642e+01   4.4068088193e+01    0.2149843    0.1838247   0.44 0.0002133207    1.434    0.302
       158 -10.9254     92.7738     96.5697   9.3743397572e+01   4.5012169752e+01    0.4524176    0.2020764 -44.20  0.001743904    2.166    0.538
       159 -10.7807     94.2102     91.3271   9.1878169073e+01   4.5933762459e+01    0.4662305    0.2962327  13.92  0.001165931    2.579    0.612
       160 -10.8019    247.5742    102.2336   6.1289011426e+01   9.1395918795e+00    0.2395013    0.1831305  76.18 0.0009608631    1.666    0.400
       161 -10.5176     36.1984    101.5859   1.1230516854e+02   5.1459623879e+01    0.3504263    0.2035644  45.59   0.00126848    2.013    0.503
       162  -9.4103    119.5291    101.5095   8.7461844207e+01   3.8777732022e+01    0.1537428    0.1472017 -28.55 0.0001389218    1.068    0.064
       163  -9.7025    145.4807    100.0384   8.0342809327e+01   3.3381490597e+01    0.2525465    0.1543812 -41.05  0.001040941    1.618    0.382
       164 -10.8146     66.8324     98.3248   1.0210896280e+02   4.8666953914e+01    0.2752393    0.1776443 -55.81  0.000350618    1.365    0.267
       165 -11.2601     62.3626     98.5125   1.0354423818e+02   4.9224006988e+01    0.3134433    0.2921995  -0.75 0.0006143608    1.247    0.198
       166  -9.6359     85.2268     98.7233   9.6569920638e+01   4.5800535842e+01    0.1978077    0.1581939 -33.69 0.0005968533    1.318    0.241
       167 -11.5622     20.3510     97.1484   1.1641892944e+02   5.3843924571e+01    0.4117963    0.2304875 -77.27  0.002127812    1.619    0.382
       168  -9.7521     40.6598     97.2284   1.1008637522e+02   5.2040672376e+01    0.2456979    0.1379934 -54.90 0.0008854682    1.475    0.322
       169 -10.1960     57.2525     96.3379   1.0465194995e+02   5.0383200357e+01    0.2925119    0.1616732 -54.07 0.0009487683    1.543    0.352
       170 -10.4908     13.8576     96.8257   1.1836322243e+02   5.4382155218e+01    0.1869608    0.1340763 -56.03 0.0006763628    1.209    0.173
       171  -9.2408     27.9852     95.9690   1.1383891169e+02   5.3507747905e+01    0.1480709    0.1181758 -65.15            0    1.009    0.009
       172  -9.7599    249.9528     95.5077   5.9343113432e+01   9.6985051935e+00    0.1886184    0.1412551  57.27  0.000390147    1.504    0.335
       173 -10.3438     22.9326     86.8704   1.1379359107e+02   5.6008806898e+01     0.303736    0.1612551 -58.46  0.001432556    1.457    0.314
       174 -10.0176     31.4774     92.4709   1.1207847964e+02   5.4015742027e+01    0.2738593    0.1586186 -72.71  0.001443582    1.602    0.376
       175 -11.1675     25.6535     91.5481   1.1377779683e+02   5.4721873715e+01    0.2661183    0.2246701 -26.52 0.0009387372    1.377    0.274
       176  -9.4475    162.4810     92.5068   7.4207482497e+01   3.0851249272e+01      0.15951    0.1523049   6.20 6.414912e-05    1.099    0.090
       177 -11.0918    158.1467     90.5913   7.4636172185e+01   3.2278948295e+01    0.3797925    0.2633222 -31.96  0.001664981    1.497    0.332
       178  -9.4609    104.1799     91.8819   8.9084617064e+01   4.3962128654e+01    0.2035114    0.1714038 -20.05 0.0002275243    1.317    0.240
       179 -11.4524     10.2700     90.9198   1.1857022440e+02   5.5964908762e+01    0.2324349    0.2185679  49.46 0.0005494436    1.333    0.250
       180 -10.6014      4.5603     86.3362   1.1967887571e+02   5.7336402560e+01    0.3692251    0.1941436 -69.57  0.001869381    1.445    0.308
       181 -12.0079      5.9956     75.3715   1.1740561065e+02   5.9707047304e+01    0.7549591     0.321057 -45.01  0.003948887    2.080    0.519
       182 -12.0495     13.6059     77.3890   1.1514766114e+02   5.8807183219e+01    0.5953447    0.2216357 -44.26  0.001970523    2.469    0.595
       183 -11.1507     14.8052     83.3964   1.1584759000e+02   5.7379589476e+01      0.46481    0.1683231 -50.42  0.001998765    2.205    0.546
       184 -10.7918     20.7247     81.4378   1.1348968396e+02   5.7408157536e+01    0.2910217    0.2249808  -2.72  0.001737041    1.637    0.389
       185 -12.0187     21.2434     77.0238   1.1242167911e+02   5.8361905292e+01    0.3519753    0.2514304 -46.54 0.0002055388    1.227    0.185
       186  -9.2823     21.2934     91.3339   1.1513802430e+02   5.5111924754e+01    0.1292255   0.07416788 -45.63 0.0002757418    1.639    0.390
       187  -9.3437    134.9524     90.5200   8.0244452467e+01   3.7765131215e+01    0.2361118    0.1328902  27.28 0.0008088101    2.776    0.640
       188 -10.9292     47.6248     84.6152   1.0505729069e+02   5.4213689762e+01     0.507167    0.3984553 -84.50  0.001691731    1.456    0.313
       189  -9.8330     42.7003     82.7311   1.0627617493e+02   5.5170639686e+01    0.2237191    0.1474975  44.02  0.001143796    1.827    0.453
       190  -9.5357    139.0396     87.5445   7.8322710542e+01   3.7431472322e+01    0.2249479    0.1549945  49.95 0.0009898825    1.477    0.323
       191 -10.8013     67.2277     84.7647   9.8567987361e+01   5.1716019958e+01    0.3243877    0.2139688 -26.47  0.001378879    1.860    0.462
       192 -11.2222    167.1365     84.4792   7.0854533741e+01   3.1234130761e+01    0.4924463    0.2968007  60.76  0.002003498    1.805    0.446
       193 -10.2645     87.9433     83.3382   9.1512599200e+01   4.8790501824e+01    0.2316697     0.184314 -55.61 0.0003160267    1.240    0.193
       194 -10.2530     29.9066     82.6172   1.1060776859e+02   5.6409660456e+01    0.3469746    0.1376905 -56.09  0.001615695    1.918    0.479
       195  -9.7266    112.3075     85.6529   8.4918767911e+01   4.3687952366e+01    0.1548824    0.1208914 -80.61 0.0007043472    1.702    0.412
       196 -10.0801    117.8394     83.2066   8.2619793619e+01   4.3042824300e+01    0.2308372    0.2102775 -60.72  0.001208608    1.150    0.130
       197  -9.5056    130.4974     82.4986   7.8984769403e+01   4.0404388856e+01    0.1541827     0.150631 -24.09 0.0008106804    1.007    0.007
       198  -9.1679    146.5187     81.5166   7.4661763364e+01   3.6851068246e+01    0.1565081    0.1524537 -66.02 5.219355e-06    1.048    0.046
       199 -10.2686     75.0789     76.3606   9.3590730667e+01   5.2405485985e+01    0.3009409    0.2327201 -76.99  0.001553035    1.677    0.404
       200 -10.2506     71.0543     79.5191   9.5850241642e+01   5.2328514129e+01    0.2302355     0.185298  84.78 0.0008901547    1.661    0.398
       201 -10.1423     92.8864     77.6682   8.8261520997e+01   4.9129311662e+01    0.2303617    0.1857017   9.37 0.0007524239    1.460    0.315
       202  -9.4753     64.2809     68.6005   9.4918652356e+01   5.5651059637e+01    0.2244055    0.1555826 -65.56 0.0007950765    1.723    0.420
       203 -11.5763     59.2094     75.9276   9.8841958283e+01   5.4761132979e+01      0.45996    0.3224576  83.88  0.002206711    2.345    0.574
       204 -10.9602     62.1699     72.0902   9.6709840630e+01   5.5200130688e+01     0.377807    0.2411835 -39.46  0.001019071    1.442    0.307
       205  -9.5092    150.7941     77.1739   7.2318029677e+01   3.6636639612e+01    0.2171787    0.1858754  14.10  0.000433052    1.329    0.248
       206  -9.8121    122.0876     76.2923   7.9289425699e+01   4.3517649877e+01    0.2172011    0.1938861  49.97  0.001101099    1.160    0.138
       207 -12.1356     44.5568     75.1796   1.0376512155e+02   5.6666173311e+01    0.2521192    0.2165315  32.41 0.0002844464    1.373    0.272
       208 -11.0218     37.5138     69.7528   1.0488538498e+02   5.8581105169e+01    0.5376458    0.3692025  77.27  0.002528219    2.319    0.569
       209 -10.5785     31.1031     66.0990   1.0630706845e+02   5.9971212883e+01    0.3727433    0.1608056 -59.88  0.001147158    1.979    0.495
       210 -10.1271     28.0114     68.2170   1.0799305928e+02   5.9777172699e+01    0.2169457    0.1472641 -55.40 0.0003293311    1.181    0.153
       211  -9.6794     32.9493     75.8419   1.0803925924e+02   5.7666043252e+01    0.1885231    0.1408446 -40.04 0.0004511415    1.246    0.197
       212  -9.7060    145.4999     73.9857   7.2573029949e+01   3.8519197262e+01    0.2423094    0.1533486 -36.09  0.001028027    1.576    0.366
       213 -12.1679    102.7682     72.4685   8.3588014198e+01   4.8323772351e+01    0.4828852    0.2830262 -35.11 0.0006788867    1.717    0.417
       214 -10.4168    150.4679     72.1819   7.0840420769e+01   3.7634320258e+01    0.2783096    0.2148569  54.99 0.0002237168    1.306    0.235
       215 -10.3300    128.9547     71.8046   7.6012249058e+01   4.2839426463e+01    0.2417748    0.2115204 -37.63 0.0002335431    1.126    0.112
       216 -11.2965     77.1559     71.3938   9.1377966316e+01   5.3132483173e+01    0.5721609    0.3747303  49.44  0.001709964    1.833    0.455
       217 -10.6747     77.1814     63.9128   8.8946871688e+01   5.4661169171e+01    0.3967372     0.262703 -41.60  0.001203885    1.373    0.272
       218 -10.9973     51.3549     63.0012   9.7855821012e+01   5.8514146274e+01    0.5694482    0.2492764 -33.97  0.002286345    2.777    0.640
       219  -9.0507    167.9538     70.1872   6.6409883589e+01   3.3599012467e+01    0.2047389    0.1202259  57.38 0.0004036478    1.717    0.418
       220 -12.2818     94.2723     68.3856   8.4853993059e+01   5.0774728629e+01    0.4257653    0.2585592 -36.73 0.0004435492    1.590    0.371
       221  -9.4673     68.6517     70.2433   9.3905753671e+01   5.4677771689e+01    0.2140957    0.1283872 -51.76 0.0004195497    1.554    0.356
       222 -10.3659     68.8579     66.8662   9.2775976810e+01   5.5353218472e+01    0.2068043    0.1803055 -29.83 0.0003613959    1.048    0.046
       223 -10.5769    140.2867     68.9708   7.2231243697e+01   4.0698042590e+01    0.2703854    0.2201053  42.45 0.0002273331    1.239    0.193
       224 -12.3159     17.9455     65.8310   1.1117249379e+02   6.1066506116e+01    0.7646248    0.5038001 -47.16  0.001502509    1.238    0.192
       225 -10.7953     11.0264     62.6193   1.1305600179e+02   6.2208674864e+01    0.2056551    0.1559773 -59.09 0.0003494608    1.058    0.054
       226 -11.3142      5.2939     51.7789   1.1281637909e+02   6.4827763053e+01     0.321306    0.2378487 -48.37 0.0008379465    1.061    0.057
       227 -12.6305      4.3972     65.1939   1.1607694288e+02   6.2021614884e+01    0.3905224    0.2773546  82.64   0.00128753    1.707    0.414
       228 -10.7243      5.6219     58.4744   1.1421747017e+02   6.3400601958e+01    0.3863004    0.1933692 -70.75  0.002063876    1.813    0.448
       229 -11.1340      6.5522     42.3214   1.0984937603e+02   6.6695129352e+01     0.672091   0.06662391 -50.69  0.001351299    3.712    0.731
       230 -11.1480     11.2658     44.3431   1.0837088496e+02   6.6010046691e+01    0.4984433    0.2019966 -38.56  0.001772757    2.164    0.538
       231  -9.7211    146.1758     68.5995   7.0703363426e+01   3.9334101811e+01    0.2150062    0.1414042  41.95 0.0002885541    1.578    0.366
       232  -9.5263    123.1554     68.2452   7.6385376717e+01   4.4826153207e+01    0.2007717     0.175325 -64.13  0.000592196    1.295    0.228
       233 -10.5052     56.2961     58.9902   9.4748879511e+01   5.8718023293e+01    0.2837434     0.195744 -30.83            0    1.380    0.275
       234  -8.8487    156.2711     66.2705   6.7673529528e+01   3.7233712639e+01    0.1498763    0.1199147  19.11            0    1.477    0.323
       235 -11.5389     57.0830     64.3144   9.6160347249e+01   5.7521332152e+01    0.5614449    0.1680932 -41.11  0.001905272    3.442    0.709
       236 -11.5142     50.8178     67.8459   9.9502221224e+01   5.7554786687e+01    0.4729024    0.2597858 -36.99  0.001515604    1.788    0.441
       237 -10.0865     99.6386     64.8833   8.2014459209e+01   5.0430781627e+01    0.2374135    0.1716212 -23.60  0.001148961    1.472    0.320
       238  -9.3996    216.0072     64.4752   5.6365889839e+01   2.2352158646e+01    0.2115527    0.1253939 -83.85 0.0008091499    2.558    0.609
       239  -9.4681    150.4644     64.5463   6.8414550310e+01   3.8985279514e+01    0.1519476    0.1511813  40.02  5.69237e-05    1.006    0.006
       240  -9.2845     41.5221     64.4154   1.0194167204e+02   5.9326173684e+01    0.1270933      0.10872 -46.60 0.0002665277    1.052    0.050
       241 -10.8288     83.5240     61.4219   8.5968934471e+01   5.4085897027e+01    0.3964629    0.2798788  48.33  0.002021628    1.626    0.385
       242 -10.4306     86.2310     57.6550   8.3755869474e+01   5.4328421534e+01    0.3634516    0.2508224 -35.04  0.001845287    1.356    0.263
       243 -10.1970    201.3174     62.0546   5.7951247105e+01   2.6399011226e+01    0.2318241     0.202657  49.21 0.0003438104    1.205    0.170
       244  -9.4803    186.1635     61.1383   6.0225176510e+01   3.0422179282e+01    0.2053751     0.170919 -65.14 0.0002505014    1.263    0.209
       245 -10.8206     45.1507     49.6995   9.5921307463e+01   6.1940502126e+01    0.5001921    0.2035303 -47.81  0.002265444    2.064    0.515
       246 -10.4979     31.0208     52.5177   1.0252052102e+02   6.2836264297e+01     0.270772    0.2111175   8.00  0.001206263    1.460    0.315
       247 -10.2160     47.4376     58.2410   9.7844350749e+01   5.9963471899e+01    0.2911679    0.2072265 -71.88  0.001271781    1.872    0.466
       248 -10.1880     44.1092     56.8977   9.8698667917e+01   6.0616876214e+01    0.2015423    0.1629211 -35.74 0.0004081888    1.051    0.049
       249 -11.3405     29.5306     60.9111   1.0552779302e+02   6.1220644286e+01    0.6078839    0.2746351  10.61  0.002586899    3.429    0.708
       250 -12.6920     37.9014     50.7990   9.9196493595e+01   6.2515320438e+01    0.7299172    0.4496072 -44.01  0.002785414    1.325    0.245
       251 -10.6792    100.0535     55.5494   7.8616045009e+01   5.2081987207e+01    0.4006731    0.2292182  47.92  0.001270714    1.841    0.457
       252 -11.5173     64.2575     60.1094   9.2203970028e+01   5.7402222462e+01     0.462312    0.2305185  31.77  0.001697574    2.275    0.560
       253 -10.1100    147.0613     56.9570   6.6705243332e+01   4.1109591345e+01    0.2303248    0.2202225 -71.12 0.0004118852    1.101    0.092
       254 -10.7959    130.1654     55.7582   7.0322047160e+01   4.5422320025e+01    0.5120887    0.3125998  27.39  0.001907591    2.149    0.535
       255 -12.6701    128.6940     50.4827   6.8848064787e+01   4.6634958798e+01    0.4740447    0.3647091  13.49  0.002041986    1.513    0.339
       256 -10.0356    123.0991     56.4336   7.2378447534e+01   4.6954768535e+01    0.2393993    0.1990052 -53.02 0.0001655153    1.329    0.247
       257 -10.9288     75.4056     55.9254   8.6806047876e+01   5.6512865114e+01    0.2307076    0.2096567  -9.40 0.0003402882    1.059    0.055
       258 -11.2744     87.3082     52.3210   8.1471287792e+01   5.5114383932e+01     0.372823    0.2821538 -63.26  0.001502885    1.803    0.445
       259 -10.2606     61.4471     54.1133   9.1184525327e+01   5.8987098664e+01     0.241603    0.2235666  63.73 0.0008966151    1.414    0.293
       260  -9.5652    143.3520     53.0801   6.6248238983e+01   4.2659318468e+01    0.2153856    0.1951285 -30.49  0.001133461    1.116    0.104
       261 -11.0857     12.4404     51.5117   1.0982746645e+02   6.4471052212e+01    0.2536704    0.1932439 -64.86 0.0006110007    1.251    0.201
       262  -9.9574    109.3363     51.9882   7.4578564538e+01   5.0771153446e+01    0.2101474    0.1750257 -23.26 0.0004590431    1.174    0.148
       263 -10.9875     69.9904     50.1106   8.6617415388e+01   5.8472248846e+01    0.4058178     0.334239 -85.42  0.001860419    1.909    0.476
       264 -10.2030    186.8175     50.1523   5.6866526148e+01   3.1931262237e+01    0.2228041    0.1951044 -71.49 0.0003783881    1.160    0.138
       265 -11.0594    103.6034     48.5754   7.4989428571e+01   5.2559756857e+01    0.4195584    0.3919244  -5.33  0.002422398    1.017    0.016
       266 -11.3047     78.8975     49.2944   8.3172930337e+01   5.7154259488e+01    0.4561324    0.3571564  36.85  0.002561073    1.354    0.262
       267  -9.5278     53.3557     50.2955   9.2907664155e+01   6.0820253658e+01    0.1357776   0.09061469 -16.49 8.111105e-05    1.694    0.410
       268  -9.4183    166.7631     49.3505   6.0158541092e+01   3.7268996947e+01    0.2127131    0.1319589  51.15 0.0003789535    1.574    0.365
       269 -11.4240    152.6706     47.5861   6.2377508297e+01   4.1161814218e+01    0.5804155    0.3269807  45.07  0.001509116    1.800    0.445
       270  -9.3936    220.4881     48.5648   5.1510919372e+01   2.3599622681e+01      0.14364    0.1313328 -65.85 0.0001064912    1.010    0.010
       271 -10.8478     95.4152     48.6896   7.7520836794e+01   5.4204655229e+01    0.3090374    0.2340055 -18.51  0.001020923    1.334    0.251
       272 -10.6100    120.1111     47.4084   6.9947120768e+01   4.9126505745e+01    0.2465364    0.2039098 -35.84 0.0004783465    1.225    0.184
       273  -9.9006    115.5953     48.1891   7.1441056393e+01   5.0025495250e+01    0.2337526    0.1842676  27.97 7.169562e-05    1.307    0.235
       274 -10.0247    142.9026     45.9680   6.3924459644e+01   4.3870049780e+01    0.2224226    0.2196997  23.43  0.000491589    1.023    0.022
       275 -10.1317     86.1963     45.3499   7.9206687934e+01   5.6537280125e+01    0.2334609    0.1756407 -22.73 0.0006593473    1.275    0.216
       276 -10.4270    103.3401     58.1508   7.8552675784e+01   5.0947141473e+01    0.4548966    0.2052297 -26.97  0.001576056    2.977    0.664
       277  -9.1040     18.4689     46.4249   1.0589216897e+02   6.5102757676e+01    0.1195811   0.09345865 -43.47 0.0001100893    1.013    0.013
       278  -9.7371     51.1202     44.8772   9.1826096097e+01   6.2136359250e+01    0.1793814    0.1586514 -33.29 0.0003035721    1.130    0.115
       279 -11.4927     97.2332     41.1741   7.4075364997e+01   5.5071869844e+01    0.6648284    0.4067017 -34.94  0.003205419    1.594    0.373
       280 -10.7025    101.6809     36.9561   7.1088316416e+01   5.4793255923e+01    0.2778568       0.1908  37.84 0.0005959173    1.428    0.300
       281 -10.5210    104.9704     34.2322   6.9065217814e+01   5.4484531023e+01    0.2416278    0.1922121  42.41  0.000217492    1.221    0.181
       282 -11.2902     97.9444     31.7949   7.0113619860e+01   5.6322490944e+01    0.5077496    0.2809227  21.45   0.00173318    2.544    0.607
       283 -11.1231    101.0939     28.5570   6.7876511179e+01   5.6100608351e+01    0.2590097    0.2465533 -26.06 0.0003876071    1.172    0.147
       284 -10.7472     89.7613     39.9165   7.5915647301e+01   5.6753293955e+01    0.5901393    0.2532167 -47.96  0.001928211    3.154    0.683
       285  -9.8380    125.3066     41.2917   6.6384087677e+01   4.8849089571e+01    0.3177583    0.1719917   6.24 0.0009704223    4.255    0.765
       286  -9.9659    121.6769     41.3502   6.7316971865e+01   4.9692838777e+01    0.2688834    0.1765318 -59.31  0.001166239    2.143    0.533
       287 -10.2288    110.9096     41.9893   7.0415472545e+01   5.2041570601e+01    0.2107163    0.1997545   6.80            0    1.031    0.030
       288 -11.9907     81.2155     35.8156   7.7072003236e+01   5.9004902665e+01    0.6436477    0.4145263 -46.96  0.002793783    1.816    0.449
       289 -12.3112    226.4263    246.3260   9.3892682153e+01  -7.7226008694e+00    0.5435983      0.33932   6.96  0.003375593    1.723    0.420
       290 -10.8173     69.9368     37.3406   8.1668436812e+01   6.0715590484e+01    0.2708685    0.1742816 -24.77 0.0006710238    1.496    0.331
       291 -10.4813     23.4210     41.2003   1.0211811790e+02   6.5752991210e+01    0.2658755    0.2115547 -81.00 0.0007693023    1.790    0.441
       292 -12.9050     25.5588     36.1354   9.9423359242e+01   6.6538318156e+01    0.4585045    0.3810551  56.86  0.003058834    1.847    0.458
       293 -10.7481     19.3638     38.2925   1.0294335578e+02   6.6640533823e+01    0.2522005    0.1656567 -33.13  0.001188265    1.286    0.222
       294  -9.7782    226.1983     40.7510   4.8770380197e+01   2.3279534505e+01     0.181877    0.1675465  18.15 0.0006588574    1.323    0.244
       295  -9.4231    193.4025     41.2747   5.3231736306e+01   3.1480307250e+01     0.216226    0.1263634 -42.58 0.0009499727    1.673    0.402
       296  -9.6339    172.7833     41.5785   5.6619865991e+01   3.6818602107e+01    0.1976224    0.1415373  79.47 0.0002541005    1.510    0.338
       297 -10.2220     51.8152     40.6936   8.9966880366e+01   6.2813954133e+01    0.2323201    0.1661684 -66.13  0.001148825    2.183    0.542
       298 -10.6496     41.9551     36.9164   9.2564202119e+01   6.4715979774e+01    0.4589821    0.3126477  60.39  0.002322053    2.947    0.661
       299  -9.0714    215.5346     40.5072   4.9998968203e+01   2.5940270924e+01    0.1434059    0.1309027 -67.91 6.381838e-05    1.004    0.004
       300 -10.4975    183.3187     39.1460   5.4138353809e+01   3.4395687378e+01    0.3500809    0.1360811 -49.51  0.001155694    3.129    0.680
       301 -10.9567     66.5395     41.3040   8.4514836556e+01   6.0589390035e+01    0.3384028    0.2232078  -2.04   0.00135069    1.893    0.472
       302 -11.0267     34.3636     34.0579   9.4731513121e+01   6.6070475284e+01    0.4299693    0.1750107  37.52  0.002018685    3.027    0.670
       303  -9.8971     61.8834     37.8282   8.4880592261e+01   6.1898699379e+01    0.1874034    0.1507781 -13.09 0.0002926765    1.123    0.110
       304 -10.4352    166.5323     36.8133   5.6197470950e+01   3.9099278066e+01    0.2695605    0.1982851  63.71 0.0003112498    1.307    0.235
       305 -10.1448      2.5799     36.6943   1.1003119599e+02   6.8025410008e+01    0.2637741    0.1646519 -50.44  0.001142013    1.173    0.148
       306  -9.9937    155.2991     36.0222   5.7990931632e+01   4.2121188083e+01    0.2667957     0.188389  37.50 0.0007196069    1.510    0.338
       307  -9.6468    127.4399     36.4419   6.4082374714e+01   4.9032770977e+01    0.2284537    0.1761237 -33.74 9.346241e-05    1.333    0.250
       308 -10.0725    125.5416     33.4145   6.3410625952e+01   4.9899896802e+01    0.2373621    0.2255829  88.23 0.0006559074    1.182    0.154
       309  -9.8926    110.4716     34.2490   6.7553805822e+01   5.3272580575e+01    0.3183478    0.1121342 -39.62  0.001123131    2.994    0.666
       310  -9.9227     57.2684     35.0045   8.5520925623e+01   6.3055115209e+01    0.1824916    0.1652642 -12.67  0.001192671    1.139    0.122
       311 -10.1977     55.9983     31.0482   8.4365919815e+01   6.3892183743e+01    0.2622222    0.1591323 -27.37 0.0009494458    1.513    0.339
       312 -10.2180     21.0040     27.3462   9.8228088507e+01   6.8543536580e+01    0.4523549   0.07973632 -44.49  0.001542289    3.845    0.740
       313 -10.9378     10.6088     34.2650   1.0559882515e+02   6.8034771823e+01    0.5047275    0.1776572  21.73  0.002492635    3.301    0.697
       314 -10.5788      7.2192     30.0666   1.0580783878e+02   6.9045227289e+01    0.3354033    0.1418671 -44.52  0.001067566    1.716    0.417
       315 -10.5767      9.9584     25.4190   1.0284535970e+02   6.9732610461e+01    0.2977115    0.2162287 -32.77  0.001029718    1.073    0.068
       316 -10.7659     17.4466     31.1893   1.0135415670e+02   6.8132201829e+01    0.3184837    0.1927218  37.48  0.001917316    2.241    0.554
       317 -10.1352     14.1557     28.0789   1.0178168768e+02   6.8952469013e+01    0.3493628    0.1716098  -9.65  0.001764401    2.798    0.643
       318  -9.7302    150.9461     34.5027   5.8316886251e+01   4.3441159757e+01    0.2202001    0.1388272  58.95 0.0004022343    1.502    0.334
       319  -9.3174     60.4560     33.5052   8.3649360311e+01   6.2834919883e+01    0.1293401    0.1114376 -17.22 3.594097e-05    1.059    0.056
       320 -11.2994    177.3296     30.2864   5.2369463547e+01   3.7112892234e+01    0.4751654    0.2586415 -34.07  0.001980445    1.838    0.456
       321 -10.0864    129.7738     31.8073   6.1827395829e+01   4.9092239942e+01    0.3081684    0.1700114  -7.93  0.001208676    2.555    0.609
       322 -10.9628     48.9309     30.9707   8.7217903610e+01   6.4881676106e+01    0.4215579    0.2263293 -26.05  0.001195817    1.884    0.469
       323 -10.0523     42.9311     31.8124   9.0104861109e+01   6.5498757339e+01    0.1873446    0.1406404 -15.63 0.0004722936    1.201    0.167
       324  -8.9399    156.2715     31.3213   5.6235804165e+01   4.2479180328e+01    0.1479198    0.1084254  27.39 0.0006333455    1.569    0.363
       325  -9.9666    139.5014     30.4866   5.9225290704e+01   4.6860352253e+01    0.2270776    0.1433191  -9.02 0.0006663725    1.947    0.486
       326  -9.6282    168.8362     30.1490   5.3674992267e+01   3.9354236093e+01    0.2121921    0.1884774 -70.26 0.0003018672    1.158    0.137
       327 -10.1927    163.0039     28.9786   5.4272844555e+01   4.1021951932e+01    0.1732138    0.1643967 -31.18 0.0003833257    1.111    0.100
       328  -9.7112    153.6177     28.8038   5.5874964722e+01   4.3477971791e+01    0.2086212    0.1276919 -39.82 0.0005332199    1.703    0.413
       329 -12.0399     74.4377    238.6379   1.2009063841e+02   1.6998318882e+01    0.4511554     0.323872 -88.68  0.003157098    1.352    0.261
       330  -9.9433    109.4815     28.8654   6.5694096694e+01   5.4223101454e+01    0.1984188    0.1797694  32.06 0.0003680671    1.050    0.048
       331 -10.9469    107.7202     23.6238   6.4048391930e+01   5.5280531952e+01    0.4695596    0.1893667 -39.64  0.001396966    2.760    0.638
       332  -9.3868    115.5391    244.5258   1.1333603216e+02   1.0016042790e+01    0.1179445   0.09236276  53.20  0.000283989    1.036    0.035
       333 -10.9231     37.7874    242.6129   1.2657764956e+02   2.0939202074e+01    0.2329909    0.1243245  51.58  0.001572743    1.435    0.303
       334 -11.0864     35.4061    239.7898   1.2680392487e+02   2.1707801952e+01    0.2989584    0.1817016 -56.93  0.001974952    2.389    0.581
       335 -10.2632    156.4338    241.2691   1.0555200144e+02   4.0037709652e+00    0.1412864    0.1165495 -76.10 0.0009477549    1.595    0.373
       336  -9.7532     88.6411    241.1757   1.1780447093e+02   1.4571192278e+01    0.1422486    0.1001266 -58.99 0.0009429811    1.787    0.440
       337  -9.3435     50.3280    240.3063   1.2435904645e+02   1.9841010934e+01   0.08771695    0.0855951 -88.50 0.0005014686    1.654    0.395
       338 -11.0622    214.6221     27.1851   4.6554721119e+01   2.7884341367e+01    0.3012571    0.2370595 -69.75  0.000521119    1.213    0.176
       339 -10.1476    130.6187     26.7091   5.9749973936e+01   4.9529536772e+01    0.3373192    0.2510687  83.32  0.001212817    1.651    0.394
       340  -9.5668    125.9864     22.7926   5.9301948731e+01   5.1122466799e+01    0.3072102    0.1986135  83.68 0.0002292604    2.168    0.539
       341 -10.7610    135.2162     22.5960   5.7258024654e+01   4.8882008564e+01    0.3852491    0.2572667  21.26  0.001388732    1.772    0.436
       342 -10.3232    195.5667    238.5142   9.8093528798e+01  -2.0025122487e+00    0.2522273    0.1755326  22.50  0.001571435    1.345    0.256
       343 -11.7875     70.4970     25.6600   7.6481917778e+01   6.2424120094e+01    0.3191521    0.2476192  31.56  0.001913451    1.279    0.218
       344 -11.5434     29.8017    233.5473   1.2737175292e+02   2.3452224857e+01     0.405746    0.2031946  83.76  0.002572865    1.741    0.425
       345  -9.4835     15.2788     13.6877   9.5318628348e+01   7.1359917064e+01     0.174212    0.1138796 -44.73 0.0005428244    1.409    0.290
       346 -11.1429     20.6543     18.7014   9.4817012922e+01   7.0066688708e+01     0.333119    0.1752822  17.73  0.001238799    2.131    0.531
       347  -9.8940     24.0440    232.4194   1.2826029463e+02   2.4286229016e+01    0.1779961    0.1251432  72.40 0.0007294893    1.027    0.027
       348 -11.2987    237.4081     25.3850   4.3736655881e+01   2.2567288249e+01    0.2654749     0.219771 -55.74 0.0003690748    1.069    0.064
       349  -9.3801    146.1731     26.1855   5.6370913581e+01   4.5703337696e+01     0.189598     0.163133 -71.41 -0.000430966    1.300    0.231
       350 -10.4759    197.2070     24.9071   4.8008540958e+01   3.2589598636e+01    0.2129492    0.1738535 -65.63 0.0002971163    1.194    0.163
       351 -10.1279    159.8908    235.8910   1.0421342144e+02   4.2273048911e+00    0.1874438    0.1470813  28.65 0.0006113984    1.251    0.200
       352 -10.6557     96.1400     23.8339   6.7337020053e+01   5.7764461568e+01     0.370751    0.2119339  52.44 0.0009364558    1.760    0.432
       353  -9.6090     54.1879     23.8113   8.1912756814e+01   6.5288649409e+01    0.1746448    0.1271543  -6.52 0.0006206622    1.290    0.225
       354 -11.5039    120.2623     21.3561   6.0048429016e+01   5.2658252250e+01    0.2892353    0.2305187   0.15  0.000287398    1.316    0.240
       355  -9.0906     35.2086     22.8531   8.9695345259e+01   6.7902297180e+01    0.2895901    0.1292427  19.39  0.001326055    3.001    0.667
       356  -9.7048     28.8057     21.6029   9.2127839841e+01   6.8799258933e+01    0.2943862    0.1287413 -27.07  0.001364962    2.553    0.608
       357  -9.2327    185.5024     21.4987   4.8539405936e+01   3.6023918986e+01     0.142365    0.1314174  87.50 -0.0001280197    1.000    0.000
       358 -10.2466     66.2277     20.8977   7.5892416423e+01   6.3817781660e+01    0.2960203    0.1756186  48.66   0.00154409    1.964    0.491
       359 -10.5074     45.0971     20.5656   8.4243008646e+01   6.7045444890e+01    0.2893447    0.1835065  40.72  0.001645567    1.898    0.473
       360 -11.0090    178.7587    243.7120   1.0184127970e+02   2.9284521952e-02    0.2471095    0.1220715  54.65  0.001188141    2.495    0.599
       361 -10.7545     10.0854     15.5697   9.8871071763e+01   7.1455855420e+01    0.2080644    0.1383978 -23.98  0.000647425    1.242    0.195
       362  -9.8083    161.9750     19.9897   5.1506686489e+01   4.2337583673e+01    0.2099333    0.1973846  72.08  0.001215833    1.013    0.013
       363  -9.9937    108.2361     17.3071   6.1329211878e+01   5.5900069554e+01    0.2296132    0.1765284   0.51  0.001264035    1.336    0.251
       364 -10.1087    215.9501     16.8137   4.3685291740e+01   2.8776035692e+01    0.5190904   0.09318937  61.07  0.001598305    4.195    0.762
       365  -9.5585    156.6527    245.7178   1.0607577804e+02   3.3261158713e+00    0.1168287    0.0820751  22.45 0.0003524666    1.644    0.392
       366 -10.2598     35.1000     15.2886   8.6247409332e+01   6.9096953731e+01    0.2675005    0.1598763   0.34 0.0006858484    1.922    0.480
       367 -10.2001    177.5316    234.9650   1.0084062522e+02   1.4312831091e+00    0.2347593    0.1462059  29.25 0.0009653189    1.525    0.344
       368 -11.1655    153.6420    233.7922   1.0509198908e+02   5.5820900907e+00    0.2261005    0.1881834 -24.98  0.000929262    1.569    0.363
       369 -10.8476    249.0476     15.0330   4.0286144261e+01   2.1113169039e+01    0.2008714    0.1655323 -63.45  0.000468571    1.013    0.013
       370  -9.6499     50.2593     15.4038   7.9585248921e+01   6.7075515885e+01    0.2312889    0.1079325  34.33  0.001152946    2.192    0.544
       371 -10.1368    167.1907    233.8057   1.0258005385e+02   3.3200006783e+00    0.1631982    0.1311054  20.41 0.0007517557    1.313    0.238
       372 -10.1318     86.0941    232.8689   1.1750466595e+02   1.6376898357e+01    0.1890442    0.1248879  63.87 0.0005905658    1.261    0.207
       373  -9.2186     62.4789    233.4962   1.2178226160e+02   1.9508003600e+01    0.1159246   0.08435674  66.76 0.0008101813    1.024    0.024
       374  -9.7054    142.3272    232.3015   1.0701068118e+02   7.6927346881e+00    0.1174465   0.09045269  18.55  0.000262534    1.641    0.391
       375  -9.3296     90.1641     12.8898   6.4314939359e+01   6.0298056272e+01    0.1770859    0.1324403  22.57 0.0003481553    1.244    0.196
       376  -9.9497     80.0396    231.7667   1.1850281054e+02   1.7434673360e+01    0.1881164    0.1204139  62.92 0.0007182756    1.283    0.221
       377  -9.6143    170.2985    213.3267   9.8960378771e+01   5.9311629543e+00    0.1278007   0.09587614  11.09 0.0005361716    1.634    0.388
       378  -9.1969    235.7456    230.6621   8.9831728829e+01  -7.3472627167e+00    0.1176179   0.07517686   7.50  0.000310275    1.572    0.364
       379 -11.0962      5.1828    226.8207   1.3105670769e+02   2.7223926656e+01    0.4021147    0.1421751  71.49  0.002181015    2.470    0.595
       380 -10.1316    190.5917    226.9568   9.7251793407e+01   3.7332804322e-01    0.2957802    0.1212327 -44.69  0.001360185    3.027    0.670
       381  -9.8348    248.7440    227.8059   8.7167877840e+01  -8.9528327874e+00    0.1895428    0.1204804   1.68  0.001010658    1.532    0.347
       382  -9.7709    129.9168    226.7258   1.0865197536e+02   1.0656557106e+01    0.2861609     0.122164  58.15   0.00116436    3.018    0.669
       383 -10.7123    120.1908    226.6611   1.1049524966e+02   1.2252367589e+01    0.1987346    0.1261086  55.54 0.0006384089    1.367    0.269
       384  -9.9874     88.1180    227.1107   1.1658459016e+02   1.7114336602e+01    0.1707412    0.1508755  60.99  0.001223774    1.220    0.181
       385 -10.3224     66.5538    226.2109   1.2046852160e+02   2.0297718900e+01    0.2853277    0.1286996  46.55 0.0009942418    1.801    0.445
       386 -10.0374     25.6133    225.6823   1.2762759912e+02   2.5347843359e+01    0.2131641    0.1563401 -51.77  0.001500987    2.190    0.543
       387  -9.9865    115.6590    225.3546   1.1120415234e+02   1.3207186622e+01    0.1330372   0.08109359  67.96 -6.382813e-06    1.812    0.448
       388 -10.1818    109.6947    243.2337   1.1425028639e+02   1.1116675258e+01    0.2529084    0.1493004  65.00 0.0009357223    1.696    0.411
       389  -9.2184     37.6895    224.7099   1.2549575127e+02   2.4177313464e+01   0.09051225   0.08283236 -72.97 0.0004580916    1.583    0.368
       390 -10.6088    122.6811    221.6246   1.0940617058e+02   1.2724649624e+01    0.3543817    0.2035255  67.67  0.001763975    2.165    0.538
       391 -10.4265     13.4582    221.9216   1.2946961460e+02   2.7313056400e+01    0.1811003    0.1336567  77.02 0.0008283961    1.107    0.097
       392 -10.5475    141.4693    221.2572   1.0572162559e+02   9.6462662641e+00    0.2905842    0.1959192  22.85  0.001559371    1.922    0.480
       393  -9.2727     41.7531    220.9828   1.2452980255e+02   2.4403252204e+01    0.1360833   0.08011154 -81.43 0.0008702617    1.539    0.350
       394 -10.3882     21.9936    220.4894   1.2794935313e+02   2.6703754582e+01    0.1623929    0.1106944  81.49 0.0004176152    1.117    0.105
       395  -9.4254    250.5009    219.4623   8.5444483863e+01  -8.2624198960e+00    0.1206383   0.09203283  11.58 2.591597e-05    1.023    0.022
       396 -11.4813    236.2327    214.8666   8.7061358172e+01  -5.5221157839e+00    0.5052923    0.3031075   1.57  0.002719137    1.966    0.491
       397  -9.0666     77.6530    219.0322   1.1776588067e+02   2.0115767667e+01    0.1760807    0.0772354 -46.50 0.0007047438    4.389    0.772
       398 -10.7403      9.6270    216.9605   1.2986425329e+02   2.8621031390e+01    0.2730989    0.1447297  63.14  0.001105977    1.420    0.296
       399  -9.7781     37.9628    217.4878   1.2496464330e+02   2.5512069894e+01    0.1568818   0.09511735  44.59 0.0006379049    1.559    0.359
       400  -9.7070    194.5196    215.4716   9.4688445950e+01   1.3454654214e+00    0.1291209    0.1076609  28.02 -4.548338e-05    1.010    0.010
       401  -9.3966    136.8226    216.1530   1.0593152976e+02   1.1313999390e+01     0.172745    0.1420563  29.03  0.001062288    1.329    0.248
       402 -10.4787     31.0602    215.7729   1.2608179480e+02   2.6622029136e+01     0.236859    0.1518231  50.50  0.001545538    1.385    0.278
       403  -9.8611     23.7503    216.5680   1.2741868576e+02   2.7261668319e+01    0.1508352   0.07639265  52.75 0.0005892736    1.582    0.368
