#   1 NUMBER                 Running object number                                     
#   2 MAG_AUTO               Kron-like elliptical aperture magnitude                    [mag]
#   3 X_IMAGE                Object position along x                                    [pixel]
#   4 Y_IMAGE                Object position along y                                    [pixel]
#   5 X_WORLD                Barycenter position along world x axis                     [deg]
#   6 Y_WORLD                Barycenter position along world y axis                     [deg]
#   7 A_WORLD                Profile RMS along major axis (world units)                 [deg]
#   8 B_WORLD                Profile RMS along minor axis (world units)                 [deg]
#   9 THETA_WORLD            Position angle (CCW/world-x)                               [deg]
#  10 FWHM_WORLD             FWHM assuming a gaussian core                              [deg]
#  11 ELONGATION             A_IMAGE/B_IMAGE                                           
#  12 ELLIPTICITY            1 - B_IMAGE/A_IMAGE                                       
         1 -11.1850    236.3296     29.2370   2.9657116904e+01   2.4837640622e+01    0.4800772    0.3545853 -46.58  0.002679862    1.310    0.237
         2 -11.1802    237.7007     20.6933   2.7942961472e+01   2.5587568982e+01    0.5417632    0.2135981 -46.08  0.002823809    2.042    0.510
         3 -10.3901     34.5583      8.8970   6.4668704066e+01   6.9964722230e+01    0.3128346    0.1910466 -10.16 0.0009761158    1.636    0.389
         4 -12.1608     46.0490      9.1787   5.9528905318e+01   6.8109233710e+01    0.2964409    0.1992952  17.71  0.000341847    1.299    0.230
         5 -11.7760      9.4758     16.7663   8.2523031362e+01   7.1957789898e+01    0.8117046    0.2715425 -33.27  0.002642372    2.827    0.646
         6 -12.1693     33.5654     22.1231   7.1544301605e+01   6.8458491827e+01     1.584627    0.7819672  13.86  0.007386989    2.503    0.600
         7 -11.9702      9.5638      7.3824   7.7906016999e+01   7.3288081456e+01     1.294232    0.4972371  11.39  0.004577599    4.028    0.752
         8 -11.4253      2.9239      4.6869   8.0827320360e+01   7.4277168687e+01    0.5771448    0.3229151 -48.41  0.003415789    2.465    0.594
         9 -10.5849     10.1378      1.6363   7.4493437765e+01   7.3967411687e+01    0.3798801    0.1312355  30.43   0.00190486    2.583    0.613
        10 -12.2798     16.1256     13.5409   7.6990945530e+01   7.1766604518e+01    0.2521189    0.1808087   1.79 0.0002596671    1.075    0.070
        11 -11.6907     27.8171     18.4627   7.2813100243e+01   6.9714655705e+01    0.6243414    0.3353166  -1.93  0.003136762    2.285    0.562
        12 -10.2420      1.9634     20.7404   8.8909991927e+01   7.1928264219e+01     0.404237    0.1232829 -42.84  0.001921952    2.530    0.605
        13 -12.5593     24.0371     12.0666   7.1747352102e+01   7.1036464034e+01    0.5113466    0.3079174 -27.73 0.0004208827    1.593    0.372
        14 -12.1975    112.0125     18.8627   4.3307118068e+01   5.3709439057e+01    0.4402195    0.3220443  27.74  0.002553601    1.499    0.333
        15 -10.6288    153.9208      2.8326   3.1740517608e+01   4.5399949884e+01    0.5532724    0.3276556  -9.07  0.002978461    2.557    0.609
        16 -11.5226    150.6570     18.3947   3.6352849233e+01   4.4723974922e+01    0.4824043    0.3417071 -27.66  0.002005584    1.673    0.402
        17 -11.2571    155.5486     14.6421   3.4659530318e+01   4.3951597085e+01    0.3629073    0.3167368   2.32 0.0008883774    1.512    0.339
        18 -10.6984     55.8662     18.2851   5.9706258430e+01   6.5434814119e+01    0.5283601    0.2485322  21.11  0.002216374    2.975    0.664
        19 -10.5872     58.4426     13.0095   5.6331171858e+01   6.5537311119e+01    0.3963194    0.2023944  32.13  0.001879526    1.772    0.436
        20 -11.8325    127.9875      4.9788   3.5895810099e+01   5.1241294557e+01    0.6278012    0.2344593  59.54  0.001135943    2.050    0.512
        21 -11.9909    122.4269     11.1297   3.8737316203e+01   5.2017072227e+01    0.5721213    0.3588157  26.85 0.0009963453    2.018    0.505
        22  -9.7141    188.8507      7.9198   2.9324247255e+01   3.7044967478e+01    0.2867654    0.1699681  50.56 0.0006033492    2.008    0.502
        23 -10.9730    194.5313      3.3957   2.7834110946e+01   3.6247129947e+01    0.5767446    0.3166671  76.00  0.003405052    1.544    0.352
        24 -12.4236    187.0546     13.6610   3.0791962896e+01   3.6864129602e+01     0.281329    0.2129363 -89.05  0.000380189    1.103    0.093
        25 -11.7436    182.2956     12.3860   3.0978202920e+01   3.8053448799e+01     0.352454    0.3012298  27.95   0.00130957    1.644    0.392
        26 -10.6912    100.3252     15.8112   4.4873576535e+01   5.6646450321e+01    0.5467126    0.2456207  38.91  0.002460668    2.271    0.560
        27  -8.9660     74.6352     10.9079   4.9896604248e+01   6.2597310857e+01    0.1984806    0.1364617 -70.37  0.000981853    2.891    0.654
        28  -9.5877    144.2971     12.2416   3.5560381463e+01   4.6807742697e+01    0.3436785    0.2205121 -60.23  0.001909744    1.758    0.431
        29 -10.7671    247.2034     12.5831   2.5832291730e+01   2.4723612423e+01    0.1892516    0.1495524 -64.90 0.0001993602    1.142    0.125
        30 -11.3851    209.7566      8.8680   2.7748007634e+01   3.2475089053e+01    0.4474036    0.3984199  20.20  0.002636292    1.757    0.431
        31 -10.9676    216.7162      6.5774   2.6763129411e+01   3.1278698843e+01      0.30696    0.2195652 -24.38  0.001081056    1.924    0.480
        32 -10.4655     92.4793     11.0831   4.5035926914e+01   5.8807104801e+01     0.282842     0.222289  62.83 0.0007788702    1.221    0.181
        33  -9.6055     76.4779     15.5791   5.1260935519e+01   6.1780793052e+01    0.3634538     0.215284  48.23   0.00186293    1.406    0.289
        34  -9.0717    238.7251      7.9908   2.5542857827e+01   2.6806157847e+01    0.1499652    0.1106564 -60.02 0.0004744349    1.141    0.124
        35  -8.7001    137.7429      8.6527   3.5494809628e+01   4.8661495571e+01     0.122115   0.08486138  39.51 0.0003025013    1.596    0.373
        36  -9.5507    116.9590      8.9319   3.9023817628e+01   5.3470670116e+01    0.1892005    0.1379533 -78.73 0.0005787028    1.638    0.389
        37 -10.6120    167.9272      5.7394   3.0896293448e+01   4.1934817458e+01     0.315757    0.3029163  -7.98  0.002302396    1.378    0.274
        38  -9.7170     78.0927      6.3929   4.7008768454e+01   6.2276111482e+01    0.2282508    0.1870589  28.59  0.001000446    1.120    0.107
        39 -10.4387    176.3438     12.1533   3.1546492136e+01   3.9415082337e+01    0.2682732     0.178409  85.48 0.0003341194    1.310    0.237
        40 -10.2528    105.5495      3.2436   3.9295254627e+01   5.6529739679e+01    0.5480932    0.2982711 -88.08  0.002448962    2.932    0.659
        41 -11.8556     89.7592      3.3334   4.2760473319e+01   6.0030814107e+01    0.4139774    0.2717034  49.61  0.001630591    1.211    0.174
        42  -9.5969     40.5786      5.1241   5.9932209446e+01   6.9422895977e+01    0.2339136    0.1253075  43.51 0.0002298031    1.695    0.410
        43  -8.6546    185.4747      4.4784   2.8861614222e+01   3.8118342719e+01     0.119685   0.09539608 -86.99 4.879815e-05    1.000    0.000
        44  -8.6634     99.2650      4.2983   4.0964413804e+01   5.7861536680e+01    0.1243262   0.07802097  37.81 0.0001710088    1.515    0.340
        45  -8.9387    119.7044      1.9625   3.6300512449e+01   5.3392449625e+01    0.1606794    0.1472365  70.94 0.0005814008    1.124    0.111
        46  -9.6145     32.9266      2.6858   6.2272385789e+01   7.0870190409e+01    0.2828445   0.09071808  42.90  0.001114015    2.779    0.640
        47  -9.3075     24.0312    178.3702   1.1187611382e+02   3.3685402690e+01    0.1752133    0.1639644  55.34 0.0003560286    1.149    0.130
        48  -9.2031    157.5690    250.5289   8.8334605110e+01  -6.1642576869e-01    0.1306681    0.1095336  15.48 2.354007e-05    1.021    0.020
        49  -9.4722     84.0322    250.5949   1.0468046287e+02   9.7441007022e+00    0.1907063    0.1090495  33.98 0.0003155167    1.514    0.340
        50 -10.3072     15.5619    250.0625   1.1904383958e+02   1.7938024534e+01    0.2512124     0.166749  38.38  0.000655536    1.404    0.288
        51  -9.4171      2.1292    250.0350   1.2162888741e+02   1.9231522059e+01    0.1656305    0.1359334  70.83 0.0004220397    1.108    0.097
        52  -9.6928      4.3809    246.0149   1.2101588866e+02   1.9839890644e+01    0.2428393    0.1711008  35.73  0.001645905    1.445    0.308
        53 -10.8042     36.5305    172.4711   1.0782691322e+02   3.3988711089e+01    0.2526725    0.2256126 -76.67 0.0001615653    1.034    0.033
        54  -9.3342     67.7538    171.4557   9.8786537604e+01   3.0525137565e+01    0.4254474    0.2295756  12.69 0.0006087008    2.664    0.625
        55  -9.1248     87.9218    171.3154   9.2960066107e+01   2.7620454901e+01    0.2128165    0.1944629  23.14 0.0006551621    1.129    0.114
        56  -8.7231    118.2826    170.0093   8.4199268605e+01   2.2871505165e+01    0.1947545    0.1382275 -51.66 0.0004573652    1.412    0.292
        57 -11.7711     54.2257    168.5994   1.0227347002e+02   3.3015619465e+01    0.2892748     0.273792 -89.99 0.0003790673    1.024    0.023
        58  -8.5649     20.3142    170.3413   1.1207739112e+02   3.6067139506e+01    0.1409426    0.0898486 -45.22 0.0007047435    1.704    0.413
        59  -9.5795     40.8267    168.4144   1.0611185061e+02   3.4594927964e+01    0.2553034    0.1298918  31.15  0.001122819    2.017    0.504
        60  -8.9542    147.7913    167.5534   7.5954413201e+01   1.8050165995e+01    0.2002948    0.1473375  47.69 0.0002735622    1.476    0.323
        61 -10.0699     29.3060    163.5948   1.0882180525e+02   3.7008782229e+01    0.3214417    0.1813841  56.95  0.001472402    1.985    0.496
        62  -9.9049    113.6809    159.1454   8.3264317600e+01   2.6386778266e+01    0.2724987    0.2409757  -6.41 0.0001724448    1.213    0.175
        63  -9.9712      3.9232    159.8643   1.1557795625e+02   3.9988077050e+01    0.2904882    0.1414199 -43.71  0.001331899    2.281    0.562
        64 -10.4727     11.0948    155.8357   1.1318908924e+02   4.0525419898e+01    0.2082513    0.1631379  70.14 0.0007449513    1.282    0.220
        65  -9.3830      1.7355    153.7668   1.1564283649e+02   4.1677784707e+01    0.1731833    0.1328104  70.28 0.0006491344    1.297    0.229
        66  -9.4498     80.7992    152.1797   9.1542798620e+01   3.3693942141e+01    0.2206873     0.207216  68.58 0.0003693218    1.120    0.107
        67 -11.2575     16.6589    150.1812   1.1095922652e+02   4.1577564372e+01    0.3802271    0.2326763  25.46  0.001270502    1.831    0.454
        68 -10.1968    125.3250    147.3814   7.7445217015e+01   2.7116666448e+01    0.2685428    0.2624666 -83.81 0.0003105964    1.096    0.088
        69  -9.7596     30.9885    147.0433   1.0620231730e+02   4.1196000006e+01    0.2115875    0.1911371 -78.90 0.0003497445    1.047    0.044
        70 -10.8930     11.4798    145.0349   1.1192915218e+02   4.3286357378e+01    0.2821154    0.2547743  49.23  0.001778447    1.236    0.191
        71  -8.8550     18.2975    145.6882   1.0993690032e+02   4.2621681149e+01    0.1380665   0.09498328  68.18  0.000288959    1.600    0.375
        72 -10.5454      2.0863    143.7934   1.1460219231e+02   4.4199870585e+01    0.3663384    0.1853835 -75.97 0.0009385145    1.661    0.398
        73  -8.8366    120.1380    143.8019   7.8077115349e+01   2.8984693656e+01    0.2101896    0.1818426 -13.58 0.0003240993    1.249    0.199
        74  -9.8787     37.5084    138.2972   1.0282650717e+02   4.2876463885e+01    0.3130652    0.1282117 -65.33  0.001212317    2.172    0.540
        75 -10.7292     28.3467    140.6707   1.0613937481e+02   4.3109450151e+01    0.3798107    0.3371418 -88.69  0.001121933    1.122    0.109
        76  -9.2903     21.4808    141.9936   1.0848867548e+02   4.3337146685e+01    0.2036728    0.1214436 -71.29 0.0003365595    1.473    0.321
        77 -10.3682     18.3869    140.2374   1.0923184533e+02   4.4034822359e+01    0.3351333    0.1971779 -83.65 0.0009601712    1.691    0.409
        78 -13.0608    226.4826    136.4529   5.2822247936e+01   9.9121741591e+00     1.265249    0.5552726  41.80  0.005440168    2.730    0.634
        79  -8.9168     47.0000    136.8859   9.9476315314e+01   4.2243772607e+01    0.2452653   0.07765038 -63.75 0.0007955288    2.895    0.655
        80 -10.1745    145.3385    135.0013   6.9214784284e+01   2.6032642099e+01    0.2690411    0.2280529  37.11 0.0002529083    1.204    0.169
        81  -9.4510     54.0390    133.8455   9.6584758107e+01   4.2218175843e+01     0.272567    0.1833448 -59.35 0.0007409123    1.369    0.269
        82 -11.5795     15.3183    131.3032   1.0904916970e+02   4.6575865748e+01    0.6499889    0.2779381 -58.63  0.002318123    1.871    0.466
        83 -11.0535     11.7375    128.9873   1.0991407411e+02   4.7412585100e+01    0.4974881    0.2251733  47.88   0.00184179    2.743    0.635
        84 -12.4053    231.5259    124.8021   4.9605163707e+01   1.1135703105e+01    0.9221707    0.5165361 -55.62  0.004382988    1.950    0.487
        85 -10.2796    233.2047    117.4093   4.7822785525e+01   1.2142462805e+01    0.2346896    0.2287818 -57.93  0.000351802    1.160    0.138
        86 -10.8822     23.7221    126.8168   1.0561167783e+02   4.7112605980e+01    0.5771573    0.3001229 -62.71   0.00267903    1.616    0.381
        87 -10.9550     47.0723    125.7172   9.7398486208e+01   4.5158748726e+01    0.5272607    0.4670851  63.87  0.002182232    1.280    0.219
        88  -8.9864     52.3544    125.7446   9.5577862602e+01   4.4535398566e+01    0.2144561    0.1637664  66.11  0.000579661    1.622    0.384
        89 -10.1008     32.2479    123.0440   1.0206227215e+02   4.7362962591e+01    0.3961363    0.1982495 -35.02  0.001285001    2.246    0.555
        90 -10.3302      2.2580    123.5200   1.1234084194e+02   4.9356857649e+01    0.2893428    0.2302992 -14.40  0.001766788    1.447    0.309
        91 -10.2379     93.9101    123.0099   8.1008098035e+01   3.8984359646e+01    0.2411777    0.2232098  23.41            0    1.094    0.086
        92  -9.3846     16.5210    122.0106   1.0734265549e+02   4.8886395960e+01     0.226979    0.1787143 -11.79 0.0008930882    1.432    0.302
        93 -10.3030     10.1009    122.4553   1.0959093933e+02   4.9188799979e+01    0.4197499    0.2220705  17.41  0.002049574    2.184    0.542
        94  -9.9114      1.9827    116.3010   1.1153668000e+02   5.1192767953e+01    0.2161489    0.2056806 -35.42 0.0003429079    1.182    0.154
        95 -10.7815      7.5976    118.1062   1.0985128506e+02   5.0441334833e+01    0.3327149    0.2668199  53.50 0.0008270519    1.458    0.314
        96 -11.0168      3.0619    112.2807   1.1063125790e+02   5.2147844221e+01    0.4102978    0.2503194  48.30  0.001393886    2.018    0.505
        97  -8.4686    119.3125    121.7402   7.2960449457e+01   3.4437980779e+01    0.1538068    0.1265958  75.29 0.0002125757    1.532    0.347
        98  -9.2831     83.3091    118.9854   8.3477082255e+01   4.1803745956e+01    0.2199042    0.1961809 -40.46   0.00045942    1.074    0.069
        99 -10.2417     68.6698    117.4075   8.8087324069e+01   4.4489140886e+01    0.4188627    0.2571528  40.00  0.001839517    1.741    0.426
       100  -9.7913     58.1783    118.1752   9.1945114135e+01   4.5748084792e+01    0.2902011     0.195848  39.48  0.001134074    1.610    0.379
       101  -9.8773     45.4748    117.6762   9.6364486607e+01   4.7409578347e+01    0.2838664    0.2230691 -41.29 0.0008120568    1.178    0.151
       102 -10.0768     38.4196    115.1707   9.8404919329e+01   4.8794738976e+01    0.3582201    0.2414744  76.82  0.001570344    2.100    0.524
       103  -9.0311     35.2909    115.7276   9.9646656432e+01   4.8959246790e+01    0.1987901    0.1418761 -37.49 0.0001629657    1.341    0.254
       104  -9.6943     28.1982    116.5466   1.0235341926e+02   4.9389756580e+01    0.3159006    0.1434883  13.99  0.001298299    2.633    0.620
       105 -10.5376     45.2068    110.6747   9.4987075523e+01   4.9213470282e+01    0.6213327    0.2315507 -48.50  0.002323928    2.331    0.571
       106  -8.8845     62.4697    112.4932   8.9113997085e+01   4.6600062367e+01    0.1519241    0.1376048 -32.07 0.0001404475    1.028    0.027
       107  -8.8798     52.8210    111.6134   9.2399341109e+01   4.8083434816e+01    0.1882543    0.1351985  36.93 0.0002651279    1.516    0.340
       108  -9.9658     27.4782    109.2519   1.0128024211e+02   5.1300048565e+01     0.447881    0.2863379  88.65  0.002083361    2.083    0.520
       109 -10.6419     34.9048    108.2828   9.8316177473e+01   5.0878993997e+01    0.4661632      0.17469 -57.87   0.00111444    2.223    0.550
       110 -10.1629     21.4777    109.1009   1.0347930586e+02   5.1812504221e+01    0.3354164    0.2136422 -63.45  0.001727292    1.373    0.272
       111 -10.2854    120.2171    107.9326   6.9056939588e+01   3.7392793627e+01    0.4059816    0.2096775  39.73  0.001050522    1.960    0.490
       112 -10.9985     16.4616    108.1524   1.0516974283e+02   5.2405540924e+01    0.4248341    0.2403305 -40.59  0.002106875    1.627    0.385
       113 -10.8546     17.2439    103.2588   1.0402200363e+02   5.3571594129e+01     0.453361    0.1502043 -50.07  0.001805391    2.335    0.572
       114 -11.1306     65.4855    104.4611   8.6041962319e+01   4.8139000558e+01    0.6000261    0.3863206  47.55  0.001467062    1.861    0.463
       115  -9.5618    127.0500    105.9949   6.6615161986e+01   3.6366514254e+01    0.1870902    0.1834859 -10.10 0.0004033521    1.007    0.007
       116  -9.0153     82.6809     99.0424   7.8453641691e+01   4.6664264497e+01      0.24714    0.2016997  42.01 0.0005962487    1.300    0.231
       117 -11.3012     80.7950    103.1125   8.0230260504e+01   4.6047427487e+01    0.3794674    0.2973665  14.71            0    1.354    0.261
       118 -10.8216     76.3899    104.2452   8.2075722835e+01   4.6511141317e+01    0.3189812    0.2711758 -45.15 0.0002245659    1.145    0.126
       119  -8.9749    131.4956    105.5332   6.5286086911e+01   3.5506001499e+01    0.1536092    0.1529699  82.10 8.695656e-05    1.038    0.036
       120  -8.7259      1.1972    104.9862   1.1028068065e+02   5.4048334627e+01    0.1741935   0.08663855 -69.49 0.0003672372    1.678    0.404
       121  -9.5312    114.2602    103.8126   6.9654743669e+01   3.9540459421e+01    0.2878624    0.1922446 -48.73  0.001258451    1.534    0.348
       122  -9.9739     57.3271    103.9212   8.8912476854e+01   4.9404606111e+01    0.2543039    0.2095653   6.19 0.0003317581    1.259    0.206
       123 -10.0208    117.9574    103.0697   6.8369610177e+01   3.8931530332e+01      0.24455    0.1891535  -4.74 0.0004720791    1.620    0.383
       124  -9.5152      9.4586    102.7928   1.0688551154e+02   5.4170310919e+01    0.2187844    0.1821075  -5.56 0.0007583626    1.328    0.247
       125 -10.5027     45.5142    102.0258   9.2917439272e+01   5.1321119276e+01    0.4246423    0.2764948 -76.77  0.001925261    2.002    0.500
       126 -10.9031     42.3126    101.3698   9.3993712309e+01   5.1836650396e+01    0.3694747    0.1832786 -46.89 0.0008723275    1.773    0.436
       127 -10.1369     52.7431    100.3168   8.9742453246e+01   5.0869079881e+01    0.3558719    0.2170027 -36.17  0.001627159    1.617    0.382
       128 -11.4753    101.6490     97.9023   7.1838108375e+01   4.3389083328e+01    0.2730411    0.2599237   5.65 0.0002147894    1.012    0.012
       129 -10.0175     96.8220     95.2607   7.2622358864e+01   4.4908795232e+01    0.3706085    0.2615238  21.86  0.001359919    1.576    0.365
       130  -9.5479    115.6110     97.7585   6.7556965690e+01   4.0564227622e+01    0.2095474    0.1888642  25.84 0.0005627268    1.105    0.095
       131  -9.6558    106.7993     97.4462   7.0103633059e+01   4.2455672228e+01    0.3225258     0.217063 -50.52 0.0009466002    1.567    0.362
       132  -9.8296     61.3669     97.1444   8.5654764255e+01   5.0469568833e+01    0.2586663    0.2196343 -88.62 0.0008420554    1.550    0.355
       133 -10.0794     70.4491     96.4168   8.2082398216e+01   4.9285759733e+01    0.3269152    0.2606368  59.00  0.001053081    1.614    0.380
       134  -9.0858     34.3952     96.8628   9.6050598102e+01   5.3740906218e+01    0.3502238    0.1730768  -5.96  0.001330666    3.047    0.672
       135 -10.2344     51.6942     95.3600   8.8886945821e+01   5.2182866823e+01    0.2641213    0.1302211  30.82  0.001055664    2.092    0.522
       136 -10.2329     15.8883     94.8400   1.0297828364e+02   5.5723908464e+01     0.248739     0.200661  53.11  0.001154716    1.560    0.359
       137 -10.7571    116.6161     93.5117   6.6047806270e+01   4.1239238159e+01     0.276276    0.2647581  84.48  0.000335662    1.152    0.132
       138  -9.6473     29.9965     93.1575   9.6965783949e+01   5.5039174887e+01    0.2528518    0.1668857 -41.41  0.000636641    1.323    0.244
       139 -11.9815     34.8342     89.7353   9.4194640429e+01   5.5398255143e+01    0.3249636    0.2795141 -65.81  0.001887955    1.278    0.218
       140 -10.1823     27.4285     84.9067   9.6092119643e+01   5.7209374130e+01    0.3861444    0.2166081  35.99 0.0008842315    2.082    0.520
       141  -9.2925      5.0478     93.7146   1.0706082933e+02   5.6617494613e+01    0.2152391    0.1497333 -17.71 0.0007045995    1.502    0.334
       142  -8.6260      8.3359     92.3195   1.0551350517e+02   5.6783625050e+01    0.1364247     0.115073 -52.18 0.0002759134    1.047    0.045
       143  -8.7522      1.4578     94.4531   1.0858533331e+02   5.6606667537e+01    0.1316991    0.1044115 -51.81 0.0001518887    1.020    0.020
       144  -8.7363    136.6524     92.2715   6.0287044827e+01   3.7085053634e+01     0.152858    0.1211504  86.64 0.0006995822    1.623    0.384
       145 -11.4394    126.4650     91.4490   6.2707843713e+01   3.9518540173e+01    0.2841834    0.2681422  36.36 0.0002400112    1.040    0.038
       146 -10.0545     92.2655     91.4274   7.2997371706e+01   4.6609705812e+01    0.2984207    0.1458608  34.33  0.001140141    2.118    0.528
       147 -10.5330     56.9707     90.1369   8.5433463814e+01   5.2703572653e+01    0.3491138    0.2993144  79.69   0.00185675    1.599    0.374
       148 -11.0003     86.9545     87.1131   7.3503223661e+01   4.8522863571e+01    0.4319859    0.3593493 -61.70  0.001621722    1.436    0.304
       149  -8.9064     63.7407     90.6249   8.2963560464e+01   5.1628961339e+01    0.1917531    0.1331866  38.90 0.0004123614    1.550    0.355
       150  -9.1012     75.7025     88.9957   7.8042122429e+01   5.0102532676e+01    0.2582068    0.1937516 -55.35 0.0005263973    1.472    0.320
       151 -11.3107     76.5789     82.3336   7.5712746750e+01   5.1381308422e+01    0.5774999    0.4240903   5.79  0.002377697    1.534    0.348
       152 -10.3854     71.0311     82.1799   7.7715375945e+01   5.2345095326e+01    0.2353597     0.216524 -27.79            0    1.093    0.085
       153  -9.0830     13.0942     88.1641   1.0279085489e+02   5.7501000871e+01    0.1589324    0.1467285 -89.30  0.001012067    1.295    0.228
       154 -10.1402    139.1188     87.0086   5.8197417717e+01   3.7542845110e+01    0.2355106     0.213561  56.02  0.001249455    1.093    0.085
       155 -11.5403    116.5830     85.3745   6.3670135867e+01   4.2883215512e+01    0.5712824    0.3377456  60.95  0.002273362    2.206    0.547
       156  -9.7701    124.0292     85.0402   6.1505939670e+01   4.1314230856e+01    0.3174745     0.225542 -25.69   0.00100977    1.612    0.380
       157 -10.4774    131.1600     85.8912   5.9873227913e+01   3.9556924206e+01    0.2533683    0.2281435  38.36 0.0003255662    1.096    0.088
       158 -10.6579    102.8452     84.8637   6.7612041269e+01   4.5884896611e+01    0.2941785    0.2453213 -48.21 0.0007183667    1.279    0.218
       159 -10.8478    104.4526     80.0939   6.5651144376e+01   4.6493631046e+01    0.4289809    0.2639357 -50.84  0.001520713    1.850    0.460
       160  -8.5242      7.2874     85.3076   1.0462751966e+02   5.8506108091e+01    0.1390583   0.07532203 -39.85 0.0001655271    1.572    0.364
       161  -9.0030     20.7234     83.3891   9.8568568574e+01   5.8102048724e+01    0.1732616    0.1170835  -8.33 0.0005479663    1.547    0.354
       162  -8.3899     14.7024     83.3071   1.0110532416e+02   5.8541098131e+01    0.1202697    0.1002856  68.56 0.0002710537    1.591    0.371
       163  -8.5557      1.6724     83.2436   1.0657288707e+02   5.9259433562e+01    0.1118788   0.09402092  55.76 0.0001831293    1.536    0.349
       164  -9.0577    143.6529     81.6482   5.5609405201e+01   3.7498605509e+01    0.2254577    0.1740989  17.88  0.001027766    1.660    0.398
       165  -9.5131     53.9730     81.0958   8.4038418289e+01   5.5131441675e+01    0.2631662    0.1845836 -30.04 0.0009067149    1.366    0.268
       166  -9.1264     46.4860     81.7311   8.7281588926e+01   5.5953073162e+01    0.1932652    0.1186151 -40.30  0.000388965    1.480    0.325
       167  -9.8029     91.9396     80.5784   6.9805467477e+01   4.8921284590e+01     0.270211    0.2156362 -33.51 0.0005042111    1.259    0.205
       168  -9.1553    109.0648     80.5112   6.4387233260e+01   4.5441897281e+01    0.2250607      0.14408  43.79 0.0009664393    1.511    0.338
       169  -9.1641    154.9945     79.4961   5.2503914210e+01   3.5263094682e+01      0.21649    0.1416851  55.21  0.000356208    1.504    0.335
       170  -9.2651    121.5139     78.0746   6.0113588117e+01   4.3185122043e+01    0.3495571    0.2161676  64.70  0.001443939    2.094    0.522
       171 -10.4424      4.4652     76.3586   1.0404019358e+02   6.0721063449e+01     0.437099    0.2366953 -40.61  0.002336403    1.509    0.337
       172 -11.3603     76.5135     75.1854   7.3481853171e+01   5.2853763554e+01    0.5082645     0.369839  18.28  0.001489266    1.419    0.296
       173 -10.8453     83.3071     74.7669   7.0909949541e+01   5.1709255439e+01    0.3421194    0.2722396 -28.80  0.000914819    1.252    0.201
       174  -9.7009     60.6906     76.1918   7.9851959862e+01   5.5222918284e+01    0.2851643    0.1992484  -6.71  0.001031077    1.609    0.379
       175 -10.1036     49.5198     75.7654   8.4272623538e+01   5.6872299542e+01    0.4424377    0.1729599  35.62  0.001735012    2.652    0.623
       176 -10.4515     45.7392     71.9835   8.4712945317e+01   5.8153680560e+01    0.4092337    0.3088533 -54.39  0.001184465    1.453    0.312
       177  -8.4483     36.5235     76.5000   9.0010961102e+01   5.8241510269e+01    0.1379256    0.1191316 -26.01 3.526377e-05    1.023    0.023
       178 -10.7855    140.1743     72.5997   5.3834373656e+01   3.9896721121e+01    0.2623954    0.2395652  25.90 0.0004035978    1.174    0.148
       179 -11.7680    136.9853     69.5240   5.3677172807e+01   4.1157534541e+01      0.43613     0.315542 -34.00  0.001336236    1.475    0.322
       180 -11.2292     17.5859     71.3391   9.7024722232e+01   6.1061302716e+01    0.4481964    0.3033116 -54.26  0.001333233    1.332    0.249
       181 -10.7870    103.5181     72.5039   6.3550347206e+01   4.8117614274e+01     0.335552    0.2811435  75.17  0.001695197    1.520    0.342
       182 -10.7546    101.9909     69.0138   6.2893557790e+01   4.9068739485e+01    0.3227316    0.2447785 -32.77            0    1.374    0.272
       183  -9.6707     56.7506     72.7494   8.0351845001e+01   5.6514002406e+01    0.3559196    0.2010598 -22.85  0.001516606    2.178    0.541
       184 -10.8541    152.3473     71.8282   5.0953387452e+01   3.7191142296e+01    0.3235451    0.2319877 -20.28  0.001549002    1.753    0.430
       185  -9.7047    128.7465     71.3093   5.6194972792e+01   4.2754732077e+01    0.2403035    0.1801039  -9.72 0.0005445274    1.719    0.418
       186 -10.0113     33.1145     72.0420   9.0234744538e+01   5.9564786524e+01    0.2271762    0.1985774  -9.94 0.0004656384    1.093    0.085
       187 -10.8197     35.0358     67.0380   8.7891775354e+01   6.0427691833e+01    0.6010559    0.2416454 -53.05  0.002520136    2.373    0.579
       188 -10.0252     32.6285     62.2823   8.7511660039e+01   6.1661683653e+01    0.2653542    0.2464102 -85.57  0.001663097    1.531    0.347
       189  -9.4708     97.2243     69.9368   6.4679659397e+01   4.9894080018e+01     0.291197      0.17086 -38.48 0.0009610222    1.769    0.435
       190  -9.7830     63.5113     69.5633   7.6598941213e+01   5.6135847832e+01    0.2566222    0.2376424 -61.82 0.0008702924    1.376    0.273
       191  -9.5879    165.8447     69.1684   4.7587373901e+01   3.4484527081e+01     0.218989    0.1822784 -75.06 0.0004502486    1.244    0.196
       192 -11.3720    155.5630     67.6786   4.9155004743e+01   3.7120593022e+01    0.3828171    0.2724423 -80.92 0.0009657572    1.785    0.440
       193  -9.3327     89.9384     68.1964   6.6479725925e+01   5.1677530446e+01    0.2004404    0.1952996  38.02 0.0005081405    1.157    0.136
       194 -11.7920    110.8024     65.4173   5.9138757837e+01   4.7795173510e+01    0.4022959    0.3678898  85.28  0.002239716    1.279    0.218
       195  -9.5544    116.2497     61.0009   5.6229508237e+01   4.7311414361e+01    0.4395978    0.3023881 -85.93  0.001864726    2.512    0.602
       196 -10.0009     77.3342     66.1584   7.0193415864e+01   5.4440679732e+01    0.2737669    0.2258921  39.16 0.0006613898    1.243    0.195
       197 -12.0247     70.7811     63.9610   7.1881209209e+01   5.6005876199e+01    0.3601631     0.326916  26.31 0.0004341278    1.151    0.131
       198  -9.7381     48.2716     66.4008   8.1855078543e+01   5.8976000409e+01    0.2800339    0.2040857  -7.62  0.001191181    1.366    0.268
       199 -10.2715     43.1914     64.2532   8.3368148432e+01   6.0057146382e+01    0.3755484    0.2572654   6.49   0.00155798    1.474    0.322
       200 -10.0859      3.4448     67.0326   1.0247269059e+02   6.2859353360e+01    0.2790727    0.2260489  20.71  0.001813972    1.467    0.318
       201 -10.1589     59.8410     65.7839   7.6809293343e+01   5.7444972513e+01    0.4821511      0.30159  -1.88  0.001481771    2.069    0.517
       202 -11.6471     60.4362     57.4260   7.3660540610e+01   5.8912572793e+01    0.4900551    0.2870919  35.28  0.002401781    1.653    0.395
       203  -8.8409     26.5851     65.7763   9.1371499019e+01   6.1528876721e+01    0.1686775    0.1208006 -58.54 0.0004788454    1.512    0.339
       204 -10.3795    193.9877     64.0983   4.1722634428e+01   2.8892626476e+01    0.2671748    0.1819977 -44.91 0.0002721472    1.394    0.282
       205 -10.2434    195.9420     60.7704   4.0664061776e+01   2.8962343762e+01    0.2332616    0.1908308  52.78 0.0002924417    1.372    0.271
       206  -9.3267    180.2992     65.6744   4.4193007628e+01   3.1715551365e+01    0.1439452   0.09915514 -70.94 0.0002760847    1.633    0.388
       207  -9.2476    130.9767     75.0325   5.6747491837e+01   4.1594912339e+01    0.2269853    0.1756522  19.20 0.0004859579    1.571    0.364
       208 -10.3582    201.9680     64.0721   4.0602172594e+01   2.7158275167e+01    0.3547175    0.1797508  57.81  0.001688677    2.011    0.503
       209  -8.7275    126.5112     64.4152   5.4661401022e+01   4.4423262545e+01    0.1448693     0.134543  49.22 0.0001176362    1.015    0.014
       210  -9.6596    172.1605     62.8678   4.4826842960e+01   3.4012717017e+01    0.2216347    0.1798335 -77.08  0.001226096    1.255    0.203
       211 -10.0519     90.1273     61.5558   6.4178542073e+01   5.2812052127e+01    0.4448353    0.3203746  86.69  0.001664437    2.737    0.635
       212  -9.3534     83.1495     63.1740   6.7100492025e+01   5.3897504930e+01    0.2070494    0.1766751  11.48 0.0003326639    1.111    0.100
       213 -11.1058    147.1016     61.6391   4.9178317100e+01   4.0061818411e+01    0.2429082    0.2125811 -67.97 0.0003488391    1.199    0.166
       214 -12.8494    150.7942     57.6472   4.7307251529e+01   3.9799701960e+01    0.3614082    0.3312085  27.05 0.0004275423    1.235    0.190
       215  -9.6511    131.2976     60.6663   5.2366033839e+01   4.3915551864e+01    0.2875559    0.2161785 -78.46  0.001404635    1.743    0.426
       216  -9.0780    100.3924     60.3226   6.0513824891e+01   5.0897189429e+01    0.2685188     0.139248 -30.85 0.0008160092    2.173    0.540
       217  -9.7874     12.6053     60.1984   9.6403587874e+01   6.3806504620e+01    0.2609685    0.1363822 -51.96   0.00136261    1.608    0.378
       218 -10.9659      8.2459     56.6871   9.7571680339e+01   6.4815530931e+01    0.5468642     0.274269 -29.23  0.001127997    1.784    0.440
       219  -9.2298      1.6269     51.7205   9.9546772787e+01   6.6199866213e+01    0.2090659    0.1126615 -39.12 0.0006724087    1.437    0.304
       220 -10.6314      5.5375     49.0524   9.6775403193e+01   6.6530894104e+01    0.3988321     0.281396 -45.00  0.001704191    1.204    0.169
       221  -9.7471    162.3233     53.3014   4.3994608440e+01   3.7721300885e+01    0.2020368     0.193297  26.01 0.0008999533    1.222    0.181
       222  -9.4669     95.4692     56.9415   6.0880889009e+01   5.2485190796e+01    0.3047503    0.2211362  22.88  0.001315766    1.462    0.316
       223  -8.9698     91.4788     57.4929   6.2339267041e+01   5.3219015671e+01    0.2609347    0.1842955  73.87  0.001168938    2.325    0.570
       224 -11.5622     79.4624     55.3656   6.5660566059e+01   5.5938166931e+01    0.5383854    0.4050375  10.45  0.001389606    1.395    0.283
       225 -11.1166     85.3706     48.5864   6.1182852828e+01   5.5859611698e+01    0.4732314    0.3815498 -13.03  0.001799863    1.291    0.225
       226  -9.9428     90.8178     43.6403   5.7634210373e+01   5.5466865731e+01    0.2124687    0.1966938   1.78 0.0002135641    1.113    0.102
       227 -10.0794     91.1162     40.1704   5.6278212362e+01   5.5882824640e+01    0.2102276    0.2034491   9.67  0.001321104    1.150    0.130
       228 -10.7062     30.5043     53.8338   8.5743196155e+01   6.3557443960e+01    0.3855013    0.2385064 -57.39   0.00104623    1.959    0.490
       229  -9.4811    246.0318     55.9277   3.3921271935e+01   1.9523193835e+01    0.1743684    0.1369939 -61.74 0.0003468728    1.009    0.009
       230 -10.8154    200.7338     54.7329   3.8629141968e+01   2.8794317789e+01    0.2923208     0.246839 -54.24  0.001062091    1.132    0.117
       231 -11.1582    202.3495     49.9373   3.7338066326e+01   2.9116890909e+01    0.3881785    0.2171105  51.97 0.0004791938    2.023    0.506
       232 -11.2153    175.8664     55.1636   4.2254944878e+01   3.4304244076e+01    0.4200447    0.2737839 -60.92  0.001513635    1.634    0.388
       233  -9.1903     26.7858     56.3565   8.8372152569e+01   6.3438620668e+01    0.1735777     0.109353   3.58 0.0004873417    1.591    0.372
       234 -10.3461    184.5488     53.9309   4.0643052239e+01   3.2499099222e+01    0.4220185    0.2044818 -55.64 0.0009660998    2.305    0.566
       235  -9.8093     44.7451     54.6302   7.9387137319e+01   6.1713674120e+01    0.2192492    0.1877087  51.15  0.000437427    1.646    0.393
       236  -8.7128    135.8303     54.1469   4.9377840402e+01   4.3843857934e+01    0.1901388    0.1594353  28.05 0.0003830346    1.326    0.246
       237 -10.5042    121.8346     48.4145   5.0797002783e+01   4.7930924342e+01    0.2888751    0.2448318 -83.31 0.0003347385    1.390    0.281
       238 -10.4947    128.4555     53.4873   5.0832451803e+01   4.5666133361e+01    0.3230307     0.241166  56.65 0.0008214816    1.244    0.196
       239  -9.9877    126.6064     50.1797   5.0233196223e+01   4.6574731679e+01    0.2858757    0.2091948  36.71 0.0008638858    1.417    0.294
       240  -9.9988    143.9889     52.0675   4.7060955665e+01   4.2221782376e+01    0.3615113     0.167238 -47.91  0.001424234    2.470    0.595
       241  -9.4004     17.9886     48.7253   9.0236851950e+01   6.5719773597e+01    0.5937602    0.2738675 -31.39  0.002864678    2.013    0.503
       242 -10.3886     23.8402     50.8279   8.7986549656e+01   6.4798199757e+01    0.2917051    0.1906618 -15.89 0.0007104456    1.412    0.292
       243  -9.5517     26.6562     47.7129   8.5502985621e+01   6.5113198834e+01    0.2194383    0.1723913 -18.60 0.0006125224    1.035    0.034
       244 -10.2907     63.8334     48.7994   6.9114880192e+01   5.9833094306e+01    0.3652244    0.2837432  65.12 0.0007038789    2.067    0.516
       245  -9.4397     60.3968     45.5133   6.9242859692e+01   6.0941190033e+01    0.1884349    0.1498621  32.70 0.0001335319    1.234    0.190
       246  -9.4827     35.1231     51.2319   8.2626121402e+01   6.3539185552e+01    0.1932723    0.1475143 -13.76 0.0004368737    1.130    0.115
       247 -11.0897    212.3993     49.5932   3.6081888562e+01   2.7024369605e+01     0.346654     0.196157  69.90 0.0009213461    1.756    0.430
       248 -11.6089    137.2103     47.0372   4.6957871625e+01   4.4525523657e+01    0.3250358    0.2688879 -72.92 0.0006506433    1.349    0.259
       249  -8.9298     73.0994     50.3357   6.6134050386e+01   5.7946394326e+01    0.1880482    0.1565262  28.61 0.0003512002    1.105    0.095
       250  -8.9233     55.4308     49.6941   7.2901748944e+01   6.1051257033e+01     0.176099     0.116888 -24.35 0.0009204876    1.497    0.332
       251  -9.5939    246.3207     48.3147   3.2445124955e+01   2.0509954071e+01    0.2114493    0.1622924 -19.70  0.000794579    1.965    0.491
       252 -10.2825    170.9129     48.5155   4.1328741915e+01   3.6385981629e+01    0.3499116    0.1865112  86.35  0.001429865    2.660    0.624
       253  -8.4617    111.6090     49.2849   5.3645091749e+01   5.0141154410e+01    0.1413993    0.1092607  89.12 0.0007003999    1.756    0.431
       254  -9.3010    233.1467     47.9952   3.3591030882e+01   2.3048731074e+01    0.1880971    0.1275189 -63.70 0.0004611112    1.261    0.207
       255 -10.5130     33.0571     44.9658   8.1331430443e+01   6.4916637921e+01    0.5456946    0.2605267 -25.21  0.002431575    2.403    0.584
       256 -10.2215    219.1722     59.2137   3.7375321302e+01   2.4266593669e+01     0.275199     0.194854 -37.22  0.001240703    1.456    0.313
       257  -8.8808     73.3386     45.8352   6.4361010679e+01   5.8606823559e+01    0.1838324    0.1197542 -21.04  0.000578011    1.670    0.401
       258  -8.3828     67.4241     45.4223   6.6424386474e+01   5.9746334974e+01     0.133334    0.1179608  15.73 7.903833e-05    1.075    0.070
       259 -10.3953    108.5054     43.3083   5.2456173472e+01   5.1672344162e+01    0.3940695    0.2199405  61.10  0.001195444    1.878    0.468
       260  -8.7755     40.1381     44.3753   7.7705472047e+01   6.4146101403e+01    0.1685613    0.1112398  34.20 0.0004929411    1.599    0.375
       261 -10.7243    160.9976     56.4934   4.5085157932e+01   3.7569479727e+01    0.3539132    0.2921299  77.00 0.0009390032    1.164    0.141
       262  -9.8711    198.5235     42.9715   3.6220940535e+01   3.0888773489e+01    0.1822281    0.1152039 -43.19 0.0003139873    1.522    0.343
       263 -11.4740    163.0523     42.3102   4.0939171672e+01   3.9050731637e+01    0.2603318    0.2285155 -78.65 0.0003975469    1.093    0.085
       264  -9.5006    141.1447     43.1828   4.5029032940e+01   4.4111574234e+01     0.201243    0.1711069  44.32 0.0003798371    1.195    0.163
       265 -10.0724     54.4470     36.8299   6.8264967113e+01   6.3253303434e+01    0.2200718    0.1591881  26.18 0.0003037068    1.219    0.180
       266  -9.4575     53.7757     32.2541   6.6650688948e+01   6.4022119966e+01     0.264403     0.186023 -16.74 0.0007593744    1.405    0.288
       267 -12.0853     57.1229     41.5649   6.9046923750e+01   6.2101272716e+01    0.4063189    0.2664949  18.49 0.0004114227    1.488    0.328
       268 -11.5960     17.9826     40.7442   8.7467245423e+01   6.7215014593e+01    0.3507886    0.2492103 -47.84 0.0009652788    1.480    0.325
       269  -9.0898    174.4130     42.1522   3.9181541823e+01   3.6425972188e+01    0.1875046    0.1093737 -50.19 0.0005197802    1.728    0.421
       270  -9.9817    205.0615     41.5360   3.5144480851e+01   2.9660590405e+01    0.1769868    0.1129169  72.85 -3.140872e-05    1.493    0.330
       271  -8.7909     97.5964     41.4475   5.4814810520e+01   5.4328155019e+01    0.1353798    0.1219074  35.61  0.000222456    1.029    0.029
       272  -9.3469     28.1309     41.1113   8.2326941230e+01   6.6149402001e+01    0.1938466    0.1368623 -15.16 0.0002924004    1.226    0.184
       273 -10.9404     62.9737     37.9129   6.5213646181e+01   6.1656314444e+01    0.3352767    0.2301887  31.84 0.0003571999    1.292    0.226
       274 -10.3126    230.1521     38.7928   3.2041146879e+01   2.4847270446e+01    0.3187202     0.160404 -78.31  0.001587013    2.338    0.572
       275  -9.2663     76.1234     38.7699   6.0658500407e+01   5.9107227747e+01     0.182533    0.1685737  21.44    0.0011408    1.134    0.118
       276 -10.0027     71.0664     37.4717   6.1961832599e+01   6.0250815223e+01      0.49674    0.2482839  18.57   0.00183522    3.451    0.710
       277 -11.5880    195.2218     36.7132   3.5181206875e+01   3.2419373746e+01    0.5211347    0.3322077  76.70  0.002231026    1.466    0.318
       278  -8.9831    148.8949     38.0436   4.2121911420e+01   4.2932725072e+01    0.1634257    0.1393712  71.29 0.0006093259    1.050    0.047
       279 -11.0270    140.2769     37.7955   4.3609655896e+01   4.5003945441e+01    0.2398797    0.2152602  64.77 0.0002053532    1.020    0.019
       280 -10.1794    127.5739     37.1439   4.5941960756e+01   4.8079112185e+01    0.3293459    0.1898672  55.81  0.001137871    1.519    0.342
       281  -9.8548     82.6723     35.5862   5.7223393473e+01   5.8236255616e+01    0.4256614    0.2443022 -57.80  0.001694168    3.638    0.725
       282 -10.1199      2.5597     38.0408   9.4956942496e+01   6.8838656356e+01    0.2291425    0.1536134  -0.08 0.0003822639    1.392    0.282
       283  -9.6610      6.7868     37.3768   9.2370834711e+01   6.8699146077e+01    0.2232708    0.1483845   6.31 0.0006421185    1.427    0.299
       284 -10.1267    207.3271     37.0207   3.3908580788e+01   2.9756735453e+01    0.1727778    0.1397613 -61.81 0.0004514696    1.106    0.096
       285  -9.4551     28.3911     36.4690   8.0376171672e+01   6.6913852480e+01    0.2521795    0.1466089   4.03  0.001104578    1.786    0.440
       286  -9.5915    161.4704     35.7064   3.9428692438e+01   4.0254736144e+01    0.2987393    0.1965927  86.07  0.001559357    1.592    0.372
       287  -8.8989    216.3442     35.2915   3.2625245916e+01   2.8081705905e+01    0.1104635   0.09131122  45.33 0.0007027255    1.658    0.397
       288 -10.6982    169.6997     33.8613   3.7743805457e+01   3.8557926715e+01    0.2957956    0.2519485  62.63 0.0005272873    1.174    0.148
       289  -9.1588    153.8012     35.6924   4.0636852331e+01   4.2061980502e+01    0.2907687   0.09159234  56.89  0.001102451    2.675    0.626
       290 -10.7712    107.0697     34.7707   4.9905793407e+01   5.3092417671e+01    0.2097229    0.1954989  33.68 0.0002722181    1.075    0.070
       291 -10.2576    246.1423     32.3347   2.9472408725e+01   2.2603803305e+01    0.2562887    0.1378138 -48.21  0.001034061    1.511    0.338
       292 -11.5471     40.1483     33.1090   7.3153852415e+01   6.5966260886e+01    0.3465873    0.2131815  14.99            0    1.563    0.360
       293 -10.6734     47.3123     27.7648   6.7541256704e+01   6.5678566484e+01    0.3661587    0.3028933 -31.64   0.00179579    1.436    0.304
       294  -9.2654     97.0893     33.3011   5.2035680773e+01   5.5483541609e+01    0.1843531     0.144568  48.46 0.0001794888    1.130    0.115
       295  -9.3274    183.1880    247.3647   8.2384203044e+01  -3.6232159766e+00    0.1835762    0.1034232  35.76 0.0009503355    1.725    0.420
       296 -10.7659    106.1246    244.1109   9.8981012641e+01   7.9759470570e+00    0.3121178    0.2729161  47.08 0.0009957501    1.097    0.088
       297 -10.6235    132.2113     29.4499   4.2632099160e+01   4.7895860543e+01    0.2538421    0.2367036 -24.56            0    1.237    0.192
       298  -9.9578    124.1249     30.6137   4.4603825652e+01   4.9661518888e+01    0.2155357    0.1919736  -8.17 0.0002934092    1.303    0.232
       299 -10.4250     29.4262    244.5442   1.1592405102e+02   1.7643379209e+01    0.3151885    0.1806313  65.42  0.001789254    1.594    0.373
       300 -10.0631    166.5265    243.6908   8.5360464836e+01  -6.9633575746e-01    0.2269108    0.1470185  44.58  0.001056575    1.788    0.441
       301  -9.1253     52.1828    238.5972   1.1060128178e+02   1.6316969819e+01    0.1665498    0.1171074  21.76  0.000506916    1.614    0.380
       302 -10.9034     34.5841     27.9476   7.3647887184e+01   6.7493166943e+01    0.4079499    0.1995943 -25.36  0.002007591    2.164    0.538
       303 -11.9081    119.2933    231.0961   9.4210345255e+01   8.6897094894e+00    0.4487312     0.317524 -52.53  0.000502829    1.561    0.360
       304  -9.1153     98.7156    237.0409   9.9821014537e+01   1.0476949764e+01     0.171681    0.1695056 -87.55 0.0003399745    1.130    0.115
       305 -10.1709     42.6268    241.4612   1.1291920788e+02   1.6828797194e+01    0.3486519    0.2449459  44.47  0.002108171    1.236    0.191
       306  -9.1851     28.2402    234.4198   1.1549392259e+02   1.9930929775e+01    0.1774396   0.09200761  44.39 0.0009439823    1.642    0.391
       307 -11.4673    140.5749    227.2399   8.8641267890e+01   6.2318483860e+00    0.2737575     0.257151  20.26 0.0002215817    1.094    0.086
       308 -10.2411      3.3840    228.4825   1.2034976417e+02   2.3636781285e+01    0.2164007    0.1804061   5.29  0.001478682    1.686    0.407
       309  -9.0251    110.3999     29.7747   4.7375742029e+01   5.2926779074e+01    0.1733598    0.1286181  -6.12 0.0009521478    1.638    0.390
       310  -9.9448    179.7746     28.4777   3.5083527194e+01   3.6879208956e+01    0.2088519    0.1717042 -52.46 0.0004394057    1.233    0.189
       311  -8.6895     77.3090     29.2866   5.6533888746e+01   6.0108396151e+01    0.2440307    0.1571021  15.10 0.0007867694    1.788    0.441
       312 -10.0879     81.1100     26.9962   5.4394868686e+01   5.9612514649e+01    0.2947548    0.2368753  54.27  0.001774945    1.288    0.223
       313  -9.2831     66.5826     25.7988   5.8861457287e+01   6.2606158466e+01    0.1925751     0.157864 -62.68 0.0004000936    1.967    0.492
       314 -11.2617     16.0470     27.9214   8.3535763413e+01   6.9602683005e+01    0.4786679    0.2610523   5.88  0.002646019    1.797    0.444
       315  -8.5186    215.7239     28.6945   3.1312929275e+01   2.9020217695e+01    0.1025243   0.09202082  45.62 0.0002306931    1.547    0.354
       316  -9.1788    172.5040     28.5291   3.6014888844e+01   3.8538541996e+01    0.1293049    0.1098881  89.55 3.459535e-05    1.018    0.018
       317  -9.9738    154.5663     27.4581   3.8256188601e+01   4.2842802873e+01    0.2844692    0.1763124  13.89  0.001273202    3.024    0.669
       318 -10.1602    158.5035     22.9756   3.6474398956e+01   4.2409878034e+01     0.236719     0.163973  70.10 0.0003113499    1.252    0.201
       319  -9.7831     73.0721     25.5458   5.6457879755e+01   6.1391706832e+01     0.241131    0.2022651 -15.08  0.001522328    1.278    0.218
       320  -9.0268     76.9782     23.4567   5.4308889511e+01   6.0853956642e+01    0.1971721    0.1120476  49.40  0.000599544    1.551    0.355
       321  -9.8386      2.0000     26.0143   9.0996139533e+01   7.1038880750e+01    0.2653072    0.1366903 -44.12  0.001550953    1.629    0.386
       322 -10.7274     22.1401    225.0584   1.1617063024e+02   2.2628112409e+01    0.4537623    0.2732973 -33.17  0.002243396    2.813    0.644
       323 -10.2970    206.9842     25.4629   3.1452949612e+01   3.1235189738e+01    0.2067145    0.1619105 -50.17 0.0004290948    1.257    0.205
       324 -10.0300    183.6857     25.4931   3.3903990286e+01   3.6336603790e+01    0.2528999     0.150337 -63.71 0.0007925162    1.713    0.416
       325  -9.4848    121.6277     26.1958   4.3706718615e+01   5.0734326075e+01    0.2528873    0.1610689  60.20 0.0006194493    1.359    0.264
       326  -9.2325     41.1277     25.8169   6.9524306010e+01   6.6882866468e+01    0.2040214    0.1260757   5.22  0.001103472    1.700    0.412
       327  -9.8458    183.8487    225.6569   7.8673243250e+01   5.4078045120e-03    0.2035906    0.1569587 -40.01 0.0005173695    1.393    0.282
       328  -9.9860    225.4306     23.1274   2.9350262638e+01   2.7704080511e+01    0.1848036    0.1731392  73.20 0.0007910171    1.409    0.290
       329  -9.4391     98.8294     23.3013   4.7948531826e+01   5.6235163067e+01    0.1932292    0.1816287 -45.08 0.0006498142    1.275    0.216
       330 -10.1287    164.6621     22.0935   3.5406640921e+01   4.1069172682e+01    0.3390638    0.2250495  40.23  0.001856576    1.876    0.467
       331  -9.7953      7.7964    225.0719   1.1924838693e+02   2.3991594688e+01    0.2534029    0.1051617  75.52  0.001150013    2.520    0.603
       332  -9.0060    248.4772     22.4350   2.7502396486e+01   2.3365901630e+01    0.1108249   0.08402677 -69.07 0.0001248978    1.030    0.029
       333  -9.8245    179.6934     22.0996   3.3555724630e+01   3.7617833606e+01     0.235836    0.1629936  68.12 0.0008697734    1.305    0.234
       334  -8.9781     92.7523     22.6450   4.9307125337e+01   5.7636134512e+01    0.1851979    0.1124241  61.91 0.0008692185    1.652    0.394
       335  -9.3582    205.8139     21.1588   3.0645519771e+01   3.1977508608e+01    0.1498879    0.1311578  67.77 0.0003673858    1.326    0.246
       336  -9.2830    143.3020     21.6177   3.8375268077e+01   4.6124773935e+01    0.1357481    0.0895345 -68.92 0.0003159395    1.779    0.438
       337  -8.6258    160.9806    225.2299   8.3630978857e+01   3.4956006446e+00    0.1754864    0.1051144  30.71 0.0002790685    1.529    0.346
       338  -9.5183    121.8432    225.0927   9.2739711426e+01   9.5549076600e+00    0.2139641    0.1855298  56.43 0.0007522302    1.257    0.204
       339  -9.6089     98.0470    225.2802   9.8488616157e+01   1.3088849787e+01     0.199614    0.1682793  36.30 0.0005261747    1.082    0.076
       340 -10.8936    108.2493    220.5238   9.5362064961e+01   1.2614007675e+01    0.4183673     0.266003  59.55  0.001927306    1.949    0.487
       341 -11.0288     73.1984    213.9939   1.0314998818e+02   1.9171949913e+01    0.7038344    0.4667503  32.70  0.002861488    1.448    0.309
       342  -9.4168    244.3618     18.2179   2.7022952843e+01   2.4615263238e+01    0.2030432    0.1066004 -50.67  0.001020709    1.525    0.344
       343  -9.2667    222.0319     19.5038   2.8909396951e+01   2.8803390366e+01     0.171208    0.0990213  78.53  0.001028888    1.578    0.366
       344 -10.5897     71.4237    220.4335   1.0433722112e+02   1.7916829864e+01     1.062616    0.4178486  57.23  0.003536231    3.839    0.740
       345  -9.5738    117.8091     15.7971   4.1101672944e+01   5.2666318826e+01    0.1884616    0.1603665 -81.90 0.0004281875    1.311    0.237
       346 -10.5318     77.2861    219.1212   1.0275868156e+02   1.7424186981e+01    0.4387244    0.3516153  30.71  0.002474559    1.228    0.185
       347  -9.4589     65.8789     18.6619   5.6089984307e+01   6.3554581114e+01    0.1988574    0.1512782   2.01 0.0005423424    1.316    0.240
       348 -10.6472    193.7545     16.7771   3.0834818573e+01   3.5061263609e+01    0.4750617    0.1844478  73.34  0.001557148    2.329    0.571
       349  -8.7004    170.3351    219.3234   8.0529313187e+01   3.1955098791e+00    0.1477533   0.09926853  -6.50 0.0004126755    1.711    0.416
       350 -11.0732    118.4394    216.0685   9.2209479349e+01   1.2023857832e+01    0.4992565    0.3375846 -63.67  0.002437463    1.723    0.420
       351  -9.4974     99.7454    216.0505   9.6822589077e+01   1.4895589365e+01    0.3373504    0.1758739 -78.08  0.001259132    3.129    0.680
       352 -10.0355      2.8662    216.8946   1.1983530488e+02   2.6253663998e+01    0.1772045    0.1524311 -71.63 0.0005533696    1.282    0.220
       353  -8.5249    146.2651    213.6350   8.5088618282e+01   8.1179023096e+00    0.1363999    0.1142336  75.23 0.0006987664    1.648    0.393
       354  -9.2745     23.5109    212.9951   1.1499647353e+02   2.5254774239e+01     0.177352   0.08393218 -52.15 0.0008093375    2.448    0.592
       355  -9.6623    149.0037    210.5352   8.3907929562e+01   8.3227483911e+00     0.227068    0.2026365 -69.34 0.0003869043    1.393    0.282
       356  -9.0927    209.1238    210.1384   7.0679207307e+01  -8.7382586029e-01    0.1634586    0.1520074 -18.46 0.0002936648    1.283    0.221
       357  -9.2830    200.9682     12.7030   2.9279235825e+01   3.3931494659e+01    0.1691687     0.124501  88.88 0.0004127159    1.134    0.118
       358  -9.9682      2.7253    210.0199   1.1947366126e+02   2.7834641449e+01    0.1895595     0.159362  55.09 0.0003977641    1.175    0.149
       359  -9.1829    115.3057    207.3419   9.1628753175e+01   1.4470881710e+01    0.1504425    0.1112478 -16.82 0.0003486954    1.685    0.406
       360 -10.5354     90.1384    204.5952   9.7630041387e+01   1.8994527298e+01    0.4829043     0.301357 -82.29  0.001540592    2.094    0.522
       361  -9.3414     74.1815    205.0108   1.0178591281e+02   2.1176044437e+01    0.2147524    0.1890347 -23.25  0.001201999    1.341    0.254
       362 -11.7548     11.5622    202.5579   1.1699792456e+02   2.8831596809e+01    0.3496184    0.2612444  72.81  0.001549337    1.162    0.140
       363  -9.8352    167.0388    198.0367   7.7423652352e+01   7.9582344997e+00    0.2182888    0.1937505  -5.36 0.0003335134    1.031    0.030
       364  -8.7898    122.9941    198.5236   8.8224624293e+01   1.5244547176e+01    0.2223584     0.141272  33.18 0.0004252042    1.503    0.335
       365  -9.7427     57.7760    196.4540   1.0496124870e+02   2.5434743597e+01    0.2329433    0.1831336  62.61  0.000426055    1.248    0.199
       366  -9.5882    102.9969    194.6526   9.2761190457e+01   1.9409423627e+01    0.2353601    0.2011432 -37.55 0.0004233856    1.241    0.194
       367  -8.9342     63.1030    188.4870   1.0253869196e+02   2.6756248286e+01    0.2032833    0.1405441  29.29 0.0006913638    1.492    0.330
       368  -9.1508      1.1322    184.4965   1.1822178555e+02   3.4029794539e+01    0.2462537    0.0667527 -74.35 0.0009303457    2.964    0.663
       369 -10.1044    249.5019    183.9994   5.8466337203e+01  -1.9286623932e+00    0.2048107     0.102205 -38.32   0.00104757    1.633    0.388
       370  -8.8428    113.6324    184.2573   8.8154665636e+01   2.0189096674e+01    0.1570948    0.1143885  59.74 0.0006971245    1.639    0.390
       371  -9.9414     28.3911    183.7145   1.1125483290e+02   3.1918143625e+01     0.230379    0.2052758 -63.60 0.0003464996    1.158    0.137
       372  -8.9263     53.4911    183.4709   1.0449561150e+02   2.9243929978e+01    0.1405861    0.1322736 -82.01 0.0001495975    1.041    0.040
       373  -8.7969      9.4657    179.5495   1.1577546761e+02   3.4622933675e+01    0.1298866    0.1100567 -87.95 7.208138e-05    1.016    0.015
