#   1 NUMBER                 Running object number                                     
#   2 MAG_AUTO               Kron-like elliptical aperture magnitude                    [mag]
#   3 X_IMAGE                Object position along x                                    [pixel]
#   4 Y_IMAGE                Object position along y                                    [pixel]
#   5 X_WORLD                Barycenter position along world x axis                     [deg]
#   6 Y_WORLD                Barycenter position along world y axis                     [deg]
#   7 A_WORLD                Profile RMS along major axis (world units)                 [deg]
#   8 B_WORLD                Profile RMS along minor axis (world units)                 [deg]
#   9 THETA_WORLD            Position angle (CCW/world-x)                               [deg]
#  10 FWHM_WORLD             FWHM assuming a gaussian core                              [deg]
#  11 ELONGATION             A_IMAGE/B_IMAGE                                           
#  12 ELLIPTICITY            1 - B_IMAGE/A_IMAGE                                       
         1  -9.1378     63.4358     20.8093   8.2864141235e+01   6.3296793713e+01    0.3659008    0.1958952 -48.27  0.001300701    2.302    0.566
         2  -9.0620     74.0600     19.4667   7.8557746303e+01   6.1865844083e+01    0.3151207    0.1555638 -42.43 0.0008728674    2.167    0.538
         3  -8.5071     38.6543     17.3610   9.1008486698e+01   6.6967451694e+01    0.3298475    0.1233414 -46.27  0.001550876    2.431    0.589
         4  -8.3598     30.0627     16.1027   9.4096954228e+01   6.8043394198e+01    0.1578061    0.1341321 -62.61 0.0006685684    1.693    0.409
         5  -7.8702     17.4347     14.4773   9.8975511931e+01   6.9395808724e+01    0.1104377   0.08382147 -37.28 0.0001761407    1.083    0.077
         6  -8.0412     47.6689     10.3121   8.4227982162e+01   6.6991502501e+01    0.1594335    0.1339677 -53.03 0.0006847246    1.743    0.426
         7  -8.6974     90.8642      9.1023   6.8665093960e+01   6.0238826999e+01    0.1882602    0.1691664 -31.57 0.0005574431    1.304    0.233
         8  -7.8347    101.4681      8.4485   6.5402135830e+01   5.8206868866e+01    0.1321485    0.1171781  10.83 0.0001276075    1.039    0.037
         9  -8.6252     55.8312     10.1794   8.0972113497e+01   6.5924234506e+01    0.1730313    0.1479046 -25.27 0.0006302796    1.251    0.201
        10  -8.5037     33.4553      5.0974   8.7759645535e+01   6.9411956412e+01     0.270188    0.1647038 -56.01  0.001431056    2.926    0.658
        11  -8.5665     79.2571      4.3285   7.0032420258e+01   6.2932717462e+01    0.2422535    0.1474953 -32.51 0.0009656861    1.650    0.394
        12  -7.9105     44.5280      3.5250   8.2285680593e+01   6.8337821693e+01    0.1173844   0.09222355 -14.94 0.0001142727    1.052    0.049
        13  -7.8248    115.2958      2.6143   5.9487277017e+01   5.5838707690e+01    0.1341985   0.09985322 -52.97 0.0007016199    1.771    0.435
        14  -8.3258     62.3045      1.5036   7.4414004522e+01   6.6087905555e+01    0.1817474    0.1162361  46.04 0.0004645497    1.820    0.451
        15  -7.5160     39.4900      1.4682   8.3384189197e+01   6.9236022253e+01    0.1150325   0.09024297 -16.69 3.684868e-05    1.080    0.074
        16  -9.0843      9.7696    244.7982   1.3133928743e+02   2.5112192858e+01    0.2725804   0.08149561  84.54  0.001419342    3.614    0.723
        17  -8.3667     93.8360    249.6329   1.1944944974e+02   1.4405379884e+01    0.1989387     0.103183  74.98  0.001208477    2.133    0.531
        18  -7.4494     86.2829    250.6587   1.2067772536e+02   1.5287232007e+01    0.1076416    0.0583993  68.89 0.0005016688    1.633    0.388
        19  -8.1276    139.5727    244.7800   1.1178367979e+02   8.3252182120e+00    0.1334242   0.09814051 -88.34 0.0007907584    1.655    0.396
        20  -9.7739    248.6124    241.8925   9.3817127959e+01  -8.7304622361e+00    0.2961035    0.1887141 -20.13  0.001454254    1.780    0.438
        21  -8.8057    202.0368    242.9194   1.0138818284e+02  -1.5155124024e+00    0.2584699    0.1564473 -38.24  0.001166966    2.153    0.535
        22  -8.7455    169.2766    243.5121   1.0680559813e+02   3.7451159547e+00    0.2205694    0.1611503  65.39 0.0008706276    1.490    0.329
        23  -8.4324     77.6152    243.2760   1.2144738202e+02   1.7560343817e+01    0.1692659   0.08714922  69.41  0.001078811    1.756    0.431
        24  -7.8722     49.4814    242.9869   1.2565135150e+02   2.1121836197e+01     0.143445   0.05987526  77.91 0.0008101885    2.549    0.608
        25  -9.2004    194.4790    239.7385   1.0219314182e+02   8.2387262262e-02    0.2926859    0.1897624 -42.11   0.00159146    2.024    0.506
        26  -9.3037    183.2322    240.0375   1.0408125120e+02   1.8956899336e+00    0.3697362    0.2624717  78.28  0.002049905    2.209    0.547
        27  -9.2931    160.1148    240.3294   1.0792872447e+02   5.6456153071e+00    0.2719347     0.188517 -88.11  0.001502122    2.178    0.541
        28  -8.0392    153.3864    242.1071   1.0924130306e+02   6.4964442685e+00    0.1359332    0.1019722 -80.94 0.0009347774    1.752    0.429
        29  -8.1400     88.2128    242.1600   1.1972276125e+02   1.6303781270e+01    0.1456944   0.09268131  73.93 0.0005372243    1.370    0.270
        30  -8.0127    214.3386    241.6629   9.9224843067e+01  -3.3625167711e+00    0.1059617   0.08153511  62.93  0.000705117    1.756    0.431
        31  -8.8573    240.5625    239.8388   9.4771287672e+01  -7.3106599125e+00    0.1814586     0.103473 -21.15  0.001143717    2.075    0.518
        32  -8.3455    146.1346    239.8126   1.1017265611e+02   7.9716935604e+00    0.1707545    0.1231138  62.93 0.0005205527    1.273    0.215
        33  -8.5261    209.1055    238.6324   9.9648215317e+01  -2.1849167206e+00    0.1617566    0.1577848 -88.77 0.0009464061    1.447    0.309
        34  -8.9773    135.6878    239.0258   1.1180468041e+02   9.7408259244e+00     0.248628    0.1220588  56.94  0.001394907    1.824    0.452
        35  -8.2784    129.0254    238.7438   1.1286816780e+02   1.0823532258e+01      0.18735    0.1307614  86.70   0.00126414    1.662    0.398
        36  -7.7251     40.6912    239.3168   1.2672834650e+02   2.2717658847e+01    0.1059484   0.05055156  67.82  0.000348736    1.634    0.388
        37  -9.1520    231.1606    236.6688   9.5793855288e+01  -5.5249532160e+00    0.2912616    0.2127962 -14.71  0.001487432    1.563    0.360
        38  -8.2584     58.1650    237.1847   1.2399061501e+02   2.0998035722e+01    0.1674112   0.04636632  49.66  0.000816546    2.576    0.612
        39  -8.2453     25.6481    236.8404   1.2877839070e+02   2.4757182021e+01    0.2147925   0.07541135  76.54  0.001149945    2.996    0.666
        40  -8.6988    217.2940    235.6934   9.7892878335e+01  -3.1936597529e+00    0.1757911    0.1406871  43.44 0.0006400201    1.223    0.182
        41  -9.3946    213.8766    232.0662   9.7922550015e+01  -2.2303783190e+00    0.3102665    0.2446865 -89.61  0.001448083    2.369    0.578
        42  -8.7588    203.1167    234.8346   1.0009629771e+02  -7.6854480582e-01    0.2026833    0.1624932 -63.68  0.001114488    1.924    0.480
        43  -9.7513    175.7159    233.3719   1.0446439177e+02   3.9847068897e+00    0.3672778    0.2167536 -60.61  0.002091443    2.617    0.618
        44  -9.4375    109.2080    234.6415   1.1570532530e+02   1.4455259003e+01    0.4525667     0.180385  57.49   0.00204408    2.351    0.575
        45  -8.9719    247.8116    234.5305   9.2818718497e+01  -7.9137386863e+00    0.2026536    0.1518261  -5.21  0.001139025    1.371    0.271
        46  -9.1963    246.4964    229.4410   9.2229930346e+01  -7.2105064722e+00    0.2498188    0.1868313 -34.35 0.0009600997    1.768    0.434
        47  -8.1804    152.5649    235.0133   1.0855227494e+02   7.5978594010e+00    0.2413299    0.1096368 -45.65  0.001122981    2.932    0.659
        48  -9.1119    151.3180    228.9695   1.0803547503e+02   8.6579228447e+00    0.2809782     0.168667 -81.75  0.001294388    3.009    0.668
        49  -9.5259    148.7036    224.6862   1.0795642200e+02   9.7170027483e+00    0.4164018    0.2598822  84.80  0.001371684    2.585    0.613
        50  -8.1566    123.1052    234.2741   1.1337978652e+02   1.2401824094e+01     0.200784    0.1214326  78.22 0.0007740416    2.022    0.505
        51  -8.5639     99.5185    234.2990   1.1725317891e+02   1.5929022968e+01    0.2307685     0.128634  72.34  0.001052733    1.853    0.460
        52  -8.7841     78.7103    234.4698   1.2060523320e+02   1.8798399537e+01    0.2189304    0.1201212 -89.29  0.001012981    1.917    0.478
        53  -8.5231     92.5389    232.0918   1.1818968453e+02   1.7275304856e+01     0.274813    0.1394179 -85.91  0.001542466    2.508    0.601
        54  -9.1745     68.6996    232.7369   1.2205133884e+02   2.0392065943e+01     0.359984    0.1414161  68.97  0.001756275    3.100    0.677
        55  -8.7275      8.5952    234.2117   1.3107409562e+02   2.6896554731e+01    0.1209954   0.06718075 -77.24 0.0009505898    1.697    0.411
        56  -8.6794    194.6398    232.3539   1.0115608427e+02   9.3994128495e-01    0.2558203    0.2076167 -25.79   0.00150444    1.547    0.354
        57  -9.3476    186.6119    231.0299   1.0231870075e+02   2.4546700702e+00    0.2821174    0.2098642 -87.00  0.001333466    2.244    0.554
        58  -8.1228    144.8042    233.2132   1.0964204662e+02   9.1157401691e+00    0.2404735    0.1138222  61.60  0.001164349    2.566    0.610
        59  -8.5385    140.0788    230.1804   1.1008791680e+02   1.0322764608e+01    0.2168509    0.1250719  59.37 0.0007368713    1.602    0.376
        60  -8.1611    132.8231    233.0527   1.1163195324e+02   1.1061641798e+01    0.1807242    0.1247891  67.01 0.0009873407    1.368    0.269
        61  -8.6835    158.0340    232.3371   1.0731010387e+02   7.0700803374e+00     0.167616    0.1216076  50.95 0.0005065296    1.087    0.080
        62  -8.7601      1.8493    231.2341   1.3189498004e+02   2.8012458359e+01    0.1642525   0.08271336  76.55  0.001257757    1.387    0.279
        63  -8.8075    235.9916    230.5383   9.4085076267e+01  -5.6614630005e+00    0.2427772    0.1481926 -27.65  0.001204703    1.919    0.479
        64  -7.9188    230.0073    229.2496   9.4855604153e+01  -4.5621594063e+00    0.1365863    0.1292622  83.71  0.000730745    1.635    0.388
        65  -8.8418    162.4220    227.8751   1.0600363576e+02   6.9591660713e+00    0.2849021    0.1789703  69.68  0.001096439    2.098    0.523
        66  -8.8320    127.9481    227.2870   1.1181816838e+02   1.2705090028e+01    0.2684233    0.1631602  71.32  0.001179333    1.845    0.458
        67  -8.1879    120.1527    227.5410   1.1316725286e+02   1.3890984708e+01    0.1991137    0.1180695  85.16  0.001118015    2.252    0.556
        68  -7.8949    214.9926    227.3117   9.7030137158e+01  -1.8726425018e+00    0.1693836    0.1197164  37.61 0.0003906524    1.109    0.099
        69  -8.5315    170.0353    235.4958   1.0568926934e+02   4.6534324452e+00    0.1887625    0.1537948 -89.10 0.0005967573    1.611    0.379
        70  -8.1764     49.6135    226.8116   1.2462135139e+02   2.3727262303e+01    0.2252493   0.09120662  78.00 0.0009834189    2.908    0.656
        71  -8.7004    205.9364    225.6527   9.8295460336e+01  -1.5191020345e-01    0.2282456    0.1729022 -32.30  0.001212077    1.622    0.383
        72  -8.0831    200.1678    226.2083   9.9349407875e+01   7.6009338859e-01    0.1498091    0.1296403  61.46 0.0005231832    1.374    0.272
        73  -7.6574     78.4622    225.9627   1.1995721947e+02   2.0218667446e+01    0.1495828   0.07376631  80.75 0.0006645527    2.403    0.584
        74  -9.3444    180.3068    222.3320   1.0218266878e+02   4.6704842781e+00    0.5444396    0.1933577 -51.26  0.002273344    4.268    0.766
        75  -8.9198    104.8780    223.8790   1.1537347087e+02   1.6805516047e+01    0.2812428    0.1653369  83.47  0.001479218    2.002    0.500
        76  -8.9836     93.8885    224.2302   1.1725605582e+02   1.8357962637e+01    0.3125576    0.1535063  68.06  0.001694468    2.194    0.544
        77  -8.6969    216.4163    223.4271   9.6200386511e+01  -1.6602432126e+00    0.2182638    0.1806878  65.44 0.0009337742    1.641    0.391
        78  -7.9433    113.9773    224.0218   1.1384309162e+02   1.5402919756e+01     0.183282    0.1117998  70.14 0.0006315223    1.652    0.395
        79  -7.7101     38.3114    224.6521   1.2623297047e+02   2.5389153055e+01    0.1110193   0.05300809  69.37 0.0004148062    1.713    0.416
        80  -9.2745    192.4080    221.4209   9.9968134964e+01   2.6981458687e+00     0.269567    0.2105141  76.47  0.001100736    1.800    0.444
        81  -8.8707    194.5099    215.6122   9.8735553961e+01   3.0951567171e+00    0.4528368    0.1807837  32.89  0.001711936    3.114    0.679
        82  -8.5507    173.1393    222.8368   1.0349098725e+02   5.8367835912e+00    0.1821628    0.1582083 -86.96 0.0006670748    1.442    0.306
        83  -8.2209    162.9829    222.5002   1.0520459835e+02   7.6253019633e+00    0.1940515    0.1455466  63.61  0.001068712    1.345    0.256
        84  -8.6705    158.9998    220.3680   1.0561501782e+02   8.6149678994e+00    0.2575228    0.1694392  68.51  0.001002192    1.805    0.446
        85  -7.7569     59.3817    223.6896   1.2286353537e+02   2.3069656716e+01    0.1178483   0.05698681  66.71 0.0007023584    1.801    0.445
        86  -9.0406    238.8967    221.6529   9.2206977786e+01  -5.1917722877e+00    0.1916354     0.163612 -20.13 0.0006172839    1.405    0.288
        87  -8.9368    225.5648    221.8946   9.4437347989e+01  -3.0194071200e+00    0.2381053    0.1670207  54.57 0.0009592521    1.676    0.403
        88  -8.1794    202.9076    220.3411   9.8009637495e+01   1.0205630791e+00    0.1721409    0.1689398 -79.23 0.0007870704    1.346    0.257
        89  -9.2163    120.4465    219.4851   1.1223745533e+02   1.5124999246e+01    0.3694474    0.1973266  74.04  0.001823883    2.658    0.624
        90  -8.5577     82.6574    220.5432   1.1879915500e+02   2.0555228042e+01    0.2848713    0.1231538  66.26  0.001219018    2.607    0.616
        91  -7.9578     73.4657    220.9813   1.2036387483e+02   2.1723403929e+01     0.155308   0.07408138  81.90 0.0008092943    2.548    0.608
        92  -7.2692     27.6689    221.6755   1.2768838447e+02   2.7047708444e+01   0.08381885   0.07168141 -71.72 0.0007050504    1.704    0.413
        93  -8.5279    248.9829    218.3635   9.0032889857e+01  -6.4720525342e+00     0.331582    0.2004829  62.82  0.001547971    3.698    0.730
        94  -8.3733    209.9674    219.1734   9.6628620698e+01  -5.1445862589e-02    0.1727643    0.1451568  51.55 0.0005773744    1.299    0.230
        95  -9.2468    132.8283    215.8920   1.0964695301e+02   1.3705628855e+01    0.4217153    0.2378884  78.99   0.00200946    2.895    0.655
        96  -8.3485    112.1521    217.7588   1.1348862311e+02   1.6704418686e+01    0.1992978    0.1000612  71.59 0.0009390715    2.773    0.639
        97  -8.4077     62.3868    217.6734   1.2192296491e+02   2.3723061372e+01    0.3124833    0.1191476  63.26  0.001560752    2.681    0.627
        98  -8.7200     51.7196    217.6545   1.2366013410e+02   2.5035789110e+01    0.2041008    0.1130953  87.49 0.0007679191    1.604    0.377
        99  -8.7188    169.3732    216.1824   1.0322190752e+02   7.4320833035e+00     0.251437    0.1844155  89.99 0.0009835692    1.984    0.496
       100  -8.6818    143.0112    216.7022   1.0794832051e+02   1.1882896998e+01    0.2461275    0.1618582  79.98  0.001391114    1.996    0.499
       101  -8.6084    232.1210    215.0861   9.2247883333e+01  -3.3428421230e+00    0.2388956    0.1863578  23.66  0.001619223    1.053    0.051
       102  -8.7067    154.3526    215.0406   1.0572231762e+02   1.0208910944e+01     0.231553    0.1737703  89.50  0.000869312    1.689    0.408
       103  -7.8219     18.6120    216.1963   1.2877293503e+02   2.8912827611e+01    0.1326538   0.07193926 -74.52 0.0009584681    1.705    0.414
       104  -8.4001    185.5240    214.3370   1.0011175246e+02   4.8527585307e+00    0.1888778    0.1641675  79.04 0.0006187453    1.431    0.301
       105  -8.9419     93.5244    214.2941   1.1636228389e+02   2.0084093745e+01    0.3712441    0.1512108  61.00  0.001504716    2.658    0.624
       106  -7.8008     41.3417    215.6386   1.2518977754e+02   2.6593194346e+01    0.1168908    0.0548874  69.15 0.0007033032    1.835    0.455
       107  -9.4862    213.9946    212.3424   9.4857760468e+01   9.6505899309e-02    0.3258322    0.2399342  69.73   0.00149883    2.095    0.523
       108  -9.4635     73.1264    211.9683   1.1965249366e+02   2.3328800498e+01    0.5576479     0.191399  63.93  0.002147177    4.381    0.772
       109  -8.2010    224.7649    212.5557   9.3061763701e+01  -1.7963714048e+00    0.1602594    0.1421175 -21.63 0.0008295091    1.344    0.256
       110  -8.5128    161.5625    212.3345   1.0406658774e+02   9.3677400059e+00    0.1987396    0.1576759  76.78 0.0006790349    1.446    0.308
       111  -8.4870    106.4903    212.5919   1.1391922847e+02   1.8443083124e+01     0.203572    0.1102703 -65.60 0.0007296644    2.032    0.508
       112  -9.0184    204.2421    210.9781   9.6320510612e+01   1.9876030296e+00    0.2386553    0.2028887 -76.70 0.0007258974    1.741    0.426
       113  -9.4555    175.4822    210.2317   1.0127606345e+02   7.2193734277e+00    0.3738766     0.245417  73.83  0.001657588    2.327    0.570
       114  -9.3296      5.6154    207.8286   1.3033945091e+02   3.1604093557e+01    0.2374957   0.08781528  80.50  0.001365352    2.410    0.585
       115  -8.3481    192.4139    210.7939   9.8359887208e+01   4.1166271409e+00    0.1919203    0.1211271 -47.58 0.0006464674    2.005    0.501
       116  -8.8016    148.0685    210.6001   1.0624832503e+02   1.1981142413e+01    0.2472315    0.1699148  79.42  0.001050763    1.851    0.460
       117  -8.8443    116.1492    210.2934   1.1194575077e+02   1.7329449285e+01     0.277441    0.1615931  74.72  0.001031591    2.074    0.518
       118  -8.3279     85.3627    209.5082   1.1731195432e+02   2.2086764505e+01    0.2575862    0.1273724  76.33 0.0008811775    2.562    0.610
       119  -8.0476     46.8198    209.9904   1.2391101139e+02   2.6959962380e+01    0.1915363   0.08733579  74.11  0.001079272    2.159    0.537
       120  -8.2886     32.2509    210.3339   1.2630397681e+02   2.8526431634e+01    0.1554937   0.06526361  89.50 0.0008804296    2.265    0.559
       121  -9.0354    236.2944    208.2204   9.0398090445e+01  -3.2572812063e+00    0.2666741    0.2008098 -45.21   0.00118073    1.863    0.463
       122  -8.4712    139.2390    208.0942   1.0751011872e+02   1.3896186547e+01    0.2427326    0.1650833  85.02 0.0007909866    1.877    0.467
       123  -9.3380    250.0502    202.0658   8.7048249477e+01  -4.8726939527e+00     0.332717     0.168933 -29.36  0.001284707    2.110    0.526
       124  -9.6310    246.3049    206.7551   8.8489241861e+01  -4.7757738150e+00    0.3357183     0.195752 -26.85  0.001813347    1.856    0.461
       125  -9.1614    243.0442    201.0107   8.8014699675e+01  -3.5671046196e+00    0.2838317    0.2155186 -45.69 0.0009702479    1.870    0.465
       126  -8.0840    156.5006    208.0449   1.0437307063e+02   1.0915703395e+01    0.1597513    0.1241218 -57.13 0.0005130528    1.531    0.347
       127  -7.7781    126.4967    208.5540   1.0987654330e+02   1.5951591899e+01    0.1241585   0.09718008  63.15 0.0008070685    1.075    0.070
       128  -9.2209     99.3414    206.1072   1.1448586838e+02   2.0653225426e+01    0.3382766    0.1952163  87.07  0.001296033    2.083    0.520
       129  -8.3501     56.4801    205.5618   1.2195267382e+02   2.6602479970e+01    0.2285649    0.1089579  76.55  0.001130892    2.197    0.545
       130  -9.2237    194.7953    203.7245   9.6813870387e+01   4.6683788813e+00    0.3605911    0.2678535  67.45  0.002092331    1.730    0.422
       131  -9.2670    192.5779    197.4942   9.6185680605e+01   5.9669153805e+00    0.3838497    0.2897379 -78.35  0.001684216    2.113    0.527
       132  -9.0376    183.8177    204.0357   9.8831238987e+01   6.6223907787e+00    0.2920354    0.2099173  71.41 0.0009633127    1.863    0.463
       133  -8.7154    131.2888    203.9804   1.0842172607e+02   1.5926474610e+01    0.2845138    0.1794014  83.87  0.001012441    2.147    0.534
       134  -8.1727    109.0562    205.3222   1.1264612713e+02   1.9303613559e+01    0.1718886    0.1304968  65.47 0.0006437832    1.088    0.081
       135  -7.8723     92.3439    205.6342   1.1568794826e+02   2.1773255423e+01     0.128827   0.07224967  71.53 0.0007025548    1.856    0.461
       136  -7.8724     25.3107    205.6734   1.2713215538e+02   3.0083240884e+01    0.1106496   0.05406393  69.91 0.0007040309    1.660    0.398
       137  -9.6726    163.8504    203.1355   1.0232114090e+02   1.0376940954e+01    0.4397268    0.2261622  58.81  0.001236848    2.212    0.548
       138  -8.5434    210.9745    202.2327   9.3705809582e+01   1.9359006102e+00    0.1975458    0.1752181 -82.39 0.0005640985    1.625    0.385
       139  -8.1517    221.9605    201.9000   9.1739899091e+01   7.9452244959e-03    0.1720491    0.1516949  76.20  0.000798956    1.630    0.386
       140  -8.9647    140.4008    201.2292   1.0637034521e+02   1.4835543249e+01    0.2762588    0.1903518  89.16  0.001081843    1.872    0.466
       141  -8.7231     80.0498    201.2084   1.1743653633e+02   2.4322462348e+01    0.3051698    0.1418177  79.80  0.001352615    3.247    0.692
       142  -7.6889     73.2935    202.6028   1.1877384224e+02   2.4987169917e+01    0.1239256   0.06816471  73.95 0.0007001679    1.796    0.443
       143  -9.3011    237.1147    198.7395   8.8600979877e+01  -2.2727944520e+00    0.2770558    0.1620787 -40.08  0.001092339    2.108    0.526
       144  -9.4761    149.5545    198.6189   1.0429700055e+02   1.3665106544e+01     0.373136    0.2433034 -87.60  0.001257436    2.357    0.576
       145  -8.9794    123.8226    199.2988   1.0919289371e+02   1.7981887219e+01    0.2894055    0.1836631  79.04  0.001273178    1.923    0.480
       146  -9.2322    113.0877    198.7595   1.1112205893e+02   1.9828396372e+01    0.3984949    0.2142938  69.68  0.001928997    2.305    0.566
       147  -8.3846    176.9455    199.1455   9.9305251077e+01   8.6105735266e+00    0.1917147    0.1572978  65.98  0.000532253    1.320    0.243
       148  -9.1902     88.5254    198.2891   1.1560045485e+02   2.3659356042e+01    0.3303314    0.1889106  84.11  0.001768974    1.977    0.494
       149  -8.2387    202.4837    197.9704   9.4483927751e+01   4.0669283293e+00    0.2037948    0.1677917  79.37 0.0009076685    1.707    0.414
       150  -9.0880     61.3912    196.8427   1.2035727338e+02   2.7597313883e+01    0.3839158    0.1941617  86.72  0.002009115    2.092    0.522
       151  -8.6558     13.0350    197.1824   1.2862096350e+02   3.2819091734e+01    0.2951883   0.09831524  75.04  0.001397023    3.402    0.706
       152  -8.7143    215.8604    195.6208   9.1705237664e+01   1.9301725146e+00    0.2142406    0.1674627 -58.57 0.0007547364    1.869    0.465
       153  -8.1189    133.0143    196.0135   1.0702938062e+02   1.7004245518e+01    0.1961347    0.1360437  76.76 0.0006430643    1.627    0.385
       154  -9.0936    245.7234    193.4189   8.6193642063e+01  -3.1288717795e+00    0.2676296    0.2358502 -79.33  0.001356098    1.935    0.483
       155  -8.8760    224.3566    193.7634   8.9889699860e+01   6.2648815150e-01    0.2647926    0.2013255 -49.26 0.0009595432    1.784    0.440
       156  -7.5087    209.2829    195.6727   9.2876567554e+01   3.1320466658e+00    0.1163297    0.1001848  78.90 0.0007003494    1.603    0.376
       157  -8.7562    185.2312    194.9778   9.7105897811e+01   7.7079086602e+00    0.2312573    0.1888164  58.34 0.0006413206    1.257    0.204
       158  -8.8981    161.0583    194.5240   1.0152590287e+02   1.2263338218e+01     0.280305    0.1885637  67.59 0.0008763783    1.749    0.428
       159  -8.2659    230.7985    194.3506   8.8884502395e+01  -6.1139685465e-01    0.1645433    0.1483424  10.47 0.0004880522    1.140    0.123
       160  -8.7098     76.8929    193.7219   1.1725428711e+02   2.6147803093e+01    0.2168304    0.1419049 -87.38 0.0007178569    1.422    0.297
       161  -8.7563     43.7900    193.3156   1.2316939533e+02   3.0363468188e+01    0.3510123    0.1481607  69.59  0.001807054    2.516    0.603
       162  -7.7393    241.6270    192.2815   8.6668542799e+01  -2.2757246107e+00    0.1136947    0.0987308  68.28 0.0007013034    1.702    0.413
       163  -8.0221    205.2153    192.0145   9.2961965096e+01   4.4000919063e+00    0.1544531     0.105774 -34.26 0.0004670259    1.660    0.397
       164  -8.2046    198.9669    191.7624   9.4047274122e+01   5.6090820441e+00    0.2000631    0.1654409 -56.61 0.0005613379    1.551    0.355
       165  -8.4116    172.4669    191.8406   9.8956303619e+01   1.0584132155e+01    0.2415799    0.1862822  71.86 0.0007778901    1.529    0.346
       166  -9.2027    139.6083    190.7253   1.0502035601e+02   1.6781118582e+01    0.3410232    0.2265333  84.42  0.001046692    2.031    0.508
       167 -10.4995     92.1937    188.5110   1.1381727184e+02   2.4952880485e+01    0.8547142    0.3496101  57.17  0.003450684    2.534    0.605
       168  -8.4783    148.7443    189.6222   1.0310347341e+02   1.5335864747e+01    0.2353783    0.1600585 -88.37  0.001043976    2.084    0.520
       169  -8.9219    191.4212    187.4271   9.4671660342e+01   7.6866764907e+00    0.3086657    0.2295989 -81.69  0.001229924    2.185    0.542
       170  -9.3464    156.0347    187.8217   1.0142342770e+02   1.4309723145e+01     0.323354    0.2223715 -76.42 0.0009785523    2.007    0.502
       171  -9.0071    129.2714    188.6563   1.0670849926e+02   1.8957553915e+01    0.2628582    0.1794292  76.78 0.0008662508    1.670    0.401
       172  -9.8654    120.8851    186.6734   1.0805317067e+02   2.0749794263e+01    0.5156641    0.2612351 -75.52  0.002198759    3.102    0.678
       173  -8.8249     34.3167    188.2365   1.2444160235e+02   3.2364357960e+01     0.296358    0.1318506  79.67  0.001457709    2.288    0.563
       174  -9.6599    243.1653    184.9268   8.5030937374e+01  -1.6349288025e+00    0.4258257    0.2534897 -36.34  0.002308161    1.883    0.469
       175  -8.3042    240.4935    180.5131   8.4635591679e+01  -5.8859550157e-01    0.2256217    0.1219973 -26.34   0.00100093    1.959    0.489
       176  -8.1698    237.2939    188.1512   8.6633631499e+01  -9.8959273183e-01    0.1727312     0.146297  -7.69 0.0008460871    1.183    0.155
       177  -8.7533    216.5384    187.7898   9.0177329261e+01   2.8726810955e+00    0.2221712    0.2103576  76.35 0.0008440362    1.370    0.270
       178  -8.9181    165.0778    187.0423   9.9565761541e+01   1.2754769059e+01    0.2940049    0.2123888 -86.32  0.000976809    1.990    0.498
       179  -9.1093     54.8984    187.1995   1.2066031107e+02   3.0229296210e+01    0.3476144    0.1558208  68.09  0.001502286    2.413    0.586
       180  -8.0561    230.4907    187.1138   8.7606629507e+01   3.7902980805e-01    0.1782236    0.1233553 -30.32  0.001019905    1.566    0.361
       181  -9.3122    109.5844    186.0119   1.1015887713e+02   2.2734822679e+01    0.3682829    0.2304364  85.08  0.001372371    1.929    0.482
       182  -8.8760    249.3988    185.7772   8.4151445399e+01  -2.8447151311e+00    0.2007183    0.1994777 -43.37  0.000757919    1.445    0.308
       183  -9.1263    182.9493    184.8415   9.5800064287e+01   9.7127291403e+00    0.2958094    0.1896716 -50.48 0.0009137772    1.866    0.464
       184  -8.7193    210.1674    184.3612   9.0687636000e+01   4.5606592701e+00    0.2175058    0.1868084 -37.67 0.0005102879    1.348    0.258
       185  -8.5334    202.8316    184.9983   9.2137254510e+01   5.8690983859e+00    0.1896456    0.1711181  65.73  0.000526817    1.305    0.234
       186  -9.1582     66.5803    184.4482   1.1822590545e+02   2.9300234757e+01    0.3221122    0.1743479  72.06  0.001066436    1.874    0.466
       187  -7.5895     12.3489    185.6709   1.2806442375e+02   3.5011348150e+01    0.1135092   0.05373326  69.23  0.000704897    1.762    0.433
       188  -8.4502    224.1190    183.6393   8.8065638119e+01   2.0245336959e+00    0.1966894    0.1738231 -30.91 0.0005942934    1.306    0.234
       189  -8.0503    197.3952    184.1440   9.2980943707e+01   7.0406371024e+00     0.170665     0.124952 -53.84 0.0008769411    1.740    0.425
       190  -8.9817    174.3297    183.4812   9.7197819078e+01   1.1587805656e+01    0.2662003    0.2182442 -80.33 0.0008081375    1.547    0.354
       191  -8.1196      1.8204    183.8054   1.2972865067e+02   3.6279743968e+01    0.1459962    0.0819493  68.88  0.001061096    1.373    0.272
       192  -8.9432     44.2231    182.2814   1.2218253016e+02   3.2428833997e+01    0.2806815    0.1424816  79.67 0.0009924234    1.929    0.482
       193  -7.9650    235.2932    181.6636   8.5746220484e+01   2.1413786760e-01    0.1709665    0.1575576  24.69 0.0005213639    1.178    0.151
       194  -8.1429    232.1954    181.1200   8.6176395091e+01   8.5903037963e-01    0.2175194    0.1786378  59.69 0.0003598552    1.546    0.353
       195  -8.6852    231.3652    177.2110   8.5564105021e+01   1.5419804604e+00    0.2724348    0.1643526 -39.61 0.0007440663    1.888    0.470
       196  -9.2786    147.5451    180.6298   1.0191782715e+02   1.7139432893e+01    0.3209643    0.2266816  83.53  0.001169892    1.836    0.455
       197  -9.5623     25.5462    178.9270   1.2530828945e+02   3.5051180192e+01    0.5685041    0.2012058  82.46  0.002368466    3.976    0.748
       198  -8.6885    137.5548    179.3950   1.0369634073e+02   1.9189205306e+01    0.2934337    0.1910634  86.91 0.0009453631    2.184    0.542
       199  -9.4275    191.3401    178.3117   9.3044688092e+01   9.1205935730e+00    0.2536881    0.2291329  87.86 0.0005292405    1.353    0.261
       200  -8.2570    169.1416    178.8250   9.7387082936e+01   1.3365781223e+01    0.2072247     0.169666  71.44 0.0006643176    1.348    0.258
       201  -9.2324     35.9079    176.8012   1.2325197699e+02   3.4409739656e+01    0.4480496    0.1671345  82.71  0.001783299    4.164    0.760
       202  -9.6050    248.2351    176.4819   8.2543527284e+01  -1.4759880842e+00    0.4232394    0.2717118 -41.98  0.002129874    1.927    0.481
       203  -8.5585    250.5213    172.8581   8.1443029623e+01  -1.4260293772e+00    0.1787475     0.146943  -3.53  0.000474004    1.119    0.106
       204  -8.5865    217.5820    177.2699   8.8013597471e+01   4.1608125995e+00    0.2713482    0.1930626 -52.85  0.001360162    1.909    0.476
       205  -8.8067    204.9876    177.4361   9.0336954451e+01   6.5826834460e+00     0.279959    0.1906775 -40.72 0.0009262479    1.653    0.395
       206  -8.7534    129.0006    177.4122   1.0509433172e+02   2.1084888696e+01    0.2429832    0.1723348 -83.39 0.0007624956    1.646    0.392
       207  -8.8632     89.2125    176.9229   1.1298887483e+02   2.7646250717e+01    0.2916448    0.1765824  84.54 0.0009804001    1.852    0.460
       208  -9.1878     88.2387    170.7204   1.1239007637e+02   2.9031756103e+01    0.4362078    0.1630873 -61.76  0.001311811    2.601    0.616
       209  -9.3751     13.0800    176.9537   1.2739036641e+02   3.6603461702e+01    0.2765743    0.1019921  65.56  0.001147186    2.659    0.624
       210  -9.1347    183.0637    176.1342   9.4217095300e+01   1.1098530208e+01    0.2653731    0.2182881 -65.24 0.0006100495    1.502    0.334
       211  -9.5977    158.8138    175.1499   9.8771585268e+01   1.5994863769e+01    0.4187363    0.2646045  74.18  0.001321077    2.373    0.579
       212 -10.8999    101.7147    175.7383   1.1033462500e+02   2.5972224049e+01    0.4206789    0.2603819  42.13  0.002323362    1.628    0.386
       213 -10.0507     57.2685    173.2832   1.1886625506e+02   3.2683279893e+01    0.7203575    0.3010293  81.96  0.002711863    4.343    0.770
       214  -7.8427    211.5207    176.4613   8.8954233290e+01   5.4535810385e+00    0.1349906    0.1178213  28.18 6.858591e-05    1.004    0.004
       215 -10.7673     75.8631    170.2936   1.1484377997e+02   3.0880423157e+01     1.074479    0.3930821 -77.22  0.003733277    4.585    0.782
       216  -8.4888    224.4666    174.4454   8.6235077398e+01   3.2385423547e+00    0.2114909     0.121482 -45.06 0.0005424939    2.154    0.536
       217  -8.0170    241.3043    174.3288   8.3285723487e+01   7.2640530221e-02    0.1366185   0.09016754  12.95 0.0002254012    1.651    0.394
       218  -9.5104    175.7215    172.1758   9.4909128419e+01   1.3212263299e+01    0.3416547     0.233937 -47.21 0.0008768975    1.631    0.387
       219  -8.5057    143.0526    172.7385   1.0151398915e+02   1.9416050905e+01    0.2210314    0.1778089 -80.94 0.0006860133    1.377    0.274
       220  -8.7443    134.7429    171.8890   1.0305860331e+02   2.1104185170e+01    0.2360501    0.1744606 -83.36 0.0007518127    1.568    0.362
       221  -9.6287    121.4403    170.2391   1.0551616866e+02   2.3786903203e+01    0.3923325    0.2492473 -76.56  0.001057886    1.890    0.471
       222  -9.2482     44.9472    170.8216   1.2101247817e+02   3.4618285683e+01     0.350688     0.169985  85.42  0.001408286    2.185    0.542
       223  -8.9798    230.3018    170.0744   8.4337295297e+01   2.7327775498e+00    0.3038335    0.2075487 -36.68   0.00164919    1.597    0.374
       224  -8.7084    205.7278    170.1346   8.8790400568e+01   7.5534422511e+00    0.3387543    0.1752284 -49.85   0.00145904    2.569    0.611
       225  -8.3378    244.3449    169.4367   8.1789556680e+01   1.5744475051e-01    0.2073504    0.1170731 -30.63 0.0004678332    1.802    0.445
       226  -8.4127    237.1439    169.6727   8.3066534162e+01   1.4803897463e+00    0.2130803    0.1734041 -33.49 0.0006007385    1.364    0.267
       227  -8.5056    198.6422    170.1717   9.0123911266e+01   8.9648075313e+00    0.1954702    0.1702649 -58.61 0.0005907665    1.396    0.284
       228  -9.2018    167.2500    168.8439   9.5965247042e+01   1.5469841531e+01     0.370933    0.2444868  72.98  0.001074695    2.156    0.536
       229  -8.6491    149.7968    169.6353   9.9617452562e+01   1.8722182835e+01    0.2531936    0.1809653  71.68 0.0004976491    1.623    0.384
       230  -8.5453    218.9204    168.4344   8.6034386407e+01   5.1899520469e+00    0.2243979    0.1888488 -49.61 0.0005386716    1.464    0.317
       231  -8.8309    111.9374    167.9131   1.0711937891e+02   2.5866140622e+01    0.3700296    0.2043129  77.24  0.001441553    2.915    0.657
       232  -7.6967     35.9657    170.0000   1.2266083994e+02   3.5754969426e+01    0.1618267   0.05899836  36.46 0.0008078701    2.980    0.664
       233  -7.7566    211.4100    168.2122   8.7359016153e+01   6.7147153824e+00     0.177705    0.1282135 -47.57  0.000463766    1.659    0.397
       234  -8.8773    191.8934    166.8203   9.0753079339e+01   1.0867159289e+01     0.264933    0.1944566 -46.46 0.0006798718    1.535    0.349
       235  -8.8848    185.0198    166.5408   9.2027356712e+01   1.2306256061e+01    0.2473754    0.1931717 -63.15 0.0007447117    1.604    0.377
       236 -10.1705     95.3023    163.2254   1.0989954247e+02   2.9493898352e+01    0.7895462     0.405791  81.03  0.003026856    3.601    0.722
       237  -8.9713     20.6016    166.2578   1.2526124841e+02   3.8015649825e+01    0.3207962    0.1164816  62.77  0.001166366    2.940    0.660
       238  -9.0096     12.8331    167.0121   1.2676158031e+02   3.8562147890e+01    0.1936222     0.085549  75.46  0.001089778    2.138    0.532
       239  -9.9188    136.9181    164.5988   1.0138578660e+02   2.2104073760e+01    0.6313985    0.2669798  58.51  0.002266106    3.236    0.691
       240  -8.3708    239.9281    164.3268   8.1497600222e+01   1.6854742192e+00    0.2056839    0.1769153 -28.10  0.000528208    1.261    0.207
       241  -8.4270    233.8772    165.1277   8.2707750881e+01   2.7391802671e+00    0.1848215    0.1791855 -23.94 0.0005273399    1.251    0.201
       242  -8.7811    159.5824    164.4273   9.6690532985e+01   1.7783157183e+01    0.2781731    0.2204093 -88.18 0.0008150465    1.544    0.353
       243  -9.5981     33.7313    163.5076   1.2251436405e+02   3.7296447489e+01    0.5112429    0.1772744  58.96  0.002323349    3.228    0.690
       244  -9.4744    246.0398    163.0025   8.0185855168e+01   7.0409437568e-01     0.246989    0.1832509 -15.25 0.0008038389    1.315    0.240
       245  -8.4658    204.9118    162.9003   8.7496520749e+01   8.8535301175e+00    0.2258624    0.1878143 -45.68 0.0005319946    1.369    0.270
       246  -9.1342     60.3866    160.8753   1.1688274974e+02   3.4839451037e+01    0.3468813    0.2298778 -73.28  0.001230403    1.319    0.242
       247  -9.4228      3.3730    162.4348   1.2819078286e+02   4.0249312694e+01    0.3371743    0.1421893  59.20  0.001941814    2.148    0.534
       248  -9.2699    177.4326    160.9074   9.2418735439e+01   1.4822531654e+01    0.3120519    0.2504314 -62.76 0.0008494828    1.476    0.322
       249  -8.8474    151.5241    160.9083   9.7690877864e+01   2.0024201929e+01      0.31269    0.2219634  87.82 0.0009338273    1.936    0.484
       250  -7.7490    242.2558    160.2907   8.0261659951e+01   1.7976911335e+00    0.1318481   0.09353011  10.04 -0.0001541599    1.487    0.327
       251  -8.6390    227.5407    159.1566   8.2583712008e+01   4.8485690705e+00    0.2793213    0.2202923 -60.06 0.0009443359    1.788    0.441
       252  -9.8088    105.6594    157.9740   1.0690271833e+02   2.8926836654e+01    0.4528364    0.2721026  74.29  0.001044359    2.133    0.531
       253  -9.8673    250.2042    157.7374   7.8388445851e+01   6.2991176348e-01    0.3218393    0.1746529 -30.09 0.0007942733    1.814    0.449
       254  -8.2385    237.0970    158.8994   8.0854687182e+01   2.9947595030e+00    0.1945757    0.1845226 -41.42 0.0006496818    1.299    0.230
       255  -8.3928    127.9143    159.1051   1.0232765006e+02   2.4841177515e+01    0.2175526    0.1715199  79.45 0.0006995755    1.325    0.245
       256  -8.5591    196.7536    157.9040   8.8023795811e+01   1.1346278760e+01    0.2428938    0.1921185 -63.93 0.0007675491    1.637    0.389
       257  -8.7415    188.0362    157.6784   8.9671846997e+01   1.3196203173e+01    0.2333932    0.1950157 -54.94  0.000690989    1.370    0.270
       258  -9.2613    167.5167    157.2354   9.3694246723e+01   1.7509893846e+01    0.3384831     0.256153 -85.60  0.001420044    1.791    0.442
       259  -8.1160     79.0863    158.5249   1.1266994354e+02   3.2862163242e+01    0.1793707    0.1162479  45.06  0.001023828    1.567    0.362
       260  -8.3995    217.9781    156.4918   8.3745390416e+01   7.1861660739e+00    0.2604896    0.1838313 -49.37 0.0009165826    1.732    0.423
       261  -9.0649    157.4918    155.7817   9.5476416719e+01   1.9811724059e+01    0.3304521    0.2151414 -52.95  0.001413097    1.668    0.400
       262  -9.2987    119.4812    155.1605   1.0345500010e+02   2.7150431710e+01    0.3887007    0.2452575 -77.85  0.001530741    1.984    0.496
       263  -9.5437     81.8077    155.0028   1.1159956252e+02   3.3217091781e+01    0.4535573    0.2483216  79.51  0.001453983    2.506    0.601
       264  -8.7414    144.7709    155.1403   9.8026575274e+01   2.2452040683e+01    0.3524742    0.2314044  74.76  0.000990424    2.074    0.518
       265  -9.2008     49.3432    155.0181   1.1850558280e+02   3.7373085556e+01    0.3337899    0.1797583  82.80  0.001512225    1.977    0.494
       266  -8.5253    212.9992    163.8008   8.6176429222e+01   7.0715444813e+00    0.2227086    0.1949749 -28.32 0.0005947685    1.218    0.179
       267  -9.1165    242.6276    154.8545   7.9049528475e+01   2.4862825923e+00    0.2341811    0.1919908 -55.22 0.0004297578    1.654    0.396
       268  -7.8711    239.7210    153.3326   7.9219935786e+01   3.2735527093e+00     0.181458    0.1405186  62.66  0.000239702    1.671    0.401
       269  -7.9245    204.6356    155.3146   8.5978849073e+01   1.0131896809e+01    0.1833597    0.1326442 -25.22 0.0006298093    1.503    0.335
       270  -9.7167    132.9892    153.1479   1.0017578238e+02   2.5099192305e+01    0.4609542    0.3034461  79.96  0.001349308    2.098    0.523
       271  -8.7796    133.5689    148.2188   9.9126712372e+01   2.5986124726e+01    0.2868024    0.1958506 -39.69  0.001276663    1.707    0.414
       272  -9.7368     67.8596    153.5288   1.1440342293e+02   3.5434208036e+01    0.4154966    0.2308977  81.81  0.001522668    2.156    0.536
       273  -8.0773    232.8115    154.0008   8.0560593586e+01   4.5524225759e+00    0.2075773    0.1531998 -56.19 0.0005386611    1.899    0.474
       274  -8.7839    151.9551    152.9753   9.6090230619e+01   2.1457084879e+01    0.2255713    0.1691294  86.69 0.0007781319    1.697    0.411
       275  -8.8724     19.9704    152.7004   1.2428031505e+02   4.0815101742e+01    0.1514885    0.1131164  77.57 0.0005031636    1.127    0.113
       276  -9.6403     29.4867    150.8432   1.2218384182e+02   4.0321831663e+01    0.3938032    0.1701466  71.60  0.001784265    2.815    0.645
       277  -8.8623      3.1859    150.9296   1.2744210082e+02   4.2552590526e+01    0.2836625    0.1070155 -87.97  0.001496456    2.308    0.567
       278  -9.7241    248.8348    149.4463   7.6842340725e+01   2.0355332096e+00    0.3698954    0.1947284 -31.37 0.0007857583    1.853    0.460
       279  -9.0048    246.9809    143.8923   7.5934947759e+01   3.1859072406e+00    0.2550995    0.1799179 -26.65    0.0004939    1.368    0.269
       280  -9.5437    242.5928    150.0229   7.8015765539e+01   3.1794522268e+00     0.321786    0.2709793  59.49  0.001629887    1.459    0.315
       281  -8.7339    189.4861    150.4404   8.7877917456e+01   1.4142907827e+01    0.2790354    0.2182265 -68.45 0.0007015713    1.671    0.402
       282  -7.9897    182.3996    151.2990   8.9469750075e+01   1.5491175631e+01    0.1853788    0.1363833 -53.09 0.0004631262    1.542    0.352
       283  -8.5314    162.9039    150.9802   9.3394057142e+01   1.9618661412e+01    0.2257538    0.1722084  85.71 0.0006707032    1.701    0.412
       284  -8.8201     98.2367    150.7493   1.0736631035e+02   3.1636848181e+01    0.2741901    0.1809906  87.61  0.000926936    1.764    0.433
       285  -8.2042    237.2311    150.4076   7.9017145905e+01   4.1920986694e+00    0.1727537    0.1296581  53.21  0.000247884    1.478    0.324
       286  -8.1142    212.7790    149.9530   8.3304161759e+01   9.2937962483e+00    0.1897756    0.1775354  -3.28 0.0003851551    1.068    0.064
       287  -8.2451    207.9249    150.0200   8.4227426831e+01   1.0305241275e+01    0.2714725    0.1395144  29.09  0.001034255    2.614    0.617
       288  -9.9219     39.7791    147.9525   1.1973830362e+02   3.9900673362e+01    0.4713719    0.2175535  73.48  0.002001111    2.745    0.636
       289  -8.3963    198.8258    149.1003   8.5765567823e+01   1.2387453223e+01    0.2091473    0.1928998 -87.81 0.0005543166    1.292    0.226
       290 -10.0991     89.2217    146.2751   1.0865815918e+02   3.3985777255e+01    0.6700857    0.3461841 -85.50  0.002650093    3.173    0.685
       291  -8.1567     89.3921    137.6039   1.0719522631e+02   3.5833038744e+01    0.2457493     0.175566   8.28  0.001188623    2.590    0.614
       292  -9.1804    233.4035    147.5592   7.9060580091e+01   5.3864614587e+00     0.265135    0.1610256 -28.32  0.000826358    1.660    0.398
       293  -9.2299     78.2551    147.3823   1.1127786973e+02   3.5342379098e+01    0.2853181    0.1698139  75.14   0.00100964    1.997    0.499
       294 -10.4610     54.5777    143.7662   1.1603570396e+02   3.9160936356e+01    0.8643946    0.4128672  86.98  0.003120756    2.953    0.661
       295  -8.8952     57.5068    135.4798   1.1426240618e+02   4.0610473354e+01     0.222708    0.1198925  37.35   0.00119114    2.097    0.523
       296  -8.2789    223.1564    146.8643   8.0727633674e+01   7.6074687585e+00    0.1947618    0.1932649 -58.84 0.0004168669    1.197    0.164
       297 -10.2630    149.0397    145.1809   9.5159895586e+01   2.3565976380e+01    0.5215394    0.3561623 -86.32  0.001864098    2.188    0.543
       298  -8.9762    150.6069    136.4052   9.2979837604e+01   2.4992029775e+01    0.5156431    0.3414037   2.72  0.001923185    3.294    0.696
       299  -9.9024    139.0465    144.9261   9.7285925360e+01   2.5599446480e+01    0.4811679    0.3044699 -74.92   0.00141257    2.242    0.554
       300  -9.3149    139.4556    138.0456   9.5799536702e+01   2.6918185521e+01    0.4364662    0.3050659   4.12  0.001821199    2.725    0.633
       301 -10.3893    106.5816    144.0966   1.0437958448e+02   3.1684898321e+01    0.7230033    0.4252622 -84.72  0.002135992    2.500    0.600
       302  -9.4110     13.2657    146.1604   1.2507419748e+02   4.2730008495e+01    0.3349693    0.1469009  65.44  0.001379794    2.371    0.578
       303  -9.0886    240.2208    145.2569   7.7376502888e+01   4.3429550299e+00    0.2521861    0.1879808 -33.72 0.0005256024    1.368    0.269
       304  -9.1271    242.7421    143.0187   7.6452731082e+01   4.1608411235e+00    0.3776526    0.1874468 -15.87  0.001460025    2.809    0.644
       305  -8.0097    206.7721    146.5787   8.3695808447e+01   1.1115121541e+01    0.1912364    0.1346635  57.77 0.0005002049    1.563    0.360
       306  -8.1707    175.6107    146.3634   8.9803562924e+01   1.7820549575e+01    0.2104804    0.1695331  87.12 0.0007110491    1.578    0.366
       307  -9.9427    125.2009    142.4651   9.9879233833e+01   2.8739319894e+01    0.6181579      0.37499 -71.73  0.002317753    2.110    0.526
       308 -11.0201     69.6218    141.0048   1.1228239861e+02   3.7891222957e+01    0.6127167    0.4175232 -81.20  0.002700003    1.361    0.265
       309  -7.7080    194.2085    144.1219   8.5580436924e+01   1.4230765377e+01    0.1940883    0.1726093 -89.01 0.0005395158    1.361    0.265
       310  -8.8436    165.5541    143.9690   9.1383268674e+01   2.0395216153e+01    0.2628867    0.2152449  80.34 0.0007746848    1.433    0.302
       311  -9.3659      2.7254    141.8384   1.2686009604e+02   4.4429171821e+01    0.3336275    0.1393058  79.33  0.001586842    2.421    0.587
       312  -8.3722    182.0103    141.9847   8.7548485514e+01   1.7248703242e+01    0.2222366    0.1790159 -85.02 0.0004975856    1.627    0.385
       313  -8.5781    250.2161    140.8576   7.4726557773e+01   2.9762491287e+00    0.1971234    0.1841657 -34.72   0.00074156    1.245    0.196
       314  -9.9851     23.5568    138.3379   1.2219913099e+02   4.3489179345e+01    0.4592566    0.2034416  70.48  0.002118616    2.734    0.634
       315  -7.9362    218.6063    138.7780   7.9746964500e+01   9.8508770611e+00    0.1934855    0.1323521 -42.90 0.0004322844    1.575    0.365
       316  -8.8039    172.3584    138.4954   8.8768578802e+01   1.9980132288e+01     0.302762    0.2385067 -75.87 0.0008437488    1.609    0.379
       317  -8.2558    207.6805    138.1027   8.1629226092e+01   1.2330365966e+01    0.2237657    0.1785469 -55.18 0.0006726388    1.489    0.329
       318 -10.4625     83.2039    133.2817   1.0791041012e+02   3.7697192527e+01    0.6616585    0.3179215 -62.21  0.001298037    1.931    0.482
       319  -8.8103     85.0155    122.8631   1.0561311466e+02   3.9725503518e+01    0.4877865    0.3056806  12.40  0.002060565    3.336    0.700
       320  -8.7231    241.3235    136.8689   7.5312707441e+01   5.3543701491e+00    0.3094047    0.1680913  -5.75  0.001148289    3.077    0.675
       321  -8.5586    162.4779    136.4403   9.0407652901e+01   2.2492807986e+01    0.2446364    0.1917871 -85.24 0.0007953732    1.622    0.384
       322  -9.2159     39.1907    136.3406   1.1854070426e+02   4.2438090410e+01    0.2321777     0.139811  72.15 0.0008330618    1.701    0.412
       323  -8.4369    246.8943    130.3564   7.2896191756e+01   5.1695479160e+00    0.2503864    0.1798191 -42.12 0.0005453423    1.502    0.334
       324  -9.2409    248.5250    135.2491   7.3745067581e+01   4.1212048454e+00    0.3271633    0.2240109 -22.88  0.001050583    1.406    0.289
       325  -9.1865    250.7257    130.1714   7.2228646111e+01   4.4112423793e+00    0.4464592    0.1235153 -31.49  0.001459192    3.493    0.714
       326  -8.3117    187.7388    135.7531   8.4992988872e+01   1.7124674787e+01    0.2535324    0.1792006 -35.92 0.0005394732    1.474    0.322
       327  -8.5719    179.6330    134.0254   8.6251561201e+01   1.9228082320e+01    0.3014975    0.2166944 -62.96 0.0007868902    1.753    0.430
       328  -8.1499    237.5099    133.5405   7.5201694958e+01   6.6464278232e+00    0.2397937     0.122033 -42.64 0.0008406503    2.143    0.533
       329  -8.0976    231.4680    133.9854   7.6348331801e+01   7.8548086875e+00    0.2126658     0.135759 -30.92 0.0004104421    1.545    0.353
       330  -9.1061    112.8960    133.3401   1.0092403633e+02   3.2896911854e+01    0.3738144    0.2390012  74.54  0.001179291    2.115    0.527
       331  -9.2422    142.8654    131.6545   9.3673482044e+01   2.7540453623e+01    0.3632957    0.2664661 -66.87 0.0009015893    1.543    0.352
       332 -10.4917    132.5879    130.3341   9.5730425052e+01   2.9865622535e+01    0.8027721    0.4631349 -49.69  0.002608834    1.733    0.423
       333  -9.7624    130.8105    118.6758   9.3553610002e+01   3.2663809399e+01    0.5234718    0.3533952  88.81   0.00183832    2.281    0.562
       334 -10.7434    133.5248    109.6440   9.0749113957e+01   3.4012533279e+01    0.7332846    0.3404338 -45.18  0.002337098    2.118    0.528
       335 -10.4223     98.1497    130.1819   1.0380103158e+02   3.6077713024e+01    0.6156476    0.3028622 -60.47  0.001859081    1.988    0.497
       336  -8.9235     99.2953    120.7873   1.0167902772e+02   3.7947300474e+01    0.4785063     0.313241  -0.54  0.001799292    3.930    0.746
       337 -10.2266     73.4164    129.1397   1.0954555954e+02   3.9982685353e+01    0.4571952    0.2569947 -78.89  0.001475348    1.995    0.499
       338 -10.1503     12.9071    129.4375   1.2363750950e+02   4.6243913940e+01    0.4313749    0.1979539  78.86  0.001806953    2.401    0.584
       339  -8.0567    220.7513    130.0393   7.7339050701e+01   1.0796369042e+01    0.1851792    0.1212383 -33.46 0.0004949579    1.523    0.343
       340  -8.6263    197.4879    137.6466   8.3488644680e+01   1.4641760301e+01    0.2677262    0.2318931 -64.07 0.0008578505    1.366    0.268
       341  -8.1892    192.7037    130.2035   8.2714183365e+01   1.7015657662e+01    0.2229698    0.1805054 -52.26 0.0004317811    1.362    0.266
       342  -9.0631    168.4049    129.5090   8.7572054845e+01   2.2551160941e+01    0.2958911    0.2383721 -75.93 0.0005462411    1.516    0.341
       343  -9.5661    152.8680    128.8613   9.0811718276e+01   2.6029963447e+01    0.4550572    0.2840417 -63.14 0.0009028752    2.036    0.509
       344  -8.0574      1.7680    130.5545   1.2615285735e+02   4.6817186047e+01    0.1354693   0.08392714  55.17 0.0009086349    1.659    0.397
       345  -7.9460    211.4723    129.2315   7.8858291322e+01   1.2981804971e+01    0.2027107    0.1355508 -47.79 0.0008921701    1.676    0.403
       346 -10.6874     45.0040    123.7058   1.1554591911e+02   4.4586617885e+01    0.9860705    0.4608274  80.14  0.003887362    3.807    0.737
       347 -10.5277     59.8778    125.0825   1.1215754316e+02   4.2609297134e+01    0.6375622    0.3385074  79.61  0.002646343    2.858    0.650
       348  -9.1959     58.4646    115.8733   1.1101031153e+02   4.4816967619e+01    0.4405742    0.2075217 -43.49  0.001820491    2.649    0.623
       349 -10.0938    118.0794    125.0381   9.8001851159e+01   3.3744924938e+01    0.5830941    0.3963819 -81.57  0.001484601    1.927    0.481
       350  -7.8527    228.3437    125.6571   7.4950996276e+01   9.8344709782e+00    0.1464471    0.1153164 -70.30 0.0007047076    1.786    0.440
       351  -9.0091    179.0576    124.9747   8.4256286914e+01   2.1042567923e+01    0.3152775    0.2491952  52.92 0.0008102465    1.258    0.205
       352 -10.2235     28.2643    122.1623   1.1933348114e+02   4.6535951274e+01    0.7179489    0.3075033  81.46  0.002885861    3.871    0.742
       353  -8.7137    234.2674    123.9782   7.3525600600e+01   8.8073883087e+00     0.274753    0.1419273  21.60 0.0009060141    3.624    0.724
       354  -7.9806    188.4607    124.2450   8.2150051001e+01   1.9047853284e+01    0.2034581    0.1418957 -50.52 0.0006586408    1.578    0.366
       355  -9.3767    158.6851    121.5473   8.7817975433e+01   2.6237461146e+01    0.3792825    0.2566643 -69.37  0.001173147    2.027    0.507
       356  -8.0016    203.1668    122.1723   7.8744931899e+01   1.6060833391e+01    0.2047973    0.1794581 -70.58 0.0005041957    1.362    0.266
       357  -8.4435    172.0457    121.6205   8.4928671541e+01   2.3256624408e+01    0.2460985    0.2029837 -56.44 0.0004033876    1.304    0.233
       358  -9.6967     71.0050    119.8833   1.0854972145e+02   4.2353970595e+01     0.374652    0.2140028 -79.24  0.001142168    2.017    0.504
       359 -10.1239    141.5541    117.8383   9.0827981574e+01   3.0652110945e+01    0.6944286    0.3220677 -52.98  0.001118083    2.359    0.576
       360  -9.6303      2.9884    117.2358   1.2468248666e+02   4.9516012934e+01    0.4472856    0.1850278  76.94  0.002161289    3.022    0.669
       361  -7.5797    231.5215    117.5063   7.2445885652e+01   1.0424792626e+01    0.1439947    0.1374812 -15.82 4.786994e-05    1.065    0.061
       362  -8.3098    193.0090    115.4682   7.9081538856e+01   1.9589467175e+01    0.2784574    0.2036774 -52.60 0.0006714919    1.528    0.345
       363  -8.1073    185.5467    116.0750   8.0740552145e+01   2.1212219025e+01    0.2270162    0.1488087 -39.06 0.0004451026    1.541    0.351
       364 -10.3712    109.3029    112.7411   9.7455266812e+01   3.7990779189e+01    0.8575844    0.3867067 -51.71  0.002164734    2.104    0.525
       365  -8.4547    167.0937    114.6862   8.4292933821e+01   2.5711328805e+01    0.2143607    0.1936583  47.06 0.0006170265    1.095    0.087
       366  -7.9988    153.2782    115.6721   8.7609540180e+01   2.8591865945e+01    0.1507381    0.1181452 -80.62 0.0003854406    1.595    0.373
       367 -10.3044     92.6849    112.2719   1.0156934957e+02   4.0889878492e+01    0.6820605    0.3489909 -70.48  0.001363707    2.649    0.623
       368  -9.1675     93.3003    105.3340   9.9892611149e+01   4.2318825542e+01    0.2992651    0.2345943  -9.87  0.001312579    1.835    0.455
       369  -9.9468     78.7777    112.3502   1.0516384467e+02   4.2961201663e+01    0.5164237    0.3228778  89.66  0.001780381    2.211    0.548
       370  -8.7843     78.1697    105.7908   1.0398975673e+02   4.4502478736e+01    0.3227897    0.2283778  -8.37   0.00157363    2.444    0.591
       371 -10.3241    122.1082    112.5077   9.4220216354e+01   3.5671927603e+01    0.4881856    0.3113043 -59.32   0.00114243    1.644    0.392
       372 -10.8667    108.8781     98.8091   9.4249029793e+01   4.1076712824e+01    0.8440598    0.4604745  65.79  0.001239602    3.248    0.692
       373  -9.0618    107.6650     92.6753   9.3000421236e+01   4.2605017281e+01    0.5468686    0.2892484  27.20  0.002078057    2.990    0.666
       374  -8.5010    174.8335    112.2395   8.2010815561e+01   2.4409228125e+01     0.263222    0.2031942 -53.28 0.0006565158    1.391    0.281
       375  -9.7018     14.1896    111.4484   1.2141832812e+02   4.9975848605e+01    0.3381703    0.1649603  84.07  0.001247417    2.289    0.563
       376 -10.7867    248.9397    107.8480   6.7245871031e+01   8.0884909406e+00    0.6503858    0.3465816 -26.68  0.002848467    1.833    0.454
       377  -8.7039    159.1663    111.7046   8.5295937663e+01   2.8081432016e+01    0.2577131    0.2014347 -54.40 0.0004958689    1.342    0.255
       378 -10.3714     66.4830    109.9464   1.0789238082e+02   4.5149892438e+01    0.6019015    0.3197005 -63.83  0.002459612    1.673    0.402
       379  -9.1316     43.3453    109.3687   1.1380743970e+02   4.7913698893e+01    0.2428979    0.1632089  20.20  0.001439766    2.089    0.521
       380  -8.1800    189.4428    108.1079   7.7926486644e+01   2.1755830356e+01    0.2295527    0.1491733 -37.64 0.0005099567    1.540    0.351
       381  -9.5432    140.1038    104.9906   8.7998775829e+01   3.3604148973e+01    0.3581674    0.2795608 -80.23 0.0008323604    1.595    0.373
       382 -10.6890     45.6517    102.3773   1.1203633813e+02   4.9222378747e+01    0.7095301    0.3798079  75.07  0.003154616    3.051    0.672
       383  -9.5555     45.3621     92.8779   1.1038585058e+02   5.1343912788e+01    0.3864483    0.2408597  -4.22  0.001937712    2.951    0.661
       384 -10.6594     22.9212    102.9158   1.1812687413e+02   5.1157876959e+01    0.6207527    0.3097665  81.01  0.002644847    2.718    0.632
       385  -8.9897    165.4839    103.7022   8.1827496925e+01   2.8207458289e+01    0.3961915    0.3001112  87.01  0.001783353    1.782    0.439
       386  -9.4209    150.5388    103.1704   8.5068323667e+01   3.1704675413e+01    0.4108626    0.2704313 -61.45  0.001055274    1.866    0.464
       387 -10.1928    128.3902    102.1208   9.0115103838e+01   3.6629647411e+01    0.4033688    0.2809508 -57.13 0.0009159378    1.492    0.330
       388  -8.7475      6.7877    103.0236   1.2225772056e+02   5.2280483561e+01    0.2121651    0.1221905 -89.64     0.001223    1.560    0.359
       389  -7.9477    175.4426    102.2727   7.9294656617e+01   2.6148439777e+01    0.2120793    0.1444723 -49.37 0.0004745406    1.555    0.357
       390  -8.3054    159.8168    101.1357   8.2409256378e+01   3.0011600187e+01    0.2332716    0.2036214 -69.03 0.0005297395    1.259    0.206
       391  -9.4630     81.9808     99.8573   1.0168302634e+02   4.5263470891e+01    0.3787309    0.2352522 -74.60 0.0009934914    1.957    0.489
       392 -10.2586     63.9444     96.4484   1.0589792752e+02   4.8461459114e+01    0.6088315    0.3366235 -74.15  0.002057567    2.131    0.531
       393  -9.3459     94.9228     97.0363   9.7520805226e+01   4.3868463179e+01    0.3079918    0.2341642 -76.18 0.0007120194    1.483    0.326
       394  -9.4810    220.4856     96.9934   6.9207774327e+01   1.6267832407e+01    0.2663394      0.21852  53.32 -0.0001108783    1.257    0.204
       395  -8.5874    151.3718     95.6966   8.2873771164e+01   3.3002692625e+01    0.3950734    0.2601695  -1.98  0.001470226    2.775    0.640
       396  -8.3140    226.2315     94.2176   6.7508007551e+01   1.5353964988e+01     0.351768    0.2012357  86.35  0.001089133    4.284    0.767
       397  -7.9433    176.5496     93.7250   7.6749841358e+01   2.7474014369e+01    0.2134721    0.1435798 -49.38  0.000924425    1.584    0.369
       398  -8.2562    164.6874     94.1298   7.9421379818e+01   3.0228850584e+01    0.2472973      0.18688 -56.03 0.0006399062    1.455    0.313
       399  -9.6607    139.0597     91.6183   8.4682782347e+01   3.6544518165e+01    0.5921806    0.3090123 -45.74  0.001371903    1.889    0.471
       400 -10.5515    123.7308     91.4804   8.8477897163e+01   3.9781301437e+01    0.6008794    0.4475115  36.74  0.001687828    1.459    0.315
       401  -8.2132    157.8227     91.7997   8.0313556611e+01   3.2281881564e+01    0.2092908    0.1823145 -78.50 0.0003562091    1.312    0.238
       402  -9.7200     34.8566     89.8620   1.1279758487e+02   5.3003877307e+01    0.4316891    0.2231282 -82.48  0.001695182    2.361    0.577
       403  -9.1002     23.0150     90.3195   1.1620891001e+02   5.3881452402e+01    0.2361612    0.2092074  12.78  0.001398047    1.511    0.338
       404  -8.1280    150.9857     89.3057   8.1188103411e+01   3.4340631090e+01    0.2091172    0.2057419 -79.28  0.000437202    1.039    0.038
       405 -10.2768     86.4262     86.0318   9.7123726240e+01   4.7599612402e+01    0.5940329    0.3452997 -60.67  0.001676221    1.782    0.439
       406  -8.0040    164.3403     87.2288   7.7564071721e+01   3.1612468557e+01    0.2199734    0.1386069 -45.82 0.0004212971    1.621    0.383
       407 -10.0485     48.5276     83.9103   1.0766017027e+02   5.2976397340e+01    0.5366448    0.3249389 -82.06  0.001947581    2.091    0.522
       408  -9.4854      5.2615     92.3936   1.2134738392e+02   5.4635787070e+01    0.2900837     0.155279  69.61   0.00109375    2.291    0.563
       409 -10.1475    105.1187     82.0135   9.0801302602e+01   4.5303010883e+01    0.8205032    0.3889763 -44.81  0.002110532    1.962    0.490
       410  -8.3030    157.8717     84.1361   7.8124049044e+01   3.3727884732e+01    0.2301261    0.2070775 -67.10 0.0004317117    1.205    0.170
       411  -9.0357    140.8671     82.7796   8.1727043850e+01   3.7892848517e+01    0.4266955     0.197431 -47.20  0.001122703    2.238    0.553
       412  -7.6490    179.2607     85.6555   7.3931292476e+01   2.8280166971e+01    0.1575984    0.1196937 -64.54 0.0004102463    1.596    0.374
       413  -9.1798    119.5863     80.2244   8.6382115138e+01   4.2906714695e+01    0.4783054    0.2462315 -50.32  0.001607637    1.997    0.499
       414  -9.5777     24.6074     80.4757   1.1406982688e+02   5.5881959756e+01    0.4164504    0.2095856 -83.63  0.001432729    2.492    0.599
       415  -9.4509      9.8444     81.0878   1.1848632329e+02   5.6762955559e+01    0.2665823     0.158345  69.08 0.0009770398    2.144    0.534
       416  -8.5339    150.0629     80.5226   7.8867715779e+01   3.6235611848e+01    0.3051892    0.2059038 -55.04 0.0009410608    1.685    0.407
       417  -8.9440     74.4550     80.2766   9.9110349512e+01   5.0595395179e+01    0.3254898    0.2033521 -71.18  0.001109446    2.010    0.503
       418  -8.6779    166.5046     79.5038   7.4856478207e+01   3.2512320887e+01    0.3534598    0.2027995 -51.46  0.001391007    2.012    0.503
       419  -8.9569     66.3342     87.2219   1.0318627942e+02   5.0183566356e+01    0.5214199    0.2524217  18.55   0.00198345    4.164    0.760
       420  -7.9563    184.3215     78.2156   7.0778915939e+01   2.8331976667e+01    0.2222717    0.1361426 -41.87 0.0004775459    1.634    0.388
       421 -10.0381     63.6178     74.3286   1.0084133528e+02   5.3297858652e+01    0.6307074    0.2800303 -65.40  0.002460406    3.048    0.672
       422  -9.2929    128.1552     75.5058   8.2745288937e+01   4.2070706378e+01    0.3960485     0.261238 -59.17 0.0009219192    1.849    0.459
       423  -7.9716    157.1849     76.2452   7.5955044969e+01   3.5353496629e+01    0.2156246    0.1797952 -66.00 0.0005327938    1.376    0.273
       424  -8.5698    140.3584     75.4536   7.9671934869e+01   3.9411009451e+01    0.2553201    0.1728609 -55.97  0.000627033    1.705    0.413
       425  -9.7537     82.3064     72.5534   9.4679151202e+01   5.1071945550e+01    0.4575583    0.2645445 -62.39  0.001128607    2.063    0.515
       426  -8.1336     82.7906     65.8161   9.2558830795e+01   5.2370534830e+01     0.232094    0.1437312 -25.37 0.0008282646    2.002    0.501
       427  -8.3909    163.4178     73.6429   7.3786654859e+01   3.4316837094e+01    0.2929597    0.1410369 -41.52 0.0009822992    2.065    0.516
       428  -9.1924    115.6446     72.7442   8.5204829057e+01   4.5176957623e+01      0.40041    0.1915862 -45.28  0.001296193    2.006    0.501
       429  -8.2812    151.4862     73.5026   7.6430739657e+01   3.7207440012e+01     0.152141    0.1492482 -45.58 -5.419513e-05    1.038    0.037
       430  -8.2476     42.6101     72.7562   1.0698490714e+02   5.5974282000e+01    0.2218047    0.1353655 -66.24 0.0006908659    1.508    0.337
       431  -7.7855    175.4745     72.5568   7.0906262739e+01   3.1523863596e+01    0.1526188    0.1520334   5.53 0.0001418194    1.013    0.013
       432  -9.0576    105.9146     71.7495   8.7582432939e+01   4.7240826980e+01    0.2694488    0.1976025 -53.43 0.0006132527    1.389    0.280
       433  -9.5444     51.4545     69.7730   1.0347507116e+02   5.5689838784e+01    0.4359303    0.2228673 -69.66  0.001355566    2.500    0.600
       434  -8.7671     28.3715     71.0714   1.1108680240e+02   5.7594718125e+01    0.2443937    0.1449643 -36.65  0.001221842    1.801    0.445
       435  -8.8820     16.6663     70.1772   1.1457736314e+02   5.8638937779e+01    0.2403725    0.1570005 -88.65 0.0009609589    1.719    0.418
       436  -7.8455    156.7926     69.9814   7.4140869133e+01   3.6575596429e+01     0.206515    0.1223255 -34.92 0.0004688852    1.676    0.403
       437  -8.7342    147.0494     68.1861   7.5825850602e+01   3.9213647983e+01    0.3243588    0.2087258 -41.69 0.0005992227    1.540    0.351
       438  -9.1262    138.7222     65.9814   7.7130178690e+01   4.1532938608e+01    0.4498367    0.1820437 -43.94   0.00141321    2.522    0.603
       439  -9.0930    121.6541     66.1631   8.1541225512e+01   4.5219654645e+01    0.3399774     0.241415 -65.27 0.0007628757    1.886    0.470
       440  -8.9705    122.0099     61.0488   7.9792445760e+01   4.6090217404e+01    0.2731852    0.2301764 -18.33 0.0003224924    1.201    0.167
       441  -9.3876     95.0520     70.9903   9.0457563252e+01   4.9330217718e+01    0.3771328    0.2415299 -63.41 0.0009760618    1.976    0.494
       442  -8.8735     64.3152     64.0078   9.7813500193e+01   5.5356564388e+01    0.5063043    0.2763752 -20.48  0.002034904    3.400    0.706
       443  -8.6323     37.2312     64.3534   1.0672237435e+02   5.8251445494e+01    0.2142152    0.1667501  81.61 0.0009177393    1.674    0.403
       444  -9.0138    110.2934     63.5254   8.3784508158e+01   4.8004501318e+01    0.3152453    0.2292694 -55.83  0.000847272    1.540    0.350
       445  -7.3756    187.3314     63.6703   6.5924365226e+01   2.9993927135e+01     0.163133    0.1191102 -67.76 0.0004910534    1.718    0.418
       446  -8.1349    158.2584     61.9443   7.1305642393e+01   3.7612424970e+01    0.2125304    0.1954381 -32.58 0.0003810442    1.082    0.075
       447  -9.5962     97.7664     60.3475   8.6343562974e+01   5.0944715528e+01    0.3936759    0.2825146 -35.25  0.001472703    1.296    0.228
       448  -9.8265     73.2390     59.2724   9.3541458355e+01   5.5097485367e+01    0.4925325    0.2151691 -54.07  0.001381387    2.384    0.581
       449  -7.5643    164.2473     60.0009   6.9399691671e+01   3.6454361569e+01    0.1951183    0.1303414 -32.34 0.0004426367    1.495    0.331
       450  -8.1000     88.8673     59.7735   8.8821001388e+01   5.2586642553e+01    0.1795375    0.1588167 -66.48 0.0005790586    1.313    0.238
       451  -8.1193    147.0000     59.0519   7.2922767955e+01   4.0823887222e+01    0.2469243   0.08533107 -34.59 0.0004657393    2.860    0.650
       452  -9.8972     23.4854     56.5773   1.0946243911e+02   6.0991568158e+01    0.4190477    0.2421015 -86.59  0.002023966    2.742    0.635
       453  -8.6607    130.7871     58.0957   7.6543274220e+01   4.4719318001e+01    0.2250919    0.1956041 -56.59 0.0004761658    1.273    0.214
       454  -9.3087      7.4733     57.1157   1.1501281980e+02   6.1910487075e+01    0.2636974    0.1614978 -85.69  0.001040088    1.867    0.464
       455  -9.5019    119.1869     55.3963   7.8659378718e+01   4.7695523764e+01    0.5119686    0.2426955 -44.19  0.001596153    2.137    0.532
       456  -9.5236     54.3674     55.7196   9.8669046144e+01   5.8247400521e+01    0.3382267    0.1972884 -61.77  0.001284513    1.869    0.465
       457  -8.5281    139.7423     56.1436   7.3683646541e+01   4.3022537015e+01    0.2429163    0.1771276 -47.42 0.0005807407    1.455    0.313
       458  -8.6986     44.0801     55.5770   1.0212940332e+02   5.9394878639e+01    0.2292892     0.150634 -64.69 0.0007736699    1.578    0.366
       459  -8.5992    105.8118     53.3284   8.1658824175e+01   5.0750554707e+01    0.2430293    0.1820178 -48.95 0.0006243481    1.405    0.288
       460  -9.5000     92.4394     50.5088   8.4634151740e+01   5.3712790892e+01    0.4340625     0.238991 -51.89  0.001262669    2.093    0.522
       461  -8.7068     92.8075     42.8683   8.1797603719e+01   5.4992052321e+01    0.3747326     0.186405 -26.41  0.001558807    2.310    0.567
       462  -8.3299    149.5343     48.9589   6.9007615628e+01   4.1867971030e+01    0.2214276    0.1476915 -28.51 0.0004144447    1.511    0.338
       463  -8.3832    144.5543     49.0109   7.0155621570e+01   4.3060751168e+01    0.2252095     0.144578 -32.58 0.0004378785    1.540    0.351
       464  -8.5704    129.9730     49.2884   7.3761452170e+01   4.6397474354e+01    0.2047304    0.1907977  37.12 0.0004394796    1.089    0.082
       465  -8.7706    120.8319     47.4679   7.5478959939e+01   4.8703226506e+01    0.2515427    0.1925103 -31.21 0.0005841706    1.256    0.204
       466  -7.6902    218.2840     47.6667   5.6132777408e+01   2.4404818093e+01    0.1559311    0.1076176 -59.57 0.0005109488    1.618    0.382
       467  -8.7860    112.0428     46.6827   7.7576226787e+01   5.0670666170e+01    0.2697717    0.1870894 -48.48  0.000681049    1.585    0.369
       468  -9.0386     81.9559     46.5628   8.6528181308e+01   5.6182462644e+01    0.2474964    0.1771279 -46.23 0.0006092694    1.367    0.269
       469  -8.4764     44.9963     44.8124   9.8591446407e+01   6.1420887496e+01    0.2091406    0.1466195 -48.54 0.0004821563    1.200    0.167
       470  -8.5229     16.7329     44.8396   1.0895461459e+02   6.3828270625e+01    0.2007269    0.1322687 -71.89 0.0006918104    1.593    0.372
       471  -8.8469    132.7877     43.5684   7.1064029984e+01   4.6674986313e+01    0.2875749     0.225271 -49.47 0.0006806304    1.420    0.296
       472  -9.0295     58.2817     42.8003   9.3181270896e+01   6.0264116059e+01    0.2834184    0.1823189 -62.01  0.001135871    2.041    0.510
       473  -9.3716     69.7391     41.8535   8.8881936022e+01   5.8890003923e+01    0.3219333    0.2404639 -66.83 0.0009947213    1.940    0.485
       474  -9.4210      5.2407     42.1062   1.1252732247e+02   6.5048409599e+01    0.2951161    0.1643882 -78.60  0.001446631    2.126    0.530
       475  -9.0124    105.8717     41.3097   7.7361323638e+01   5.2796546571e+01    0.3346943    0.1852348 -41.39 0.0008107123    1.792    0.442
       476  -7.6099    140.4455     41.4909   6.8513678082e+01   4.5203866991e+01    0.1470168    0.1406106   5.62 6.872607e-05    1.011    0.010
       477  -8.5694     36.8128     40.9237   1.0035976059e+02   6.2982805685e+01    0.2055375    0.1477497 -63.55 0.0007016218    1.543    0.352
       478  -8.6708     95.5189     38.0784   7.9191519379e+01   5.5299004669e+01    0.2673733    0.2052883 -52.07 0.0008416509    1.551    0.355
       479  -8.2412     80.5342     36.5487   8.3317153620e+01   5.8153924050e+01    0.2301825    0.1130313 -47.36 0.0006744968    2.218    0.549
       480  -7.7806    133.5093     36.0215   6.8191795852e+01   4.7642434541e+01    0.2072031    0.1133369 -51.17 0.0007400587    2.439    0.590
       481  -8.1998    125.7248     35.9086   7.0047572312e+01   4.9438164573e+01    0.2001864    0.1751077 -21.05 0.0004925305    1.111    0.100
       482  -9.2167     26.1785     35.3782   1.0266035928e+02   6.4966363588e+01    0.2539634    0.1690293 -65.51 0.0008519369    1.693    0.409
       483  -8.6959    111.8874     34.8132   7.3251283206e+01   5.2595421957e+01    0.2393144    0.1992517 -42.11 0.0005740057    1.295    0.228
       484  -8.0029     88.7458     34.6116   7.9946900521e+01   5.7079678718e+01    0.1673856    0.1293817  51.52 0.0004723494    1.557    0.358
       485  -9.0317     48.3725     33.3893   9.3451026318e+01   6.3165802133e+01     0.254954    0.1796246 -53.81 0.0008915004    1.527    0.345
       486  -8.3020    119.2048     33.1554   7.0680364407e+01   5.1282240106e+01    0.2378624     0.188401 -81.64 0.0006204395    1.854    0.461
       487  -8.5680     60.7151     32.5646   8.8598055323e+01   6.1773512492e+01    0.2313561    0.1474199 -39.50 0.0005345413    1.353    0.261
       488  -7.6494    139.4740     31.9735   6.5349940147e+01   4.6803807026e+01    0.2064956      0.11209 -50.34 0.0008081659    2.405    0.584
       489  -8.7439     72.0597     31.4552   8.4180548125e+01   6.0333280541e+01    0.2302896    0.1645329 -47.66  0.000660165    1.540    0.351
       490  -8.8045     12.9164     30.3523   1.0638098943e+02   6.6869511997e+01    0.2697636    0.1348427 -62.10  0.001174879    1.868    0.465
       491  -8.5284    101.3366     29.4491   7.4134368814e+01   5.5526751087e+01    0.2185786    0.1529626 -46.57 0.0006746557    1.656    0.396
       492  -8.8089     81.5114     27.6129   7.9483349990e+01   5.9424717870e+01    0.2556989    0.1918803 -58.71 0.0008709446    1.937    0.484
       493  -8.8297      3.5213     27.6728   1.0943628608e+02   6.7914622947e+01    0.2011303    0.1489799 -65.71 0.0008940808    1.353    0.261
       494  -7.9666    110.0000     27.0388   7.0760969182e+01   5.4115552076e+01    0.2277249   0.07531399 -30.58 0.0008001737    2.927    0.658
       495  -8.9949     91.7616     26.2619   7.5699057674e+01   5.7816095907e+01    0.3455315    0.1711893 -40.39  0.001232924    2.056    0.514
       496  -7.8384    145.6906     26.2819   6.1952723808e+01   4.6044621382e+01     0.141781    0.1131721 -67.65 0.0002505767    1.565    0.361
       497  -8.1162     34.9335     23.7378   9.5094646588e+01   6.6286982102e+01    0.1603861    0.1353571  68.81  0.001066672    2.036    0.509
       498  -8.0224    104.3393     22.7428   7.0597769697e+01   5.5868929384e+01    0.1244675    0.1091028 -73.80 0.0003056384    1.580    0.367
       499  -8.5165    191.4778    249.5044   1.0395100671e+02  -5.5577993351e-01    0.1627963    0.1218485  62.77 0.0009436189    1.575    0.365
       500  -8.9433     48.2786     21.7978   8.8989889793e+01   6.5151530508e+01     0.216409    0.1837943 -43.97 0.0006640124    1.363    0.266
       501  -8.6996    120.5279     21.0416   6.5685582873e+01   5.2630831967e+01    0.2111871    0.1315083 -27.96  0.001020711    1.583    0.368
       502  -9.0570    175.8474    247.9658   1.0627585639e+02   2.1332262675e+00    0.2814612    0.1880325  68.14  0.001319156    1.930    0.482
       503  -8.2271     19.7424     21.5933   1.0063738938e+02   6.7988723040e+01    0.1266525    0.1030666  30.83 0.0004743948    1.642    0.391
       504  -8.1034     87.8037     17.7618   7.3366376203e+01   5.9730425119e+01    0.1662303    0.1478887 -36.87 0.0003939415    1.318    0.241
       505  -8.5854    156.4896    248.3599   1.0944297036e+02   5.1805537234e+00    0.2769669    0.1369509  63.74  0.001109427    2.815    0.645
       506  -7.8338    112.6542     16.8045   6.5967136933e+01   5.4882789120e+01    0.1865702    0.1173232 -33.85 0.0002734666    1.622    0.384
       507  -8.3642    113.0744    248.7010   1.1638913197e+02   1.1795960707e+01     0.174202    0.1223237  81.59 0.0008755488    1.449    0.310
       508  -9.1632    103.9373    247.0669   1.1767523854e+02   1.3358021830e+01    0.3335609    0.1677121 -80.86  0.001900268    2.711    0.631
       509  -8.9385    242.8997    246.5462   9.5395433111e+01  -8.3003888960e+00    0.2504111    0.1458677 -21.37  0.001405317    2.029    0.507
       510  -8.5244    218.5083    247.6636   9.9390855590e+01  -4.6521397710e+00    0.1849757    0.1094642 -32.53  0.001209334    2.161    0.537
       511  -8.0719      7.5059     15.5388   1.0383562479e+02   6.9893982628e+01    0.1088127    0.0797742 -41.09 5.699842e-05    1.041    0.039
       512  -8.6806    132.3604    247.9157   1.1326419952e+02   9.0112341388e+00    0.2456937    0.1309248  61.17 0.0009807067    1.781    0.439
       513  -8.6934    232.6338    247.2614   9.7103415380e+01  -6.8065934831e+00    0.1835298    0.1215081  34.77 0.0006236027    1.113    0.102
       514 -10.0780    224.0223    244.3239   9.8047890812e+01  -5.1786483384e+00    0.3709319    0.2227687 -42.73  0.002165424    2.388    0.581
       515  -9.2940    211.0245    246.4690   1.0042056689e+02  -3.3452788520e+00    0.1697564    0.1651012 -24.38 0.0007796648    1.431    0.301
       516  -8.9433    147.1255    246.2411   1.1071956302e+02   6.9404001256e+00    0.2438944    0.1330869  63.35  0.001405053    2.024    0.506
       517  -8.5963     67.8853    245.7480   1.2309661023e+02   1.8439877715e+01    0.2702988    0.1211389  82.09  0.001529159    2.678    0.627
       518  -8.8996    120.2624    245.4661   1.1495379087e+02   1.1192474771e+01    0.2914281    0.1569947  71.15  0.001678337    2.233    0.552
