#   1 NUMBER                 Running object number                                     
#   2 MAG_AUTO               Kron-like elliptical aperture magnitude                    [mag]
#   3 X_IMAGE                Object position along x                                    [pixel]
#   4 Y_IMAGE                Object position along y                                    [pixel]
#   5 X_WORLD                Barycenter position along world x axis                     [deg]
#   6 Y_WORLD                Barycenter position along world y axis                     [deg]
#   7 A_WORLD                Profile RMS along major axis (world units)                 [deg]
#   8 B_WORLD                Profile RMS along minor axis (world units)                 [deg]
#   9 THETA_WORLD            Position angle (CCW/world-x)                               [deg]
#  10 FWHM_WORLD             FWHM assuming a gaussian core                              [deg]
#  11 ELONGATION             A_IMAGE/B_IMAGE                                           
#  12 ELLIPTICITY            1 - B_IMAGE/A_IMAGE                                       
         1  -9.7613    211.2667     18.7120   6.0239933614e+00   3.0882605009e+01    0.3146859    0.2678011 -43.19 0.0006605402    1.354    0.261
         2  -8.3240     96.7538      4.8313   1.9736904002e+01   5.8656367397e+01    0.1971938    0.1799583 -89.84 0.0006553209    1.321    0.243
         3  -7.5597    122.2733      4.6769   1.4279661785e+01   5.3001570232e+01    0.1196175   0.09073052 -73.28 0.0003235023    1.576    0.365
         4  -8.1015    112.9475      3.1831   1.5585773195e+01   5.5242614785e+01    0.1792952    0.1713941  21.18 0.0004089372    1.194    0.162
         5  -7.0237    138.7411    198.6918   6.0577900200e+01   1.3017738692e+01    0.1377864    0.1114136 -11.64 0.0001673903    1.523    0.343
         6  -9.6945     75.3727    248.9874   8.1229564618e+01   1.2598577824e+01    0.3254733    0.1990064 -61.57     0.001532    1.857    0.461
         7 -17.1984     18.9635    233.8326   9.1330316097e+01   2.2536239363e+01     2.243749     1.880536  63.41  0.006680794    1.167    0.143
         8  -6.9329    142.0170    197.0504   5.9531451887e+01   1.2787075035e+01    0.1629316    0.1616295  22.24 0.0002918052    1.061    0.057
         9  -7.5193    116.8805    195.1273   6.5208995712e+01   1.7611982430e+01    0.2779495     0.163689  45.77 0.0008969512    1.607    0.378
        10  -8.7730      8.7988    193.7004   9.0851235771e+01   3.2236293363e+01    0.2599976    0.2288595 -17.10  0.001799735    1.635    0.389
        11  -7.3652    119.4090    236.4549   7.0550174737e+01   8.5271622483e+00    0.1304896    0.1146678  41.95 8.220543e-05    1.037    0.036
        12  -9.4977     59.1226    189.5415   7.8672526187e+01   2.7750480113e+01     0.400545    0.2647428 -42.01  0.001261261    1.934    0.483
        13  -8.7676    102.0186    215.4815   7.1708582407e+01   1.5557116723e+01    0.2142712    0.1241987  37.89   0.00102589    1.571    0.363
        14  -7.9552    199.1607    185.3503   4.4789285018e+01   4.9059213223e+00    0.2251524    0.1717379 -30.23 0.0003095972    1.283    0.221
        15  -8.9256     53.7980    186.0435   7.9575755036e+01   2.9268005188e+01    0.2055957    0.1913741  41.36 0.0002599423    1.209    0.173
        16  -9.2858     68.3891    178.8259   7.4962124838e+01   2.9089638587e+01    0.3457397    0.2034377  65.10  0.001548314    1.980    0.495
        17  -8.1783     16.4840    176.7760   8.7774589310e+01   3.5487023506e+01    0.1992302    0.1583179  41.02 0.0005005762    1.359    0.264
        18  -8.5230     73.2934    175.9480   7.3281288398e+01   2.9100098752e+01     0.207888    0.1778004 -72.43   0.00116223    1.130    0.115
        19  -6.5675    100.7258    175.7690   6.6086537190e+01   2.4866995847e+01     0.132279    0.1148641  -7.89 0.0006741839    1.427    0.299
        20  -9.1251     43.9593    174.2012   8.0671466923e+01   3.3317519927e+01    0.2616859    0.1780863 -68.22 0.0007332113    1.348    0.258
        21  -9.8489    109.9753    203.7798   6.8202742704e+01   1.6836950235e+01    0.3278295    0.2321397 -57.33  0.001684252    1.503    0.335
        22  -7.5827     30.3016    170.2974   8.3730147392e+01   3.5735194198e+01    0.1259829   0.09230787 -45.35 0.0002222675    1.579    0.367
        23  -8.9898     20.1967    165.8793   8.5852466230e+01   3.7762261719e+01    0.2438643    0.1861079  49.61 0.0003784607    1.336    0.251
        24  -7.9030     80.3740    165.8256   6.9841951564e+01   3.0547444561e+01    0.3001833    0.2232568 -16.54  0.001419408    1.933    0.483
        25  -8.3939     84.0223    161.9191   6.8198790012e+01   3.0954299349e+01    0.3293162    0.2347026 -32.43 0.0007617795    1.781    0.439
        26  -7.3775     65.2858    162.9005   7.3494348362e+01   3.3442586683e+01    0.1914746    0.1692922 -69.50 0.0004485326    1.086    0.079
        27  -7.5408     86.6521    206.7122   7.4153166061e+01   1.9864080617e+01    0.1835518    0.1247676 -80.01 0.0005287922    1.601    0.375
        28  -7.3808     13.9973    163.4830   8.7196929679e+01   3.8871612518e+01    0.1668362   0.09980357 -23.47 0.0008099308    2.689    0.628
        29  -9.0087    126.3851    159.7874   5.6445795743e+01   2.4083655799e+01    0.3928035     0.279171 -34.86   0.00103599    1.622    0.384
        30  -8.6819    116.0241    201.7692   6.6456832270e+01   1.6275115829e+01    0.2309791     0.208926 -63.34 0.0004920387    1.178    0.151
        31  -8.1955     23.0572    156.2047   8.4102500040e+01   3.9856365187e+01    0.3228433    0.1812008  89.65  0.001194375    1.802    0.445
        32  -7.1352     90.8006    154.1757   6.4948250061e+01   3.1789438618e+01    0.1969529    0.1673318 -39.30  0.000369335    1.278    0.218
        33  -8.0296     95.1868    149.6344   6.2857836034e+01   3.2180447094e+01    0.2097691     0.185015 -74.64 0.0004800144    1.136    0.120
        34  -9.4556     79.8185    148.3582   6.6988029881e+01   3.4974963033e+01    0.3531381     0.255578 -44.65 0.0007942418    1.448    0.310
        35 -10.7724     41.7911    146.3814   7.7659912102e+01   4.0439364530e+01    0.9411549    0.2074187 -55.75  0.003086911    3.538    0.717
        36  -9.5362     47.6891    140.1406   7.4996590257e+01   4.1339210480e+01    0.4318666     0.195219  29.31  0.001796975    2.376    0.579
        37 -10.3554     69.4178    144.5521   6.9319258599e+01   3.7456161295e+01    0.6419986    0.4680596 -72.34  0.002720048    1.370    0.270
        38  -8.9256     65.6504    141.3011   6.9852498700e+01   3.8792609870e+01    0.2683031     0.208014  66.77 0.0006148499    1.419    0.295
        39  -9.5141     62.2207    199.9928   7.9136971660e+01   2.4880655575e+01    0.5206963    0.2184388 -64.24   0.00105296    2.294    0.564
        40  -7.6784    105.8283    142.5987   5.8442213160e+01   3.2035658648e+01    0.2402226    0.1755246 -62.04 0.0004614674    1.410    0.291
        41  -8.7134     12.3632    139.3654   8.5176019434e+01   4.4825482195e+01    0.2213605    0.1891702 -73.22  0.001451125    1.042    0.040
        42  -7.7904    109.8004    137.3937   5.6209310918e+01   3.2560612026e+01    0.2136489    0.1485657  27.26 0.0009421105    1.621    0.383
        43  -8.5202     96.1982    134.8655   5.9552820008e+01   3.5629232549e+01    0.2633628    0.2216197  31.12 0.0004829733    1.242    0.195
        44  -9.0628     45.9249    130.8443   7.4016137786e+01   4.3849567591e+01    0.2442325    0.1908909 -85.33 0.0006509619    1.311    0.237
        45 -10.5106     34.9879    127.8614   7.6917708728e+01   4.5725930776e+01    0.2945158    0.2402492 -43.17 0.0003257946    1.236    0.191
        46  -8.8990     66.0074    194.9852   7.7641177197e+01   2.5542358607e+01    0.2924078    0.2616867 -77.98  0.001093699    1.129    0.114
        47  -8.2767     24.6248    126.9070   7.9977072275e+01   4.6896874040e+01     0.209857     0.186062  41.47 0.0004458772    1.268    0.211
        48  -7.3062     86.8856    121.8113   5.9464686464e+01   4.0377227589e+01    0.1928832    0.1688414  72.29  0.000251628    1.266    0.210
        49  -8.2765    182.8430    107.0707   3.1080032892e+01   2.3648947294e+01    0.2135038    0.2058294 -80.25 0.0004238587    1.015    0.015
        50  -7.4303    195.5270    104.9628   2.8159660936e+01   2.1243166270e+01    0.2092826    0.1385428 -41.51 1.693425e-05    1.461    0.316
        51  -7.3376     67.2363    103.9977   6.1648658494e+01   4.7646841465e+01    0.1883548    0.1140297 -54.41 0.0002672344    1.569    0.363
        52  -7.6961    116.0144    102.9794   4.6095439792e+01   3.9268980724e+01    0.2287811    0.1837734   1.64  0.001081439    1.564    0.361
        53  -8.2623    109.9073     98.9502   4.6781185037e+01   4.1378547589e+01     0.218696    0.2110732   1.33            0    1.049    0.046
        54  -7.7355     56.6802     98.3085   6.3922373946e+01   5.0396931205e+01    0.1361625    0.1080127  71.93 0.0007033482    1.640    0.390
        55  -7.6653     78.7716     94.9436   5.5489112832e+01   4.7940894115e+01    0.1932759    0.1774493 -41.89  0.001084664    1.063    0.059
        56  -7.3665     82.8637     90.8295   5.3015463818e+01   4.8160860999e+01     0.310396    0.1775996  14.38  0.001169349    2.820    0.645
        57  -7.5945    150.8800     83.8952   3.1942954603e+01   3.5401796677e+01    0.1949001    0.1694001 -79.61            0    1.240    0.194
        58  -8.7941     82.6090     83.0394   5.0908166222e+01   4.9852289914e+01    0.2482729    0.2023206  33.94 0.0001756297    1.228    0.185
        59  -7.4356     82.0401     66.7785   4.6175714504e+01   5.3151836093e+01    0.1850095    0.1661807  24.26  0.001072982    1.073    0.068
        60  -8.1193    133.4649     65.6243   3.0860513493e+01   4.2677301270e+01    0.2445375    0.2089251  63.49 0.0002787173    1.154    0.133
        61  -7.8539    174.9707     59.9849   2.0733991818e+01   3.3762417497e+01    0.2366403    0.1623597 -77.60  0.001130669    1.731    0.422
        62  -9.7922    190.7275     47.2505   1.5044071261e+01   3.1922319032e+01     0.406119    0.3006139  29.58  0.002114192    1.981    0.495
        63  -9.0639    196.1301     39.7916   1.2516565161e+01   3.1689489421e+01    0.4335945    0.3133666  -1.13  0.002194756    2.404    0.584
        64  -8.5022    172.0465     48.5422   1.8249873464e+01   3.6160056462e+01    0.2348931    0.1972958 -45.05  0.000352078    1.256    0.204
        65  -6.9772     76.0462     20.9798   3.1847358151e+01   6.1219965799e+01    0.1520471    0.1265985  28.83 0.0003891558    1.018    0.018
        66  -7.7217     79.4800    247.4920   8.0250298112e+01   1.2320209599e+01    0.1913368     0.112659 -87.72 -6.911303e-05    2.046    0.511
        67  -7.0868    111.4921     18.5056   2.1103270505e+01   5.4135017897e+01    0.1313755    0.1116999  48.60 0.0004007787    1.015    0.015
        68  -7.6653     92.7486     16.9563   2.5265680205e+01   5.8346850948e+01    0.1636198    0.1496176  27.62 0.0001908095    1.096    0.087
        69  -8.7095    218.1313     12.8677   4.1495981335e+00   3.0044723716e+01      0.19912    0.1348743 -70.59   0.00123569    1.266    0.210
        70  -8.6778     68.0677    246.1493   8.2461495781e+01   1.4145278566e+01    0.2978535    0.2171284 -66.23 0.0009332217    1.538    0.350
        71  -8.4803     67.2126    239.3535   8.2028615807e+01   1.5619168434e+01    0.3494278    0.1887896  83.62  0.001144383    2.265    0.558
