#   1 NUMBER                 Running object number                                     
#   2 MAG_AUTO               Kron-like elliptical aperture magnitude                    [mag]
#   3 X_IMAGE                Object position along x                                    [pixel]
#   4 Y_IMAGE                Object position along y                                    [pixel]
#   5 X_WORLD                Barycenter position along world x axis                     [deg]
#   6 Y_WORLD                Barycenter position along world y axis                     [deg]
#   7 A_WORLD                Profile RMS along major axis (world units)                 [deg]
#   8 B_WORLD                Profile RMS along minor axis (world units)                 [deg]
#   9 THETA_WORLD            Position angle (CCW/world-x)                               [deg]
#  10 FWHM_WORLD             FWHM assuming a gaussian core                              [deg]
#  11 ELONGATION             A_IMAGE/B_IMAGE                                           
#  12 ELLIPTICITY            1 - B_IMAGE/A_IMAGE                                       
         1  -9.0122     17.3975     18.2488   1.1307495384e+02   6.8567373338e+01    0.3346196    0.1444511  14.11  0.001394334    2.803    0.643
         2  -8.6664     80.4182     12.8404   8.7207688312e+01   6.0785598739e+01    0.2505482    0.1910343 -46.94 0.0008373242    1.860    0.462
         3  -9.9081     50.3729     11.7722   9.6838291918e+01   6.5700347717e+01    0.2536324      0.21603 -32.87  0.001827164    1.562    0.360
         4  -7.5879     15.6287     10.7879   1.1082610526e+02   6.9760469767e+01    0.1301448   0.08397088 -37.93 0.0002736019    1.494    0.331
         5  -8.1797     41.2923      7.7403   9.8567886692e+01   6.7373404680e+01    0.1564809    0.1229718  21.41  0.001145125    1.281    0.220
         6  -8.3335     38.4958      6.5694   9.9162106568e+01   6.7859739235e+01    0.2382652    0.1282784  -6.92 0.0007434604    2.002    0.501
         7  -8.2031     29.0469      8.2089   1.0380613165e+02   6.8773395816e+01    0.1979963     0.129372  28.76  0.001375729    1.598    0.374
         8  -7.9329    110.4083      7.5347   7.7361166334e+01   5.5378843229e+01    0.1271843     0.105052  35.12 8.275797e-05    1.045    0.043
         9  -8.4020     57.5133      6.1632   9.1833400202e+01   6.5266030063e+01    0.2909783    0.2110843  72.11   0.00155763    3.342    0.701
        10  -8.7397     76.6936      4.7522   8.5043747095e+01   6.2232479412e+01    0.2826571    0.2059629 -47.95   0.00171885    2.086    0.521
        11  -9.4834     14.2748      3.5625   1.0830913099e+02   7.0818662625e+01    0.3776122    0.1611982 -27.53  0.002215079    2.009    0.502
        12  -7.6989    250.3108      4.3004   5.7657651164e+01   2.2978380394e+01     0.108921   0.08875873  54.11 0.0002955653    1.604    0.377
        13  -8.3551    105.8693      3.2804   7.6855864162e+01   5.6697819297e+01    0.2277145      0.13692 -40.32  0.001234559    2.094    0.522
        14  -7.3316     34.6722      4.7098   9.9882800102e+01   6.8538198977e+01    0.1138292   0.06747151   2.89 0.0004257303    1.619    0.382
        15 -10.0539     60.0669      2.7695   8.9478408108e+01   6.5203605494e+01    0.2046206    0.1688676  23.67            0    1.178    0.151
        16  -8.4754     39.4660      2.2681   9.6831286853e+01   6.8207434170e+01    0.1835136   0.08400191  36.91 0.0006459148    2.090    0.521
        17  -7.7136    179.4404      5.4558   6.4938764224e+01   3.9457625182e+01    0.1308535    0.1109996  72.66 7.386307e-05    1.035    0.034
        18  -7.5477    116.4813      1.4933   7.3924368103e+01   5.4576050672e+01    0.1273753    0.1044934  42.97 0.0003052969    1.026    0.025
        19  -7.7596     67.5241      1.5593   8.6515527730e+01   6.4102793285e+01    0.1175908   0.09216113  18.92 4.330284e-05    1.006    0.006
        20  -8.0029    146.6532    242.6067   1.2666543278e+02   3.7078456097e+00    0.1783402    0.1430531  18.09 0.0008453748    1.587    0.370
        21  -8.9955    249.0596    250.0232   1.0890492169e+02  -1.4226457830e+01    0.3327618    0.1423306  36.13   0.00174415    2.005    0.501
        22  -9.2947    248.9692    246.4967   1.0833154999e+02  -1.3793463264e+01    0.4589254    0.2193722 -11.03  0.001988946    3.539    0.717
        23  -9.4612    239.1858    249.8239   1.1059763880e+02  -1.2757539898e+01    0.2594908    0.1160428  30.16  0.001152563    2.046    0.511
        24  -9.5795    227.8244    250.4966   1.1272457734e+02  -1.1116949684e+01    0.5482852    0.1170724  41.80  0.001933647    4.086    0.755
        25 -10.4744    217.6940    249.7164   1.1442413506e+02  -9.4276230032e+00    0.5370855    0.2495029  34.45  0.002736141    1.853    0.460
        26  -9.3702    202.2356    249.0155   1.1714113369e+02  -6.8225106081e+00    0.3453211    0.1525146  34.09   0.00128863    2.066    0.516
        27  -9.0675    175.7601    249.9753   1.2220275685e+02  -2.4993041461e+00    0.3388853    0.1584986  48.43  0.001641573    1.922    0.480
        28  -8.2983    188.3072    250.3551   1.1992209947e+02  -4.6851052790e+00     0.180752    0.1081255  30.88 0.0009842257    1.557    0.358
        29  -9.9143    192.7019    248.6108   1.1884365680e+02  -5.1746958599e+00    0.3222446    0.2158734  18.37  0.001144718    1.684    0.406
        30 -10.0039    186.8262    245.1327   1.1941293092e+02  -3.6694847843e+00    0.2845044    0.1809665 -32.29  0.001401507    1.941    0.485
        31  -8.7693    184.2066    249.4012   1.2054318638e+02  -3.8529047593e+00    0.2831357     0.189356  50.10 0.0005267159    1.417    0.294
        32  -8.3556    180.5236    249.5022   1.2124491242e+02  -3.2413784117e+00    0.2033082    0.1755825  16.21  0.000733583    1.216    0.178
        33  -8.5473    169.1809    250.6040   1.2352051851e+02  -1.4694603903e+00    0.1833542    0.1004806  35.19 0.0009456353    1.674    0.403
        34  -8.8344    153.0238    250.5155   1.2652482228e+02   1.3114496955e+00     0.195165    0.1038256  42.14 0.0006417346    1.555    0.357
        35  -8.8778    237.7651    242.3807   1.0960990449e+02  -1.1615053141e+01    0.1874532    0.1020253  36.44  0.001042174    1.595    0.373
        36  -9.6777    240.5877    239.2312   1.0857306847e+02  -1.1643075462e+01    0.2111648    0.1421403 -16.03  0.001291967    1.516    0.340
        37  -7.6129    114.4172    242.5112   1.3274371301e+02   9.1964630464e+00    0.1257659    0.1021698  62.31  0.000804657    1.014    0.014
        38  -8.7502    153.9840    240.4999   1.2497460887e+02   2.7824800041e+00    0.1808369    0.1694027  61.98 0.0005611335    1.135    0.119
        39  -8.4710    201.1975    240.1001   1.1592682568e+02  -5.3817148844e+00    0.1980393    0.1498463  16.97  0.001200324    1.320    0.243
        40  -7.6236    122.3268    240.6962   1.3103887897e+02   8.2069701324e+00    0.1321538   0.08417062  67.74 0.0005762181    1.646    0.392
        41  -9.4464     22.2660    239.0484   1.4859823202e+02   2.2733846729e+01    0.2256007    0.1075823  70.72  0.001353911    1.756    0.430
        42  -9.0331    248.8908    237.7416   1.0685189720e+02  -1.2704047787e+01    0.3048755    0.1686985  -3.23  0.001521005    2.438    0.590
        43  -7.9854    234.4908    239.4750   1.0970341435e+02  -1.0734488220e+01    0.1229715   0.09926651  16.44 0.0008100867    1.004    0.003
        44  -7.7479    214.5031    239.4737   1.1334657747e+02  -7.5227799458e+00    0.1276668    0.1026275  20.56 -3.792412e-06    1.075    0.070
        45  -7.6448     71.7231    242.6485   1.4052800383e+02   1.5756089052e+01    0.1000604   0.09173577 -55.01 0.0007007458    1.643    0.391
        46 -10.7303    189.2107    232.4875   1.1697398391e+02  -2.1501189630e+00    0.4796927    0.4145022 -41.80  0.002558868    1.353    0.261
        47  -8.3892    194.8437    236.8456   1.1660181693e+02  -3.8084344107e+00    0.1958896    0.1550807  16.56 0.0006312331    1.274    0.215
        48  -8.2933    171.6462    237.7238   1.2117591248e+02   1.2470868592e-01    0.1292181   0.09321412  19.25 0.0007006799    1.646    0.393
        49  -7.8724    167.2482    236.9930   1.2191353877e+02   1.0228563047e+00    0.1467675    0.1132209 -48.43 0.0004648584    1.533    0.348
        50  -8.7433      9.9796    237.4698   1.5045158841e+02   2.4355162185e+01    0.1572004   0.05092384  58.38 0.0008095161    2.528    0.604
        51  -9.1485      3.5948    237.1978   1.5142746741e+02   2.5056976093e+01    0.1428757   0.07449876 -73.55 0.0009570987    1.716    0.417
        52  -9.1615    159.8972    235.5898   1.2312791410e+02   2.5629360585e+00     0.360574    0.1998524  31.13  0.001385957    2.008    0.502
        53  -7.4410    135.5000    236.4888   1.2798101655e+02   6.7069400857e+00    0.1294153    0.1102608  50.40 -7.351572e-05    1.075    0.070
        54  -7.9154    244.1273    234.8746   1.0719311692e+02  -1.1620362138e+01    0.1659279    0.1191878  10.21 0.0003640084    1.263    0.208
        55  -7.8017    227.3866    235.2830   1.1027439962e+02  -9.0471089457e+00    0.1319035   0.08308244  14.11 0.0007006351    1.740    0.425
        56  -8.3495    178.5922    235.2437   1.1945748895e+02  -7.0647723557e-01    0.2274429    0.1447747  25.25 0.0006797429    1.763    0.433
        57  -7.6548    204.5559    234.4902   1.1437907440e+02  -5.1303205658e+00    0.1293882    0.1074037  22.70 2.965664e-05    1.065    0.061
        58  -7.7272    130.6925    234.6612   1.2866752518e+02   7.8686534179e+00    0.1197455    0.1018924   7.56 0.0007042607    1.682    0.405
        59  -8.3667    248.8582    233.1286   1.0605303433e+02  -1.2110909395e+01    0.1690078    0.1192324   9.47 0.0003853592    1.294    0.227
        60  -8.7099    171.1810    232.8298   1.2051826485e+02   1.0085852432e+00    0.1736824    0.1452382  17.35 0.0003593083    1.313    0.238
        61  -8.0129     91.0286    233.4761   1.3610266937e+02   1.4629403090e+01    0.1832237    0.1062598  46.27 0.0005160904    1.523    0.344
        62  -7.8703    153.7611    232.4551   1.2386345234e+02   4.1950737720e+00    0.1775631    0.1130078  34.84  0.000329707    1.544    0.352
        63  -7.1795    213.3692    231.2905   1.1218394592e+02  -6.1620365561e+00    0.1339887   0.08838068  14.18 0.0007024538    1.715    0.417
        64  -7.9808    115.6439    231.2724   1.3114656398e+02   1.1066069556e+01    0.1360611   0.08456945  65.99 0.0007000564    1.644    0.392
        65  -7.9428    246.1763    230.1543   1.0600106224e+02  -1.1315219138e+01    0.1483393    0.1377662   1.48 0.0004771141    1.295    0.228
        66  -8.4733    241.5087    229.9837   1.0680090704e+02  -1.0570537552e+01    0.1736929    0.1128817 -27.16 0.0007242308    1.560    0.359
        67  -7.7292    208.4762    229.4591   1.1279258371e+02  -5.0538898719e+00    0.1309219    0.1089999  21.61 0.0001058822    1.059    0.056
        68  -7.6552     37.0181    229.5013   1.4548461682e+02   2.2864586919e+01    0.1246931    0.1042375   2.20 0.0008093789    2.466    0.594
        69  -7.8921     78.4781    238.4233   1.3892418168e+02   1.5576974515e+01    0.1226383   0.09442448  68.72 7.338516e-05    1.011    0.011
        70  -7.9567    152.0453    227.7826   1.2351046507e+02   5.3271510401e+00    0.2095912    0.1442984  21.59 0.0009631679    1.926    0.481
        71  -7.6457    138.6451    227.7477   1.2616143630e+02   7.7372670943e+00    0.1645901    0.1229985 -71.18 0.0007796163    1.543    0.352
        72  -7.9983    102.3055    228.3255   1.3336787715e+02   1.3837531179e+01    0.1122714    0.1035576  -6.43 0.0003195311    1.646    0.393
        73  -7.7496      4.3601    228.7027   1.5084487014e+02   2.6587901652e+01    0.1158037   0.05442645  67.95 0.0007033804    1.709    0.415
        74  -7.5032    221.3229    237.3044   1.1172772042e+02  -8.3412898289e+00    0.1281133   0.08514637  11.70 0.0003252455    1.638    0.390
        75  -7.6248    177.6276    227.7021   1.1844936093e+02   6.9938587664e-01    0.1360704   0.09731032  15.39 0.0007028506    1.741    0.426
        76  -8.0705    109.1094    227.2006   1.3190822780e+02   1.2938495230e+01    0.1844526    0.1707604  41.72 0.0008889803    1.318    0.241
        77 -10.1085    247.1973    224.3621   1.0478400559e+02  -1.0697504806e+01    0.4955298    0.2135226  30.94  0.002296754    2.334    0.572
        78  -8.2171    127.2749    224.8096   1.2800899224e+02   1.0295636621e+01    0.2270354    0.1667915  20.65 0.0009878252    1.945    0.486
        79  -7.8400    218.8341    224.0396   1.0990052310e+02  -6.0213846079e+00    0.2141324    0.1377297  -3.40   0.00107604    2.043    0.511
        80  -7.6641    212.3360    224.3226   1.1117444385e+02  -4.9458209830e+00    0.1356682   0.09255283  10.05 0.0005563624    1.711    0.416
        81  -9.3126      8.6150    221.6915   1.4974344323e+02   2.7525826787e+01    0.2662543    0.1046185 -86.57  0.001430689    2.198    0.545
        82  -7.8026    206.8617    222.1566   1.1183740612e+02  -3.6538567775e+00    0.1777684     0.140475  10.52 0.0004810849    1.291    0.225
        83  -7.2545    200.6789    222.6377   1.1311020376e+02  -2.6312119440e+00    0.1378698   0.09649253   7.15 8.667703e-05    1.777    0.437
        84  -7.3413    229.6973    221.6092   1.0744812105e+02  -7.4955848861e+00    0.1359541   0.08914698   3.35 0.0007012014    1.805    0.446
        85  -7.9233    174.9713    221.5087   1.1796377090e+02   2.2362919344e+00    0.1824298    0.1093974  22.27 0.0005920941    2.278    0.561
        86  -8.0746    147.7386    221.4120   1.2341129594e+02   7.2691341812e+00     0.188886    0.1181241  36.66 0.0006221861    1.566    0.361
        87  -7.9923    116.4969    220.9614   1.2963901513e+02   1.2910680668e+01    0.1831896    0.1276917 -60.98  0.001016285    1.554    0.356
        88  -8.2897    242.4894    220.0452   1.0483878931e+02  -9.3602300410e+00    0.1769268    0.1143429 -26.15 0.0006166372    1.540    0.350
        89  -7.6005    237.5131    220.5437   1.0582707220e+02  -8.6282771056e+00     0.127756     0.106367  11.07 7.095764e-05    1.016    0.016
        90  -7.9669    167.9157    224.9088   1.1991745304e+02   2.9440260049e+00    0.1970932    0.1677569  24.22  0.000463354    1.225    0.184
        91  -8.2252    225.6901    218.7314   1.0766895563e+02  -6.3977768655e+00    0.2654274    0.1407079  -7.83 0.0009673674    3.978    0.749
        92  -7.9786    194.2299    219.1818   1.1376440946e+02  -9.0779690283e-01     0.223053    0.1380875   6.40 0.0009447237    2.763    0.638
        93  -7.7139    140.8105    219.1551   1.2447168605e+02   8.9557145136e+00    0.1740149    0.1561223  20.30 0.0005599135    1.332    0.249
        94  -7.9082    171.1515    217.2218   1.1801714050e+02   3.6972456954e+00    0.1800158     0.152919  66.80 0.0004854197    1.285    0.222
        95  -8.1847    204.7961    215.8057   1.1110924436e+02  -2.2747150944e+00    0.2062726    0.1640006  11.62 0.0006882139    1.293    0.227
        96  -9.1496    248.9191    215.0275   1.0276763790e+02  -9.6773945553e+00     0.198743    0.1312711   5.14 0.0004912272    1.628    0.386
        97  -7.8836    151.0217    216.3008   1.2195227540e+02   7.6198085115e+00    0.1914132    0.1585948  48.02 0.0003594656    1.069    0.065
        98  -7.6424    144.3598    215.2601   1.2315225757e+02   9.0496420287e+00    0.1323587    0.1045041  18.47  0.000697617    1.627    0.385
        99  -7.7915     92.5445    221.4300   1.3444817482e+02   1.6767466753e+01     0.129953    0.1053999  70.09  0.000124923    1.013    0.012
       100  -7.3500    112.4293    212.5309   1.2931541208e+02   1.5301141430e+01     0.133159    0.1174964  68.04 0.0001298896    1.052    0.049
       101  -8.4205    247.4927    210.9619   1.0225978393e+02  -8.8706685189e+00    0.1881972    0.1155313 -29.62  0.001028248    1.587    0.370
       102  -8.1774    187.1625    210.6423   1.1366127799e+02   1.8524287980e+00    0.2596967    0.1775174  -8.63  0.001224051    2.158    0.537
       103  -7.5392    180.4964    211.4916   1.1515208009e+02   2.9605092310e+00    0.1382809    0.1241452  36.31 7.092505e-05    1.007    0.007
       104  -8.1907    170.6358    210.4297   1.1697021842e+02   5.0219410259e+00    0.2063074     0.164117 -15.83 0.0005740059    1.594    0.373
       105  -7.6077    155.6535    211.7030   1.2026073172e+02   7.6224338762e+00    0.1366777    0.1073785  12.11 0.0007034251    1.675    0.403
       106  -7.7294     99.9875    210.5423   1.3159928706e+02   1.7803108642e+01    0.1704834    0.1195644  16.82 0.0008080475    2.522    0.604
       107  -7.7898    243.6667    209.6783   1.0270103895e+02  -8.0624509025e+00    0.1351166   0.08922803   5.51 0.0007049949    1.703    0.413
       108  -7.9168    107.8455    209.1993   1.2979984573e+02   1.6770595153e+01    0.1714909    0.1566743  32.72  0.000440866    1.354    0.261
       109  -7.6852     77.8211    209.3383   1.3594669966e+02   2.1529551199e+01    0.1630338    0.1144133  38.15 0.0003856304    1.609    0.378
       110  -7.9236    147.2483    208.3322   1.2145175299e+02   9.8544972839e+00    0.1279066    0.1094422  -7.33 0.0002097755    1.552    0.355
       111  -8.4450    248.0197    205.9835   1.0122210069e+02  -8.2316428191e+00    0.2109175    0.1386388   5.67 0.0008164484    1.714    0.417
       112  -8.7195    173.5866    204.7103   1.1536233953e+02   5.5136222302e+00    0.4151336    0.2757262  -7.42  0.001656108    2.674    0.626
       113  -8.2757     11.5311    205.4110   1.4817358110e+02   3.0511793093e+01    0.2498754     0.108949  74.48  0.001311027    2.232    0.552
       114  -7.4110    140.1871    204.6307   1.2233145201e+02   1.1915405944e+01    0.1943354    0.1244683  36.01 0.0004914157    1.614    0.380
       115  -7.6673     97.4952    202.4500   1.3103117224e+02   1.9925070547e+01    0.1359712    0.1159645  74.18 0.0001678313    1.005    0.005
       116  -9.0503    250.3115    198.4091   9.9354654566e+01  -7.4810385427e+00    0.3795117    0.1580032 -28.76   0.00158879    2.625    0.619
       117  -8.8295    243.8053    197.9521   1.0042256670e+02  -6.3232627784e+00    0.3916399    0.1725204 -31.22  0.001710993    2.338    0.572
       118  -7.6528    134.5818    200.4742   1.2284613419e+02   1.3811510292e+01     0.139289    0.1278446  63.44 0.0001539023    1.034    0.033
       119  -8.1685    150.8924    198.6262   1.1904978172e+02   1.1087316755e+01    0.2199889    0.1685724  30.51 0.0005771194    1.417    0.294
       120  -7.7129    238.4564    198.5362   1.0150390541e+02  -5.4986765066e+00    0.1333496    0.1148135   3.30 0.0003475254    1.032    0.031
       121  -8.6139    230.3620    198.0520   1.0289997639e+02  -4.0037548803e+00     0.300004    0.1706111  25.98 0.0009591194    1.976    0.494
       122  -7.8263    162.3865    197.7473   1.1645328149e+02   9.0249525693e+00    0.1913232    0.1352569 -35.93 0.0006654038    1.655    0.396
       123  -7.8085    224.8654    195.8005   1.0348962006e+02  -2.6487667843e+00     0.209738    0.1677053   3.76  0.000700244    1.270    0.212
       124  -8.1713    203.0354    194.9411   1.0755603492e+02   1.5924712230e+00    0.2322729    0.1652466   8.38  0.001067626    1.779    0.438
       125  -9.0961    124.0192    206.0254   1.2596134975e+02   1.4601169637e+01    0.1966627    0.1731375  65.11            0    1.008    0.008
       126  -8.3859    237.5092    192.0727   1.0040311944e+02  -4.3101009255e+00    0.1971532    0.1244454 -31.55 0.0005446922    1.547    0.353
       127  -8.0015    232.5257    189.9865   1.0090316910e+02  -3.0815258070e+00    0.1988389    0.1271451 -32.67   0.00100967    1.539    0.350
       128  -8.0396    224.3481    189.5770   1.0235276781e+02  -1.5156308611e+00     0.235635    0.1627995 -10.29  0.001111614    1.724    0.420
       129  -7.7267    214.6853    190.6402   1.0441868244e+02   1.1751058544e-01    0.1469536    0.1045047   2.59 0.0007042984    1.753    0.429
       130  -8.4949    243.2372    187.9529   9.8542740308e+01  -4.6565207986e+00    0.3339793    0.1911916 -21.26  0.001289533    1.984    0.496
       131  -7.4027    191.5020    189.4422   1.0880894373e+02   4.8500706808e+00    0.1438956    0.1325359  23.49 0.0003618198    1.042    0.041
       132  -7.9462    173.0734    187.9427   1.1236115251e+02   8.8332894071e+00    0.2206493    0.1751875   4.18 0.0005703627    1.612    0.380
       133  -8.6095    237.9679    185.2857   9.8956620936e+01  -3.2905129520e+00    0.3308065    0.1774569 -18.66  0.001369667    2.572    0.611
       134  -7.7951    215.3376    185.8482   1.0332994281e+02   8.2943911523e-01     0.192811     0.125367 -28.13 0.0004377864    1.643    0.391
       135  -9.0207    230.3533    184.7301   1.0024603311e+02  -1.8106880267e+00    0.2712681    0.2072921  21.03 0.0002407971    1.327    0.247
       136  -8.9426    249.7692    182.6950   9.6323076815e+01  -4.9532557193e+00    0.3129127     0.201142  -7.41 0.0008606098    1.914    0.477
       137  -7.9486    211.5388    181.9597   1.0327992447e+02   2.2588960494e+00    0.2002777    0.1210399 -15.29 0.0008085244    2.470    0.595
       138  -7.4019    177.6699    182.7039   1.1036074929e+02   8.9370442734e+00    0.1478851     0.115082   8.35 0.0007026465    1.636    0.389
       139  -7.6582    224.4661    181.5167   1.0069497214e+02  -1.5939575368e-01    0.1392108    0.1281809   1.19  0.000125001    1.003    0.003
       140  -7.8214    183.1328    179.8545   1.0863453099e+02   8.3807686327e+00    0.1971218    0.1709657   8.05 0.0003888467    1.280    0.218
       141  -7.9239    235.5432    178.9449   9.8102501700e+01  -1.7943688200e+00    0.2015134    0.1134442 -15.39 0.0008089755    2.609    0.617
       142  -8.9892    242.7018    176.1719   9.6235693647e+01  -2.6394989426e+00    0.3901609      0.20103 -25.10  0.001672203    2.246    0.555
       143  -7.9140    189.8587    176.1270   1.0646313274e+02   7.7259338005e+00    0.2067585    0.1706034  17.40 0.0006417223    1.333    0.250
       144  -7.8014    177.0029    176.5116   1.0925650979e+02   1.0312128131e+01    0.2116183     0.127511  22.65 0.0005900128    2.473    0.596
       145  -7.5859    163.7899    176.0224   1.1202310864e+02   1.3150660072e+01    0.1916491    0.1210714 -48.12  0.000409813    1.650    0.394
       146  -7.7929    183.1899    174.3752   1.0750017980e+02   9.4542295338e+00    0.2106389    0.1360433  53.56 0.0004869522    1.625    0.385
       147  -8.0818    231.3771    171.7702   9.7372682880e+01   2.1766870207e-01    0.1998588    0.1254126 -27.25 0.0009427457    1.652    0.395
       148  -9.5663    246.4734    167.0965   9.3674675069e+01  -1.8084973445e+00    0.2991281    0.2291221  11.14 0.0003227641    1.438    0.304
       149  -8.0726    237.4559    167.2685   9.5311066140e+01  -1.5747650940e-01    0.2792097    0.1554061  32.18 0.0008801144    2.061    0.515
       150  -7.4637    246.2886    157.3022   9.1624255553e+01  -1.0762127686e-01    0.1378272    0.1032111  -1.30 0.0002819912    1.563    0.360
       151  -7.8340    119.1211    150.1381   1.1714019780e+02   2.7941642492e+01    0.2147816    0.2029011  -8.71 0.0004303741    1.250    0.200
       152  -7.7477    249.5009    149.5040   8.9396009945e+01   6.2800402402e-01    0.1395927    0.1251184 -21.30 0.0005695428    1.029    0.029
       153  -7.4015     85.5640    147.4772   1.2502786009e+02   3.4439167520e+01    0.1416756     0.128248 -61.89 0.0001054327    1.098    0.090
       154  -8.1881    234.3630    145.4517   9.1119399536e+01   4.3178546478e+00    0.2907064    0.1255402 -26.90 0.0009045511    3.385    0.705
       155  -8.7701    248.4444    141.6708   8.7865343179e+01   2.1906115331e+00    0.4515801    0.2629348  -4.53  0.001567213    3.864    0.741
       156  -7.8281    230.4754    141.0320   9.0821567579e+01   5.9215513454e+00    0.1945621     0.125021 -13.03 0.0004261478    2.242    0.554
       157  -7.7100     65.2649    141.6286   1.2915644734e+02   3.8778051824e+01     0.140416   0.09670794  86.29  0.000698725    1.662    0.398
       158  -8.6914    230.3589    135.3971   8.9564617727e+01   6.9818841355e+00    0.2612723    0.2266911   4.52 0.0005063265    1.293    0.227
       159  -8.1575    248.3781    134.3157   8.6255607746e+01   3.4912802414e+00    0.2751477    0.1259556 -34.47  0.001026224    2.098    0.523
       160  -7.8509    241.6248    132.2228   8.6905219515e+01   5.2203759506e+00    0.2143572     0.127664 -28.75 0.0009538099    1.766    0.434
       161  -8.3415    232.0239    128.9165   8.7790637346e+01   7.8203100275e+00    0.2323768    0.1780933   3.96 0.0008312314    1.725    0.420
       162  -8.4109    240.1763    123.2805   8.5124074701e+01   7.1217728770e+00       0.2832    0.1906928 -15.72  0.001281251    1.963    0.490
       163  -7.4362    249.2800    122.3486   8.3448823273e+01   5.4105127553e+00    0.1400156    0.1081526  -5.51 0.0007011784    1.643    0.391
       164  -8.5609    248.1872    116.4125   8.2289008932e+01   6.6742126224e+00    0.2928393     0.216281  -9.98   0.00144762    1.778    0.438
       165  -8.2488    219.3184    113.6600   8.6441085573e+01   1.3444036407e+01    0.3083664    0.1718682  33.78  0.001175009    2.558    0.609
       166  -7.8663    210.0358    110.4865   8.7348293513e+01   1.6177023646e+01    0.2165178    0.1268637  31.18 0.0008097592    2.525    0.604
       167  -9.5780      5.0546    106.5073   1.3956795916e+02   5.2629427320e+01    0.1766139    0.1240934 -66.37 0.0004464991    1.078    0.073
       168  -8.2320    241.7480    106.0076   8.0922929420e+01   9.8583028994e+00    0.2269091    0.1648585  -7.85 0.0007303948    1.971    0.493
       169  -8.8332     11.4937    105.0209   1.3754944878e+02   5.2543422542e+01    0.1886701   0.09295122 -66.83 0.0007073581    1.586    0.370
       170  -7.5566    204.3082    104.3529   8.6890344254e+01   1.8684181351e+01    0.1551737    0.1229756   7.69 0.0007043191    1.718    0.418
       171  -7.4860    247.3000    102.2954   7.9235956221e+01   9.3176316241e+00    0.1333641     0.111209   4.41 0.0003923342    1.572    0.364
       172  -7.5538    228.6754    102.6946   8.2228715458e+01   1.3330702139e+01    0.1439901    0.1169625  11.56 0.0007033879    1.644    0.392
       173  -7.5873    248.7017     96.3229   7.7680514656e+01   1.0043540712e+01    0.1458354     0.100042 -65.48 0.0006011531    1.625    0.385
       174 -10.8088      6.1121     93.9891   1.3731848811e+02   5.5266893336e+01    0.3539991     0.322747 -53.48   0.00212285    1.199    0.166
       175  -7.4406    242.3537     91.3084   7.7455455225e+01   1.2272301276e+01    0.1387644    0.1125425  15.26 0.0007043099    1.720    0.419
       176  -7.9974     22.8570     91.5279   1.3180551782e+02   5.4658756480e+01    0.1440114    0.1201857  13.83 0.0004507565    1.470    0.320
       177  -7.7980    177.6691     90.6860   8.8562485175e+01   2.7719714082e+01     0.157693    0.1235984  17.22 0.0007045027    1.678    0.404
       178  -9.5955      2.9578     80.9960   1.3601503512e+02   5.8174093377e+01    0.2004136    0.1507746 -53.77 0.0005837615    1.030    0.029
       179  -9.1571      3.1941     76.4894   1.3509291844e+02   5.9086735898e+01     0.295826   0.08154504 -43.13  0.001305663    3.016    0.668
       180  -8.2605    184.1455     77.8700   8.3817244810e+01   2.8447377871e+01    0.2340437    0.2021897 -77.91 0.0006246219    1.206    0.171
       181  -7.3692     36.2952     67.6833   1.2182139635e+02   5.8432489325e+01    0.1097903   0.09381561 -85.27 0.0002526889    1.605    0.377
       182  -8.3521     24.9879     61.4666   1.2415311540e+02   6.0631899683e+01    0.1469402    0.1121923  12.16 0.0003776722    1.488    0.328
       183  -7.8081    242.4230     60.5490   7.0425599550e+01   1.7252076774e+01    0.1365633    0.1202225 -67.21 3.840038e-05    1.028    0.027
       184  -9.4061      1.5252     58.8938   1.3197004108e+02   6.2662755856e+01    0.3170233    0.1271163 -69.81  0.001464695    3.078    0.675
       185  -7.6703     66.5040     58.4151   1.0857630610e+02   5.6592687468e+01    0.1295031    0.1114653 -15.33 6.060531e-05    1.021    0.021
       186  -9.4172     33.1236     57.5444   1.2010319401e+02   6.0668712453e+01    0.2130683    0.1580389 -37.78 0.0002880654    1.083    0.076
       187  -7.8267      9.3364     57.3199   1.2876393657e+02   6.2528059731e+01    0.1219202   0.06247904 -34.90 0.0007049687    1.706    0.414
       188  -8.5988     94.9595     52.5760   9.7525465070e+01   5.2906647245e+01    0.2270681    0.1787394 -46.29 0.0005294951    1.437    0.304
       189  -8.2032     44.2523     51.9691   1.1431803207e+02   6.0549028443e+01    0.1714259    0.1316838 -29.46 0.0003895338    1.073    0.068
       190  -8.4539     95.4900     45.4931   9.4927957465e+01   5.3903433612e+01    0.2394541    0.2128593  12.50 0.0008090745    1.021    0.020
       191  -8.8853      2.7609     44.7302   1.2798105237e+02   6.5237363091e+01    0.2862061   0.07981652 -42.05  0.001376787    2.562    0.610
       192  -7.4307     54.3246     44.2912   1.0806272171e+02   6.0645595589e+01    0.1264482   0.08352359  -8.88 0.0003265195    1.614    0.380
       193  -7.3619    116.2500     43.7080   8.8573085463e+01   4.9985332442e+01    0.1247637    0.1078338 -67.41 0.0001949496    1.481    0.325
       194  -8.5629      9.7340     42.9802   1.2474380515e+02   6.5138652681e+01    0.1464175   0.07545069 -49.95 0.0005191605    1.519    0.342
       195  -8.7090     21.1435     40.1262   1.1932422971e+02   6.4811169308e+01    0.1823378    0.1371447 -40.89 0.0003851074    1.187    0.157
       196  -7.6989     77.2586     40.0716   9.8645508580e+01   5.7926329397e+01     0.155047    0.1019785 -28.21 0.0003297848    1.445    0.308
       197  -9.2385     51.9817     38.4644   1.0683562417e+02   6.1872636492e+01    0.2099087    0.1488275 -28.85  0.001220122    1.225    0.183
       198  -7.2821     41.6759     39.6955   1.1114289857e+02   6.2911239893e+01    0.1237606   0.07726964 -14.27 0.0002871021    1.641    0.391
       199  -7.9626     73.2192     36.6531   9.8717096124e+01   5.9079726121e+01    0.2302724   0.09439308 -38.02  0.001026631    2.400    0.583
       200  -9.3068    138.4655     35.9154   8.0765041306e+01   4.6042316500e+01    0.2476723    0.2025848  54.84 0.0003209372    1.131    0.116
       201  -7.5066     92.2430     36.6871   9.2756352471e+01   5.5770899498e+01    0.1160829    0.1018532 -55.18 0.0001915038    1.508    0.337
       202  -9.1313     14.9008     34.1948   1.1991650361e+02   6.6289831693e+01    0.2128101    0.1615657  28.05 0.0009351801    1.687    0.407
       203  -7.3599    124.5731     34.5141   8.3427553017e+01   4.9398652097e+01    0.1362179    0.1233963  32.46 9.898975e-05    1.015    0.015
       204  -8.1424     95.0235     33.6289   9.0834514544e+01   5.5655181668e+01     0.180085    0.1442708  30.02 0.0003746951    1.135    0.119
       205  -8.2144      5.9807     34.0020   1.2355430085e+02   6.6924938171e+01    0.1327868   0.09485961 -35.30 0.0003791183    1.027    0.027
       206  -9.3610      9.1490     32.2213   1.2166120412e+02   6.7020217052e+01    0.2783006    0.1353664 -53.71 0.0008756419    1.963    0.490
       207  -9.1740     21.6236     31.5594   1.1623606664e+02   6.6185210089e+01    0.2455683    0.1545945 -57.23  0.001174737    2.139    0.533
       208  -8.7295      5.8270     27.9034   1.2164430344e+02   6.7943176731e+01    0.2010964     0.111684 -19.42  0.001305177    1.678    0.404
       209  -7.9800      9.8220     27.1956   1.1968564797e+02   6.7791668358e+01    0.1777499    0.1021401 -14.01 0.0002457343    1.694    0.410
       210  -8.1282    172.7435     24.9763   7.1181655805e+01   3.9048393063e+01    0.2449588    0.1261825 -75.46 0.0003132882    3.495    0.714
       211  -8.8487     91.6114     25.0839   8.8662028235e+01   5.7370157958e+01    0.2257035    0.1595842  35.77 0.0003348928    1.270    0.213
       212  -8.0042     81.7234     25.3044   9.1692534487e+01   5.9153192181e+01    0.1088114    0.1001186 -57.62 0.0002281586    1.546    0.353
       213  -7.8076    156.0209     24.4611   7.3802974586e+01   4.3215005895e+01    0.2157824    0.1206793  60.47 0.0009133182    1.575    0.365
       214  -8.5389      3.3352     23.7162   1.2130550663e+02   6.8769532841e+01    0.2186048    0.1282176  37.45  0.001403391    2.637    0.621
       215  -7.4977    137.3989     21.8296   7.6476266801e+01   4.7949526828e+01    0.1625469    0.1267094   2.12 0.0002348438    1.483    0.326
       216  -8.6734     84.7766     21.4342   8.9276209736e+01   5.9064414534e+01    0.2007794    0.1837236 -37.17 0.0005921957    1.393    0.282
       217  -8.1125     19.3376     20.8668   1.1325201206e+02   6.8019733687e+01    0.1560616   0.09726821 -20.62 0.0003645671    1.316    0.240
       218  -8.7617    207.9321    249.4918   1.1616832068e+02  -7.8235447067e+00    0.1903116    0.1012879  37.83 0.0008302288    1.558    0.358
       219  -7.7127    233.3615     19.2887   6.2247669497e+01   2.5022654991e+01    0.1240903   0.09279689  47.85 0.0007024992    1.692    0.409
       220  -7.8517    161.3882     18.8132   7.1233606708e+01   4.2525965946e+01    0.1661104    0.1309872  -1.52  0.000550117    1.577    0.366
       221  -7.4139    151.7571     17.9778   7.2603159763e+01   4.4949418676e+01    0.1505756    0.1161199 -23.37 0.0003144767    1.478    0.324
       222  -8.5773     74.8988     16.4760   9.0359163755e+01   6.1365432322e+01    0.2008376    0.1918058 -49.40 0.0008924531    1.510    0.338
       223  -7.7265     27.7179     17.6961   1.0840156231e+02   6.7682006428e+01    0.1129395   0.06747428 -12.55            0    1.555    0.357
       224  -8.4206    146.1337     14.1752   7.2428786545e+01   4.6679338106e+01    0.1971571     0.156027  44.71 0.0003316829    1.182    0.154
       225  -9.2820    144.2883    248.3692   1.2787538602e+02   3.1539139912e+00    0.3063321     0.222772   1.93  0.001619303    2.487    0.598
       226  -9.8068    164.6128    246.5166   1.2380158535e+02  -4.8966380827e-02     0.374789    0.2437993  17.89  0.001726641    2.207    0.547
       227  -7.9276    151.0635     12.7109   7.1134507972e+01   4.5645983514e+01    0.1856885     0.151544  59.84  0.000358964    1.062    0.058
       228  -7.8216     28.2216     13.0304   1.0624480053e+02   6.8253993001e+01    0.1374824   0.07390226 -32.16 0.0003971909    1.588    0.370
       229  -9.3538    168.5393    241.8930   1.2239128517e+02   1.5067859411e-03    0.2408056    0.2055885  16.15 0.0008998773    1.305    0.234
       230  -7.5719    250.2701     10.6722   5.8930899311e+01   2.2253542942e+01    0.1296782   0.07362795 -64.63 0.0002829528    1.580    0.367
       231 -10.1794    157.0846    245.6501   1.2510240401e+02   1.3940893741e+00    0.3637286    0.2895581   2.89  0.001206467    1.749    0.428
       232  -9.4811      3.9815    248.0235   1.5192354964e+02   2.3030311264e+01    0.2072015    0.1470191  28.22  0.001497767    2.459    0.593
       233  -7.5701     63.3126    247.3192   1.4239318297e+02   1.6063001185e+01   0.09514888   0.09141425 -65.00 0.0002323563    1.648    0.393
       234  -9.1585     14.2380    247.3999   1.5034711161e+02   2.2066075281e+01    0.1430883   0.06972896  56.01 0.0005366068    1.590    0.371
       235  -9.4587    212.0064    246.0850   1.1488182075e+02  -8.0254132772e+00    0.1937956    0.1539003  28.12 0.0005553597    1.032    0.031
       236  -9.6645    150.2704    245.0789   1.2631329179e+02   2.6680822292e+00    0.2696924    0.1844575  20.10  0.001435459    2.038    0.509
       237  -7.8388    136.3896    245.8856   1.2903723752e+02   4.9182355927e+00    0.1503751    0.1188055 -40.55 0.0005498042    1.677    0.404
       238  -7.9924    104.5009    245.9867   1.3496921884e+02   1.0177122273e+01    0.1496894    0.1033291 -36.97 0.0008101712    2.520    0.603
       239  -7.4621     86.6800    246.6533   1.3825531569e+02   1.2819672860e+01    0.1023175   0.09703089  -8.45 0.0007049202    1.732    0.423
       240  -8.5956    171.5172    245.5167   1.2235480415e+02  -1.0883134003e+00    0.2242545    0.1040829  34.14 0.0007792789    2.161    0.537
       241  -9.4312    176.9104    243.6796   1.2106448852e+02  -1.7389549024e+00    0.3048175    0.2018161  18.04  0.001469617    1.938    0.484
       242  -7.7328     43.4925    244.4919   1.4550550425e+02   1.9193638514e+01    0.1150166   0.08212006  73.48 -4.290949e-05    1.010    0.010
       243  -9.6684    244.7947    242.7923   1.0843608897e+02  -1.2727168340e+01    0.3322959    0.1148779  39.28   0.00151024    2.560    0.609
       244  -8.7611    206.3250    245.1609   1.1578108468e+02  -6.9636126737e+00    0.1974086    0.1499909 -23.80  0.001180567    1.484    0.326
